Criado como novo conjunto de dados;"2706_e01_daniel.spp","17822.6 Secs"
cm-1;Abs
10000.000000;0.724344
9999.000000;0.723845
9998.000000;0.723047
9997.000000;0.722275
9996.000000;0.721857
9995.000000;0.721723
9994.000000;0.721732
9993.000000;0.721836
9992.000000;0.722089
9991.000000;0.722384
9990.000000;0.722482
9989.000000;0.722186
9988.000000;0.721527
9987.000000;0.720782
9986.000000;0.720357
9985.000000;0.720493
9984.000000;0.721021
9983.000000;0.721483
9982.000000;0.721557
9981.000000;0.721347
9980.000000;0.721218
9979.000000;0.721394
9978.000000;0.721732
9977.000000;0.721840
9976.000000;0.721438
9975.000000;0.720663
9974.000000;0.720000
9973.000000;0.719851
9972.000000;0.720190
9971.000000;0.720688
9970.000000;0.721059
9969.000000;0.721196
9968.000000;0.721063
9967.000000;0.720671
9966.000000;0.720182
9965.000000;0.719865
9964.000000;0.719891
9963.000000;0.720228
9962.000000;0.720715
9961.000000;0.721135
9960.000000;0.721279
9959.000000;0.721076
9958.000000;0.720674
9957.000000;0.720269
9956.000000;0.719914
9955.000000;0.719593
9954.000000;0.719393
9953.000000;0.719403
9952.000000;0.719496
9951.000000;0.719440
9950.000000;0.719224
9949.000000;0.719046
9948.000000;0.718966
9947.000000;0.718816
9946.000000;0.718520
9945.000000;0.718270
9944.000000;0.718257
9943.000000;0.718410
9942.000000;0.718539
9941.000000;0.718601
9940.000000;0.718695
9939.000000;0.718858
9938.000000;0.718978
9937.000000;0.718843
9936.000000;0.718293
9935.000000;0.717419
9934.000000;0.716643
9933.000000;0.716443
9932.000000;0.716924
9931.000000;0.717738
9930.000000;0.718435
9929.000000;0.718790
9928.000000;0.718826
9927.000000;0.718681
9926.000000;0.718513
9925.000000;0.718350
9924.000000;0.717998
9923.000000;0.717289
9922.000000;0.716476
9921.000000;0.716127
9920.000000;0.716471
9919.000000;0.717056
9918.000000;0.717234
9917.000000;0.716858
9916.000000;0.716312
9915.000000;0.715956
9914.000000;0.715811
9913.000000;0.715736
9912.000000;0.715686
9911.000000;0.715687
9910.000000;0.715732
9909.000000;0.715771
9908.000000;0.715783
9907.000000;0.715810
9906.000000;0.715919
9905.000000;0.716111
9904.000000;0.716254
9903.000000;0.716136
9902.000000;0.715664
9901.000000;0.714984
9900.000000;0.714381
9899.000000;0.714051
9898.000000;0.713988
9897.000000;0.714020
9896.000000;0.713931
9895.000000;0.713640
9894.000000;0.713321
9893.000000;0.713308
9892.000000;0.713759
9891.000000;0.714430
9890.000000;0.714849
9889.000000;0.714773
9888.000000;0.714385
9887.000000;0.714014
9886.000000;0.713729
9885.000000;0.713335
9884.000000;0.712748
9883.000000;0.712195
9882.000000;0.711944
9881.000000;0.711933
9880.000000;0.711875
9879.000000;0.711699
9878.000000;0.711665
9877.000000;0.711940
9876.000000;0.712284
9875.000000;0.712322
9874.000000;0.712014
9873.000000;0.711646
9872.000000;0.711428
9871.000000;0.711328
9870.000000;0.711301
9869.000000;0.711438
9868.000000;0.711800
9867.000000;0.712241
9866.000000;0.712494
9865.000000;0.712408
9864.000000;0.712060
9863.000000;0.711705
9862.000000;0.711626
9861.000000;0.711938
9860.000000;0.712461
9859.000000;0.712847
9858.000000;0.712868
9857.000000;0.712589
9856.000000;0.712262
9855.000000;0.712077
9854.000000;0.711997
9853.000000;0.711793
9852.000000;0.711276
9851.000000;0.710548
9850.000000;0.709968
9849.000000;0.709808
9848.000000;0.709954
9847.000000;0.710041
9846.000000;0.709863
9845.000000;0.709588
9844.000000;0.709568
9843.000000;0.709971
9842.000000;0.710586
9841.000000;0.710976
9840.000000;0.710875
9839.000000;0.710479
9838.000000;0.710241
9837.000000;0.710360
9836.000000;0.710592
9835.000000;0.710616
9834.000000;0.710431
9833.000000;0.710208
9832.000000;0.709947
9831.000000;0.709499
9830.000000;0.708889
9829.000000;0.708331
9828.000000;0.707937
9827.000000;0.707635
9826.000000;0.707424
9825.000000;0.707489
9824.000000;0.707942
9823.000000;0.708587
9822.000000;0.709065
9821.000000;0.709136
9820.000000;0.708771
9819.000000;0.708078
9818.000000;0.707275
9817.000000;0.706700
9816.000000;0.706677
9815.000000;0.707246
9814.000000;0.708032
9813.000000;0.708464
9812.000000;0.708263
9811.000000;0.707705
9810.000000;0.707334
9809.000000;0.707386
9808.000000;0.707602
9807.000000;0.707630
9806.000000;0.707422
9805.000000;0.707141
9804.000000;0.706854
9803.000000;0.706529
9802.000000;0.706237
9801.000000;0.706125
9800.000000;0.706196
9799.000000;0.706277
9798.000000;0.706211
9797.000000;0.705992
9796.000000;0.705735
9795.000000;0.705606
9794.000000;0.705715
9793.000000;0.705962
9792.000000;0.706047
9791.000000;0.705797
9790.000000;0.705394
9789.000000;0.705130
9788.000000;0.705018
9787.000000;0.704818
9786.000000;0.704424
9785.000000;0.704030
9784.000000;0.703931
9783.000000;0.704322
9782.000000;0.705200
9781.000000;0.706272
9780.000000;0.707032
9779.000000;0.707184
9778.000000;0.706983
9777.000000;0.706947
9776.000000;0.707206
9775.000000;0.707368
9774.000000;0.707050
9773.000000;0.706305
9772.000000;0.705477
9771.000000;0.704853
9770.000000;0.704544
9769.000000;0.704498
9768.000000;0.704499
9767.000000;0.704309
9766.000000;0.703915
9765.000000;0.703569
9764.000000;0.703522
9763.000000;0.703821
9762.000000;0.704337
9761.000000;0.704839
9760.000000;0.705035
9759.000000;0.704711
9758.000000;0.703951
9757.000000;0.703087
9756.000000;0.702416
9755.000000;0.702035
9754.000000;0.701923
9753.000000;0.702021
9752.000000;0.702208
9751.000000;0.702365
9750.000000;0.702521
9749.000000;0.702772
9748.000000;0.703051
9747.000000;0.703143
9746.000000;0.702969
9745.000000;0.702666
9744.000000;0.702371
9743.000000;0.702105
9742.000000;0.701932
9741.000000;0.702049
9740.000000;0.702569
9739.000000;0.703340
9738.000000;0.704024
9737.000000;0.704295
9736.000000;0.703984
9735.000000;0.703204
9734.000000;0.702365
9733.000000;0.701869
9732.000000;0.701734
9731.000000;0.701671
9730.000000;0.701524
9729.000000;0.701436
9728.000000;0.701506
9727.000000;0.701564
9726.000000;0.701434
9725.000000;0.701201
9724.000000;0.701058
9723.000000;0.701027
9722.000000;0.701032
9721.000000;0.701082
9720.000000;0.701206
9719.000000;0.701305
9718.000000;0.701290
9717.000000;0.701264
9716.000000;0.701394
9715.000000;0.701607
9714.000000;0.701607
9713.000000;0.701209
9712.000000;0.700557
9711.000000;0.699996
9710.000000;0.699787
9709.000000;0.699952
9708.000000;0.700298
9707.000000;0.700594
9706.000000;0.700735
9705.000000;0.700736
9704.000000;0.700619
9703.000000;0.700374
9702.000000;0.700040
9701.000000;0.699715
9700.000000;0.699459
9699.000000;0.699273
9698.000000;0.699191
9697.000000;0.699266
9696.000000;0.699427
9695.000000;0.699466
9694.000000;0.699263
9693.000000;0.698931
9692.000000;0.698664
9691.000000;0.698516
9690.000000;0.698393
9689.000000;0.698202
9688.000000;0.697944
9687.000000;0.697739
9686.000000;0.697765
9685.000000;0.698092
9684.000000;0.698517
9683.000000;0.698666
9682.000000;0.698355
9681.000000;0.697789
9680.000000;0.697351
9679.000000;0.697245
9678.000000;0.697393
9677.000000;0.697589
9676.000000;0.697705
9675.000000;0.697782
9674.000000;0.697948
9673.000000;0.698198
9672.000000;0.698292
9671.000000;0.698001
9670.000000;0.697465
9669.000000;0.697112
9668.000000;0.697178
9667.000000;0.697440
9666.000000;0.697533
9665.000000;0.697387
9664.000000;0.697205
9663.000000;0.697115
9662.000000;0.697029
9661.000000;0.696819
9660.000000;0.696499
9659.000000;0.696191
9658.000000;0.696024
9657.000000;0.696091
9656.000000;0.696419
9655.000000;0.696920
9654.000000;0.697379
9653.000000;0.697537
9652.000000;0.697262
9651.000000;0.696680
9650.000000;0.696103
9649.000000;0.695760
9648.000000;0.695602
9647.000000;0.695424
9646.000000;0.695152
9645.000000;0.694949
9644.000000;0.695014
9643.000000;0.695389
9642.000000;0.695947
9641.000000;0.696478
9640.000000;0.696750
9639.000000;0.696586
9638.000000;0.696019
9637.000000;0.695335
9636.000000;0.694892
9635.000000;0.694849
9634.000000;0.695058
9633.000000;0.695214
9632.000000;0.695133
9631.000000;0.694898
9630.000000;0.694726
9629.000000;0.694717
9628.000000;0.694781
9627.000000;0.694813
9626.000000;0.694805
9625.000000;0.694738
9624.000000;0.694512
9623.000000;0.694138
9622.000000;0.693865
9621.000000;0.693914
9620.000000;0.694123
9619.000000;0.694104
9618.000000;0.693751
9617.000000;0.693386
9616.000000;0.693344
9615.000000;0.693589
9614.000000;0.693858
9613.000000;0.694004
9612.000000;0.694099
9611.000000;0.694283
9610.000000;0.694623
9609.000000;0.695039
9608.000000;0.695280
9607.000000;0.695071
9606.000000;0.694394
9605.000000;0.693561
9604.000000;0.692927
9603.000000;0.692581
9602.000000;0.692406
9601.000000;0.692377
9600.000000;0.692641
9599.000000;0.693257
9598.000000;0.693956
9597.000000;0.694307
9596.000000;0.694142
9595.000000;0.693723
9594.000000;0.693406
9593.000000;0.693224
9592.000000;0.692956
9591.000000;0.692541
9590.000000;0.692199
9589.000000;0.692078
9588.000000;0.692020
9587.000000;0.691855
9586.000000;0.691723
9585.000000;0.691865
9584.000000;0.692217
9583.000000;0.692447
9582.000000;0.692358
9581.000000;0.692053
9580.000000;0.691738
9579.000000;0.691563
9578.000000;0.691629
9577.000000;0.691914
9576.000000;0.692192
9575.000000;0.692199
9574.000000;0.691904
9573.000000;0.691474
9572.000000;0.691043
9571.000000;0.690699
9570.000000;0.690587
9569.000000;0.690742
9568.000000;0.690860
9567.000000;0.690558
9566.000000;0.689902
9565.000000;0.689355
9564.000000;0.689191
9563.000000;0.689266
9562.000000;0.689436
9561.000000;0.689784
9560.000000;0.690258
9559.000000;0.690457
9558.000000;0.690103
9557.000000;0.689518
9556.000000;0.689290
9555.000000;0.689576
9554.000000;0.689996
9553.000000;0.690146
9552.000000;0.689977
9551.000000;0.689691
9550.000000;0.689476
9549.000000;0.689381
9548.000000;0.689340
9547.000000;0.689282
9546.000000;0.689255
9545.000000;0.689348
9544.000000;0.689490
9543.000000;0.689463
9542.000000;0.689178
9541.000000;0.688813
9540.000000;0.688568
9539.000000;0.688446
9538.000000;0.688355
9537.000000;0.688295
9536.000000;0.688282
9535.000000;0.688241
9534.000000;0.688120
9533.000000;0.688009
9532.000000;0.687988
9531.000000;0.687951
9530.000000;0.687740
9529.000000;0.687393
9528.000000;0.687103
9527.000000;0.686990
9526.000000;0.687033
9525.000000;0.687153
9524.000000;0.687230
9523.000000;0.687133
9522.000000;0.686879
9521.000000;0.686705
9520.000000;0.686804
9519.000000;0.687080
9518.000000;0.687307
9517.000000;0.687464
9516.000000;0.687686
9515.000000;0.687939
9514.000000;0.687976
9513.000000;0.687683
9512.000000;0.687262
9511.000000;0.686976
9510.000000;0.686850
9509.000000;0.686733
9508.000000;0.686538
9507.000000;0.686310
9506.000000;0.686116
9505.000000;0.685989
9504.000000;0.685978
9503.000000;0.686194
9502.000000;0.686697
9501.000000;0.687342
9500.000000;0.687778
9499.000000;0.687714
9498.000000;0.687202
9497.000000;0.686595
9496.000000;0.686189
9495.000000;0.685973
9494.000000;0.685735
9493.000000;0.685324
9492.000000;0.684758
9491.000000;0.684184
9490.000000;0.683819
9489.000000;0.683859
9488.000000;0.684317
9487.000000;0.684959
9486.000000;0.685488
9485.000000;0.685766
9484.000000;0.685823
9483.000000;0.685734
9482.000000;0.685581
9481.000000;0.685473
9480.000000;0.685453
9479.000000;0.685406
9478.000000;0.685147
9477.000000;0.684633
9476.000000;0.684026
9475.000000;0.683581
9474.000000;0.683485
9473.000000;0.683762
9472.000000;0.684208
9471.000000;0.684478
9470.000000;0.684357
9469.000000;0.683996
9468.000000;0.683764
9467.000000;0.683866
9466.000000;0.684156
9465.000000;0.684341
9464.000000;0.684294
9463.000000;0.684143
9462.000000;0.684073
9461.000000;0.684100
9460.000000;0.684022
9459.000000;0.683626
9458.000000;0.682953
9457.000000;0.682318
9456.000000;0.682015
9455.000000;0.682067
9454.000000;0.682302
9453.000000;0.682602
9452.000000;0.682939
9451.000000;0.683205
9450.000000;0.683182
9449.000000;0.682761
9448.000000;0.682132
9447.000000;0.681663
9446.000000;0.681609
9445.000000;0.681929
9444.000000;0.682329
9443.000000;0.682501
9442.000000;0.682373
9441.000000;0.682157
9440.000000;0.682098
9439.000000;0.682177
9438.000000;0.682153
9437.000000;0.681901
9436.000000;0.681583
9435.000000;0.681410
9434.000000;0.681364
9433.000000;0.681271
9432.000000;0.681098
9431.000000;0.681006
9430.000000;0.681108
9429.000000;0.681329
9428.000000;0.681544
9427.000000;0.681714
9426.000000;0.681811
9425.000000;0.681727
9424.000000;0.681358
9423.000000;0.680761
9422.000000;0.680121
9421.000000;0.679613
9420.000000;0.679365
9419.000000;0.679470
9418.000000;0.679887
9417.000000;0.680355
9416.000000;0.680561
9415.000000;0.680436
9414.000000;0.680187
9413.000000;0.680017
9412.000000;0.679939
9411.000000;0.679900
9410.000000;0.679922
9409.000000;0.680025
9408.000000;0.680145
9407.000000;0.680234
9406.000000;0.680359
9405.000000;0.680550
9404.000000;0.680646
9403.000000;0.680438
9402.000000;0.679952
9401.000000;0.679451
9400.000000;0.679138
9399.000000;0.678976
9398.000000;0.678822
9397.000000;0.678645
9396.000000;0.678551
9395.000000;0.678676
9394.000000;0.679040
9393.000000;0.679495
9392.000000;0.679799
9391.000000;0.679816
9390.000000;0.679645
9389.000000;0.679493
9388.000000;0.679445
9387.000000;0.679423
9386.000000;0.679333
9385.000000;0.679184
9384.000000;0.679018
9383.000000;0.678820
9382.000000;0.678516
9381.000000;0.678068
9380.000000;0.677548
9379.000000;0.677144
9378.000000;0.677049
9377.000000;0.677286
9376.000000;0.677663
9375.000000;0.677927
9374.000000;0.677968
9373.000000;0.677844
9372.000000;0.677667
9371.000000;0.677531
9370.000000;0.677488
9369.000000;0.677522
9368.000000;0.677576
9367.000000;0.677647
9366.000000;0.677783
9365.000000;0.677926
9364.000000;0.677859
9363.000000;0.677436
9362.000000;0.676826
9361.000000;0.676369
9360.000000;0.676207
9359.000000;0.676171
9358.000000;0.676048
9357.000000;0.675828
9356.000000;0.675673
9355.000000;0.675734
9354.000000;0.676022
9353.000000;0.676367
9352.000000;0.676505
9351.000000;0.676309
9350.000000;0.675943
9349.000000;0.675706
9348.000000;0.675711
9347.000000;0.675828
9346.000000;0.675911
9345.000000;0.675943
9344.000000;0.675937
9343.000000;0.675815
9342.000000;0.675504
9341.000000;0.675082
9340.000000;0.674767
9339.000000;0.674774
9338.000000;0.675134
9337.000000;0.675604
9336.000000;0.675791
9335.000000;0.675487
9334.000000;0.674886
9333.000000;0.674385
9332.000000;0.674167
9331.000000;0.674111
9330.000000;0.674065
9329.000000;0.674035
9328.000000;0.674057
9327.000000;0.674045
9326.000000;0.673915
9325.000000;0.673750
9324.000000;0.673733
9323.000000;0.673964
9322.000000;0.674408
9321.000000;0.674961
9320.000000;0.675465
9319.000000;0.675699
9318.000000;0.675493
9317.000000;0.674890
9316.000000;0.674148
9315.000000;0.673570
9314.000000;0.673310
9313.000000;0.673331
9312.000000;0.673510
9311.000000;0.673748
9310.000000;0.673988
9309.000000;0.674151
9308.000000;0.674172
9307.000000;0.674116
9306.000000;0.674162
9305.000000;0.674373
9304.000000;0.674558
9303.000000;0.674488
9302.000000;0.674193
9301.000000;0.673910
9300.000000;0.673764
9299.000000;0.673652
9298.000000;0.673456
9297.000000;0.673207
9296.000000;0.672994
9295.000000;0.672856
9294.000000;0.672815
9293.000000;0.672874
9292.000000;0.672932
9291.000000;0.672811
9290.000000;0.672465
9289.000000;0.672068
9288.000000;0.671811
9287.000000;0.671715
9286.000000;0.671708
9285.000000;0.671795
9284.000000;0.672006
9283.000000;0.672256
9282.000000;0.672393
9281.000000;0.672374
9280.000000;0.672288
9279.000000;0.672209
9278.000000;0.672106
9277.000000;0.671923
9276.000000;0.671681
9275.000000;0.671469
9274.000000;0.671360
9273.000000;0.671343
9272.000000;0.671350
9271.000000;0.671320
9270.000000;0.671239
9269.000000;0.671103
9268.000000;0.670885
9267.000000;0.670584
9266.000000;0.670300
9265.000000;0.670196
9264.000000;0.670354
9263.000000;0.670692
9262.000000;0.671011
9261.000000;0.671132
9260.000000;0.670998
9259.000000;0.670714
9258.000000;0.670463
9257.000000;0.670347
9256.000000;0.670302
9255.000000;0.670222
9254.000000;0.670100
9253.000000;0.670011
9252.000000;0.669998
9251.000000;0.670043
9250.000000;0.670123
9249.000000;0.670188
9248.000000;0.670094
9247.000000;0.669711
9246.000000;0.669127
9245.000000;0.668641
9244.000000;0.668515
9243.000000;0.668753
9242.000000;0.669149
9241.000000;0.669480
9240.000000;0.669639
9239.000000;0.669665
9238.000000;0.669663
9237.000000;0.669674
9236.000000;0.669622
9235.000000;0.669450
9234.000000;0.669255
9233.000000;0.669190
9232.000000;0.669258
9231.000000;0.669315
9230.000000;0.669280
9229.000000;0.669205
9228.000000;0.669144
9227.000000;0.669074
9226.000000;0.668981
9225.000000;0.668888
9224.000000;0.668752
9223.000000;0.668473
9222.000000;0.668072
9221.000000;0.667737
9220.000000;0.667593
9219.000000;0.667554
9218.000000;0.667458
9217.000000;0.667296
9216.000000;0.667198
9215.000000;0.667268
9214.000000;0.667498
9213.000000;0.667781
9212.000000;0.667949
9211.000000;0.667873
9210.000000;0.667601
9209.000000;0.667338
9208.000000;0.667221
9207.000000;0.667192
9206.000000;0.667153
9205.000000;0.667138
9204.000000;0.667236
9203.000000;0.667395
9202.000000;0.667449
9201.000000;0.667301
9200.000000;0.667006
9199.000000;0.666696
9198.000000;0.666494
9197.000000;0.666496
9196.000000;0.666702
9195.000000;0.666966
9194.000000;0.667093
9193.000000;0.666998
9192.000000;0.666758
9191.000000;0.666500
9190.000000;0.666315
9189.000000;0.666249
9188.000000;0.666294
9187.000000;0.666370
9186.000000;0.666363
9185.000000;0.666212
9184.000000;0.665959
9183.000000;0.665705
9182.000000;0.665559
9181.000000;0.665588
9180.000000;0.665761
9179.000000;0.665941
9178.000000;0.665979
9177.000000;0.665855
9176.000000;0.665696
9175.000000;0.665658
9174.000000;0.665790
9173.000000;0.666025
9172.000000;0.666257
9171.000000;0.666385
9170.000000;0.666311
9169.000000;0.665970
9168.000000;0.665427
9167.000000;0.664915
9166.000000;0.664681
9165.000000;0.664741
9164.000000;0.664862
9163.000000;0.664825
9162.000000;0.664663
9161.000000;0.664580
9160.000000;0.664672
9159.000000;0.664822
9158.000000;0.664861
9157.000000;0.664731
9156.000000;0.664491
9155.000000;0.664254
9154.000000;0.664132
9153.000000;0.664178
9152.000000;0.664336
9151.000000;0.664496
9150.000000;0.664603
9149.000000;0.664661
9148.000000;0.664633
9147.000000;0.664456
9146.000000;0.664159
9145.000000;0.663877
9144.000000;0.663693
9143.000000;0.663540
9142.000000;0.663337
9141.000000;0.663130
9140.000000;0.663023
9139.000000;0.663017
9138.000000;0.663021
9137.000000;0.662989
9136.000000;0.662967
9135.000000;0.663005
9134.000000;0.663085
9133.000000;0.663150
9132.000000;0.663153
9131.000000;0.663078
9130.000000;0.662954
9129.000000;0.662847
9128.000000;0.662814
9127.000000;0.662835
9126.000000;0.662815
9125.000000;0.662669
9124.000000;0.662401
9123.000000;0.662118
9122.000000;0.661960
9121.000000;0.662010
9120.000000;0.662240
9119.000000;0.662537
9118.000000;0.662770
9117.000000;0.662853
9116.000000;0.662784
9115.000000;0.662641
9114.000000;0.662528
9113.000000;0.662486
9112.000000;0.662465
9111.000000;0.662416
9110.000000;0.662371
9109.000000;0.662386
9108.000000;0.662428
9107.000000;0.662391
9106.000000;0.662241
9105.000000;0.662077
9104.000000;0.662008
9103.000000;0.662017
9102.000000;0.661982
9101.000000;0.661808
9100.000000;0.661510
9099.000000;0.661174
9098.000000;0.660887
9097.000000;0.660697
9096.000000;0.660615
9095.000000;0.660628
9094.000000;0.660713
9093.000000;0.660839
9092.000000;0.660960
9091.000000;0.661028
9090.000000;0.661021
9089.000000;0.660974
9088.000000;0.660972
9087.000000;0.661078
9086.000000;0.661248
9085.000000;0.661338
9084.000000;0.661232
9083.000000;0.660944
9082.000000;0.660577
9081.000000;0.660212
9080.000000;0.659896
9079.000000;0.659699
9078.000000;0.659663
9077.000000;0.659669
9076.000000;0.659504
9075.000000;0.659131
9074.000000;0.658791
9073.000000;0.658748
9072.000000;0.658990
9071.000000;0.659273
9070.000000;0.659394
9069.000000;0.659337
9068.000000;0.659185
9067.000000;0.659030
9066.000000;0.658944
9065.000000;0.658948
9064.000000;0.658992
9063.000000;0.659037
9062.000000;0.659120
9061.000000;0.659271
9060.000000;0.659398
9059.000000;0.659360
9058.000000;0.659158
9057.000000;0.658964
9056.000000;0.658924
9055.000000;0.659030
9054.000000;0.659173
9053.000000;0.659258
