Criado como novo conjunto de dados;"2706_e01_daniel.spp","53644.8 Secs"
cm-1;Abs
10000.000000;0.648779
9999.000000;0.649164
9998.000000;0.649622
9997.000000;0.649886
9996.000000;0.649864
9995.000000;0.649593
9994.000000;0.649214
9993.000000;0.648919
9992.000000;0.648786
9991.000000;0.648701
9990.000000;0.648502
9989.000000;0.648164
9988.000000;0.647738
9987.000000;0.647211
9986.000000;0.646574
9985.000000;0.645962
9984.000000;0.645542
9983.000000;0.645315
9982.000000;0.645212
9981.000000;0.645359
9980.000000;0.645991
9979.000000;0.647002
9978.000000;0.647773
9977.000000;0.647684
9976.000000;0.646756
9975.000000;0.645681
9974.000000;0.645182
9973.000000;0.645416
9972.000000;0.645946
9971.000000;0.646224
9970.000000;0.646089
9969.000000;0.645798
9968.000000;0.645655
9967.000000;0.645690
9966.000000;0.645760
9965.000000;0.645834
9964.000000;0.646034
9963.000000;0.646406
9962.000000;0.646763
9961.000000;0.646805
9960.000000;0.646378
9959.000000;0.645628
9958.000000;0.644935
9957.000000;0.644647
9956.000000;0.644789
9955.000000;0.645074
9954.000000;0.645234
9953.000000;0.645278
9952.000000;0.645338
9951.000000;0.645378
9950.000000;0.645216
9949.000000;0.644790
9948.000000;0.644251
9947.000000;0.643824
9946.000000;0.643711
9945.000000;0.644052
9944.000000;0.644751
9943.000000;0.645367
9942.000000;0.645429
9941.000000;0.644922
9940.000000;0.644273
9939.000000;0.643829
9938.000000;0.643567
9937.000000;0.643380
9936.000000;0.643332
9935.000000;0.643448
9934.000000;0.643470
9933.000000;0.643131
9932.000000;0.642570
9931.000000;0.642215
9930.000000;0.642244
9929.000000;0.642364
9928.000000;0.642191
9927.000000;0.641710
9926.000000;0.641293
9925.000000;0.641291
9924.000000;0.641665
9923.000000;0.642002
9922.000000;0.641927
9921.000000;0.641506
9920.000000;0.641198
9919.000000;0.641370
9918.000000;0.641912
9917.000000;0.642372
9916.000000;0.642410
9915.000000;0.642051
9914.000000;0.641560
9913.000000;0.641159
9912.000000;0.640900
9911.000000;0.640714
9910.000000;0.640540
9909.000000;0.640364
9908.000000;0.640151
9907.000000;0.639805
9906.000000;0.639319
9905.000000;0.638902
9904.000000;0.638820
9903.000000;0.639066
9902.000000;0.639318
9901.000000;0.639291
9900.000000;0.639040
9899.000000;0.638837
9898.000000;0.638870
9897.000000;0.639129
9896.000000;0.639487
9895.000000;0.639755
9894.000000;0.639751
9893.000000;0.639440
9892.000000;0.639010
9891.000000;0.638687
9890.000000;0.638517
9889.000000;0.638401
9888.000000;0.638266
9887.000000;0.638070
9886.000000;0.637723
9885.000000;0.637208
9884.000000;0.636799
9883.000000;0.636910
9882.000000;0.637585
9881.000000;0.638296
9880.000000;0.638417
9879.000000;0.637885
9878.000000;0.637243
9877.000000;0.637035
9876.000000;0.637290
9875.000000;0.637623
9874.000000;0.637716
9873.000000;0.637563
9872.000000;0.637285
9871.000000;0.636909
9870.000000;0.636464
9869.000000;0.636185
9868.000000;0.636378
9867.000000;0.637009
9866.000000;0.637588
9865.000000;0.637643
9864.000000;0.637238
9863.000000;0.636838
9862.000000;0.636689
9861.000000;0.636576
9860.000000;0.636251
9859.000000;0.635835
9858.000000;0.635620
9857.000000;0.635617
9856.000000;0.635548
9855.000000;0.635266
9854.000000;0.634925
9853.000000;0.634711
9852.000000;0.634599
9851.000000;0.634474
9850.000000;0.634334
9849.000000;0.634262
9848.000000;0.634309
9847.000000;0.634507
9846.000000;0.634895
9845.000000;0.635391
9844.000000;0.635736
9843.000000;0.635716
9842.000000;0.635383
9841.000000;0.634893
9840.000000;0.634256
9839.000000;0.633447
9838.000000;0.632703
9837.000000;0.632388
9836.000000;0.632519
9835.000000;0.632717
9834.000000;0.632736
9833.000000;0.632770
9832.000000;0.633052
9831.000000;0.633386
9830.000000;0.633376
9829.000000;0.632980
9828.000000;0.632527
9827.000000;0.632262
9826.000000;0.632154
9825.000000;0.632160
9824.000000;0.632355
9823.000000;0.632716
9822.000000;0.632986
9821.000000;0.632940
9820.000000;0.632650
9819.000000;0.632388
9818.000000;0.632341
9817.000000;0.632499
9816.000000;0.632720
9815.000000;0.632814
9814.000000;0.632646
9813.000000;0.632262
9812.000000;0.631884
9811.000000;0.631743
9810.000000;0.631908
9809.000000;0.632268
9808.000000;0.632591
9807.000000;0.632611
9806.000000;0.632182
9805.000000;0.631430
9804.000000;0.630680
9803.000000;0.630168
9802.000000;0.629875
9801.000000;0.629697
9800.000000;0.629678
9799.000000;0.629955
9798.000000;0.630536
9797.000000;0.631201
9796.000000;0.631627
9795.000000;0.631582
9794.000000;0.631057
9793.000000;0.630297
9792.000000;0.629662
9791.000000;0.629372
9790.000000;0.629388
9789.000000;0.629558
9788.000000;0.629788
9787.000000;0.630003
9786.000000;0.630050
9785.000000;0.629838
9784.000000;0.629555
9783.000000;0.629563
9782.000000;0.629981
9781.000000;0.630498
9780.000000;0.630659
9779.000000;0.630282
9778.000000;0.629519
9777.000000;0.628646
9776.000000;0.627928
9775.000000;0.627586
9774.000000;0.627684
9773.000000;0.628020
9772.000000;0.628289
9771.000000;0.628404
9770.000000;0.628530
9769.000000;0.628745
9768.000000;0.628832
9767.000000;0.628568
9766.000000;0.628115
9765.000000;0.627907
9764.000000;0.628169
9763.000000;0.628686
9762.000000;0.629069
9761.000000;0.629103
9760.000000;0.628777
9759.000000;0.628160
9758.000000;0.627380
9757.000000;0.626672
9756.000000;0.626283
9755.000000;0.626312
9754.000000;0.626655
9753.000000;0.627087
9752.000000;0.627376
9751.000000;0.627391
9750.000000;0.627170
9749.000000;0.626871
9748.000000;0.626609
9747.000000;0.626376
9746.000000;0.626149
9745.000000;0.626018
9744.000000;0.626125
9743.000000;0.626483
9742.000000;0.626912
9741.000000;0.627176
9740.000000;0.627174
9739.000000;0.627007
9738.000000;0.626847
9737.000000;0.626748
9736.000000;0.626593
9735.000000;0.626285
9734.000000;0.625942
9733.000000;0.625778
9732.000000;0.625820
9731.000000;0.625880
9730.000000;0.625841
9729.000000;0.625770
9728.000000;0.625675
9727.000000;0.625364
9726.000000;0.624734
9725.000000;0.624066
9724.000000;0.623785
9723.000000;0.623962
9722.000000;0.624252
9721.000000;0.624331
9720.000000;0.624194
9719.000000;0.623997
9718.000000;0.623806
9717.000000;0.623606
9716.000000;0.623416
9715.000000;0.623274
9714.000000;0.623176
9713.000000;0.623081
9712.000000;0.622962
9711.000000;0.622806
9710.000000;0.622624
9709.000000;0.622475
9708.000000;0.622439
9707.000000;0.622530
9706.000000;0.622653
9705.000000;0.622662
9704.000000;0.622460
9703.000000;0.622109
9702.000000;0.621851
9701.000000;0.621942
9700.000000;0.622358
9699.000000;0.622728
9698.000000;0.622692
9697.000000;0.622293
9696.000000;0.621888
9695.000000;0.621720
9694.000000;0.621747
9693.000000;0.621868
9692.000000;0.622089
9691.000000;0.622397
9690.000000;0.622631
9689.000000;0.622601
9688.000000;0.622268
9687.000000;0.621729
9686.000000;0.621130
9685.000000;0.620657
9684.000000;0.620482
9683.000000;0.620616
9682.000000;0.620869
9681.000000;0.621049
9680.000000;0.621125
9679.000000;0.621157
9678.000000;0.621152
9677.000000;0.621079
9676.000000;0.620943
9675.000000;0.620757
9674.000000;0.620499
9673.000000;0.620189
9672.000000;0.619947
9671.000000;0.619871
9670.000000;0.619919
9669.000000;0.620010
9668.000000;0.620153
9667.000000;0.620344
9666.000000;0.620419
9665.000000;0.620187
9664.000000;0.619724
9663.000000;0.619349
9662.000000;0.619245
9661.000000;0.619249
9660.000000;0.619116
9659.000000;0.618878
9658.000000;0.618799
9657.000000;0.619023
9656.000000;0.619399
9655.000000;0.619640
9654.000000;0.619596
9653.000000;0.619356
9652.000000;0.619185
9651.000000;0.619358
9650.000000;0.619924
9649.000000;0.620550
9648.000000;0.620715
9647.000000;0.620194
9646.000000;0.619344
9645.000000;0.618763
9644.000000;0.618684
9643.000000;0.618823
9642.000000;0.618814
9641.000000;0.618616
9640.000000;0.618401
9639.000000;0.618208
9638.000000;0.617928
9637.000000;0.617570
9636.000000;0.617330
9635.000000;0.617339
9634.000000;0.617491
9633.000000;0.617610
9632.000000;0.617686
9631.000000;0.617854
9630.000000;0.618178
9629.000000;0.618518
9628.000000;0.618613
9627.000000;0.618300
9626.000000;0.617675
9625.000000;0.617069
9624.000000;0.616821
9623.000000;0.617035
9622.000000;0.617523
9621.000000;0.617958
9620.000000;0.618088
9619.000000;0.617846
9618.000000;0.617357
9617.000000;0.616829
9616.000000;0.616420
9615.000000;0.616157
9614.000000;0.615976
9613.000000;0.615789
9612.000000;0.615548
9611.000000;0.615288
9610.000000;0.615177
9609.000000;0.615383
9608.000000;0.615818
9607.000000;0.616078
9606.000000;0.615818
9605.000000;0.615163
9604.000000;0.614612
9603.000000;0.614534
9602.000000;0.614914
9601.000000;0.615553
9600.000000;0.616291
9599.000000;0.616940
9598.000000;0.617209
9597.000000;0.616927
9596.000000;0.616275
9595.000000;0.615611
9594.000000;0.615094
9593.000000;0.614620
9592.000000;0.614131
9591.000000;0.613805
9590.000000;0.613827
9589.000000;0.614105
9588.000000;0.614324
9587.000000;0.614287
9586.000000;0.614102
9585.000000;0.614001
9584.000000;0.614041
9583.000000;0.614039
9582.000000;0.613796
9581.000000;0.613329
9580.000000;0.612886
9579.000000;0.612739
9578.000000;0.612955
9577.000000;0.613343
9576.000000;0.613607
9575.000000;0.613608
9574.000000;0.613479
9573.000000;0.613452
9572.000000;0.613572
9571.000000;0.613663
9570.000000;0.613587
9569.000000;0.613418
9568.000000;0.613308
9567.000000;0.613270
9566.000000;0.613175
9565.000000;0.612928
9564.000000;0.612537
9563.000000;0.612077
9562.000000;0.611685
9561.000000;0.611539
9560.000000;0.611700
9559.000000;0.611977
9558.000000;0.612086
9557.000000;0.611974
9556.000000;0.611852
9555.000000;0.611908
9554.000000;0.612083
9553.000000;0.612196
9552.000000;0.612161
9551.000000;0.612037
9550.000000;0.611916
9549.000000;0.611844
9548.000000;0.611821
9547.000000;0.611804
9546.000000;0.611737
9545.000000;0.611589
9544.000000;0.611353
9543.000000;0.611054
9542.000000;0.610777
9541.000000;0.610656
9540.000000;0.610730
9539.000000;0.610829
9538.000000;0.610726
9537.000000;0.610424
9536.000000;0.610173
9535.000000;0.610170
9534.000000;0.610340
9533.000000;0.610464
9532.000000;0.610425
9531.000000;0.610264
9530.000000;0.610070
9529.000000;0.609916
9528.000000;0.609856
9527.000000;0.609900
9526.000000;0.609985
9525.000000;0.610003
9524.000000;0.609849
9523.000000;0.609467
9522.000000;0.608924
9521.000000;0.608429
9520.000000;0.608184
9519.000000;0.608177
9518.000000;0.608204
9517.000000;0.608140
9516.000000;0.608090
9515.000000;0.608211
9514.000000;0.608457
9513.000000;0.608604
9512.000000;0.608494
9511.000000;0.608177
9510.000000;0.607838
9509.000000;0.607626
9508.000000;0.607541
9507.000000;0.607442
9506.000000;0.607194
9505.000000;0.606832
9504.000000;0.606548
9503.000000;0.606495
9502.000000;0.606674
9501.000000;0.607024
9500.000000;0.607515
9499.000000;0.608066
9498.000000;0.608468
9497.000000;0.608527
9496.000000;0.608262
9495.000000;0.607873
9494.000000;0.607498
9493.000000;0.607112
9492.000000;0.606675
9491.000000;0.606294
9490.000000;0.606183
9489.000000;0.606443
9488.000000;0.606905
9487.000000;0.607201
9486.000000;0.607056
9485.000000;0.606547
9484.000000;0.606050
9483.000000;0.605881
9482.000000;0.606002
9481.000000;0.606101
9480.000000;0.605927
9479.000000;0.605503
9478.000000;0.605061
9477.000000;0.604842
9476.000000;0.604949
9475.000000;0.605316
9474.000000;0.605739
9473.000000;0.606020
9472.000000;0.606105
9471.000000;0.606087
9470.000000;0.606055
9469.000000;0.605966
9468.000000;0.605706
9467.000000;0.605261
9466.000000;0.604804
9465.000000;0.604578
9464.000000;0.604681
9463.000000;0.604976
9462.000000;0.605200
9461.000000;0.605158
9460.000000;0.604825
9459.000000;0.604344
9458.000000;0.603942
9457.000000;0.603790
9456.000000;0.603874
9455.000000;0.604003
9454.000000;0.604024
9453.000000;0.604001
9452.000000;0.604120
9451.000000;0.604418
9450.000000;0.604696
9449.000000;0.604733
9448.000000;0.604512
9447.000000;0.604202
9446.000000;0.603987
9445.000000;0.603961
9444.000000;0.604135
9443.000000;0.604440
9442.000000;0.604695
9441.000000;0.604659
9440.000000;0.604202
9439.000000;0.603471
9438.000000;0.602843
9437.000000;0.602638
9436.000000;0.602810
9435.000000;0.602974
9434.000000;0.602794
9433.000000;0.602332
9432.000000;0.601945
9431.000000;0.601880
9430.000000;0.602066
9429.000000;0.602273
9428.000000;0.602344
9427.000000;0.602254
9426.000000;0.602069
9425.000000;0.601915
9424.000000;0.601896
9423.000000;0.601951
9422.000000;0.601881
9421.000000;0.601586
9420.000000;0.601242
9419.000000;0.601106
9418.000000;0.601192
9417.000000;0.601223
9416.000000;0.600952
9415.000000;0.600431
9414.000000;0.599972
9413.000000;0.599854
9412.000000;0.600110
9411.000000;0.600550
9410.000000;0.600944
9409.000000;0.601175
9408.000000;0.601248
9407.000000;0.601180
9406.000000;0.600940
9405.000000;0.600516
9404.000000;0.599999
9403.000000;0.599564
9402.000000;0.599334
9401.000000;0.599272
9400.000000;0.599219
9399.000000;0.599046
9398.000000;0.598776
9397.000000;0.598556
9396.000000;0.598506
9395.000000;0.598637
9394.000000;0.598874
9393.000000;0.599101
9392.000000;0.599182
9391.000000;0.599026
9390.000000;0.598716
9389.000000;0.598496
9388.000000;0.598545
9387.000000;0.598781
9386.000000;0.598964
9385.000000;0.598945
9384.000000;0.598752
9383.000000;0.598468
9382.000000;0.598185
9381.000000;0.598036
9380.000000;0.598128
9379.000000;0.598401
9378.000000;0.598672
9377.000000;0.598829
9376.000000;0.598884
9375.000000;0.598812
9374.000000;0.598522
9373.000000;0.598070
9372.000000;0.597709
9371.000000;0.597632
9370.000000;0.597756
9369.000000;0.597891
9368.000000;0.597999
9367.000000;0.598130
9366.000000;0.598197
9365.000000;0.598039
9364.000000;0.597679
9363.000000;0.597342
9362.000000;0.597169
9361.000000;0.597065
9360.000000;0.596881
9359.000000;0.596630
9358.000000;0.596437
9357.000000;0.596367
9356.000000;0.596396
9355.000000;0.596478
9354.000000;0.596577
9353.000000;0.596653
9352.000000;0.596683
9351.000000;0.596695
9350.000000;0.596725
9349.000000;0.596741
9348.000000;0.596670
9347.000000;0.596499
9346.000000;0.596314
9345.000000;0.596218
9344.000000;0.596218
9343.000000;0.596215
9342.000000;0.596094
9341.000000;0.595827
9340.000000;0.595486
9339.000000;0.595192
9338.000000;0.595033
9337.000000;0.595015
9336.000000;0.595080
9335.000000;0.595164
9334.000000;0.595221
9333.000000;0.595202
9332.000000;0.595069
9331.000000;0.594888
9330.000000;0.594862
9329.000000;0.595135
9328.000000;0.595551
9327.000000;0.595711
9326.000000;0.595357
9325.000000;0.594642
9324.000000;0.593965
9323.000000;0.593600
9322.000000;0.593562
9321.000000;0.593757
9320.000000;0.594077
9319.000000;0.594372
9318.000000;0.594477
9317.000000;0.594345
9316.000000;0.594077
9315.000000;0.593790
9314.000000;0.593537
9313.000000;0.593354
9312.000000;0.593287
9311.000000;0.593322
9310.000000;0.593361
9309.000000;0.593348
9308.000000;0.593349
9307.000000;0.593448
9306.000000;0.593631
9305.000000;0.593797
9304.000000;0.593848
9303.000000;0.593741
9302.000000;0.593505
9301.000000;0.593256
9300.000000;0.593120
9299.000000;0.593075
9298.000000;0.592946
9297.000000;0.592615
9296.000000;0.592188
9295.000000;0.591899
9294.000000;0.591867
9293.000000;0.592009
9292.000000;0.592155
9291.000000;0.592176
9290.000000;0.592051
9289.000000;0.591867
9288.000000;0.591736
9287.000000;0.591687
9286.000000;0.591643
9285.000000;0.591555
9284.000000;0.591483
9283.000000;0.591481
9282.000000;0.591470
9281.000000;0.591322
9280.000000;0.591071
9279.000000;0.590916
9278.000000;0.590997
9277.000000;0.591222
9276.000000;0.591355
9275.000000;0.591255
9274.000000;0.590987
9273.000000;0.590729
9272.000000;0.590599
9271.000000;0.590562
9270.000000;0.590505
9269.000000;0.590384
9268.000000;0.590263
9267.000000;0.590212
9266.000000;0.590218
9265.000000;0.590225
9264.000000;0.590226
9263.000000;0.590207
9262.000000;0.590059
9261.000000;0.589655
9260.000000;0.589048
9259.000000;0.588531
9258.000000;0.588393
9257.000000;0.588650
9256.000000;0.589054
9255.000000;0.589329
9254.000000;0.589365
9253.000000;0.589199
9252.000000;0.588926
9251.000000;0.588665
9250.000000;0.588534
9249.000000;0.588553
9248.000000;0.588585
9247.000000;0.588451
9246.000000;0.588124
9245.000000;0.587784
9244.000000;0.587643
9243.000000;0.587758
9242.000000;0.588028
9241.000000;0.588323
9240.000000;0.588574
9239.000000;0.588763
9238.000000;0.588885
9237.000000;0.588917
9236.000000;0.588820
9235.000000;0.588557
9234.000000;0.588136
9233.000000;0.587638
9232.000000;0.587202
9231.000000;0.586968
9230.000000;0.587010
9229.000000;0.587250
9228.000000;0.587461
9227.000000;0.587412
9226.000000;0.587059
9225.000000;0.586564
9224.000000;0.586122
9223.000000;0.585835
9222.000000;0.585745
9221.000000;0.585862
9220.000000;0.586109
9219.000000;0.586332
9218.000000;0.586443
9217.000000;0.586482
9216.000000;0.586499
9215.000000;0.586476
9214.000000;0.586443
9213.000000;0.586526
9212.000000;0.586749
9211.000000;0.586909
9210.000000;0.586807
9209.000000;0.586528
9208.000000;0.586317
9207.000000;0.586238
9206.000000;0.586151
9205.000000;0.586005
9204.000000;0.585904
9203.000000;0.585879
9202.000000;0.585784
9201.000000;0.585495
9200.000000;0.585059
9199.000000;0.584624
9198.000000;0.584351
9197.000000;0.584395
9196.000000;0.584774
9195.000000;0.585232
9194.000000;0.585420
9193.000000;0.585286
9192.000000;0.585095
9191.000000;0.585019
9190.000000;0.584920
9189.000000;0.584660
9188.000000;0.584386
9187.000000;0.584324
9186.000000;0.584470
9185.000000;0.584665
9184.000000;0.584846
9183.000000;0.585013
9182.000000;0.585072
9181.000000;0.584933
9180.000000;0.584711
9179.000000;0.584609
9178.000000;0.584645
9177.000000;0.584674
9176.000000;0.584660
9175.000000;0.584723
9174.000000;0.584902
9173.000000;0.585058
9172.000000;0.585037
9171.000000;0.584800
9170.000000;0.584377
9169.000000;0.583838
9168.000000;0.583346
9167.000000;0.583078
9166.000000;0.583033
9165.000000;0.583031
9164.000000;0.582948
9163.000000;0.582849
9162.000000;0.582833
9161.000000;0.582862
9160.000000;0.582830
9159.000000;0.582722
9158.000000;0.582611
9157.000000;0.582545
9156.000000;0.582537
9155.000000;0.582602
9154.000000;0.582737
9153.000000;0.582866
9152.000000;0.582890
9151.000000;0.582790
9150.000000;0.582646
9149.000000;0.582508
9148.000000;0.582322
9147.000000;0.582016
9146.000000;0.581635
9145.000000;0.581333
9144.000000;0.581215
9143.000000;0.581230
9142.000000;0.581238
9141.000000;0.581170
9140.000000;0.581064
9139.000000;0.580965
9138.000000;0.580862
9137.000000;0.580759
9136.000000;0.580727
9135.000000;0.580848
9134.000000;0.581087
9133.000000;0.581283
9132.000000;0.581261
9131.000000;0.580972
9130.000000;0.580537
9129.000000;0.580156
9128.000000;0.579954
9127.000000;0.579909
9126.000000;0.579921
9125.000000;0.579912
9124.000000;0.579842
9123.000000;0.579673
9122.000000;0.579416
9121.000000;0.579188
9120.000000;0.579110
9119.000000;0.579134
9118.000000;0.579086
9117.000000;0.578893
9116.000000;0.578687
9115.000000;0.578623
9114.000000;0.578717
9113.000000;0.578913
9112.000000;0.579205
9111.000000;0.579585
9110.000000;0.579925
9109.000000;0.580052
9108.000000;0.579894
9107.000000;0.579497
9106.000000;0.578955
9105.000000;0.578415
9104.000000;0.578094
9103.000000;0.578117
9102.000000;0.578349
9101.000000;0.578487
9100.000000;0.578367
9099.000000;0.578112
9098.000000;0.577951
9097.000000;0.577974
9096.000000;0.578064
9095.000000;0.578018
9094.000000;0.577738
9093.000000;0.577348
9092.000000;0.577117
9091.000000;0.577188
9090.000000;0.577420
9089.000000;0.577568
9088.000000;0.577596
9087.000000;0.577695
9086.000000;0.577947
9085.000000;0.578137
9084.000000;0.577978
9083.000000;0.577481
9082.000000;0.576974
9081.000000;0.576753
9080.000000;0.576800
9079.000000;0.576843
9078.000000;0.576629
9077.000000;0.576132
9076.000000;0.575531
9075.000000;0.575038
9074.000000;0.574749
9073.000000;0.574621
9072.000000;0.574573
9071.000000;0.574586
9070.000000;0.574706
9069.000000;0.574941
9068.000000;0.575196
9067.000000;0.575349
9066.000000;0.575383
9065.000000;0.575398
9064.000000;0.575474
9063.000000;0.575578
9062.000000;0.575619
9061.000000;0.575555
9060.000000;0.575405
9059.000000;0.575201
9058.000000;0.574990
9057.000000;0.574846
9056.000000;0.574810
9055.000000;0.574844
9054.000000;0.574902
9053.000000;0.575008
