Criado como novo conjunto de dados;"2706_e01_daniel.spp","10442.5 Secs"
cm-1;Abs
10000.000000;0.754006
9999.000000;0.754501
9998.000000;0.755075
9997.000000;0.755289
9996.000000;0.754799
9995.000000;0.753749
9994.000000;0.752621
9993.000000;0.751934
9992.000000;0.751825
9991.000000;0.752068
9990.000000;0.752316
9989.000000;0.752393
9988.000000;0.752348
9987.000000;0.752318
9986.000000;0.752344
9985.000000;0.752315
9984.000000;0.752097
9983.000000;0.751717
9982.000000;0.751364
9981.000000;0.751199
9980.000000;0.751177
9979.000000;0.751106
9978.000000;0.750872
9977.000000;0.750580
9976.000000;0.750470
9975.000000;0.750707
9974.000000;0.751245
9973.000000;0.751863
9972.000000;0.752292
9971.000000;0.752335
9970.000000;0.751967
9969.000000;0.751415
9968.000000;0.751076
9967.000000;0.751190
9966.000000;0.751536
9965.000000;0.751589
9964.000000;0.751073
9963.000000;0.750295
9962.000000;0.749812
9961.000000;0.749836
9960.000000;0.750067
9959.000000;0.750059
9958.000000;0.749668
9957.000000;0.749145
9956.000000;0.748874
9955.000000;0.749013
9954.000000;0.749338
9953.000000;0.749470
9952.000000;0.749288
9951.000000;0.749035
9950.000000;0.748972
9949.000000;0.749021
9948.000000;0.748887
9947.000000;0.748458
9946.000000;0.747965
9945.000000;0.747781
9944.000000;0.748126
9943.000000;0.748866
9942.000000;0.749489
9941.000000;0.749446
9940.000000;0.748732
9939.000000;0.748058
9938.000000;0.748178
9937.000000;0.749049
9936.000000;0.749883
9935.000000;0.750015
9934.000000;0.749466
9933.000000;0.748615
9932.000000;0.747689
9931.000000;0.746804
9930.000000;0.746219
9929.000000;0.746215
9928.000000;0.746726
9927.000000;0.747346
9926.000000;0.747744
9925.000000;0.747952
9924.000000;0.748183
9923.000000;0.748476
9922.000000;0.748631
9921.000000;0.748458
9920.000000;0.748043
9919.000000;0.747689
9918.000000;0.747573
9917.000000;0.747532
9916.000000;0.747279
9915.000000;0.746815
9914.000000;0.746489
9913.000000;0.746595
9912.000000;0.746990
9911.000000;0.747217
9910.000000;0.746951
9909.000000;0.746253
9908.000000;0.745423
9907.000000;0.744732
9906.000000;0.744326
9905.000000;0.744264
9904.000000;0.744515
9903.000000;0.744903
9902.000000;0.745184
9901.000000;0.745239
9900.000000;0.745179
9899.000000;0.745171
9898.000000;0.745214
9897.000000;0.745179
9896.000000;0.745017
9895.000000;0.744801
9894.000000;0.744565
9893.000000;0.744278
9892.000000;0.744016
9891.000000;0.743990
9890.000000;0.744295
9889.000000;0.744774
9888.000000;0.745204
9887.000000;0.745491
9886.000000;0.745554
9885.000000;0.745228
9884.000000;0.744508
9883.000000;0.743769
9882.000000;0.743475
9881.000000;0.743678
9880.000000;0.744000
9879.000000;0.744079
9878.000000;0.743847
9877.000000;0.743416
9876.000000;0.742942
9875.000000;0.742590
9874.000000;0.742431
9873.000000;0.742327
9872.000000;0.742121
9871.000000;0.741953
9870.000000;0.742162
9869.000000;0.742792
9868.000000;0.743427
9867.000000;0.743619
9866.000000;0.743350
9865.000000;0.742958
9864.000000;0.742771
9863.000000;0.742894
9862.000000;0.743181
9861.000000;0.743329
9860.000000;0.743125
9859.000000;0.742725
9858.000000;0.742540
9857.000000;0.742748
9856.000000;0.743057
9855.000000;0.743043
9854.000000;0.742606
9853.000000;0.741990
9852.000000;0.741484
9851.000000;0.741258
9850.000000;0.741387
9849.000000;0.741827
9848.000000;0.742352
9847.000000;0.742646
9846.000000;0.742500
9845.000000;0.741923
9844.000000;0.741139
9843.000000;0.740486
9842.000000;0.740207
9841.000000;0.740239
9840.000000;0.740308
9839.000000;0.740282
9838.000000;0.740315
9837.000000;0.740570
9836.000000;0.740945
9835.000000;0.741200
9834.000000;0.741220
9833.000000;0.741004
9832.000000;0.740528
9831.000000;0.739814
9830.000000;0.739085
9829.000000;0.738632
9828.000000;0.738545
9827.000000;0.738709
9826.000000;0.739036
9825.000000;0.739512
9824.000000;0.739995
9823.000000;0.740184
9822.000000;0.739918
9821.000000;0.739394
9820.000000;0.739008
9819.000000;0.739002
9818.000000;0.739315
9817.000000;0.739676
9816.000000;0.739832
9815.000000;0.739741
9814.000000;0.739596
9813.000000;0.739603
9812.000000;0.739748
9811.000000;0.739831
9810.000000;0.739726
9809.000000;0.739489
9808.000000;0.739179
9807.000000;0.738712
9806.000000;0.737999
9805.000000;0.737170
9804.000000;0.736545
9803.000000;0.736358
9802.000000;0.736568
9801.000000;0.736932
9800.000000;0.737225
9799.000000;0.737400
9798.000000;0.737596
9797.000000;0.737970
9796.000000;0.738462
9795.000000;0.738734
9794.000000;0.738434
9793.000000;0.737562
9792.000000;0.736541
9791.000000;0.735884
9790.000000;0.735800
9789.000000;0.736136
9788.000000;0.736590
9787.000000;0.736901
9786.000000;0.736915
9785.000000;0.736636
9784.000000;0.736298
9783.000000;0.736251
9782.000000;0.736654
9781.000000;0.737289
9780.000000;0.737748
9779.000000;0.737795
9778.000000;0.737497
9777.000000;0.737070
9776.000000;0.736718
9775.000000;0.736623
9774.000000;0.736891
9773.000000;0.737424
9772.000000;0.737894
9771.000000;0.737990
9770.000000;0.737679
9769.000000;0.737151
9768.000000;0.736568
9767.000000;0.735975
9766.000000;0.735474
9765.000000;0.735302
9764.000000;0.735584
9763.000000;0.736083
9762.000000;0.736360
9761.000000;0.736234
9760.000000;0.735939
9759.000000;0.735769
9758.000000;0.735694
9757.000000;0.735474
9756.000000;0.735068
9755.000000;0.734723
9754.000000;0.734670
9753.000000;0.734874
9752.000000;0.735170
9751.000000;0.735466
9750.000000;0.735742
9749.000000;0.735931
9748.000000;0.735946
9747.000000;0.735755
9746.000000;0.735368
9745.000000;0.734801
9744.000000;0.734158
9743.000000;0.733665
9742.000000;0.733528
9741.000000;0.733759
9740.000000;0.734190
9739.000000;0.734612
9738.000000;0.734856
9737.000000;0.734813
9736.000000;0.734541
9735.000000;0.734271
9734.000000;0.734169
9733.000000;0.734101
9732.000000;0.733798
9731.000000;0.733296
9730.000000;0.733028
9729.000000;0.733349
9728.000000;0.734086
9727.000000;0.734690
9726.000000;0.734779
9725.000000;0.734445
9724.000000;0.734029
9723.000000;0.733732
9722.000000;0.733520
9721.000000;0.733326
9720.000000;0.733215
9719.000000;0.733289
9718.000000;0.733486
9717.000000;0.733566
9716.000000;0.733334
9715.000000;0.732813
9714.000000;0.732198
9713.000000;0.731708
9712.000000;0.731507
9711.000000;0.731659
9710.000000;0.732047
9709.000000;0.732382
9708.000000;0.732422
9707.000000;0.732186
9706.000000;0.731878
9705.000000;0.731621
9704.000000;0.731358
9703.000000;0.731028
9702.000000;0.730716
9701.000000;0.730586
9700.000000;0.730709
9699.000000;0.731004
9698.000000;0.731308
9697.000000;0.731473
9696.000000;0.731465
9695.000000;0.731402
9694.000000;0.731476
9693.000000;0.731774
9692.000000;0.732159
9691.000000;0.732350
9690.000000;0.732138
9689.000000;0.731577
9688.000000;0.730968
9687.000000;0.730653
9686.000000;0.730786
9685.000000;0.731269
9684.000000;0.731846
9683.000000;0.732235
9682.000000;0.732225
9681.000000;0.731789
9680.000000;0.731161
9679.000000;0.730720
9678.000000;0.730685
9677.000000;0.730930
9676.000000;0.731110
9675.000000;0.730967
9674.000000;0.730521
9673.000000;0.730003
9672.000000;0.729619
9671.000000;0.729348
9670.000000;0.728984
9669.000000;0.728427
9668.000000;0.727903
9667.000000;0.727786
9666.000000;0.728197
9665.000000;0.728902
9664.000000;0.729593
9663.000000;0.730096
9662.000000;0.730282
9661.000000;0.730040
9660.000000;0.729507
9659.000000;0.729117
9658.000000;0.729176
9657.000000;0.729505
9656.000000;0.729680
9655.000000;0.729557
9654.000000;0.729355
9653.000000;0.729305
9652.000000;0.729452
9651.000000;0.729736
9650.000000;0.730021
9649.000000;0.730053
9648.000000;0.729647
9647.000000;0.728953
9646.000000;0.728339
9645.000000;0.728004
9644.000000;0.727861
9643.000000;0.727802
9642.000000;0.727824
9641.000000;0.727859
9640.000000;0.727756
9639.000000;0.727540
9638.000000;0.727453
9637.000000;0.727614
9636.000000;0.727834
9635.000000;0.727886
9634.000000;0.727776
9633.000000;0.727584
9632.000000;0.727254
9631.000000;0.726753
9630.000000;0.726320
9629.000000;0.726294
9628.000000;0.726710
9627.000000;0.727217
9626.000000;0.727405
9625.000000;0.727144
9624.000000;0.726641
9623.000000;0.726257
9622.000000;0.726233
9621.000000;0.726502
9620.000000;0.726753
9619.000000;0.726740
9618.000000;0.726489
9617.000000;0.726188
9616.000000;0.725988
9615.000000;0.725954
9614.000000;0.726091
9613.000000;0.726331
9612.000000;0.726544
9611.000000;0.726674
9610.000000;0.726757
9609.000000;0.726762
9608.000000;0.726538
9607.000000;0.726044
9606.000000;0.725525
9605.000000;0.725269
9604.000000;0.725264
9603.000000;0.725261
9602.000000;0.725139
9601.000000;0.725025
9600.000000;0.725058
9599.000000;0.725214
9598.000000;0.725408
9597.000000;0.725605
9596.000000;0.725782
9595.000000;0.725871
9594.000000;0.725842
9593.000000;0.725753
9592.000000;0.725687
9591.000000;0.725674
9590.000000;0.725710
9589.000000;0.725747
9588.000000;0.725671
9587.000000;0.725388
9586.000000;0.724993
9585.000000;0.724770
9584.000000;0.724909
9583.000000;0.725272
9582.000000;0.725529
9581.000000;0.725514
9580.000000;0.725370
9579.000000;0.725314
9578.000000;0.725358
9577.000000;0.725306
9576.000000;0.725000
9575.000000;0.724489
9574.000000;0.723963
9573.000000;0.723561
9572.000000;0.723293
9571.000000;0.723105
9570.000000;0.722981
9569.000000;0.722975
9568.000000;0.723160
9567.000000;0.723528
9566.000000;0.723914
9565.000000;0.724067
9564.000000;0.723871
9563.000000;0.723489
9562.000000;0.723202
9561.000000;0.723121
9560.000000;0.723102
9559.000000;0.722967
9558.000000;0.722724
9557.000000;0.722532
9556.000000;0.722514
9555.000000;0.722666
9554.000000;0.722877
9553.000000;0.723000
9552.000000;0.722939
9551.000000;0.722751
9550.000000;0.722603
9549.000000;0.722606
9548.000000;0.722720
9547.000000;0.722876
9546.000000;0.723091
9545.000000;0.723371
9544.000000;0.723560
9543.000000;0.723442
9542.000000;0.723012
9541.000000;0.722530
9540.000000;0.722233
9539.000000;0.722104
9538.000000;0.721977
9537.000000;0.721801
9536.000000;0.721703
9535.000000;0.721811
9534.000000;0.722089
9533.000000;0.722368
9532.000000;0.722506
9531.000000;0.722488
9530.000000;0.722408
9529.000000;0.722350
9528.000000;0.722312
9527.000000;0.722227
9526.000000;0.722055
9525.000000;0.721845
9524.000000;0.721685
9523.000000;0.721606
9522.000000;0.721542
9521.000000;0.721390
9520.000000;0.721084
9519.000000;0.720608
9518.000000;0.720004
9517.000000;0.719386
9516.000000;0.718961
9515.000000;0.718924
9514.000000;0.719285
9513.000000;0.719823
9512.000000;0.720267
9511.000000;0.720507
9510.000000;0.720583
9509.000000;0.720534
9508.000000;0.720355
9507.000000;0.720100
9506.000000;0.719917
9505.000000;0.719893
9504.000000;0.719947
9503.000000;0.719952
9502.000000;0.719916
9501.000000;0.719968
9500.000000;0.720163
9499.000000;0.720389
9498.000000;0.720480
9497.000000;0.720368
9496.000000;0.720112
9495.000000;0.719826
9494.000000;0.719589
9493.000000;0.719375
9492.000000;0.719069
9491.000000;0.718613
9490.000000;0.718166
9489.000000;0.718046
9488.000000;0.718428
9487.000000;0.719116
9486.000000;0.719677
9485.000000;0.719810
9484.000000;0.719549
9483.000000;0.719122
9482.000000;0.718691
9481.000000;0.718272
9480.000000;0.717831
9479.000000;0.717373
9478.000000;0.716939
9477.000000;0.716598
9476.000000;0.716433
9475.000000;0.716499
9474.000000;0.716733
9473.000000;0.716989
9472.000000;0.717165
9471.000000;0.717285
9470.000000;0.717407
9469.000000;0.717514
9468.000000;0.717529
9467.000000;0.717419
9466.000000;0.717215
9465.000000;0.716964
9464.000000;0.716725
9463.000000;0.716591
9462.000000;0.716639
9461.000000;0.716823
9460.000000;0.716977
9459.000000;0.716946
9458.000000;0.716703
9457.000000;0.716335
9456.000000;0.715955
9455.000000;0.715648
9454.000000;0.715460
9453.000000;0.715414
9452.000000;0.715517
9451.000000;0.715735
9450.000000;0.715977
9449.000000;0.716142
9448.000000;0.716229
9447.000000;0.716356
9446.000000;0.716590
9445.000000;0.716799
9444.000000;0.716775
9443.000000;0.716515
9442.000000;0.716267
9441.000000;0.716248
9440.000000;0.716420
9439.000000;0.716599
9438.000000;0.716689
9437.000000;0.716675
9436.000000;0.716483
9435.000000;0.716018
9434.000000;0.715364
9433.000000;0.714802
9432.000000;0.714559
9431.000000;0.714622
9430.000000;0.714823
9429.000000;0.715038
9428.000000;0.715224
9427.000000;0.715357
9426.000000;0.715419
9425.000000;0.715434
9424.000000;0.715410
9423.000000;0.715246
9422.000000;0.714813
9421.000000;0.714169
9420.000000;0.713606
9419.000000;0.713420
9418.000000;0.713632
9417.000000;0.714000
9416.000000;0.714270
9415.000000;0.714390
9414.000000;0.714482
9413.000000;0.714663
9412.000000;0.714929
9411.000000;0.715169
9410.000000;0.715285
9409.000000;0.715259
9408.000000;0.715129
9407.000000;0.714901
9406.000000;0.714544
9405.000000;0.714084
9404.000000;0.713653
9403.000000;0.713396
9402.000000;0.713326
9401.000000;0.713306
9400.000000;0.713193
9399.000000;0.712967
9398.000000;0.712729
9397.000000;0.712596
9396.000000;0.712632
9395.000000;0.712825
9394.000000;0.713099
9393.000000;0.713343
9392.000000;0.713457
9391.000000;0.713391
9390.000000;0.713163
9389.000000;0.712847
9388.000000;0.712548
9387.000000;0.712351
9386.000000;0.712273
9385.000000;0.712279
9384.000000;0.712340
9383.000000;0.712456
9382.000000;0.712627
9381.000000;0.712804
9380.000000;0.712879
9379.000000;0.712732
9378.000000;0.712326
9377.000000;0.711807
9376.000000;0.711457
9375.000000;0.711455
9374.000000;0.711683
9373.000000;0.711837
9372.000000;0.711746
9371.000000;0.711516
9370.000000;0.711339
9369.000000;0.711275
9368.000000;0.711285
9367.000000;0.711378
9366.000000;0.711589
9365.000000;0.711851
9364.000000;0.711997
9363.000000;0.711940
9362.000000;0.711751
9361.000000;0.711551
9360.000000;0.711386
9359.000000;0.711242
9358.000000;0.711142
9357.000000;0.711157
9356.000000;0.711305
9355.000000;0.711482
9354.000000;0.711513
9353.000000;0.711311
9352.000000;0.710963
9351.000000;0.710645
9350.000000;0.710436
9349.000000;0.710275
9348.000000;0.710111
9347.000000;0.710026
9346.000000;0.710146
9345.000000;0.710467
9344.000000;0.710833
9343.000000;0.711070
9342.000000;0.711105
9341.000000;0.710960
9340.000000;0.710702
9339.000000;0.710400
9338.000000;0.710097
9337.000000;0.709821
9336.000000;0.709627
9335.000000;0.709610
9334.000000;0.709824
9333.000000;0.710184
9332.000000;0.710486
9331.000000;0.710548
9330.000000;0.710316
9329.000000;0.709878
9328.000000;0.709415
9327.000000;0.709133
9326.000000;0.709154
9325.000000;0.709431
9324.000000;0.709762
9323.000000;0.709934
9322.000000;0.709873
9321.000000;0.709683
9320.000000;0.709544
9319.000000;0.709567
9318.000000;0.709710
9317.000000;0.709851
9316.000000;0.709903
9315.000000;0.709848
9314.000000;0.709684
9313.000000;0.709434
9312.000000;0.709206
9311.000000;0.709136
9310.000000;0.709199
9309.000000;0.709176
9308.000000;0.708906
9307.000000;0.708513
9306.000000;0.708269
9305.000000;0.708278
9304.000000;0.708402
9303.000000;0.708504
9302.000000;0.708603
9301.000000;0.708754
9300.000000;0.708898
9299.000000;0.708915
9298.000000;0.708768
9297.000000;0.708529
9296.000000;0.708292
9295.000000;0.708122
9294.000000;0.708049
9293.000000;0.708074
9292.000000;0.708160
9291.000000;0.708249
9290.000000;0.708276
9289.000000;0.708193
9288.000000;0.708016
9287.000000;0.707852
9286.000000;0.707827
9285.000000;0.707956
9284.000000;0.708102
9283.000000;0.708078
9282.000000;0.707796
9281.000000;0.707325
9280.000000;0.706848
9279.000000;0.706570
9278.000000;0.706569
9277.000000;0.706721
9276.000000;0.706802
9275.000000;0.706702
9274.000000;0.706507
9273.000000;0.706353
9272.000000;0.706243
9271.000000;0.706096
9270.000000;0.705919
9269.000000;0.705862
9268.000000;0.706042
9267.000000;0.706374
9266.000000;0.706624
9265.000000;0.706625
9264.000000;0.706423
9263.000000;0.706177
9262.000000;0.705993
9261.000000;0.705872
9260.000000;0.705785
9259.000000;0.705722
9258.000000;0.705694
9257.000000;0.705739
9256.000000;0.705924
9255.000000;0.706235
9254.000000;0.706470
9253.000000;0.706364
9252.000000;0.705904
9251.000000;0.705429
9250.000000;0.705291
9249.000000;0.705479
9248.000000;0.705696
9247.000000;0.705735
9246.000000;0.705625
9245.000000;0.705458
9244.000000;0.705253
9243.000000;0.705040
9242.000000;0.704904
9241.000000;0.704876
9240.000000;0.704872
9239.000000;0.704844
9238.000000;0.704858
9237.000000;0.704957
9236.000000;0.705020
9235.000000;0.704919
9234.000000;0.704731
9233.000000;0.704664
9232.000000;0.704799
9231.000000;0.705001
9230.000000;0.705106
9229.000000;0.705062
9228.000000;0.704884
9227.000000;0.704576
9226.000000;0.704186
9225.000000;0.703847
9224.000000;0.703693
9223.000000;0.703733
9222.000000;0.703867
9221.000000;0.704000
9220.000000;0.704084
9219.000000;0.704076
9218.000000;0.703922
9217.000000;0.703629
9216.000000;0.703323
9215.000000;0.703180
9214.000000;0.703274
9213.000000;0.703518
9212.000000;0.703747
9211.000000;0.703845
9210.000000;0.703792
9209.000000;0.703640
9208.000000;0.703461
9207.000000;0.703306
9206.000000;0.703172
9205.000000;0.703030
9204.000000;0.702869
9203.000000;0.702698
9202.000000;0.702489
9201.000000;0.702180
9200.000000;0.701790
9199.000000;0.701501
9198.000000;0.701528
9197.000000;0.701902
9196.000000;0.702418
9195.000000;0.702805
9194.000000;0.702914
9193.000000;0.702787
9192.000000;0.702596
9191.000000;0.702523
9190.000000;0.702617
9189.000000;0.702740
9188.000000;0.702713
9187.000000;0.702518
9186.000000;0.702296
9185.000000;0.702140
9184.000000;0.701997
9183.000000;0.701784
9182.000000;0.701528
9181.000000;0.701305
9180.000000;0.701115
9179.000000;0.700920
9178.000000;0.700774
9177.000000;0.700815
9176.000000;0.701137
9175.000000;0.701672
9174.000000;0.702200
9173.000000;0.702459
9172.000000;0.702311
9171.000000;0.701859
9170.000000;0.701387
9169.000000;0.701125
9168.000000;0.701109
9167.000000;0.701227
9166.000000;0.701328
9165.000000;0.701253
9164.000000;0.700887
9163.000000;0.700349
9162.000000;0.700007
9161.000000;0.700148
9160.000000;0.700611
9159.000000;0.700927
9158.000000;0.700820
9157.000000;0.700452
9156.000000;0.700145
9155.000000;0.700043
9154.000000;0.700127
9153.000000;0.700342
9152.000000;0.700587
9151.000000;0.700687
9150.000000;0.700558
9149.000000;0.700349
9148.000000;0.700256
9147.000000;0.700259
9146.000000;0.700184
9145.000000;0.700008
9144.000000;0.699909
9143.000000;0.699992
9142.000000;0.700121
9141.000000;0.700084
9140.000000;0.699830
9139.000000;0.699461
9138.000000;0.699100
9137.000000;0.698857
9136.000000;0.698829
9135.000000;0.699040
9134.000000;0.699392
9133.000000;0.699722
9132.000000;0.699892
9131.000000;0.699795
9130.000000;0.699391
9129.000000;0.698814
9128.000000;0.698379
9127.000000;0.698344
9126.000000;0.698658
9125.000000;0.699013
9124.000000;0.699135
9123.000000;0.698968
9122.000000;0.698622
9121.000000;0.698245
9120.000000;0.697964
9119.000000;0.697846
9118.000000;0.697867
9117.000000;0.697969
9116.000000;0.698160
9115.000000;0.698484
9114.000000;0.698882
9113.000000;0.699166
9112.000000;0.699175
9111.000000;0.698945
9110.000000;0.698660
9109.000000;0.698464
9108.000000;0.698357
9107.000000;0.698243
9106.000000;0.698057
9105.000000;0.697838
9104.000000;0.697691
9103.000000;0.697667
9102.000000;0.697705
9101.000000;0.697717
9100.000000;0.697697
9099.000000;0.697694
9098.000000;0.697705
9097.000000;0.697689
9096.000000;0.697659
9095.000000;0.697679
9094.000000;0.697717
9093.000000;0.697622
9092.000000;0.697317
9091.000000;0.696942
9090.000000;0.696726
9089.000000;0.696738
9088.000000;0.696853
9087.000000;0.696926
9086.000000;0.696912
9085.000000;0.696844
9084.000000;0.696755
9083.000000;0.696660
9082.000000;0.696569
9081.000000;0.696492
9080.000000;0.696439
9079.000000;0.696407
9078.000000;0.696354
9077.000000;0.696206
9076.000000;0.695950
9075.000000;0.695693
9074.000000;0.695566
9073.000000;0.695583
9072.000000;0.695634
9071.000000;0.695631
9070.000000;0.695613
9069.000000;0.695687
9068.000000;0.695911
9067.000000;0.696245
9066.000000;0.696586
9065.000000;0.696805
9064.000000;0.696796
9063.000000;0.696527
9062.000000;0.696089
9061.000000;0.695656
9060.000000;0.695378
9059.000000;0.695296
9058.000000;0.695344
9057.000000;0.695428
9056.000000;0.695483
9055.000000;0.695488
9054.000000;0.695453
9053.000000;0.695398
