Criado como novo conjunto de dados;"2706_e01_daniel.spp","61385.0 Secs"
cm-1;Abs
10000.000000;0.862261
9999.000000;0.862313
9998.000000;0.863370
9997.000000;0.864485
9996.000000;0.864618
9995.000000;0.863734
9994.000000;0.862280
9993.000000;0.861177
9992.000000;0.861104
9991.000000;0.862139
9990.000000;0.863463
9989.000000;0.864078
9988.000000;0.863668
9987.000000;0.862665
9986.000000;0.861526
9985.000000;0.860388
9984.000000;0.859435
9983.000000;0.859079
9982.000000;0.859486
9981.000000;0.860220
9980.000000;0.860674
9979.000000;0.860690
9978.000000;0.860484
9977.000000;0.860161
9976.000000;0.859675
9975.000000;0.859213
9974.000000;0.859203
9973.000000;0.859804
9972.000000;0.860633
9971.000000;0.861175
9970.000000;0.861307
9969.000000;0.861270
9968.000000;0.861244
9967.000000;0.861111
9966.000000;0.860642
9965.000000;0.859816
9964.000000;0.858910
9963.000000;0.858292
9962.000000;0.858132
9961.000000;0.858276
9960.000000;0.858407
9959.000000;0.858353
9958.000000;0.858237
9957.000000;0.858341
9956.000000;0.858829
9955.000000;0.859552
9954.000000;0.860073
9953.000000;0.859954
9952.000000;0.859139
9951.000000;0.858081
9950.000000;0.857406
9949.000000;0.857409
9948.000000;0.857909
9947.000000;0.858588
9946.000000;0.859294
9945.000000;0.859943
9944.000000;0.860280
9943.000000;0.859995
9942.000000;0.859086
9941.000000;0.857943
9940.000000;0.857026
9939.000000;0.856567
9938.000000;0.856581
9937.000000;0.856997
9936.000000;0.857623
9935.000000;0.858087
9934.000000;0.858024
9933.000000;0.857406
9932.000000;0.856615
9931.000000;0.856096
9930.000000;0.855953
9929.000000;0.855916
9928.000000;0.855685
9927.000000;0.855262
9926.000000;0.854915
9925.000000;0.854876
9924.000000;0.855149
9923.000000;0.855572
9922.000000;0.855943
9921.000000;0.856051
9920.000000;0.855761
9919.000000;0.855218
9918.000000;0.854871
9917.000000;0.855058
9916.000000;0.855596
9915.000000;0.855982
9914.000000;0.856053
9913.000000;0.856175
9912.000000;0.856638
9911.000000;0.857136
9910.000000;0.857091
9909.000000;0.856387
9908.000000;0.855468
9907.000000;0.854770
9906.000000;0.854330
9905.000000;0.854008
9904.000000;0.853824
9903.000000;0.853904
9902.000000;0.854238
9901.000000;0.854650
9900.000000;0.854981
9899.000000;0.855157
9898.000000;0.855103
9897.000000;0.854735
9896.000000;0.854108
9895.000000;0.853491
9894.000000;0.853187
9893.000000;0.853233
9892.000000;0.853346
9891.000000;0.853216
9890.000000;0.852819
9889.000000;0.852388
9888.000000;0.852114
9887.000000;0.851991
9886.000000;0.851956
9885.000000;0.852033
9884.000000;0.852268
9883.000000;0.852602
9882.000000;0.852901
9881.000000;0.853066
9880.000000;0.853035
9879.000000;0.852772
9878.000000;0.852354
9877.000000;0.851961
9876.000000;0.851669
9875.000000;0.851340
9874.000000;0.850851
9873.000000;0.850373
9872.000000;0.850233
9871.000000;0.850452
9870.000000;0.850583
9869.000000;0.850142
9868.000000;0.849155
9867.000000;0.848203
9866.000000;0.847952
9865.000000;0.848603
9864.000000;0.849730
9863.000000;0.850593
9862.000000;0.850693
9861.000000;0.850105
9860.000000;0.849325
9859.000000;0.848805
9858.000000;0.848615
9857.000000;0.848466
9856.000000;0.848012
9855.000000;0.847162
9854.000000;0.846185
9853.000000;0.845497
9852.000000;0.845343
9851.000000;0.845730
9850.000000;0.846578
9849.000000;0.847765
9848.000000;0.848952
9847.000000;0.849604
9846.000000;0.849434
9845.000000;0.848764
9844.000000;0.848226
9843.000000;0.848077
9842.000000;0.847960
9841.000000;0.847362
9840.000000;0.846224
9839.000000;0.845053
9838.000000;0.844536
9837.000000;0.845008
9836.000000;0.846194
9835.000000;0.847434
9834.000000;0.848218
9833.000000;0.848473
9832.000000;0.848364
9831.000000;0.848006
9830.000000;0.847510
9829.000000;0.847157
9828.000000;0.847205
9827.000000;0.847524
9826.000000;0.847663
9825.000000;0.847363
9824.000000;0.846787
9823.000000;0.846231
9822.000000;0.845815
9821.000000;0.845528
9820.000000;0.845373
9819.000000;0.845330
9818.000000;0.845320
9817.000000;0.845307
9816.000000;0.845364
9815.000000;0.845563
9814.000000;0.845904
9813.000000;0.846371
9812.000000;0.846896
9811.000000;0.847223
9810.000000;0.847053
9809.000000;0.846447
9808.000000;0.845900
9807.000000;0.845787
9806.000000;0.845899
9805.000000;0.845718
9804.000000;0.845111
9803.000000;0.844490
9802.000000;0.844282
9801.000000;0.844457
9800.000000;0.844653
9799.000000;0.844611
9798.000000;0.844351
9797.000000;0.844015
9796.000000;0.843673
9795.000000;0.843310
9794.000000;0.842920
9793.000000;0.842560
9792.000000;0.842350
9791.000000;0.842421
9790.000000;0.842794
9789.000000;0.843239
9788.000000;0.843301
9787.000000;0.842670
9786.000000;0.841606
9785.000000;0.840854
9784.000000;0.840966
9783.000000;0.841781
9782.000000;0.842703
9781.000000;0.843359
9780.000000;0.843802
9779.000000;0.844090
9778.000000;0.843994
9777.000000;0.843276
9776.000000;0.842085
9775.000000;0.840952
9774.000000;0.840420
9773.000000;0.840682
9772.000000;0.841445
9771.000000;0.842124
9770.000000;0.842346
9769.000000;0.842317
9768.000000;0.842550
9767.000000;0.843155
9766.000000;0.843632
9765.000000;0.843499
9764.000000;0.842933
9763.000000;0.842570
9762.000000;0.842766
9761.000000;0.843244
9760.000000;0.843418
9759.000000;0.842913
9758.000000;0.841835
9757.000000;0.840692
9756.000000;0.840010
9755.000000;0.839908
9754.000000;0.840053
9753.000000;0.840128
9752.000000;0.840172
9751.000000;0.840340
9750.000000;0.840504
9749.000000;0.840399
9748.000000;0.840084
9747.000000;0.839901
9746.000000;0.839930
9745.000000;0.839827
9744.000000;0.839379
9743.000000;0.838899
9742.000000;0.838822
9741.000000;0.839125
9740.000000;0.839429
9739.000000;0.839508
9738.000000;0.839389
9737.000000;0.839041
9736.000000;0.838369
9735.000000;0.837590
9734.000000;0.837234
9733.000000;0.837572
9732.000000;0.838255
9731.000000;0.838763
9730.000000;0.839062
9729.000000;0.839537
9728.000000;0.840293
9727.000000;0.840813
9726.000000;0.840452
9725.000000;0.839157
9724.000000;0.837571
9723.000000;0.836506
9722.000000;0.836327
9721.000000;0.836741
9720.000000;0.837113
9719.000000;0.837068
9718.000000;0.836850
9717.000000;0.837008
9716.000000;0.837711
9715.000000;0.838502
9714.000000;0.838847
9713.000000;0.838789
9712.000000;0.838849
9711.000000;0.839297
9710.000000;0.839753
9709.000000;0.839599
9708.000000;0.838641
9707.000000;0.837287
9706.000000;0.836125
9705.000000;0.835431
9704.000000;0.835042
9703.000000;0.834638
9702.000000;0.834133
9701.000000;0.833794
9700.000000;0.833940
9699.000000;0.834530
9698.000000;0.835152
9697.000000;0.835433
9696.000000;0.835347
9695.000000;0.835100
9694.000000;0.834854
9693.000000;0.834642
9692.000000;0.834509
9691.000000;0.834576
9690.000000;0.834951
9689.000000;0.835599
9688.000000;0.836293
9687.000000;0.836703
9686.000000;0.836626
9685.000000;0.836245
9684.000000;0.836038
9683.000000;0.836278
9682.000000;0.836639
9681.000000;0.836446
9680.000000;0.835388
9679.000000;0.833871
9678.000000;0.832630
9677.000000;0.832074
9676.000000;0.832074
9675.000000;0.832246
9674.000000;0.832343
9673.000000;0.832398
9672.000000;0.832599
9671.000000;0.833070
9670.000000;0.833730
9669.000000;0.834356
9668.000000;0.834770
9667.000000;0.834925
9666.000000;0.834784
9665.000000;0.834234
9664.000000;0.833254
9663.000000;0.832166
9662.000000;0.831535
9661.000000;0.831695
9660.000000;0.832394
9659.000000;0.832949
9658.000000;0.832809
9657.000000;0.831989
9656.000000;0.831005
9655.000000;0.830428
9654.000000;0.830482
9653.000000;0.830987
9652.000000;0.831626
9651.000000;0.832196
9650.000000;0.832621
9649.000000;0.832826
9648.000000;0.832748
9647.000000;0.832481
9646.000000;0.832272
9645.000000;0.832259
9644.000000;0.832270
9643.000000;0.831974
9642.000000;0.831255
9641.000000;0.830374
9640.000000;0.829776
9639.000000;0.829741
9638.000000;0.830193
9637.000000;0.830769
9636.000000;0.831094
9635.000000;0.831050
9634.000000;0.830803
9633.000000;0.830556
9632.000000;0.830340
9631.000000;0.830084
9630.000000;0.829814
9629.000000;0.829664
9628.000000;0.829688
9627.000000;0.829782
9626.000000;0.829817
9625.000000;0.829791
9624.000000;0.829798
9623.000000;0.829902
9622.000000;0.830056
9621.000000;0.830094
9620.000000;0.829801
9619.000000;0.829086
9618.000000;0.828145
9617.000000;0.827392
9616.000000;0.827172
9615.000000;0.827529
9614.000000;0.828243
9613.000000;0.829018
9612.000000;0.829599
9611.000000;0.829780
9610.000000;0.829441
9609.000000;0.828653
9608.000000;0.827718
9607.000000;0.827029
9606.000000;0.826838
9605.000000;0.827110
9604.000000;0.827579
9603.000000;0.827927
9602.000000;0.827953
9601.000000;0.827664
9600.000000;0.827300
9599.000000;0.827222
9598.000000;0.827634
9597.000000;0.828309
9596.000000;0.828707
9595.000000;0.828474
9594.000000;0.827806
9593.000000;0.827212
9592.000000;0.826974
9591.000000;0.826968
9590.000000;0.826987
9589.000000;0.827061
9588.000000;0.827381
9587.000000;0.827969
9586.000000;0.828527
9585.000000;0.828628
9584.000000;0.828066
9583.000000;0.827055
9582.000000;0.826104
9581.000000;0.825674
9580.000000;0.825922
9579.000000;0.826667
9578.000000;0.827515
9577.000000;0.828021
9576.000000;0.827913
9575.000000;0.827305
9574.000000;0.826609
9573.000000;0.826137
9572.000000;0.825807
9571.000000;0.825346
9570.000000;0.824691
9569.000000;0.824080
9568.000000;0.823780
9567.000000;0.823856
9566.000000;0.824180
9565.000000;0.824505
9564.000000;0.824592
9563.000000;0.824408
9562.000000;0.824209
9561.000000;0.824278
9560.000000;0.824569
9559.000000;0.824750
9558.000000;0.824608
9557.000000;0.824239
9556.000000;0.823841
9555.000000;0.823493
9554.000000;0.823188
9553.000000;0.822943
9552.000000;0.822797
9551.000000;0.822843
9550.000000;0.823228
9549.000000;0.823935
9548.000000;0.824569
9547.000000;0.824596
9546.000000;0.823912
9545.000000;0.822979
9544.000000;0.822327
9543.000000;0.822095
9542.000000;0.822111
9541.000000;0.822153
9540.000000;0.822008
9539.000000;0.821515
9538.000000;0.820820
9537.000000;0.820415
9536.000000;0.820688
9535.000000;0.821501
9534.000000;0.822392
9533.000000;0.823062
9532.000000;0.823467
9531.000000;0.823584
9530.000000;0.823371
9529.000000;0.822978
9528.000000;0.822717
9527.000000;0.822728
9526.000000;0.822826
9525.000000;0.822737
9524.000000;0.822390
9523.000000;0.821950
9522.000000;0.821657
9521.000000;0.821633
9520.000000;0.821770
9519.000000;0.821814
9518.000000;0.821619
9517.000000;0.821317
9516.000000;0.821164
9515.000000;0.821264
9514.000000;0.821519
9513.000000;0.821784
9512.000000;0.821965
9511.000000;0.821968
9510.000000;0.821680
9509.000000;0.821101
9508.000000;0.820447
9507.000000;0.820040
9506.000000;0.820023
9505.000000;0.820157
9504.000000;0.819978
9503.000000;0.819264
9502.000000;0.818360
9501.000000;0.817910
9500.000000;0.818237
9499.000000;0.819075
9498.000000;0.819902
9497.000000;0.820419
9496.000000;0.820646
9495.000000;0.820711
9494.000000;0.820664
9493.000000;0.820436
9492.000000;0.819899
9491.000000;0.819055
9490.000000;0.818223
9489.000000;0.817898
9488.000000;0.818284
9487.000000;0.819069
9486.000000;0.819749
9485.000000;0.820092
9484.000000;0.820164
9483.000000;0.820042
9482.000000;0.819710
9481.000000;0.819230
9480.000000;0.818798
9479.000000;0.818557
9478.000000;0.818420
9477.000000;0.818156
9476.000000;0.817625
9475.000000;0.816947
9474.000000;0.816441
9473.000000;0.816353
9472.000000;0.816615
9471.000000;0.816907
9470.000000;0.816959
9469.000000;0.816752
9468.000000;0.816451
9467.000000;0.816252
9466.000000;0.816281
9465.000000;0.816489
9464.000000;0.816593
9463.000000;0.816274
9462.000000;0.815539
9461.000000;0.814775
9460.000000;0.814371
9459.000000;0.814409
9458.000000;0.814730
9457.000000;0.815121
9456.000000;0.815361
9455.000000;0.815343
9454.000000;0.815294
9453.000000;0.815629
9452.000000;0.816403
9451.000000;0.817071
9450.000000;0.817074
9449.000000;0.816487
9448.000000;0.815879
9447.000000;0.815663
9446.000000;0.815840
9445.000000;0.816236
9444.000000;0.816651
9443.000000;0.816802
9442.000000;0.816463
9441.000000;0.815746
9440.000000;0.815049
9439.000000;0.814688
9438.000000;0.814733
9437.000000;0.815112
9436.000000;0.815654
9435.000000;0.816049
9434.000000;0.816046
9433.000000;0.815741
9432.000000;0.815474
9431.000000;0.815395
9430.000000;0.815333
9429.000000;0.815105
9428.000000;0.814734
9427.000000;0.814335
9426.000000;0.813982
9425.000000;0.813758
9424.000000;0.813733
9423.000000;0.813825
9422.000000;0.813876
9421.000000;0.813918
9420.000000;0.814167
9419.000000;0.814665
9418.000000;0.815098
9417.000000;0.815135
9416.000000;0.814795
9415.000000;0.814369
9414.000000;0.814101
9413.000000;0.814032
9412.000000;0.814034
9411.000000;0.813884
9410.000000;0.813436
9409.000000;0.812840
9408.000000;0.812487
9407.000000;0.812588
9406.000000;0.812891
9405.000000;0.812954
9404.000000;0.812651
9403.000000;0.812260
9402.000000;0.812101
9401.000000;0.812242
9400.000000;0.812538
9399.000000;0.812816
9398.000000;0.812932
9397.000000;0.812795
9396.000000;0.812448
9395.000000;0.812124
9394.000000;0.812084
9393.000000;0.812375
9392.000000;0.812764
9391.000000;0.812950
9390.000000;0.812832
9389.000000;0.812545
9388.000000;0.812292
9387.000000;0.812191
9386.000000;0.812261
9385.000000;0.812427
9384.000000;0.812522
9383.000000;0.812365
9382.000000;0.811920
9381.000000;0.811342
9380.000000;0.810840
9379.000000;0.810523
9378.000000;0.810412
9377.000000;0.810507
9376.000000;0.810753
9375.000000;0.810975
9374.000000;0.810949
9373.000000;0.810593
9372.000000;0.810092
9371.000000;0.809848
9370.000000;0.810199
9369.000000;0.811079
9368.000000;0.811932
9367.000000;0.812125
9366.000000;0.811500
9365.000000;0.810428
9364.000000;0.809338
9363.000000;0.808412
9362.000000;0.807775
9361.000000;0.807652
9360.000000;0.808084
9359.000000;0.808645
9358.000000;0.808761
9357.000000;0.808301
9356.000000;0.807668
9355.000000;0.807309
9354.000000;0.807359
9353.000000;0.807713
9352.000000;0.808192
9351.000000;0.808607
9350.000000;0.808830
9349.000000;0.808910
9348.000000;0.808988
9347.000000;0.809078
9346.000000;0.809033
9345.000000;0.808733
9344.000000;0.808223
9343.000000;0.807634
9342.000000;0.807098
9341.000000;0.806713
9340.000000;0.806525
9339.000000;0.806487
9338.000000;0.806528
9337.000000;0.806628
9336.000000;0.806765
9335.000000;0.806856
9334.000000;0.806867
9333.000000;0.806920
9332.000000;0.807104
9331.000000;0.807230
9330.000000;0.806994
9329.000000;0.806415
9328.000000;0.805909
9327.000000;0.805829
9326.000000;0.806098
9325.000000;0.806379
9324.000000;0.806484
9323.000000;0.806510
9322.000000;0.806629
9321.000000;0.806864
9320.000000;0.807068
9319.000000;0.807085
9318.000000;0.806944
9317.000000;0.806828
9316.000000;0.806828
9315.000000;0.806758
9314.000000;0.806371
9313.000000;0.805721
9312.000000;0.805196
9311.000000;0.805134
9310.000000;0.805509
9309.000000;0.805994
9308.000000;0.806254
9307.000000;0.806188
9306.000000;0.805989
9305.000000;0.805969
9304.000000;0.806249
9303.000000;0.806603
9302.000000;0.806705
9301.000000;0.806480
9300.000000;0.806088
9299.000000;0.805615
9298.000000;0.805003
9297.000000;0.804314
9296.000000;0.803839
9295.000000;0.803808
9294.000000;0.804086
9293.000000;0.804281
9292.000000;0.804101
9291.000000;0.803595
9290.000000;0.803127
9289.000000;0.803147
9288.000000;0.803820
9287.000000;0.804805
9286.000000;0.805497
9285.000000;0.805553
9284.000000;0.805107
9283.000000;0.804465
9282.000000;0.803797
9281.000000;0.803221
9280.000000;0.802950
9279.000000;0.803095
9278.000000;0.803409
9277.000000;0.803459
9276.000000;0.803092
9275.000000;0.802591
9274.000000;0.802345
9273.000000;0.802504
9272.000000;0.802948
9271.000000;0.803449
9270.000000;0.803782
9269.000000;0.803762
9268.000000;0.803316
9267.000000;0.802573
9266.000000;0.801832
9265.000000;0.801382
9264.000000;0.801303
9263.000000;0.801434
9262.000000;0.801562
9261.000000;0.801634
9260.000000;0.801761
9259.000000;0.802000
9258.000000;0.802218
9257.000000;0.802210
9256.000000;0.801949
9255.000000;0.801627
9254.000000;0.801456
9253.000000;0.801469
9252.000000;0.801534
9251.000000;0.801503
9250.000000;0.801314
9249.000000;0.800982
9248.000000;0.800602
9247.000000;0.800365
9246.000000;0.800458
9245.000000;0.800817
9244.000000;0.801048
9243.000000;0.800752
9242.000000;0.799964
9241.000000;0.799147
9240.000000;0.798718
9239.000000;0.798705
9238.000000;0.798895
9237.000000;0.799165
9236.000000;0.799530
9235.000000;0.799973
9234.000000;0.800382
9233.000000;0.800619
9232.000000;0.800570
9231.000000;0.800205
9230.000000;0.799714
9229.000000;0.799456
9228.000000;0.799599
9227.000000;0.799844
9226.000000;0.799743
9225.000000;0.799246
9224.000000;0.798760
9223.000000;0.798611
9222.000000;0.798681
9221.000000;0.798651
9220.000000;0.798427
9219.000000;0.798162
9218.000000;0.797981
9217.000000;0.797852
9216.000000;0.797719
9215.000000;0.797621
9214.000000;0.797664
9213.000000;0.797894
9212.000000;0.798230
9211.000000;0.798501
9210.000000;0.798575
9209.000000;0.798465
9208.000000;0.798296
9207.000000;0.798171
9206.000000;0.798096
9205.000000;0.798012
9204.000000;0.797847
9203.000000;0.797565
9202.000000;0.797213
9201.000000;0.796919
9200.000000;0.796785
9199.000000;0.796788
9198.000000;0.796831
9197.000000;0.796875
9196.000000;0.796945
9195.000000;0.797034
9194.000000;0.797081
9193.000000;0.797036
9192.000000;0.796888
9191.000000;0.796619
9190.000000;0.796238
9189.000000;0.795851
9188.000000;0.795604
9187.000000;0.795510
9186.000000;0.795437
9185.000000;0.795284
9184.000000;0.795117
9183.000000;0.795075
9182.000000;0.795214
9181.000000;0.795473
9180.000000;0.795766
9179.000000;0.796054
9178.000000;0.796333
9177.000000;0.796563
9176.000000;0.796633
9175.000000;0.796471
9174.000000;0.796171
9173.000000;0.795950
9172.000000;0.795896
9171.000000;0.795812
9170.000000;0.795432
9169.000000;0.794758
9168.000000;0.794099
9167.000000;0.793763
9166.000000;0.793808
9165.000000;0.794069
9164.000000;0.794344
9163.000000;0.794506
9162.000000;0.794528
9161.000000;0.794454
9160.000000;0.794329
9159.000000;0.794131
9158.000000;0.793801
9157.000000;0.793336
9156.000000;0.792849
9155.000000;0.792524
9154.000000;0.792496
9153.000000;0.792723
9152.000000;0.792962
9151.000000;0.792948
9150.000000;0.792661
9149.000000;0.792358
9148.000000;0.792278
9147.000000;0.792367
9146.000000;0.792373
9145.000000;0.792132
9144.000000;0.791696
9143.000000;0.791236
9142.000000;0.790942
9141.000000;0.790964
9140.000000;0.791300
9139.000000;0.791723
9138.000000;0.791944
9137.000000;0.791886
9136.000000;0.791758
9135.000000;0.791844
9134.000000;0.792273
9133.000000;0.792941
9132.000000;0.793562
9131.000000;0.793799
9130.000000;0.793478
9129.000000;0.792721
9128.000000;0.791856
9127.000000;0.791212
9126.000000;0.790972
9125.000000;0.791108
9124.000000;0.791340
9123.000000;0.791298
9122.000000;0.790874
9121.000000;0.790373
9120.000000;0.790182
9119.000000;0.790332
9118.000000;0.790537
9117.000000;0.790594
9116.000000;0.790596
9115.000000;0.790728
9114.000000;0.791027
9113.000000;0.791339
9112.000000;0.791435
9111.000000;0.791179
9110.000000;0.790696
9109.000000;0.790344
9108.000000;0.790338
9107.000000;0.790476
9106.000000;0.790379
9105.000000;0.789983
9104.000000;0.789570
9103.000000;0.789350
9102.000000;0.789256
9101.000000;0.789184
9100.000000;0.789172
9099.000000;0.789223
9098.000000;0.789184
9097.000000;0.788948
9096.000000;0.788626
9095.000000;0.788383
9094.000000;0.788231
9093.000000;0.788121
9092.000000;0.788091
9091.000000;0.788183
9090.000000;0.788312
9089.000000;0.788354
9088.000000;0.788292
9087.000000;0.788160
9086.000000;0.787935
9085.000000;0.787621
9084.000000;0.787336
9083.000000;0.787205
9082.000000;0.787201
9081.000000;0.787219
9080.000000;0.787246
9079.000000;0.787332
9078.000000;0.787431
9077.000000;0.787425
9076.000000;0.787295
9075.000000;0.787138
9074.000000;0.787014
9073.000000;0.786862
9072.000000;0.786594
9071.000000;0.786191
9070.000000;0.785700
9069.000000;0.785224
9068.000000;0.784934
9067.000000;0.784994
9066.000000;0.785402
9065.000000;0.785917
9064.000000;0.786232
9063.000000;0.786249
9062.000000;0.786141
9061.000000;0.786104
9060.000000;0.786099
9059.000000;0.785917
9058.000000;0.785510
9057.000000;0.785126
9056.000000;0.785020
9055.000000;0.785158
9054.000000;0.785317
9053.000000;0.785403
