Criado como novo conjunto de dados;"2706_e01_daniel.spp","77405.9 Secs"
cm-1;Abs
10000.000000;0.780411
9999.000000;0.781226
9998.000000;0.781626
9997.000000;0.780964
9996.000000;0.780118
9995.000000;0.780252
9994.000000;0.781225
9993.000000;0.781814
9992.000000;0.781255
9991.000000;0.779986
9990.000000;0.778966
9989.000000;0.778769
9988.000000;0.779311
9987.000000;0.780001
9986.000000;0.780113
9985.000000;0.779322
9984.000000;0.778012
9983.000000;0.776904
9982.000000;0.776392
9981.000000;0.776350
9980.000000;0.776478
9979.000000;0.776619
9978.000000;0.776758
9977.000000;0.776882
9976.000000;0.776930
9975.000000;0.776844
9974.000000;0.776699
9973.000000;0.776763
9972.000000;0.777249
9971.000000;0.777939
9970.000000;0.778273
9969.000000;0.778003
9968.000000;0.777581
9967.000000;0.777642
9966.000000;0.778188
9965.000000;0.778564
9964.000000;0.778250
9963.000000;0.777414
9962.000000;0.776616
9961.000000;0.776215
9960.000000;0.776232
9959.000000;0.776551
9958.000000;0.776988
9957.000000;0.777211
9956.000000;0.776900
9955.000000;0.776128
9954.000000;0.775442
9953.000000;0.775410
9952.000000;0.776073
9951.000000;0.776930
9950.000000;0.777446
9949.000000;0.777494
9948.000000;0.777296
9947.000000;0.777053
9946.000000;0.776717
9945.000000;0.776091
9944.000000;0.775143
9943.000000;0.774245
9942.000000;0.774001
9941.000000;0.774653
9940.000000;0.775686
9939.000000;0.776207
9938.000000;0.775817
9937.000000;0.774928
9936.000000;0.774151
9935.000000;0.773673
9934.000000;0.773370
9933.000000;0.773222
9932.000000;0.773295
9931.000000;0.773440
9930.000000;0.773399
9929.000000;0.773187
9928.000000;0.773087
9927.000000;0.773230
9926.000000;0.773395
9925.000000;0.773301
9924.000000;0.772919
9923.000000;0.772385
9922.000000;0.771759
9921.000000;0.771014
9920.000000;0.770223
9919.000000;0.769686
9918.000000;0.769773
9917.000000;0.770533
9916.000000;0.771487
9915.000000;0.771982
9914.000000;0.771799
9913.000000;0.771285
9912.000000;0.770860
9911.000000;0.770595
9910.000000;0.770355
9909.000000;0.770065
9908.000000;0.769693
9907.000000;0.769230
9906.000000;0.768931
9905.000000;0.769282
9904.000000;0.770352
9903.000000;0.771390
9902.000000;0.771516
9901.000000;0.770746
9900.000000;0.769932
9899.000000;0.769736
9898.000000;0.770022
9897.000000;0.770300
9896.000000;0.770357
9895.000000;0.770289
9894.000000;0.770153
9893.000000;0.769843
9892.000000;0.769293
9891.000000;0.768705
9890.000000;0.768535
9889.000000;0.769055
9888.000000;0.769834
9887.000000;0.769921
9886.000000;0.768832
9885.000000;0.767156
9884.000000;0.765908
9883.000000;0.765490
9882.000000;0.765635
9881.000000;0.766144
9880.000000;0.767090
9879.000000;0.768272
9878.000000;0.769063
9877.000000;0.769061
9876.000000;0.768512
9875.000000;0.767884
9874.000000;0.767355
9873.000000;0.766917
9872.000000;0.766648
9871.000000;0.766590
9870.000000;0.766545
9869.000000;0.766221
9868.000000;0.765542
9867.000000;0.764738
9866.000000;0.764233
9865.000000;0.764424
9864.000000;0.765328
9863.000000;0.766399
9862.000000;0.766949
9861.000000;0.766803
9860.000000;0.766338
9859.000000;0.765857
9858.000000;0.765300
9857.000000;0.764621
9856.000000;0.764041
9855.000000;0.763716
9854.000000;0.763491
9853.000000;0.763250
9852.000000;0.763222
9851.000000;0.763628
9850.000000;0.764196
9849.000000;0.764397
9848.000000;0.764096
9847.000000;0.763711
9846.000000;0.763687
9845.000000;0.763988
9844.000000;0.764152
9843.000000;0.763807
9842.000000;0.763147
9841.000000;0.762842
9840.000000;0.763350
9839.000000;0.764344
9838.000000;0.765015
9837.000000;0.764932
9836.000000;0.764344
9835.000000;0.763605
9834.000000;0.762747
9833.000000;0.761761
9832.000000;0.760892
9831.000000;0.760349
9830.000000;0.760014
9829.000000;0.759790
9828.000000;0.759971
9827.000000;0.760791
9826.000000;0.761787
9825.000000;0.762141
9824.000000;0.761731
9823.000000;0.761354
9822.000000;0.761739
9821.000000;0.762691
9820.000000;0.763451
9819.000000;0.763631
9818.000000;0.763466
9817.000000;0.763264
9816.000000;0.762959
9815.000000;0.762337
9814.000000;0.761501
9813.000000;0.760909
9812.000000;0.760929
9811.000000;0.761443
9810.000000;0.761943
9809.000000;0.762021
9808.000000;0.761693
9807.000000;0.761256
9806.000000;0.760943
9805.000000;0.760759
9804.000000;0.760614
9803.000000;0.760458
9802.000000;0.760201
9801.000000;0.759663
9800.000000;0.758796
9799.000000;0.757956
9798.000000;0.757718
9797.000000;0.758261
9796.000000;0.759069
9795.000000;0.759437
9794.000000;0.759242
9793.000000;0.758938
9792.000000;0.758841
9791.000000;0.758754
9790.000000;0.758410
9789.000000;0.757925
9788.000000;0.757582
9787.000000;0.757403
9786.000000;0.757288
9785.000000;0.757404
9784.000000;0.758042
9783.000000;0.759082
9782.000000;0.759899
9781.000000;0.759884
9780.000000;0.758929
9779.000000;0.757415
9778.000000;0.755990
9777.000000;0.755315
9776.000000;0.755666
9775.000000;0.756642
9774.000000;0.757475
9773.000000;0.757760
9772.000000;0.757715
9771.000000;0.757675
9770.000000;0.757572
9769.000000;0.757079
9768.000000;0.756115
9767.000000;0.755031
9766.000000;0.754344
9765.000000;0.754378
9764.000000;0.755073
9763.000000;0.756017
9762.000000;0.756688
9761.000000;0.756751
9760.000000;0.756183
9759.000000;0.755230
9758.000000;0.754296
9757.000000;0.753749
9756.000000;0.753665
9755.000000;0.753810
9754.000000;0.754006
9753.000000;0.754413
9752.000000;0.755214
9751.000000;0.756129
9750.000000;0.756558
9749.000000;0.756292
9748.000000;0.755748
9747.000000;0.755397
9746.000000;0.755238
9745.000000;0.755024
9744.000000;0.754762
9743.000000;0.754700
9742.000000;0.754942
9741.000000;0.755313
9740.000000;0.755599
9739.000000;0.755738
9738.000000;0.755763
9737.000000;0.755643
9736.000000;0.755235
9735.000000;0.754400
9734.000000;0.753235
9733.000000;0.752165
9732.000000;0.751673
9731.000000;0.751868
9730.000000;0.752441
9729.000000;0.753052
9728.000000;0.753627
9727.000000;0.754177
9726.000000;0.754507
9725.000000;0.754338
9724.000000;0.753666
9723.000000;0.752845
9722.000000;0.752290
9721.000000;0.752197
9720.000000;0.752476
9719.000000;0.752834
9718.000000;0.752903
9717.000000;0.752472
9716.000000;0.751690
9715.000000;0.750995
9714.000000;0.750721
9713.000000;0.750766
9712.000000;0.750726
9711.000000;0.750426
9710.000000;0.750180
9709.000000;0.750383
9708.000000;0.750906
9707.000000;0.751161
9706.000000;0.750812
9705.000000;0.750175
9704.000000;0.749748
9703.000000;0.749622
9702.000000;0.749582
9701.000000;0.749559
9700.000000;0.749622
9699.000000;0.749612
9698.000000;0.749225
9697.000000;0.748554
9696.000000;0.748195
9695.000000;0.748613
9694.000000;0.749571
9693.000000;0.750364
9692.000000;0.750551
9691.000000;0.750310
9690.000000;0.750090
9689.000000;0.750042
9688.000000;0.749851
9687.000000;0.749174
9686.000000;0.748185
9685.000000;0.747488
9684.000000;0.747408
9683.000000;0.747598
9682.000000;0.747542
9681.000000;0.747289
9680.000000;0.747348
9679.000000;0.747922
9678.000000;0.748614
9677.000000;0.748910
9676.000000;0.748646
9675.000000;0.747957
9674.000000;0.747114
9673.000000;0.746541
9672.000000;0.746660
9671.000000;0.747457
9670.000000;0.748385
9669.000000;0.748871
9668.000000;0.748823
9667.000000;0.748493
9666.000000;0.748044
9665.000000;0.747484
9664.000000;0.746867
9663.000000;0.746309
9662.000000;0.745864
9661.000000;0.745557
9660.000000;0.745514
9659.000000;0.745870
9658.000000;0.746539
9657.000000;0.747186
9656.000000;0.747459
9655.000000;0.747259
9654.000000;0.746798
9653.000000;0.746410
9652.000000;0.746264
9651.000000;0.746242
9650.000000;0.746129
9649.000000;0.745873
9648.000000;0.745586
9647.000000;0.745358
9646.000000;0.745252
9645.000000;0.745399
9644.000000;0.745857
9643.000000;0.746339
9642.000000;0.746356
9641.000000;0.745737
9640.000000;0.744818
9639.000000;0.744013
9638.000000;0.743442
9637.000000;0.743124
9636.000000;0.743195
9635.000000;0.743668
9634.000000;0.744171
9633.000000;0.744289
9632.000000;0.744085
9631.000000;0.743954
9630.000000;0.743933
9629.000000;0.743556
9628.000000;0.742571
9627.000000;0.741499
9626.000000;0.741117
9625.000000;0.741512
9624.000000;0.741958
9623.000000;0.741803
9622.000000;0.741231
9621.000000;0.740899
9620.000000;0.741012
9619.000000;0.741144
9618.000000;0.740979
9617.000000;0.740843
9616.000000;0.741192
9615.000000;0.741856
9614.000000;0.742212
9613.000000;0.742041
9612.000000;0.741768
9611.000000;0.741749
9610.000000;0.741748
9609.000000;0.741428
9608.000000;0.741030
9607.000000;0.741133
9606.000000;0.741778
9605.000000;0.742236
9604.000000;0.741851
9603.000000;0.740863
9602.000000;0.740130
9601.000000;0.740098
9600.000000;0.740329
9599.000000;0.740126
9598.000000;0.739413
9597.000000;0.738758
9596.000000;0.738588
9595.000000;0.738685
9594.000000;0.738578
9593.000000;0.738223
9592.000000;0.738042
9591.000000;0.738376
9590.000000;0.739101
9589.000000;0.739766
9588.000000;0.739966
9587.000000;0.739583
9586.000000;0.738838
9585.000000;0.738168
9584.000000;0.737959
9583.000000;0.738321
9582.000000;0.739070
9581.000000;0.739848
9580.000000;0.740223
9579.000000;0.739881
9578.000000;0.738950
9577.000000;0.738049
9576.000000;0.737791
9575.000000;0.738226
9574.000000;0.738876
9573.000000;0.739256
9572.000000;0.739221
9571.000000;0.738862
9570.000000;0.738352
9569.000000;0.737957
9568.000000;0.737951
9567.000000;0.738383
9566.000000;0.738981
9565.000000;0.739373
9564.000000;0.739354
9563.000000;0.739000
9562.000000;0.738592
9561.000000;0.738393
9560.000000;0.738370
9559.000000;0.738232
9558.000000;0.737838
9557.000000;0.737468
9556.000000;0.737455
9555.000000;0.737672
9554.000000;0.737634
9553.000000;0.737092
9552.000000;0.736288
9551.000000;0.735626
9550.000000;0.735389
9549.000000;0.735721
9548.000000;0.736540
9547.000000;0.737349
9546.000000;0.737497
9545.000000;0.736847
9544.000000;0.735974
9543.000000;0.735537
9542.000000;0.735618
9541.000000;0.735771
9540.000000;0.735567
9539.000000;0.734993
9538.000000;0.734456
9537.000000;0.734495
9536.000000;0.735296
9535.000000;0.736381
9534.000000;0.736932
9533.000000;0.736569
9532.000000;0.735675
9531.000000;0.734872
9530.000000;0.734442
9529.000000;0.734371
9528.000000;0.734668
9527.000000;0.735315
9526.000000;0.736019
9525.000000;0.736318
9524.000000;0.736020
9523.000000;0.735405
9522.000000;0.734942
9521.000000;0.734872
9520.000000;0.735036
9519.000000;0.735044
9518.000000;0.734638
9517.000000;0.733942
9516.000000;0.733350
9515.000000;0.733154
9514.000000;0.733334
9513.000000;0.733647
9512.000000;0.733838
9511.000000;0.733800
9510.000000;0.733661
9509.000000;0.733720
9508.000000;0.734138
9507.000000;0.734657
9506.000000;0.734819
9505.000000;0.734490
9504.000000;0.734016
9503.000000;0.733793
9502.000000;0.733857
9501.000000;0.733942
9500.000000;0.733774
9499.000000;0.733228
9498.000000;0.732387
9497.000000;0.731595
9496.000000;0.731324
9495.000000;0.731777
9494.000000;0.732590
9493.000000;0.733026
9492.000000;0.732552
9491.000000;0.731322
9490.000000;0.730121
9489.000000;0.729722
9488.000000;0.730182
9487.000000;0.730793
9486.000000;0.730846
9485.000000;0.730374
9484.000000;0.729998
9483.000000;0.730161
9482.000000;0.730766
9481.000000;0.731458
9480.000000;0.731902
9479.000000;0.731808
9478.000000;0.731089
9477.000000;0.730133
9476.000000;0.729576
9475.000000;0.729606
9474.000000;0.729739
9473.000000;0.729438
9472.000000;0.728778
9471.000000;0.728278
9470.000000;0.728252
9469.000000;0.728508
9468.000000;0.728606
9467.000000;0.728273
9466.000000;0.727668
9465.000000;0.727262
9464.000000;0.727369
9463.000000;0.727774
9462.000000;0.727985
9461.000000;0.727820
9460.000000;0.727520
9459.000000;0.727288
9458.000000;0.727075
9457.000000;0.726901
9456.000000;0.726992
9455.000000;0.727347
9454.000000;0.727524
9453.000000;0.727176
9452.000000;0.726579
9451.000000;0.726322
9450.000000;0.726619
9449.000000;0.727188
9448.000000;0.727633
9447.000000;0.727709
9446.000000;0.727401
9445.000000;0.727010
9444.000000;0.727013
9443.000000;0.727539
9442.000000;0.728068
9441.000000;0.727970
9440.000000;0.727258
9439.000000;0.726512
9438.000000;0.726113
9437.000000;0.725898
9436.000000;0.725604
9435.000000;0.725315
9434.000000;0.725310
9433.000000;0.725668
9432.000000;0.726167
9431.000000;0.726533
9430.000000;0.726655
9429.000000;0.726558
9428.000000;0.726231
9427.000000;0.725607
9426.000000;0.724790
9425.000000;0.724185
9424.000000;0.724129
9423.000000;0.724396
9422.000000;0.724385
9421.000000;0.723971
9420.000000;0.723813
9419.000000;0.724491
9418.000000;0.725599
9417.000000;0.726121
9416.000000;0.725633
9415.000000;0.724703
9414.000000;0.724069
9413.000000;0.723860
9412.000000;0.723800
9411.000000;0.723824
9410.000000;0.724116
9409.000000;0.724652
9408.000000;0.725028
9407.000000;0.724868
9406.000000;0.724261
9405.000000;0.723663
9404.000000;0.723408
9403.000000;0.723473
9402.000000;0.723714
9401.000000;0.724121
9400.000000;0.724642
9399.000000;0.724905
9398.000000;0.724485
9397.000000;0.723521
9396.000000;0.722758
9395.000000;0.722755
9394.000000;0.723249
9393.000000;0.723501
9392.000000;0.723127
9391.000000;0.722385
9390.000000;0.721762
9389.000000;0.721530
9388.000000;0.721669
9387.000000;0.721969
9386.000000;0.722189
9385.000000;0.722245
9384.000000;0.722221
9383.000000;0.722133
9382.000000;0.721802
9381.000000;0.721184
9380.000000;0.720676
9379.000000;0.720805
9378.000000;0.721561
9377.000000;0.722301
9376.000000;0.722413
9375.000000;0.721925
9374.000000;0.721339
9373.000000;0.721038
9372.000000;0.721007
9371.000000;0.721040
9370.000000;0.721038
9369.000000;0.721044
9368.000000;0.721069
9367.000000;0.721004
9366.000000;0.720736
9365.000000;0.720314
9364.000000;0.719905
9363.000000;0.719603
9362.000000;0.719348
9361.000000;0.719051
9360.000000;0.718716
9359.000000;0.718395
9358.000000;0.718128
9357.000000;0.717994
9356.000000;0.718122
9355.000000;0.718549
9354.000000;0.719114
9353.000000;0.719576
9352.000000;0.719784
9351.000000;0.719691
9350.000000;0.719291
9349.000000;0.718645
9348.000000;0.717944
9347.000000;0.717460
9346.000000;0.717410
9345.000000;0.717852
9344.000000;0.718617
9343.000000;0.719322
9342.000000;0.719555
9341.000000;0.719183
9340.000000;0.718452
9339.000000;0.717762
9338.000000;0.717366
9337.000000;0.717271
9336.000000;0.717327
9335.000000;0.717368
9334.000000;0.717357
9333.000000;0.717430
9332.000000;0.717717
9331.000000;0.718085
9330.000000;0.718201
9329.000000;0.717902
9328.000000;0.717402
9327.000000;0.717036
9326.000000;0.716920
9325.000000;0.716969
9324.000000;0.717124
9323.000000;0.717408
9322.000000;0.717771
9321.000000;0.718025
9320.000000;0.717996
9319.000000;0.717677
9318.000000;0.717216
9317.000000;0.716746
9316.000000;0.716271
9315.000000;0.715761
9314.000000;0.715344
9313.000000;0.715245
9312.000000;0.715438
9311.000000;0.715530
9310.000000;0.715223
9309.000000;0.714779
9308.000000;0.714747
9307.000000;0.715196
9306.000000;0.715550
9305.000000;0.715284
9304.000000;0.714518
9303.000000;0.713788
9302.000000;0.713469
9301.000000;0.713623
9300.000000;0.714136
9299.000000;0.714747
9298.000000;0.715057
9297.000000;0.714825
9296.000000;0.714260
9295.000000;0.713866
9294.000000;0.713964
9293.000000;0.714411
9292.000000;0.714742
9291.000000;0.714584
9290.000000;0.714025
9289.000000;0.713605
9288.000000;0.713789
9287.000000;0.714408
9286.000000;0.714775
9285.000000;0.714435
9284.000000;0.713618
9283.000000;0.712837
9282.000000;0.712307
9281.000000;0.711981
9280.000000;0.711910
9279.000000;0.712223
9278.000000;0.712792
9277.000000;0.713199
9276.000000;0.713126
9275.000000;0.712677
9274.000000;0.712261
9273.000000;0.712190
9272.000000;0.712370
9271.000000;0.712391
9270.000000;0.712026
9269.000000;0.711575
9268.000000;0.711499
9267.000000;0.711737
9266.000000;0.711719
9265.000000;0.711170
9264.000000;0.710539
9263.000000;0.710358
9262.000000;0.710501
9261.000000;0.710453
9260.000000;0.710094
9259.000000;0.709774
9258.000000;0.709681
9257.000000;0.709598
9256.000000;0.709367
9255.000000;0.709218
9254.000000;0.709454
9253.000000;0.710026
9252.000000;0.710608
9251.000000;0.710960
9250.000000;0.711086
9249.000000;0.711086
9248.000000;0.710979
9247.000000;0.710686
9246.000000;0.710189
9245.000000;0.709644
9244.000000;0.709261
9243.000000;0.709039
9242.000000;0.708754
9241.000000;0.708332
9240.000000;0.708082
9239.000000;0.708375
9238.000000;0.709110
9237.000000;0.709720
9236.000000;0.709737
9235.000000;0.709234
9234.000000;0.708634
9233.000000;0.708209
9232.000000;0.707891
9231.000000;0.707557
9230.000000;0.707350
9229.000000;0.707541
9228.000000;0.708103
9227.000000;0.708614
9226.000000;0.708752
9225.000000;0.708723
9224.000000;0.708931
9223.000000;0.709314
9222.000000;0.709369
9221.000000;0.708862
9220.000000;0.708171
9219.000000;0.707751
9218.000000;0.707620
9217.000000;0.707571
9216.000000;0.707617
9215.000000;0.707900
9214.000000;0.708314
9213.000000;0.708541
9212.000000;0.708381
9211.000000;0.707872
9210.000000;0.707177
9209.000000;0.706557
9208.000000;0.706269
9207.000000;0.706305
9206.000000;0.706326
9205.000000;0.706103
9204.000000;0.705848
9203.000000;0.705849
9202.000000;0.705949
9201.000000;0.705729
9200.000000;0.705141
9199.000000;0.704588
9198.000000;0.704368
9197.000000;0.704355
9196.000000;0.704297
9195.000000;0.704160
9194.000000;0.704064
9193.000000;0.704063
9192.000000;0.704139
9191.000000;0.704262
9190.000000;0.704391
9189.000000;0.704469
9188.000000;0.704462
9187.000000;0.704369
9186.000000;0.704217
9185.000000;0.704110
9184.000000;0.704166
9183.000000;0.704318
9182.000000;0.704295
9181.000000;0.703972
9180.000000;0.703615
9179.000000;0.703574
9178.000000;0.703816
9177.000000;0.704007
9176.000000;0.703987
9175.000000;0.703912
9174.000000;0.703907
9173.000000;0.703847
9172.000000;0.703589
9171.000000;0.703244
9170.000000;0.703087
9169.000000;0.703282
9168.000000;0.703735
9167.000000;0.704154
9166.000000;0.704261
9165.000000;0.703991
9164.000000;0.703484
9163.000000;0.702900
9162.000000;0.702340
9161.000000;0.701977
9160.000000;0.702042
9159.000000;0.702477
9158.000000;0.702778
9157.000000;0.702486
9156.000000;0.701778
9155.000000;0.701286
9154.000000;0.701313
9153.000000;0.701527
9152.000000;0.701469
9151.000000;0.701132
9150.000000;0.700888
9149.000000;0.700998
9148.000000;0.701335
9147.000000;0.701528
9146.000000;0.701320
9145.000000;0.700810
9144.000000;0.700376
9143.000000;0.700294
9142.000000;0.700471
9141.000000;0.700583
9140.000000;0.700439
9139.000000;0.700121
9138.000000;0.699860
9137.000000;0.699842
9136.000000;0.700082
9135.000000;0.700373
9134.000000;0.700425
9133.000000;0.700179
9132.000000;0.699907
9131.000000;0.699869
9130.000000;0.699951
9129.000000;0.699811
9128.000000;0.699331
9127.000000;0.698775
9126.000000;0.698505
9125.000000;0.698669
9124.000000;0.699109
9123.000000;0.699446
9122.000000;0.699350
9121.000000;0.698844
9120.000000;0.698292
9119.000000;0.697970
9118.000000;0.697808
9117.000000;0.697660
9116.000000;0.697615
9115.000000;0.697781
9114.000000;0.697942
9113.000000;0.697790
9112.000000;0.697434
9111.000000;0.697319
9110.000000;0.697611
9109.000000;0.697994
9108.000000;0.698138
9107.000000;0.698061
9106.000000;0.697918
9105.000000;0.697712
9104.000000;0.697380
9103.000000;0.697003
9102.000000;0.696747
9101.000000;0.696705
9100.000000;0.696863
9099.000000;0.697104
9098.000000;0.697213
9097.000000;0.697023
9096.000000;0.696588
9095.000000;0.696115
9094.000000;0.695687
9093.000000;0.695250
9092.000000;0.694883
9091.000000;0.694848
9090.000000;0.695254
9089.000000;0.695830
9088.000000;0.696188
9087.000000;0.696220
9086.000000;0.696118
9085.000000;0.696053
9084.000000;0.695981
9083.000000;0.695771
9082.000000;0.695459
9081.000000;0.695300
9080.000000;0.695471
9079.000000;0.695746
9078.000000;0.695629
9077.000000;0.694936
9076.000000;0.694109
9075.000000;0.693748
9074.000000;0.693931
9073.000000;0.694198
9072.000000;0.694145
9071.000000;0.693795
9070.000000;0.693421
9069.000000;0.693263
9068.000000;0.693443
9067.000000;0.693898
9066.000000;0.694324
9065.000000;0.694388
9064.000000;0.694085
9063.000000;0.693732
9062.000000;0.693568
9061.000000;0.693540
9060.000000;0.693519
9059.000000;0.693492
9058.000000;0.693430
9057.000000;0.693183
9056.000000;0.692689
9055.000000;0.692158
9054.000000;0.691896
9053.000000;0.691999
