Criado como novo conjunto de dados;"2706_e01_daniel.spp","39604.1 Secs"
cm-1;Abs
10000.000000;0.711989
9999.000000;0.712071
9998.000000;0.712013
9997.000000;0.711842
9996.000000;0.711578
9995.000000;0.711389
9994.000000;0.711589
9993.000000;0.712092
9992.000000;0.712270
9991.000000;0.711545
9990.000000;0.710092
9989.000000;0.708680
9988.000000;0.707956
9987.000000;0.708038
9986.000000;0.708651
9985.000000;0.709380
9984.000000;0.709858
9983.000000;0.709926
9982.000000;0.709691
9981.000000;0.709375
9980.000000;0.709144
9979.000000;0.709125
9978.000000;0.709419
9977.000000;0.709953
9976.000000;0.710409
9975.000000;0.710477
9974.000000;0.710175
9973.000000;0.709794
9972.000000;0.709538
9971.000000;0.709339
9970.000000;0.709025
9969.000000;0.708597
9968.000000;0.708266
9967.000000;0.708222
9966.000000;0.708378
9965.000000;0.708408
9964.000000;0.708101
9963.000000;0.707593
9962.000000;0.707189
9961.000000;0.707019
9960.000000;0.706986
9959.000000;0.706993
9958.000000;0.707053
9957.000000;0.707202
9956.000000;0.707445
9955.000000;0.707776
9954.000000;0.708082
9953.000000;0.708094
9952.000000;0.707647
9951.000000;0.706986
9950.000000;0.706580
9949.000000;0.706589
9948.000000;0.706723
9947.000000;0.706662
9946.000000;0.706381
9945.000000;0.705982
9944.000000;0.705459
9943.000000;0.704818
9942.000000;0.704269
9941.000000;0.704109
9940.000000;0.704460
9939.000000;0.705171
9938.000000;0.705898
9937.000000;0.706245
9936.000000;0.706013
9935.000000;0.705398
9934.000000;0.704839
9933.000000;0.704569
9932.000000;0.704426
9931.000000;0.704108
9930.000000;0.703532
9929.000000;0.702890
9928.000000;0.702482
9927.000000;0.702545
9926.000000;0.703101
9925.000000;0.703899
9924.000000;0.704585
9923.000000;0.704941
9922.000000;0.704914
9921.000000;0.704499
9920.000000;0.703809
9919.000000;0.703200
9918.000000;0.703047
9917.000000;0.703344
9916.000000;0.703762
9915.000000;0.704148
9914.000000;0.704671
9913.000000;0.705366
9912.000000;0.705854
9911.000000;0.705754
9910.000000;0.705166
9909.000000;0.704499
9908.000000;0.703971
9907.000000;0.703506
9906.000000;0.703017
9905.000000;0.702535
9904.000000;0.702108
9903.000000;0.701762
9902.000000;0.701582
9901.000000;0.701688
9900.000000;0.702079
9899.000000;0.702552
9898.000000;0.702809
9897.000000;0.702666
9896.000000;0.702204
9895.000000;0.701727
9894.000000;0.701478
9893.000000;0.701356
9892.000000;0.701009
9891.000000;0.700267
9890.000000;0.699425
9889.000000;0.699013
9888.000000;0.699298
9887.000000;0.700052
9886.000000;0.700782
9885.000000;0.701175
9884.000000;0.701344
9883.000000;0.701626
9882.000000;0.702134
9881.000000;0.702576
9880.000000;0.702527
9879.000000;0.701839
9878.000000;0.700730
9877.000000;0.699600
9876.000000;0.698846
9875.000000;0.698672
9874.000000;0.698889
9873.000000;0.698996
9872.000000;0.698686
9871.000000;0.698231
9870.000000;0.698170
9869.000000;0.698659
9868.000000;0.699303
9867.000000;0.699612
9866.000000;0.699436
9865.000000;0.698986
9864.000000;0.698660
9863.000000;0.698798
9862.000000;0.699402
9861.000000;0.700053
9860.000000;0.700310
9859.000000;0.700143
9858.000000;0.699809
9857.000000;0.699382
9856.000000;0.698720
9855.000000;0.697869
9854.000000;0.697154
9853.000000;0.696793
9852.000000;0.696725
9851.000000;0.696867
9850.000000;0.697226
9849.000000;0.697658
9848.000000;0.697842
9847.000000;0.697655
9846.000000;0.697356
9845.000000;0.697246
9844.000000;0.697343
9843.000000;0.697513
9842.000000;0.697685
9841.000000;0.697775
9840.000000;0.697619
9839.000000;0.697171
9838.000000;0.696621
9837.000000;0.696176
9836.000000;0.695892
9835.000000;0.695837
9834.000000;0.696188
9833.000000;0.696929
9832.000000;0.697623
9831.000000;0.697774
9830.000000;0.697376
9829.000000;0.696887
9828.000000;0.696651
9827.000000;0.696534
9826.000000;0.696193
9825.000000;0.695579
9824.000000;0.695057
9823.000000;0.695006
9822.000000;0.695380
9821.000000;0.695742
9820.000000;0.695736
9819.000000;0.695412
9818.000000;0.695045
9817.000000;0.694805
9816.000000;0.694751
9815.000000;0.694944
9814.000000;0.695293
9813.000000;0.695416
9812.000000;0.694982
9811.000000;0.694191
9810.000000;0.693609
9809.000000;0.693493
9808.000000;0.693571
9807.000000;0.693532
9806.000000;0.693425
9805.000000;0.693431
9804.000000;0.693537
9803.000000;0.693608
9802.000000;0.693593
9801.000000;0.693492
9800.000000;0.693259
9799.000000;0.692910
9798.000000;0.692601
9797.000000;0.692489
9796.000000;0.692584
9795.000000;0.692774
9794.000000;0.692935
9793.000000;0.692955
9792.000000;0.692787
9791.000000;0.692507
9790.000000;0.692238
9789.000000;0.692017
9788.000000;0.691854
9787.000000;0.691833
9786.000000;0.691967
9785.000000;0.692032
9784.000000;0.691841
9783.000000;0.691650
9782.000000;0.691932
9781.000000;0.692667
9780.000000;0.693193
9779.000000;0.692932
9778.000000;0.692020
9777.000000;0.691082
9776.000000;0.690585
9775.000000;0.690593
9774.000000;0.690903
9773.000000;0.691205
9772.000000;0.691251
9771.000000;0.691051
9770.000000;0.690847
9769.000000;0.690794
9768.000000;0.690814
9767.000000;0.690794
9766.000000;0.690775
9765.000000;0.690857
9764.000000;0.691049
9763.000000;0.691303
9762.000000;0.691530
9761.000000;0.691527
9760.000000;0.691105
9759.000000;0.690367
9758.000000;0.689683
9757.000000;0.689283
9756.000000;0.689079
9755.000000;0.688967
9754.000000;0.689082
9753.000000;0.689554
9752.000000;0.690223
9751.000000;0.690767
9750.000000;0.691009
9749.000000;0.690963
9748.000000;0.690699
9747.000000;0.690278
9746.000000;0.689729
9745.000000;0.689031
9744.000000;0.688244
9743.000000;0.687665
9742.000000;0.687650
9741.000000;0.688186
9740.000000;0.688841
9739.000000;0.689240
9738.000000;0.689384
9737.000000;0.689399
9736.000000;0.689241
9735.000000;0.688835
9734.000000;0.688319
9733.000000;0.687908
9732.000000;0.687643
9731.000000;0.687490
9730.000000;0.687543
9729.000000;0.687944
9728.000000;0.688618
9727.000000;0.689244
9726.000000;0.689508
9725.000000;0.689355
9724.000000;0.689061
9723.000000;0.689047
9722.000000;0.689466
9721.000000;0.689959
9720.000000;0.689981
9719.000000;0.689408
9718.000000;0.688592
9717.000000;0.687804
9716.000000;0.686956
9715.000000;0.685986
9714.000000;0.685207
9713.000000;0.685004
9712.000000;0.685388
9711.000000;0.686084
9710.000000;0.686874
9709.000000;0.687633
9708.000000;0.688148
9707.000000;0.688202
9706.000000;0.687795
9705.000000;0.687107
9704.000000;0.686285
9703.000000;0.685408
9702.000000;0.684616
9701.000000;0.684110
9700.000000;0.684052
9699.000000;0.684492
9698.000000;0.685298
9697.000000;0.686079
9696.000000;0.686371
9695.000000;0.686064
9694.000000;0.685530
9693.000000;0.685182
9692.000000;0.685047
9691.000000;0.684907
9690.000000;0.684727
9689.000000;0.684671
9688.000000;0.684780
9687.000000;0.684885
9686.000000;0.684863
9685.000000;0.684800
9684.000000;0.684843
9683.000000;0.684998
9682.000000;0.685131
9681.000000;0.685111
9680.000000;0.684919
9679.000000;0.684645
9678.000000;0.684378
9677.000000;0.684110
9676.000000;0.683811
9675.000000;0.683547
9674.000000;0.683440
9673.000000;0.683476
9672.000000;0.683502
9671.000000;0.683442
9670.000000;0.683411
9669.000000;0.683559
9668.000000;0.683908
9667.000000;0.684359
9666.000000;0.684730
9665.000000;0.684766
9664.000000;0.684279
9663.000000;0.683386
9662.000000;0.682473
9661.000000;0.681859
9660.000000;0.681601
9659.000000;0.681624
9658.000000;0.681848
9657.000000;0.682119
9656.000000;0.682231
9655.000000;0.682179
9654.000000;0.682213
9653.000000;0.682491
9652.000000;0.682821
9651.000000;0.682881
9650.000000;0.682597
9649.000000;0.682114
9648.000000;0.681525
9647.000000;0.680829
9646.000000;0.680135
9645.000000;0.679712
9644.000000;0.679775
9643.000000;0.680269
9642.000000;0.680882
9641.000000;0.681270
9640.000000;0.681319
9639.000000;0.681224
9638.000000;0.681251
9637.000000;0.681420
9636.000000;0.681506
9635.000000;0.681373
9634.000000;0.681171
9633.000000;0.681151
9632.000000;0.681381
9631.000000;0.681699
9630.000000;0.681873
9629.000000;0.681774
9628.000000;0.681475
9627.000000;0.681187
9626.000000;0.681025
9625.000000;0.680873
9624.000000;0.680579
9623.000000;0.680236
9622.000000;0.680066
9621.000000;0.680064
9620.000000;0.679981
9619.000000;0.679689
9618.000000;0.679346
9617.000000;0.679141
9616.000000;0.679099
9615.000000;0.679217
9614.000000;0.679549
9613.000000;0.680033
9612.000000;0.680427
9611.000000;0.680573
9610.000000;0.680583
9609.000000;0.680610
9608.000000;0.680584
9607.000000;0.680307
9606.000000;0.679731
9605.000000;0.679013
9604.000000;0.678369
9603.000000;0.677948
9602.000000;0.677746
9601.000000;0.677634
9600.000000;0.677540
9599.000000;0.677636
9598.000000;0.678147
9597.000000;0.678971
9596.000000;0.679685
9595.000000;0.679989
9594.000000;0.679938
9593.000000;0.679677
9592.000000;0.679223
9591.000000;0.678645
9590.000000;0.678209
9589.000000;0.678108
9588.000000;0.678190
9587.000000;0.678136
9586.000000;0.677822
9585.000000;0.677366
9584.000000;0.676937
9583.000000;0.676660
9582.000000;0.676624
9581.000000;0.676814
9580.000000;0.677104
9579.000000;0.677378
9578.000000;0.677606
9577.000000;0.677752
9576.000000;0.677752
9575.000000;0.677635
9574.000000;0.677504
9573.000000;0.677340
9572.000000;0.676995
9571.000000;0.676488
9570.000000;0.676112
9569.000000;0.676120
9568.000000;0.676425
9567.000000;0.676732
9566.000000;0.676816
9565.000000;0.676599
9564.000000;0.676143
9563.000000;0.675695
9562.000000;0.675549
9561.000000;0.675712
9560.000000;0.675857
9559.000000;0.675745
9558.000000;0.675515
9557.000000;0.675398
9556.000000;0.675346
9555.000000;0.675165
9554.000000;0.674863
9553.000000;0.674626
9552.000000;0.674558
9551.000000;0.674624
9550.000000;0.674763
9549.000000;0.674874
9548.000000;0.674798
9547.000000;0.674509
9546.000000;0.674241
9545.000000;0.674254
9544.000000;0.674538
9543.000000;0.674896
9542.000000;0.675211
9541.000000;0.675437
9540.000000;0.675444
9539.000000;0.675111
9538.000000;0.674545
9537.000000;0.674041
9536.000000;0.673818
9535.000000;0.673907
9534.000000;0.674208
9533.000000;0.674517
9532.000000;0.674560
9531.000000;0.674191
9530.000000;0.673547
9529.000000;0.672892
9528.000000;0.672346
9527.000000;0.671906
9526.000000;0.671639
9525.000000;0.671655
9524.000000;0.671891
9523.000000;0.672109
9522.000000;0.672150
9521.000000;0.672072
9520.000000;0.672013
9519.000000;0.672022
9518.000000;0.672069
9517.000000;0.672132
9516.000000;0.672215
9515.000000;0.672318
9514.000000;0.672390
9513.000000;0.672328
9512.000000;0.672053
9511.000000;0.671617
9510.000000;0.671207
9509.000000;0.670995
9508.000000;0.671002
9507.000000;0.671109
9506.000000;0.671151
9505.000000;0.671024
9504.000000;0.670769
9503.000000;0.670561
9502.000000;0.670565
9501.000000;0.670798
9500.000000;0.671182
9499.000000;0.671655
9498.000000;0.672110
9497.000000;0.672325
9496.000000;0.672157
9495.000000;0.671799
9494.000000;0.671593
9493.000000;0.671560
9492.000000;0.671368
9491.000000;0.670826
9490.000000;0.670179
9489.000000;0.669777
9488.000000;0.669674
9487.000000;0.669714
9486.000000;0.669836
9485.000000;0.670082
9484.000000;0.670438
9483.000000;0.670822
9482.000000;0.671141
9481.000000;0.671238
9480.000000;0.670917
9479.000000;0.670183
9478.000000;0.669342
9477.000000;0.668724
9476.000000;0.668411
9475.000000;0.668359
9474.000000;0.668573
9473.000000;0.668993
9472.000000;0.669326
9471.000000;0.669264
9470.000000;0.668845
9469.000000;0.668424
9468.000000;0.668304
9467.000000;0.668503
9466.000000;0.668838
9465.000000;0.669097
9464.000000;0.669148
9463.000000;0.669001
9462.000000;0.668759
9461.000000;0.668456
9460.000000;0.668037
9459.000000;0.667536
9458.000000;0.667173
9457.000000;0.667155
9456.000000;0.667469
9455.000000;0.667958
9454.000000;0.668511
9453.000000;0.669055
9452.000000;0.669448
9451.000000;0.669524
9450.000000;0.669225
9449.000000;0.668631
9448.000000;0.667939
9447.000000;0.667445
9446.000000;0.667402
9445.000000;0.667754
9444.000000;0.668127
9443.000000;0.668197
9442.000000;0.668003
9441.000000;0.667806
9440.000000;0.667769
9439.000000;0.667891
9438.000000;0.668101
9437.000000;0.668256
9436.000000;0.668148
9435.000000;0.667699
9434.000000;0.667115
9433.000000;0.666669
9432.000000;0.666387
9431.000000;0.666085
9430.000000;0.665672
9429.000000;0.665289
9428.000000;0.665150
9427.000000;0.665357
9426.000000;0.665812
9425.000000;0.666237
9424.000000;0.666323
9423.000000;0.666005
9422.000000;0.665551
9421.000000;0.665311
9420.000000;0.665412
9419.000000;0.665723
9418.000000;0.666027
9417.000000;0.666144
9416.000000;0.665994
9415.000000;0.665659
9414.000000;0.665327
9413.000000;0.665098
9412.000000;0.664915
9411.000000;0.664733
9410.000000;0.664631
9409.000000;0.664649
9408.000000;0.664660
9407.000000;0.664533
9406.000000;0.664335
9405.000000;0.664229
9404.000000;0.664263
9403.000000;0.664370
9402.000000;0.664507
9401.000000;0.664676
9400.000000;0.664869
9399.000000;0.665070
9398.000000;0.665250
9397.000000;0.665291
9396.000000;0.665060
9395.000000;0.664640
9394.000000;0.664314
9393.000000;0.664215
9392.000000;0.664149
9391.000000;0.663956
9390.000000;0.663812
9389.000000;0.663947
9388.000000;0.664199
9387.000000;0.664158
9386.000000;0.663707
9385.000000;0.663142
9384.000000;0.662758
9383.000000;0.662559
9382.000000;0.662413
9381.000000;0.662255
9380.000000;0.662061
9379.000000;0.661792
9378.000000;0.661472
9377.000000;0.661221
9376.000000;0.661151
9375.000000;0.661283
9374.000000;0.661557
9373.000000;0.661860
9372.000000;0.662091
9371.000000;0.662244
9370.000000;0.662406
9369.000000;0.662588
9368.000000;0.662633
9367.000000;0.662417
9366.000000;0.662048
9365.000000;0.661726
9364.000000;0.661477
9363.000000;0.661200
9362.000000;0.660920
9361.000000;0.660812
9360.000000;0.660953
9359.000000;0.661207
9358.000000;0.661386
9357.000000;0.661402
9356.000000;0.661262
9355.000000;0.661034
9354.000000;0.660815
9353.000000;0.660629
9352.000000;0.660385
9351.000000;0.660052
9350.000000;0.659819
9349.000000;0.659910
9348.000000;0.660263
9347.000000;0.660587
9346.000000;0.660741
9345.000000;0.660819
9344.000000;0.660835
9343.000000;0.660561
9342.000000;0.659884
9341.000000;0.659147
9340.000000;0.658904
9339.000000;0.659341
9338.000000;0.660072
9337.000000;0.660538
9336.000000;0.660506
9335.000000;0.660155
9334.000000;0.659775
9333.000000;0.659495
9332.000000;0.659286
9331.000000;0.659119
9330.000000;0.659012
9329.000000;0.658973
9328.000000;0.658978
9327.000000;0.659063
9326.000000;0.659325
9325.000000;0.659749
9324.000000;0.660082
9323.000000;0.660024
9322.000000;0.659537
9321.000000;0.658908
9320.000000;0.658465
9319.000000;0.658296
9318.000000;0.658257
9317.000000;0.658221
9316.000000;0.658245
9315.000000;0.658474
9314.000000;0.658891
9313.000000;0.659252
9312.000000;0.659308
9311.000000;0.659080
9310.000000;0.658825
9309.000000;0.658755
9308.000000;0.658874
9307.000000;0.659088
9306.000000;0.659298
9305.000000;0.659349
9304.000000;0.659009
9303.000000;0.658189
9302.000000;0.657154
9301.000000;0.656405
9300.000000;0.656293
9299.000000;0.656745
9298.000000;0.657312
9297.000000;0.657529
9296.000000;0.657282
9295.000000;0.656874
9294.000000;0.656694
9293.000000;0.656834
9292.000000;0.657079
9291.000000;0.657230
9290.000000;0.657282
9289.000000;0.657297
9288.000000;0.657260
9287.000000;0.657152
9286.000000;0.657009
9285.000000;0.656825
9284.000000;0.656526
9283.000000;0.656137
9282.000000;0.655848
9281.000000;0.655794
9280.000000;0.655860
9279.000000;0.655840
9278.000000;0.655705
9277.000000;0.655577
9276.000000;0.655518
9275.000000;0.655494
9274.000000;0.655512
9273.000000;0.655635
9272.000000;0.655850
9271.000000;0.656026
9270.000000;0.656032
9269.000000;0.655835
9268.000000;0.655507
9267.000000;0.655194
9266.000000;0.655028
9265.000000;0.655003
9264.000000;0.654978
9263.000000;0.654845
9262.000000;0.654652
9261.000000;0.654494
9260.000000;0.654386
9259.000000;0.654314
9258.000000;0.654344
9257.000000;0.654526
9256.000000;0.654757
9255.000000;0.654875
9254.000000;0.654857
9253.000000;0.654792
9252.000000;0.654689
9251.000000;0.654447
9250.000000;0.654041
9249.000000;0.653603
9248.000000;0.653291
9247.000000;0.653152
9246.000000;0.653159
9245.000000;0.653272
9244.000000;0.653435
9243.000000;0.653564
9242.000000;0.653591
9241.000000;0.653528
9240.000000;0.653463
9239.000000;0.653495
9238.000000;0.653630
9237.000000;0.653731
9236.000000;0.653615
9235.000000;0.653257
9234.000000;0.652850
9233.000000;0.652605
9232.000000;0.652549
9231.000000;0.652564
9230.000000;0.652562
9229.000000;0.652516
9228.000000;0.652371
9227.000000;0.652068
9226.000000;0.651677
9225.000000;0.651400
9224.000000;0.651390
9223.000000;0.651606
9222.000000;0.651892
9221.000000;0.652137
9220.000000;0.652308
9219.000000;0.652351
9218.000000;0.652132
9217.000000;0.651568
9216.000000;0.650808
9215.000000;0.650226
9214.000000;0.650137
9213.000000;0.650513
9212.000000;0.651006
9211.000000;0.651273
9210.000000;0.651231
9209.000000;0.651018
9208.000000;0.650825
9207.000000;0.650784
9206.000000;0.650924
9205.000000;0.651130
9204.000000;0.651190
9203.000000;0.650980
9202.000000;0.650591
9201.000000;0.650222
9200.000000;0.649974
9199.000000;0.649812
9198.000000;0.649710
9197.000000;0.649738
9196.000000;0.649975
9195.000000;0.650325
9194.000000;0.650519
9193.000000;0.650345
9192.000000;0.649909
9191.000000;0.649562
9190.000000;0.649532
9189.000000;0.649667
9188.000000;0.649632
9187.000000;0.649326
9186.000000;0.648975
9185.000000;0.648848
9184.000000;0.648992
9183.000000;0.649260
9182.000000;0.649473
9181.000000;0.649513
9180.000000;0.649376
9179.000000;0.649174
9178.000000;0.649038
9177.000000;0.648989
9176.000000;0.648965
9175.000000;0.648971
9174.000000;0.649070
9173.000000;0.649218
9172.000000;0.649225
9171.000000;0.648941
9170.000000;0.648416
9169.000000;0.647862
9168.000000;0.647525
9167.000000;0.647574
9166.000000;0.647957
9165.000000;0.648364
9164.000000;0.648478
9163.000000;0.648306
9162.000000;0.648119
9161.000000;0.648052
9160.000000;0.647957
9159.000000;0.647718
9158.000000;0.647498
9157.000000;0.647507
9156.000000;0.647682
9155.000000;0.647783
9154.000000;0.647705
9153.000000;0.647531
9152.000000;0.647352
9151.000000;0.647182
9150.000000;0.647016
9149.000000;0.646836
9148.000000;0.646603
9147.000000;0.646343
9146.000000;0.646190
9145.000000;0.646241
9144.000000;0.646409
9143.000000;0.646508
9142.000000;0.646457
9141.000000;0.646287
9140.000000;0.646042
9139.000000;0.645784
9138.000000;0.645659
9137.000000;0.645797
9136.000000;0.646137
9135.000000;0.646438
9134.000000;0.646495
9133.000000;0.646305
9132.000000;0.646030
9131.000000;0.645858
9130.000000;0.645854
9129.000000;0.645906
9128.000000;0.645835
9127.000000;0.645602
9126.000000;0.645357
9125.000000;0.645265
9124.000000;0.645325
9123.000000;0.645399
9122.000000;0.645343
9121.000000;0.645086
9120.000000;0.644684
9119.000000;0.644333
9118.000000;0.644232
9117.000000;0.644365
9116.000000;0.644491
9115.000000;0.644447
9114.000000;0.644350
9113.000000;0.644415
9112.000000;0.644656
9111.000000;0.644871
9110.000000;0.644862
9109.000000;0.644582
9108.000000;0.644139
9107.000000;0.643752
9106.000000;0.643621
9105.000000;0.643744
9104.000000;0.643903
9103.000000;0.643933
9102.000000;0.643923
9101.000000;0.644060
9100.000000;0.644320
9099.000000;0.644475
9098.000000;0.644356
9097.000000;0.644017
9096.000000;0.643671
9095.000000;0.643540
9094.000000;0.643718
9093.000000;0.644061
9092.000000;0.644245
9091.000000;0.644058
9090.000000;0.643617
9089.000000;0.643225
9088.000000;0.643049
9087.000000;0.643037
9086.000000;0.643089
9085.000000;0.643176
9084.000000;0.643282
9083.000000;0.643338
9082.000000;0.643261
9081.000000;0.643012
9080.000000;0.642627
9079.000000;0.642230
9078.000000;0.641994
9077.000000;0.641988
9076.000000;0.642095
9075.000000;0.642134
9074.000000;0.642042
9073.000000;0.641892
9072.000000;0.641774
9071.000000;0.641728
9070.000000;0.641759
9069.000000;0.641821
9068.000000;0.641826
9067.000000;0.641732
9066.000000;0.641587
9065.000000;0.641446
9064.000000;0.641294
9063.000000;0.641129
9062.000000;0.641062
9061.000000;0.641217
9060.000000;0.641559
9059.000000;0.641910
9058.000000;0.642128
9057.000000;0.642194
9056.000000;0.642147
9055.000000;0.642015
9054.000000;0.641814
9053.000000;0.641543
