Criado como novo conjunto de dados;"2706_e01_daniel.spp","24123.2 Secs"
cm-1;Abs
10000.000000;0.726271
9999.000000;0.725138
9998.000000;0.724151
9997.000000;0.723703
9996.000000;0.723764
9995.000000;0.724131
9994.000000;0.724660
9993.000000;0.725074
9992.000000;0.725040
9991.000000;0.724465
9990.000000;0.723686
9989.000000;0.723195
9988.000000;0.723255
9987.000000;0.723777
9986.000000;0.724447
9985.000000;0.724957
9984.000000;0.725142
9983.000000;0.724963
9982.000000;0.724411
9981.000000;0.723553
9980.000000;0.722654
9979.000000;0.722069
9978.000000;0.721904
9977.000000;0.721888
9976.000000;0.721688
9975.000000;0.721296
9974.000000;0.720997
9973.000000;0.721047
9972.000000;0.721462
9971.000000;0.722034
9970.000000;0.722449
9969.000000;0.722498
9968.000000;0.722269
9967.000000;0.722080
9966.000000;0.722109
9965.000000;0.722179
9964.000000;0.721956
9963.000000;0.721292
9962.000000;0.720338
9961.000000;0.719419
9960.000000;0.718873
9959.000000;0.718841
9958.000000;0.719129
9957.000000;0.719370
9956.000000;0.719411
9955.000000;0.719402
9954.000000;0.719470
9953.000000;0.719513
9952.000000;0.719438
9951.000000;0.719397
9950.000000;0.719590
9949.000000;0.719962
9948.000000;0.720270
9947.000000;0.720354
9946.000000;0.720215
9945.000000;0.719959
9944.000000;0.719790
9943.000000;0.719899
9942.000000;0.720205
9941.000000;0.720329
9940.000000;0.720011
9939.000000;0.719426
9938.000000;0.718937
9937.000000;0.718673
9936.000000;0.718515
9935.000000;0.718347
9934.000000;0.718114
9933.000000;0.717762
9932.000000;0.717361
9931.000000;0.717160
9930.000000;0.717314
9929.000000;0.717630
9928.000000;0.717799
9927.000000;0.717789
9926.000000;0.717783
9925.000000;0.717841
9924.000000;0.717844
9923.000000;0.717727
9922.000000;0.717532
9921.000000;0.717292
9920.000000;0.717102
9919.000000;0.717223
9918.000000;0.717835
9917.000000;0.718660
9916.000000;0.719107
9915.000000;0.718856
9914.000000;0.718139
9913.000000;0.717437
9912.000000;0.717079
9911.000000;0.717119
9910.000000;0.717376
9909.000000;0.717506
9908.000000;0.717203
9907.000000;0.716448
9906.000000;0.715498
9905.000000;0.714687
9904.000000;0.714285
9903.000000;0.714456
9902.000000;0.715097
9901.000000;0.715724
9900.000000;0.715753
9899.000000;0.715048
9898.000000;0.714106
9897.000000;0.713624
9896.000000;0.713913
9895.000000;0.714702
9894.000000;0.715413
9893.000000;0.715619
9892.000000;0.715340
9891.000000;0.714913
9890.000000;0.714626
9889.000000;0.714529
9888.000000;0.714561
9887.000000;0.714669
9886.000000;0.714740
9885.000000;0.714607
9884.000000;0.714288
9883.000000;0.714042
9882.000000;0.714022
9881.000000;0.714019
9880.000000;0.713742
9879.000000;0.713240
9878.000000;0.712784
9877.000000;0.712477
9876.000000;0.712224
9875.000000;0.712032
9874.000000;0.712020
9873.000000;0.712164
9872.000000;0.712271
9871.000000;0.712220
9870.000000;0.712032
9869.000000;0.711756
9868.000000;0.711508
9867.000000;0.711538
9866.000000;0.711978
9865.000000;0.712535
9864.000000;0.712734
9863.000000;0.712515
9862.000000;0.712296
9861.000000;0.712406
9860.000000;0.712753
9859.000000;0.713082
9858.000000;0.713256
9857.000000;0.713176
9856.000000;0.712724
9855.000000;0.711980
9854.000000;0.711266
9853.000000;0.710806
9852.000000;0.710555
9851.000000;0.710450
9850.000000;0.710579
9849.000000;0.710908
9848.000000;0.711129
9847.000000;0.711045
9846.000000;0.710899
9845.000000;0.711018
9844.000000;0.711294
9843.000000;0.711327
9842.000000;0.711026
9841.000000;0.710723
9840.000000;0.710701
9839.000000;0.710907
9838.000000;0.711144
9837.000000;0.711297
9836.000000;0.711251
9835.000000;0.710871
9834.000000;0.710222
9833.000000;0.709650
9832.000000;0.709471
9831.000000;0.709631
9830.000000;0.709796
9829.000000;0.709740
9828.000000;0.709522
9827.000000;0.709341
9826.000000;0.709336
9825.000000;0.709528
9824.000000;0.709810
9823.000000;0.709968
9822.000000;0.709810
9821.000000;0.709361
9820.000000;0.708881
9819.000000;0.708639
9818.000000;0.708671
9817.000000;0.708809
9816.000000;0.708895
9815.000000;0.708876
9814.000000;0.708705
9813.000000;0.708326
9812.000000;0.707850
9811.000000;0.707623
9810.000000;0.707934
9809.000000;0.708613
9808.000000;0.709095
9807.000000;0.708959
9806.000000;0.708346
9805.000000;0.707737
9804.000000;0.707401
9803.000000;0.707183
9802.000000;0.706806
9801.000000;0.706267
9800.000000;0.705844
9799.000000;0.705810
9798.000000;0.706195
9797.000000;0.706787
9796.000000;0.707245
9795.000000;0.707279
9794.000000;0.706853
9793.000000;0.706279
9792.000000;0.706004
9791.000000;0.706219
9790.000000;0.706666
9789.000000;0.706887
9788.000000;0.706657
9787.000000;0.706156
9786.000000;0.705765
9785.000000;0.705735
9784.000000;0.706014
9783.000000;0.706291
9782.000000;0.706229
9781.000000;0.705728
9780.000000;0.705019
9779.000000;0.704447
9778.000000;0.704161
9777.000000;0.704024
9776.000000;0.703849
9775.000000;0.703674
9774.000000;0.703757
9773.000000;0.704288
9772.000000;0.705104
9771.000000;0.705752
9770.000000;0.705907
9769.000000;0.705716
9768.000000;0.705599
9767.000000;0.705706
9766.000000;0.705728
9765.000000;0.705342
9764.000000;0.704677
9763.000000;0.704134
9762.000000;0.703880
9761.000000;0.703747
9760.000000;0.703615
9759.000000;0.703604
9758.000000;0.703793
9757.000000;0.704002
9756.000000;0.703998
9755.000000;0.703798
9754.000000;0.703607
9753.000000;0.703554
9752.000000;0.703586
9751.000000;0.703581
9750.000000;0.703474
9749.000000;0.703310
9748.000000;0.703242
9747.000000;0.703397
9746.000000;0.703696
9745.000000;0.703889
9744.000000;0.703822
9743.000000;0.703587
9742.000000;0.703324
9741.000000;0.703004
9740.000000;0.702525
9739.000000;0.701945
9738.000000;0.701487
9737.000000;0.701327
9736.000000;0.701486
9735.000000;0.701880
9734.000000;0.702367
9733.000000;0.702767
9732.000000;0.702937
9731.000000;0.702847
9730.000000;0.702538
9729.000000;0.702069
9728.000000;0.701568
9727.000000;0.701254
9726.000000;0.701278
9725.000000;0.701546
9724.000000;0.701802
9723.000000;0.701878
9722.000000;0.701771
9721.000000;0.701520
9720.000000;0.701150
9719.000000;0.700773
9718.000000;0.700581
9717.000000;0.700671
9716.000000;0.700923
9715.000000;0.701127
9714.000000;0.701128
9713.000000;0.700844
9712.000000;0.700256
9711.000000;0.699531
9710.000000;0.699033
9709.000000;0.699023
9708.000000;0.699346
9707.000000;0.699560
9706.000000;0.699428
9705.000000;0.699124
9704.000000;0.698896
9703.000000;0.698722
9702.000000;0.698446
9701.000000;0.698133
9700.000000;0.698043
9699.000000;0.698241
9698.000000;0.698456
9697.000000;0.698405
9696.000000;0.698130
9695.000000;0.697923
9694.000000;0.698019
9693.000000;0.698454
9692.000000;0.699109
9691.000000;0.699803
9690.000000;0.700356
9689.000000;0.700662
9688.000000;0.700663
9687.000000;0.700308
9686.000000;0.699619
9685.000000;0.698844
9684.000000;0.698367
9683.000000;0.698369
9682.000000;0.698655
9681.000000;0.698884
9680.000000;0.698862
9679.000000;0.698539
9678.000000;0.697923
9677.000000;0.697170
9676.000000;0.696619
9675.000000;0.696510
9674.000000;0.696735
9673.000000;0.697038
9672.000000;0.697372
9671.000000;0.697828
9670.000000;0.698299
9669.000000;0.698484
9668.000000;0.698261
9667.000000;0.697829
9666.000000;0.697418
9665.000000;0.697062
9664.000000;0.696721
9663.000000;0.696446
9662.000000;0.696311
9661.000000;0.696298
9660.000000;0.696328
9659.000000;0.696327
9658.000000;0.696251
9657.000000;0.696123
9656.000000;0.696051
9655.000000;0.696080
9654.000000;0.696069
9653.000000;0.695877
9652.000000;0.695636
9651.000000;0.695633
9650.000000;0.695895
9649.000000;0.696098
9648.000000;0.695979
9647.000000;0.695635
9646.000000;0.695331
9645.000000;0.695151
9644.000000;0.694986
9643.000000;0.694747
9642.000000;0.694463
9641.000000;0.694246
9640.000000;0.694236
9639.000000;0.694519
9638.000000;0.695004
9637.000000;0.695476
9636.000000;0.695802
9635.000000;0.696049
9634.000000;0.696343
9633.000000;0.696670
9632.000000;0.696834
9631.000000;0.696578
9630.000000;0.695778
9629.000000;0.694623
9628.000000;0.693591
9627.000000;0.693119
9626.000000;0.693263
9625.000000;0.693740
9624.000000;0.694226
9623.000000;0.694511
9622.000000;0.694460
9621.000000;0.694106
9620.000000;0.693773
9619.000000;0.693838
9618.000000;0.694252
9617.000000;0.694511
9616.000000;0.694247
9615.000000;0.693641
9614.000000;0.693136
9613.000000;0.692914
9612.000000;0.692828
9611.000000;0.692694
9610.000000;0.692439
9609.000000;0.692045
9608.000000;0.691562
9607.000000;0.691164
9606.000000;0.691063
9605.000000;0.691306
9604.000000;0.691719
9603.000000;0.692045
9602.000000;0.692109
9601.000000;0.691924
9600.000000;0.691679
9599.000000;0.691573
9598.000000;0.691642
9597.000000;0.691767
9596.000000;0.691851
9595.000000;0.691896
9594.000000;0.691913
9593.000000;0.691875
9592.000000;0.691817
9591.000000;0.691826
9590.000000;0.691901
9589.000000;0.691909
9588.000000;0.691742
9587.000000;0.691450
9586.000000;0.691160
9585.000000;0.690961
9584.000000;0.690877
9583.000000;0.690861
9582.000000;0.690799
9581.000000;0.690613
9580.000000;0.690395
9579.000000;0.690309
9578.000000;0.690354
9577.000000;0.690359
9576.000000;0.690243
9575.000000;0.690139
9574.000000;0.690193
9573.000000;0.690368
9572.000000;0.690511
9571.000000;0.690514
9570.000000;0.690368
9569.000000;0.690189
9568.000000;0.690185
9567.000000;0.690436
9566.000000;0.690692
9565.000000;0.690580
9564.000000;0.690077
9563.000000;0.689582
9562.000000;0.689435
9561.000000;0.689546
9560.000000;0.689604
9559.000000;0.689467
9558.000000;0.689217
9557.000000;0.689015
9556.000000;0.689020
9555.000000;0.689311
9554.000000;0.689728
9553.000000;0.689920
9552.000000;0.689702
9551.000000;0.689252
9550.000000;0.688847
9549.000000;0.688570
9548.000000;0.688401
9547.000000;0.688434
9546.000000;0.688764
9545.000000;0.689246
9544.000000;0.689576
9543.000000;0.689579
9542.000000;0.689293
9541.000000;0.688817
9540.000000;0.688243
9539.000000;0.687717
9538.000000;0.687420
9537.000000;0.687462
9536.000000;0.687799
9535.000000;0.688210
9534.000000;0.688362
9533.000000;0.688067
9532.000000;0.687524
9531.000000;0.687147
9530.000000;0.687068
9529.000000;0.686987
9528.000000;0.686642
9527.000000;0.686234
9526.000000;0.686155
9525.000000;0.686449
9524.000000;0.686787
9523.000000;0.686911
9522.000000;0.686839
9521.000000;0.686670
9520.000000;0.686393
9519.000000;0.685944
9518.000000;0.685313
9517.000000;0.684599
9516.000000;0.684034
9515.000000;0.683905
9514.000000;0.684291
9513.000000;0.684911
9512.000000;0.685391
9511.000000;0.685643
9510.000000;0.685857
9509.000000;0.686158
9508.000000;0.686444
9507.000000;0.686555
9506.000000;0.686446
9505.000000;0.686168
9504.000000;0.685837
9503.000000;0.685628
9502.000000;0.685628
9501.000000;0.685678
9500.000000;0.685507
9499.000000;0.685070
9498.000000;0.684629
9497.000000;0.684440
9496.000000;0.684494
9495.000000;0.684625
9494.000000;0.684721
9493.000000;0.684737
9492.000000;0.684607
9491.000000;0.684302
9490.000000;0.683959
9489.000000;0.683824
9488.000000;0.684028
9487.000000;0.684476
9486.000000;0.684965
9485.000000;0.685342
9484.000000;0.685523
9483.000000;0.685420
9482.000000;0.684975
9481.000000;0.684288
9480.000000;0.683634
9479.000000;0.683256
9478.000000;0.683172
9477.000000;0.683231
9476.000000;0.683351
9475.000000;0.683584
9474.000000;0.683950
9473.000000;0.684285
9472.000000;0.684352
9471.000000;0.684057
9470.000000;0.683551
9469.000000;0.683126
9468.000000;0.683019
9467.000000;0.683228
9466.000000;0.683499
9465.000000;0.683551
9464.000000;0.683330
9463.000000;0.683004
9462.000000;0.682713
9461.000000;0.682434
9460.000000;0.682093
9459.000000;0.681728
9458.000000;0.681465
9457.000000;0.681386
9456.000000;0.681465
9455.000000;0.681601
9454.000000;0.681698
9453.000000;0.681757
9452.000000;0.681880
9451.000000;0.682113
9450.000000;0.682331
9449.000000;0.682346
9448.000000;0.682166
9447.000000;0.682004
9446.000000;0.682019
9445.000000;0.682170
9444.000000;0.682338
9443.000000;0.682473
9442.000000;0.682553
9441.000000;0.682510
9440.000000;0.682294
9439.000000;0.681924
9438.000000;0.681441
9437.000000;0.680871
9436.000000;0.680301
9435.000000;0.679902
9434.000000;0.679810
9433.000000;0.680011
9432.000000;0.680377
9431.000000;0.680717
9430.000000;0.680815
9429.000000;0.680546
9428.000000;0.680038
9427.000000;0.679608
9426.000000;0.679468
9425.000000;0.679539
9424.000000;0.679609
9423.000000;0.679582
9422.000000;0.679523
9421.000000;0.679537
9420.000000;0.679677
9419.000000;0.679882
9418.000000;0.679982
9417.000000;0.679832
9416.000000;0.679491
9415.000000;0.679169
9414.000000;0.678992
9413.000000;0.678932
9412.000000;0.678950
9411.000000;0.679058
9410.000000;0.679166
9409.000000;0.679083
9408.000000;0.678777
9407.000000;0.678498
9406.000000;0.678509
9405.000000;0.678794
9404.000000;0.679133
9403.000000;0.679339
9402.000000;0.679311
9401.000000;0.679013
9400.000000;0.678555
9399.000000;0.678174
9398.000000;0.677991
9397.000000;0.677874
9396.000000;0.677663
9395.000000;0.677420
9394.000000;0.677300
9393.000000;0.677289
9392.000000;0.677291
9391.000000;0.677390
9390.000000;0.677795
9389.000000;0.678479
9388.000000;0.679067
9387.000000;0.679155
9386.000000;0.678679
9385.000000;0.677931
9384.000000;0.677298
9383.000000;0.676977
9382.000000;0.676890
9381.000000;0.676817
9380.000000;0.676629
9379.000000;0.676374
9378.000000;0.676172
9377.000000;0.676100
9376.000000;0.676184
9375.000000;0.676349
9374.000000;0.676381
9373.000000;0.676084
9372.000000;0.675559
9371.000000;0.675183
9370.000000;0.675204
9369.000000;0.675504
9368.000000;0.675840
9367.000000;0.676147
9366.000000;0.676441
9365.000000;0.676614
9364.000000;0.676563
9363.000000;0.676407
9362.000000;0.676343
9361.000000;0.676336
9360.000000;0.676204
9359.000000;0.675959
9358.000000;0.675806
9357.000000;0.675804
9356.000000;0.675764
9355.000000;0.675527
9354.000000;0.675170
9353.000000;0.674876
9352.000000;0.674759
9351.000000;0.674849
9350.000000;0.675085
9349.000000;0.675261
9348.000000;0.675137
9347.000000;0.674708
9346.000000;0.674253
9345.000000;0.674058
9344.000000;0.674171
9343.000000;0.674445
9342.000000;0.674700
9341.000000;0.674795
9340.000000;0.674659
9339.000000;0.674367
9338.000000;0.674113
9337.000000;0.674035
9336.000000;0.674092
9335.000000;0.674143
9334.000000;0.674094
9333.000000;0.673944
9332.000000;0.673765
9331.000000;0.673661
9330.000000;0.673689
9329.000000;0.673780
9328.000000;0.673789
9327.000000;0.673660
9326.000000;0.673486
9325.000000;0.673368
9324.000000;0.673294
9323.000000;0.673188
9322.000000;0.673048
9321.000000;0.672941
9320.000000;0.672918
9319.000000;0.672958
9318.000000;0.673001
9317.000000;0.672990
9316.000000;0.672902
9315.000000;0.672761
9314.000000;0.672622
9313.000000;0.672511
9312.000000;0.672394
9311.000000;0.672230
9310.000000;0.672052
9309.000000;0.671970
9308.000000;0.672068
9307.000000;0.672298
9306.000000;0.672497
9305.000000;0.672540
9304.000000;0.672463
9303.000000;0.672399
9302.000000;0.672401
9301.000000;0.672372
9300.000000;0.672197
9299.000000;0.671876
9298.000000;0.671509
9297.000000;0.671184
9296.000000;0.670934
9295.000000;0.670767
9294.000000;0.670690
9293.000000;0.670706
9292.000000;0.670797
9291.000000;0.670907
9290.000000;0.670959
9289.000000;0.670919
9288.000000;0.670857
9287.000000;0.670872
9286.000000;0.670944
9285.000000;0.670941
9284.000000;0.670798
9283.000000;0.670616
9282.000000;0.670536
9281.000000;0.670582
9280.000000;0.670700
9279.000000;0.670853
9278.000000;0.670990
9277.000000;0.670981
9276.000000;0.670731
9275.000000;0.670317
9274.000000;0.669927
9273.000000;0.669645
9272.000000;0.669392
9271.000000;0.669106
9270.000000;0.668885
9269.000000;0.668906
9268.000000;0.669232
9267.000000;0.669713
9266.000000;0.670065
9265.000000;0.670059
9264.000000;0.669692
9263.000000;0.669176
9262.000000;0.668748
9261.000000;0.668486
9260.000000;0.668334
9259.000000;0.668245
9258.000000;0.668236
9257.000000;0.668322
9256.000000;0.668455
9255.000000;0.668566
9254.000000;0.668611
9253.000000;0.668589
9252.000000;0.668519
9251.000000;0.668428
9250.000000;0.668332
9249.000000;0.668223
9248.000000;0.668090
9247.000000;0.667949
9246.000000;0.667862
9245.000000;0.667901
9244.000000;0.668069
9243.000000;0.668248
9242.000000;0.668247
9241.000000;0.667983
9240.000000;0.667613
9239.000000;0.667409
9238.000000;0.667467
9237.000000;0.667609
9236.000000;0.667612
9235.000000;0.667465
9234.000000;0.667344
9233.000000;0.667349
9232.000000;0.667385
9231.000000;0.667302
9230.000000;0.667114
9229.000000;0.666999
9228.000000;0.667090
9227.000000;0.667323
9226.000000;0.667507
9225.000000;0.667540
9224.000000;0.667478
9223.000000;0.667374
9222.000000;0.667151
9221.000000;0.666736
9220.000000;0.666249
9219.000000;0.665929
9218.000000;0.665866
9217.000000;0.665916
9216.000000;0.665918
9215.000000;0.665868
9214.000000;0.665853
9213.000000;0.665897
9212.000000;0.665946
9211.000000;0.665932
9210.000000;0.665771
9209.000000;0.665387
9208.000000;0.664827
9207.000000;0.664303
9206.000000;0.664042
9205.000000;0.664101
9204.000000;0.664369
9203.000000;0.664694
9202.000000;0.664963
9201.000000;0.665108
9200.000000;0.665119
9199.000000;0.665055
9198.000000;0.664994
9197.000000;0.664971
9196.000000;0.664983
9195.000000;0.665013
9194.000000;0.665021
9193.000000;0.664974
9192.000000;0.664914
9191.000000;0.664944
9190.000000;0.665091
9189.000000;0.665215
9188.000000;0.665123
9187.000000;0.664737
9186.000000;0.664152
9185.000000;0.663577
9184.000000;0.663236
9183.000000;0.663245
9182.000000;0.663504
9181.000000;0.663767
9180.000000;0.663898
9179.000000;0.663992
9178.000000;0.664179
9177.000000;0.664391
9176.000000;0.664439
9175.000000;0.664278
9174.000000;0.664062
9173.000000;0.663929
9172.000000;0.663844
9171.000000;0.663689
9170.000000;0.663415
9169.000000;0.663074
9168.000000;0.662748
9167.000000;0.662507
9166.000000;0.662387
9165.000000;0.662385
9164.000000;0.662457
9163.000000;0.662557
9162.000000;0.662654
9161.000000;0.662721
9160.000000;0.662724
9159.000000;0.662616
9158.000000;0.662371
9157.000000;0.662045
9156.000000;0.661797
9155.000000;0.661788
9154.000000;0.662015
9153.000000;0.662295
9152.000000;0.662432
9151.000000;0.662380
9150.000000;0.662212
9149.000000;0.662004
9148.000000;0.661824
9147.000000;0.661764
9146.000000;0.661875
9145.000000;0.662073
9144.000000;0.662187
9143.000000;0.662121
9142.000000;0.661912
9141.000000;0.661636
9140.000000;0.661332
9139.000000;0.661050
9138.000000;0.660887
9137.000000;0.660916
9136.000000;0.661082
9135.000000;0.661235
9134.000000;0.661266
9133.000000;0.661179
9132.000000;0.661042
9131.000000;0.660901
9130.000000;0.660767
9129.000000;0.660652
9128.000000;0.660566
9127.000000;0.660493
9126.000000;0.660405
9125.000000;0.660319
9124.000000;0.660265
9123.000000;0.660204
9122.000000;0.660041
9121.000000;0.659804
9120.000000;0.659692
9119.000000;0.659854
9118.000000;0.660148
9117.000000;0.660266
9116.000000;0.660084
9115.000000;0.659774
9114.000000;0.659546
9113.000000;0.659441
9112.000000;0.659408
9111.000000;0.659443
9110.000000;0.659531
9109.000000;0.659579
9108.000000;0.659511
9107.000000;0.659399
9106.000000;0.659370
9105.000000;0.659426
9104.000000;0.659448
9103.000000;0.659354
9102.000000;0.659163
9101.000000;0.658926
9100.000000;0.658696
9099.000000;0.658549
9098.000000;0.658547
9097.000000;0.658650
9096.000000;0.658726
9095.000000;0.658677
9094.000000;0.658507
9093.000000;0.658289
9092.000000;0.658100
9091.000000;0.657988
9090.000000;0.657944
9089.000000;0.657904
9088.000000;0.657832
9087.000000;0.657800
9086.000000;0.657918
9085.000000;0.658165
9084.000000;0.658354
9083.000000;0.658316
9082.000000;0.658067
9081.000000;0.657765
9080.000000;0.657511
9079.000000;0.657269
9078.000000;0.656969
9077.000000;0.656640
9076.000000;0.656402
9075.000000;0.656352
9074.000000;0.656486
9073.000000;0.656718
9072.000000;0.656922
9071.000000;0.656982
9070.000000;0.656849
9069.000000;0.656595
9068.000000;0.656388
9067.000000;0.656357
9066.000000;0.656509
9065.000000;0.656762
9064.000000;0.657016
9063.000000;0.657182
9062.000000;0.657202
9061.000000;0.657121
9060.000000;0.657081
9059.000000;0.657171
9058.000000;0.657275
9057.000000;0.657185
9056.000000;0.656875
9055.000000;0.656561
9054.000000;0.656450
9053.000000;0.656508
