Criado como novo conjunto de dados;"2706_e01_daniel.spp","98467.4 Secs"
cm-1;Abs
10000.000000;0.865743
9999.000000;0.865459
9998.000000;0.865413
9997.000000;0.865679
9996.000000;0.865958
9995.000000;0.865862
9994.000000;0.865205
9993.000000;0.864194
9992.000000;0.863292
9991.000000;0.862807
9990.000000;0.862654
9989.000000;0.862600
9988.000000;0.862617
9987.000000;0.862819
9986.000000;0.863141
9985.000000;0.863342
9984.000000;0.863358
9983.000000;0.863429
9982.000000;0.863729
9981.000000;0.864019
9980.000000;0.863859
9979.000000;0.863155
9978.000000;0.862323
9977.000000;0.861833
9976.000000;0.861694
9975.000000;0.861571
9974.000000;0.861376
9973.000000;0.861490
9972.000000;0.862213
9971.000000;0.863168
9970.000000;0.863586
9969.000000;0.863201
9968.000000;0.862521
9967.000000;0.862124
9966.000000;0.862009
9965.000000;0.861855
9964.000000;0.861621
9963.000000;0.861560
9962.000000;0.861771
9961.000000;0.862057
9960.000000;0.862190
9959.000000;0.862035
9958.000000;0.861472
9957.000000;0.860486
9956.000000;0.859379
9955.000000;0.858674
9954.000000;0.858715
9953.000000;0.859437
9952.000000;0.860473
9951.000000;0.861345
9950.000000;0.861644
9949.000000;0.861279
9948.000000;0.860569
9947.000000;0.859917
9946.000000;0.859424
9945.000000;0.858957
9944.000000;0.858519
9943.000000;0.858285
9942.000000;0.858275
9941.000000;0.858290
9940.000000;0.858212
9939.000000;0.858148
9938.000000;0.858176
9937.000000;0.858221
9936.000000;0.858280
9935.000000;0.858532
9934.000000;0.859036
9933.000000;0.859532
9932.000000;0.859711
9931.000000;0.859549
9930.000000;0.859249
9929.000000;0.858958
9928.000000;0.858725
9927.000000;0.858620
9926.000000;0.858687
9925.000000;0.858853
9924.000000;0.859010
9923.000000;0.859156
9922.000000;0.859289
9921.000000;0.859239
9920.000000;0.858813
9919.000000;0.858121
9918.000000;0.857578
9917.000000;0.857472
9916.000000;0.857647
9915.000000;0.857692
9914.000000;0.857391
9913.000000;0.856911
9912.000000;0.856585
9911.000000;0.856610
9910.000000;0.856935
9909.000000;0.857314
9908.000000;0.857410
9907.000000;0.856971
9906.000000;0.856092
9905.000000;0.855288
9904.000000;0.855079
9903.000000;0.855431
9902.000000;0.855755
9901.000000;0.855598
9900.000000;0.855173
9899.000000;0.855041
9898.000000;0.855395
9897.000000;0.855913
9896.000000;0.856267
9895.000000;0.856477
9894.000000;0.856697
9893.000000;0.856905
9892.000000;0.856968
9891.000000;0.856867
9890.000000;0.856709
9889.000000;0.856570
9888.000000;0.856418
9887.000000;0.856140
9886.000000;0.855625
9885.000000;0.854913
9884.000000;0.854311
9883.000000;0.854205
9882.000000;0.854649
9881.000000;0.855213
9880.000000;0.855379
9879.000000;0.855058
9878.000000;0.854641
9877.000000;0.854570
9876.000000;0.854917
9875.000000;0.855311
9874.000000;0.855221
9873.000000;0.854403
9872.000000;0.853190
9871.000000;0.852298
9870.000000;0.852238
9869.000000;0.852875
9868.000000;0.853608
9867.000000;0.853976
9866.000000;0.854032
9865.000000;0.854122
9864.000000;0.854431
9863.000000;0.854815
9862.000000;0.855032
9861.000000;0.854964
9860.000000;0.854624
9859.000000;0.854059
9858.000000;0.853389
9857.000000;0.852835
9856.000000;0.852553
9855.000000;0.852433
9854.000000;0.852202
9853.000000;0.851792
9852.000000;0.851428
9851.000000;0.851306
9850.000000;0.851323
9849.000000;0.851270
9848.000000;0.851141
9847.000000;0.851070
9846.000000;0.851092
9845.000000;0.851152
9844.000000;0.851281
9843.000000;0.851522
9842.000000;0.851715
9841.000000;0.851620
9840.000000;0.851289
9839.000000;0.851099
9838.000000;0.851310
9837.000000;0.851772
9836.000000;0.852106
9835.000000;0.852067
9834.000000;0.851664
9833.000000;0.851097
9832.000000;0.850638
9831.000000;0.850441
9830.000000;0.850377
9829.000000;0.850174
9828.000000;0.849768
9827.000000;0.849375
9826.000000;0.849194
9825.000000;0.849243
9824.000000;0.849529
9823.000000;0.850140
9822.000000;0.850987
9821.000000;0.851639
9820.000000;0.851658
9819.000000;0.851068
9818.000000;0.850307
9817.000000;0.849771
9816.000000;0.849553
9815.000000;0.849557
9814.000000;0.849675
9813.000000;0.849844
9812.000000;0.850053
9811.000000;0.850334
9810.000000;0.850659
9809.000000;0.850852
9808.000000;0.850706
9807.000000;0.850230
9806.000000;0.849680
9805.000000;0.849318
9804.000000;0.849193
9803.000000;0.849161
9802.000000;0.849083
9801.000000;0.848979
9800.000000;0.848985
9799.000000;0.849185
9798.000000;0.849460
9797.000000;0.849510
9796.000000;0.849045
9795.000000;0.848055
9794.000000;0.846934
9793.000000;0.846283
9792.000000;0.846464
9791.000000;0.847252
9790.000000;0.848025
9789.000000;0.848380
9788.000000;0.848483
9787.000000;0.848683
9786.000000;0.848946
9785.000000;0.848905
9784.000000;0.848431
9783.000000;0.847853
9782.000000;0.847526
9781.000000;0.847429
9780.000000;0.847338
9779.000000;0.847196
9778.000000;0.847093
9777.000000;0.847022
9776.000000;0.846890
9775.000000;0.846711
9774.000000;0.846594
9773.000000;0.846518
9772.000000;0.846298
9771.000000;0.845838
9770.000000;0.845339
9769.000000;0.845160
9768.000000;0.845487
9767.000000;0.846140
9766.000000;0.846697
9765.000000;0.846826
9764.000000;0.846544
9763.000000;0.846140
9762.000000;0.845855
9761.000000;0.845690
9760.000000;0.845538
9759.000000;0.845373
9758.000000;0.845229
9757.000000;0.845081
9756.000000;0.844891
9755.000000;0.844747
9754.000000;0.844812
9753.000000;0.845084
9752.000000;0.845304
9751.000000;0.845196
9750.000000;0.844737
9749.000000;0.844179
9748.000000;0.843798
9747.000000;0.843676
9746.000000;0.843729
9745.000000;0.843847
9744.000000;0.843981
9743.000000;0.844099
9742.000000;0.844180
9741.000000;0.844276
9740.000000;0.844493
9739.000000;0.844791
9738.000000;0.844841
9737.000000;0.844277
9736.000000;0.843137
9735.000000;0.841968
9734.000000;0.841398
9733.000000;0.841668
9732.000000;0.842557
9731.000000;0.843616
9730.000000;0.844396
9729.000000;0.844581
9728.000000;0.844127
9727.000000;0.843314
9726.000000;0.842588
9725.000000;0.842285
9724.000000;0.842443
9723.000000;0.842798
9722.000000;0.842952
9721.000000;0.842668
9720.000000;0.842105
9719.000000;0.841691
9718.000000;0.841683
9717.000000;0.841870
9716.000000;0.841817
9715.000000;0.841395
9714.000000;0.840960
9713.000000;0.840984
9712.000000;0.841585
9711.000000;0.842452
9710.000000;0.843148
9709.000000;0.843432
9708.000000;0.843326
9707.000000;0.842990
9706.000000;0.842585
9705.000000;0.842198
9704.000000;0.841840
9703.000000;0.841472
9702.000000;0.841098
9701.000000;0.840821
9700.000000;0.840774
9699.000000;0.840962
9698.000000;0.841210
9697.000000;0.841328
9696.000000;0.841291
9695.000000;0.841228
9694.000000;0.841246
9693.000000;0.841327
9692.000000;0.841359
9691.000000;0.841224
9690.000000;0.840882
9689.000000;0.840423
9688.000000;0.840022
9687.000000;0.839783
9686.000000;0.839677
9685.000000;0.839674
9684.000000;0.839846
9683.000000;0.840230
9682.000000;0.840649
9681.000000;0.840852
9680.000000;0.840819
9679.000000;0.840761
9678.000000;0.840766
9677.000000;0.840625
9676.000000;0.840112
9675.000000;0.839331
9674.000000;0.838691
9673.000000;0.838574
9672.000000;0.839069
9671.000000;0.839905
9670.000000;0.840599
9669.000000;0.840759
9668.000000;0.840386
9667.000000;0.839842
9666.000000;0.839483
9665.000000;0.839366
9664.000000;0.839340
9663.000000;0.839311
9662.000000;0.839310
9661.000000;0.839361
9660.000000;0.839384
9659.000000;0.839254
9658.000000;0.838913
9657.000000;0.838446
9656.000000;0.838021
9655.000000;0.837740
9654.000000;0.837545
9653.000000;0.837307
9652.000000;0.837007
9651.000000;0.836739
9650.000000;0.836566
9649.000000;0.836486
9648.000000;0.836548
9647.000000;0.836841
9646.000000;0.837312
9645.000000;0.837726
9644.000000;0.837899
9643.000000;0.837875
9642.000000;0.837783
9641.000000;0.837644
9640.000000;0.837444
9639.000000;0.837295
9638.000000;0.837377
9637.000000;0.837713
9636.000000;0.838114
9635.000000;0.838329
9634.000000;0.838218
9633.000000;0.837835
9632.000000;0.837411
9631.000000;0.837220
9630.000000;0.837354
9629.000000;0.837659
9628.000000;0.837902
9627.000000;0.837951
9626.000000;0.837756
9625.000000;0.837299
9624.000000;0.836670
9623.000000;0.836122
9622.000000;0.835884
9621.000000;0.835937
9620.000000;0.836061
9619.000000;0.836084
9618.000000;0.835971
9617.000000;0.835746
9616.000000;0.835445
9615.000000;0.835155
9614.000000;0.834974
9613.000000;0.834919
9612.000000;0.834947
9611.000000;0.835024
9610.000000;0.835108
9609.000000;0.835078
9608.000000;0.834812
9607.000000;0.834349
9606.000000;0.833873
9605.000000;0.833549
9604.000000;0.833452
9603.000000;0.833631
9602.000000;0.834084
9601.000000;0.834617
9600.000000;0.834902
9599.000000;0.834760
9598.000000;0.834367
9597.000000;0.834089
9596.000000;0.834145
9595.000000;0.834467
9594.000000;0.834811
9593.000000;0.834965
9592.000000;0.834875
9591.000000;0.834632
9590.000000;0.834330
9589.000000;0.833984
9588.000000;0.833600
9587.000000;0.833274
9586.000000;0.833119
9585.000000;0.833086
9584.000000;0.832986
9583.000000;0.832733
9582.000000;0.832459
9581.000000;0.832320
9580.000000;0.832290
9579.000000;0.832228
9578.000000;0.832094
9577.000000;0.831979
9576.000000;0.831976
9575.000000;0.832111
9574.000000;0.832379
9573.000000;0.832715
9572.000000;0.832945
9571.000000;0.832898
9570.000000;0.832620
9569.000000;0.832371
9568.000000;0.832344
9567.000000;0.832440
9566.000000;0.832413
9565.000000;0.832172
9564.000000;0.831843
9563.000000;0.831596
9562.000000;0.831518
9561.000000;0.831637
9560.000000;0.831942
9559.000000;0.832323
9558.000000;0.832583
9557.000000;0.832567
9556.000000;0.832277
9555.000000;0.831861
9554.000000;0.831520
9553.000000;0.831409
9552.000000;0.831497
9551.000000;0.831513
9550.000000;0.831202
9549.000000;0.830688
9548.000000;0.830441
9547.000000;0.830732
9546.000000;0.831248
9545.000000;0.831458
9544.000000;0.831273
9543.000000;0.831114
9542.000000;0.831308
9541.000000;0.831684
9540.000000;0.831873
9539.000000;0.831789
9538.000000;0.831622
9537.000000;0.831498
9536.000000;0.831374
9535.000000;0.831213
9534.000000;0.831052
9533.000000;0.830859
9532.000000;0.830526
9531.000000;0.830075
9530.000000;0.829747
9529.000000;0.829764
9528.000000;0.830051
9527.000000;0.830309
9526.000000;0.830337
9525.000000;0.830181
9524.000000;0.829981
9523.000000;0.829785
9522.000000;0.829562
9521.000000;0.829330
9520.000000;0.829147
9519.000000;0.828999
9518.000000;0.828778
9517.000000;0.828419
9516.000000;0.827992
9515.000000;0.827639
9514.000000;0.827471
9513.000000;0.827501
9512.000000;0.827623
9511.000000;0.827624
9510.000000;0.827340
9509.000000;0.826889
9508.000000;0.826633
9507.000000;0.826815
9506.000000;0.827257
9505.000000;0.827539
9504.000000;0.827471
9503.000000;0.827252
9502.000000;0.827175
9501.000000;0.827323
9500.000000;0.827594
9499.000000;0.827894
9498.000000;0.828173
9497.000000;0.828328
9496.000000;0.828240
9495.000000;0.827921
9494.000000;0.827558
9493.000000;0.827351
9492.000000;0.827350
9491.000000;0.827464
9490.000000;0.827614
9489.000000;0.827812
9488.000000;0.828053
9487.000000;0.828215
9486.000000;0.828142
9485.000000;0.827836
9484.000000;0.827449
9483.000000;0.827080
9482.000000;0.826681
9481.000000;0.826246
9480.000000;0.825961
9479.000000;0.826027
9478.000000;0.826372
9477.000000;0.826694
9476.000000;0.826786
9475.000000;0.826723
9474.000000;0.826681
9473.000000;0.826698
9472.000000;0.826633
9471.000000;0.826320
9470.000000;0.825730
9469.000000;0.825050
9468.000000;0.824607
9467.000000;0.824643
9466.000000;0.825137
9465.000000;0.825863
9464.000000;0.826557
9463.000000;0.826988
9462.000000;0.826935
9461.000000;0.826312
9460.000000;0.825340
9459.000000;0.824469
9458.000000;0.824062
9457.000000;0.824195
9456.000000;0.824737
9455.000000;0.825491
9454.000000;0.826214
9453.000000;0.826654
9452.000000;0.826692
9451.000000;0.826418
9450.000000;0.826019
9449.000000;0.825652
9448.000000;0.825430
9447.000000;0.825429
9446.000000;0.825586
9445.000000;0.825670
9444.000000;0.825455
9443.000000;0.824953
9442.000000;0.824436
9441.000000;0.824223
9440.000000;0.824396
9439.000000;0.824680
9438.000000;0.824657
9437.000000;0.824167
9436.000000;0.823483
9435.000000;0.823009
9434.000000;0.822868
9433.000000;0.822890
9432.000000;0.822918
9431.000000;0.822932
9430.000000;0.822889
9429.000000;0.822727
9428.000000;0.822569
9427.000000;0.822686
9426.000000;0.823092
9425.000000;0.823406
9424.000000;0.823308
9423.000000;0.822975
9422.000000;0.822848
9421.000000;0.823074
9420.000000;0.823420
9419.000000;0.823651
9418.000000;0.823739
9417.000000;0.823690
9416.000000;0.823455
9415.000000;0.823094
9414.000000;0.822843
9413.000000;0.822867
9412.000000;0.823022
9411.000000;0.822994
9410.000000;0.822634
9409.000000;0.822092
9408.000000;0.821645
9407.000000;0.821448
9406.000000;0.821465
9405.000000;0.821570
9404.000000;0.821683
9403.000000;0.821789
9402.000000;0.821877
9401.000000;0.821922
9400.000000;0.821915
9399.000000;0.821859
9398.000000;0.821703
9397.000000;0.821375
9396.000000;0.820930
9395.000000;0.820582
9394.000000;0.820508
9393.000000;0.820662
9392.000000;0.820845
9391.000000;0.820937
9390.000000;0.820984
9389.000000;0.821075
9388.000000;0.821216
9387.000000;0.821328
9386.000000;0.821302
9385.000000;0.821064
9384.000000;0.820644
9383.000000;0.820191
9382.000000;0.819864
9381.000000;0.819715
9380.000000;0.819702
9379.000000;0.819787
9378.000000;0.819968
9377.000000;0.820220
9376.000000;0.820435
9375.000000;0.820473
9374.000000;0.820263
9373.000000;0.819891
9372.000000;0.819550
9371.000000;0.819381
9370.000000;0.819355
9369.000000;0.819349
9368.000000;0.819338
9367.000000;0.819413
9366.000000;0.819588
9365.000000;0.819686
9364.000000;0.819516
9363.000000;0.819103
9362.000000;0.818664
9361.000000;0.818380
9360.000000;0.818271
9359.000000;0.818282
9358.000000;0.818399
9357.000000;0.818617
9356.000000;0.818840
9355.000000;0.818879
9354.000000;0.818615
9353.000000;0.818155
9352.000000;0.817779
9351.000000;0.817665
9350.000000;0.817688
9349.000000;0.817565
9348.000000;0.817196
9347.000000;0.816775
9346.000000;0.816555
9345.000000;0.816586
9344.000000;0.816717
9343.000000;0.816777
9342.000000;0.816695
9341.000000;0.816534
9340.000000;0.816451
9339.000000;0.816586
9338.000000;0.816913
9337.000000;0.817242
9336.000000;0.817375
9335.000000;0.817241
9334.000000;0.816889
9333.000000;0.816434
9332.000000;0.816042
9331.000000;0.815854
9330.000000;0.815856
9329.000000;0.815908
9328.000000;0.815916
9327.000000;0.815907
9326.000000;0.815893
9325.000000;0.815814
9324.000000;0.815677
9323.000000;0.815621
9322.000000;0.815748
9321.000000;0.815982
9320.000000;0.816212
9319.000000;0.816449
9318.000000;0.816721
9317.000000;0.816896
9316.000000;0.816793
9315.000000;0.816432
9314.000000;0.816024
9313.000000;0.815739
9312.000000;0.815600
9311.000000;0.815558
9310.000000;0.815555
9309.000000;0.815524
9308.000000;0.815481
9307.000000;0.815579
9306.000000;0.815927
9305.000000;0.816320
9304.000000;0.816339
9303.000000;0.815792
9302.000000;0.814974
9301.000000;0.814374
9300.000000;0.814198
9299.000000;0.814225
9298.000000;0.814097
9297.000000;0.813712
9296.000000;0.813328
9295.000000;0.813302
9294.000000;0.813733
9293.000000;0.814358
9292.000000;0.814819
9291.000000;0.814953
9290.000000;0.814820
9289.000000;0.814535
9288.000000;0.814197
9287.000000;0.813935
9286.000000;0.813888
9285.000000;0.814070
9284.000000;0.814319
9283.000000;0.814392
9282.000000;0.814136
9281.000000;0.813597
9280.000000;0.813034
9279.000000;0.812758
9278.000000;0.812867
9277.000000;0.813134
9276.000000;0.813226
9275.000000;0.813013
9274.000000;0.812629
9273.000000;0.812259
9272.000000;0.811995
9271.000000;0.811854
9270.000000;0.811825
9269.000000;0.811872
9268.000000;0.811953
9267.000000;0.812070
9266.000000;0.812240
9265.000000;0.812410
9264.000000;0.812475
9263.000000;0.812381
9262.000000;0.812170
9261.000000;0.811945
9260.000000;0.811834
9259.000000;0.811947
9258.000000;0.812278
9257.000000;0.812667
9256.000000;0.812929
9255.000000;0.813033
9254.000000;0.813083
9253.000000;0.813150
9252.000000;0.813202
9251.000000;0.813199
9250.000000;0.813144
9249.000000;0.813034
9248.000000;0.812830
9247.000000;0.812491
9246.000000;0.812015
9245.000000;0.811435
9244.000000;0.810842
9243.000000;0.810388
9242.000000;0.810185
9241.000000;0.810226
9240.000000;0.810451
9239.000000;0.810822
9238.000000;0.811254
9237.000000;0.811531
9236.000000;0.811477
9235.000000;0.811194
9234.000000;0.810969
9233.000000;0.810938
9232.000000;0.810994
9231.000000;0.811030
9230.000000;0.811098
9229.000000;0.811225
9228.000000;0.811281
9227.000000;0.811146
9226.000000;0.810905
9225.000000;0.810715
9224.000000;0.810574
9223.000000;0.810351
9222.000000;0.810025
9221.000000;0.809732
9220.000000;0.809586
9219.000000;0.809538
9218.000000;0.809449
9217.000000;0.809238
9216.000000;0.808959
9215.000000;0.808761
9214.000000;0.808765
9213.000000;0.808949
9212.000000;0.809188
9211.000000;0.809411
9210.000000;0.809667
9209.000000;0.809984
9208.000000;0.810214
9207.000000;0.810137
9206.000000;0.809727
9205.000000;0.809225
9204.000000;0.808933
9203.000000;0.808947
9202.000000;0.809101
9201.000000;0.809140
9200.000000;0.808929
9199.000000;0.808546
9198.000000;0.808197
9197.000000;0.808039
9196.000000;0.808057
9195.000000;0.808117
9194.000000;0.808125
9193.000000;0.808106
9192.000000;0.808124
9191.000000;0.808147
9190.000000;0.808033
9189.000000;0.807669
9188.000000;0.807152
9187.000000;0.806774
9186.000000;0.806798
9185.000000;0.807203
9184.000000;0.807662
9183.000000;0.807781
9182.000000;0.807422
9181.000000;0.806808
9180.000000;0.806328
9179.000000;0.806220
9178.000000;0.806405
9177.000000;0.806635
9176.000000;0.806763
9175.000000;0.806822
9174.000000;0.806872
9173.000000;0.806873
9172.000000;0.806767
9171.000000;0.806605
9170.000000;0.806500
9169.000000;0.806484
9168.000000;0.806509
9167.000000;0.806549
9166.000000;0.806611
9165.000000;0.806632
9164.000000;0.806494
9163.000000;0.806184
9162.000000;0.805885
9161.000000;0.805837
9160.000000;0.806115
9159.000000;0.806560
9158.000000;0.806886
9157.000000;0.806874
9156.000000;0.806529
9155.000000;0.806061
9154.000000;0.805681
9153.000000;0.805411
9152.000000;0.805146
9151.000000;0.804891
9150.000000;0.804825
9149.000000;0.805052
9148.000000;0.805394
9147.000000;0.805534
9146.000000;0.805371
9145.000000;0.805137
9144.000000;0.805149
9143.000000;0.805467
9142.000000;0.805854
9141.000000;0.806030
9140.000000;0.805911
9139.000000;0.805600
9138.000000;0.805217
9137.000000;0.804807
9136.000000;0.804432
9135.000000;0.804215
9134.000000;0.804237
9133.000000;0.804421
9132.000000;0.804599
9131.000000;0.804667
9130.000000;0.804634
9129.000000;0.804542
9128.000000;0.804445
9127.000000;0.804421
9126.000000;0.804505
9125.000000;0.804600
9124.000000;0.804548
9123.000000;0.804308
9122.000000;0.803987
9121.000000;0.803692
9120.000000;0.803449
9119.000000;0.803283
9118.000000;0.803254
9117.000000;0.803351
9116.000000;0.803441
9115.000000;0.803408
9114.000000;0.803267
9113.000000;0.803095
9112.000000;0.802934
9111.000000;0.802827
9110.000000;0.802852
9109.000000;0.803015
9108.000000;0.803157
9107.000000;0.803091
9106.000000;0.802806
9105.000000;0.802454
9104.000000;0.802169
9103.000000;0.801998
9102.000000;0.801961
9101.000000;0.802035
9100.000000;0.802091
9099.000000;0.801995
9098.000000;0.801808
9097.000000;0.801784
9096.000000;0.802072
9095.000000;0.802507
9094.000000;0.802762
9093.000000;0.802643
9092.000000;0.802211
9091.000000;0.801681
9090.000000;0.801296
9089.000000;0.801226
9088.000000;0.801451
9087.000000;0.801739
9086.000000;0.801826
9085.000000;0.801665
9084.000000;0.801445
9083.000000;0.801369
9082.000000;0.801453
9081.000000;0.801553
9080.000000;0.801521
9079.000000;0.801301
9078.000000;0.800935
9077.000000;0.800543
9076.000000;0.800277
9075.000000;0.800230
9074.000000;0.800384
9073.000000;0.800642
9072.000000;0.800903
9071.000000;0.801077
9070.000000;0.801070
9069.000000;0.800858
9068.000000;0.800551
9067.000000;0.800326
9066.000000;0.800261
9065.000000;0.800286
9064.000000;0.800321
9063.000000;0.800389
9062.000000;0.800531
9061.000000;0.800679
9060.000000;0.800688
9059.000000;0.800510
9058.000000;0.800256
9057.000000;0.800066
9056.000000;0.799965
9055.000000;0.799876
9054.000000;0.799749
9053.000000;0.799636
