Criado como novo conjunto de dados;"2706_e01_daniel.spp","100627.0 Secs"
cm-1;Abs
10000.000000;0.869943
9999.000000;0.869245
9998.000000;0.868549
9997.000000;0.867853
9996.000000;0.867160
9995.000000;0.866466
9994.000000;0.865775
9993.000000;0.865082
9992.000000;0.864398
9991.000000;0.863556
9990.000000;0.862855
9989.000000;0.862518
9988.000000;0.862466
9987.000000;0.862501
9986.000000;0.862640
9985.000000;0.863070
9984.000000;0.863706
9983.000000;0.864079
9982.000000;0.863844
9981.000000;0.863200
9980.000000;0.862640
9979.000000;0.862433
9978.000000;0.862526
9977.000000;0.862786
9976.000000;0.863101
9975.000000;0.863324
9974.000000;0.863363
9973.000000;0.863309
9972.000000;0.863302
9971.000000;0.863333
9970.000000;0.863334
9969.000000;0.863357
9968.000000;0.863449
9967.000000;0.863434
9966.000000;0.863103
9965.000000;0.862580
9964.000000;0.862213
9963.000000;0.862098
9962.000000;0.862024
9961.000000;0.861916
9960.000000;0.861967
9959.000000;0.862172
9958.000000;0.862114
9957.000000;0.861555
9956.000000;0.861009
9955.000000;0.861311
9954.000000;0.862597
9953.000000;0.863992
9952.000000;0.864415
9951.000000;0.863576
9950.000000;0.862139
9949.000000;0.861022
9948.000000;0.860662
9947.000000;0.860814
9946.000000;0.860929
9945.000000;0.860660
9944.000000;0.860047
9943.000000;0.859326
9942.000000;0.858709
9941.000000;0.858359
9940.000000;0.858405
9939.000000;0.858813
9938.000000;0.859305
9937.000000;0.859569
9936.000000;0.859505
9935.000000;0.859191
9934.000000;0.858711
9933.000000;0.858190
9932.000000;0.857947
9931.000000;0.858315
9930.000000;0.859182
9929.000000;0.859890
9928.000000;0.859843
9927.000000;0.859166
9926.000000;0.858608
9925.000000;0.858780
9924.000000;0.859603
9923.000000;0.860471
9922.000000;0.860784
9921.000000;0.860275
9920.000000;0.859045
9919.000000;0.857497
9918.000000;0.856219
9917.000000;0.855691
9916.000000;0.855962
9915.000000;0.856662
9914.000000;0.857359
9913.000000;0.857875
9912.000000;0.858257
9911.000000;0.858574
9910.000000;0.858824
9909.000000;0.858946
9908.000000;0.858838
9907.000000;0.858443
9906.000000;0.857887
9905.000000;0.857431
9904.000000;0.857169
9903.000000;0.856893
9902.000000;0.856461
9901.000000;0.856129
9900.000000;0.856265
9899.000000;0.856782
9898.000000;0.857187
9897.000000;0.857227
9896.000000;0.857139
9895.000000;0.857147
9894.000000;0.857054
9893.000000;0.856596
9892.000000;0.855933
9891.000000;0.855468
9890.000000;0.855309
9889.000000;0.855226
9888.000000;0.855079
9887.000000;0.854991
9886.000000;0.855081
9885.000000;0.855321
9884.000000;0.855677
9883.000000;0.856149
9882.000000;0.856601
9881.000000;0.856776
9880.000000;0.856597
9879.000000;0.856290
9878.000000;0.856084
9877.000000;0.855975
9876.000000;0.855876
9875.000000;0.855834
9874.000000;0.855929
9873.000000;0.856077
9872.000000;0.856120
9871.000000;0.856052
9870.000000;0.855976
9869.000000;0.855879
9868.000000;0.855630
9867.000000;0.855243
9866.000000;0.854931
9865.000000;0.854857
9864.000000;0.854946
9863.000000;0.855026
9862.000000;0.855023
9861.000000;0.854941
9860.000000;0.854726
9859.000000;0.854304
9858.000000;0.853729
9857.000000;0.853177
9856.000000;0.852784
9855.000000;0.852551
9854.000000;0.852420
9853.000000;0.852375
9852.000000;0.852445
9851.000000;0.852641
9850.000000;0.852912
9849.000000;0.853111
9848.000000;0.853061
9847.000000;0.852753
9846.000000;0.852469
9845.000000;0.852572
9844.000000;0.853114
9843.000000;0.853713
9842.000000;0.853907
9841.000000;0.853575
9840.000000;0.852978
9839.000000;0.852473
9838.000000;0.852279
9837.000000;0.852406
9836.000000;0.852672
9835.000000;0.852812
9834.000000;0.852721
9833.000000;0.852586
9832.000000;0.852667
9831.000000;0.852964
9830.000000;0.853174
9829.000000;0.852980
9828.000000;0.852314
9827.000000;0.851386
9826.000000;0.850588
9825.000000;0.850340
9824.000000;0.850814
9823.000000;0.851739
9822.000000;0.852595
9821.000000;0.853081
9820.000000;0.853283
9819.000000;0.853368
9818.000000;0.853280
9817.000000;0.852872
9816.000000;0.852184
9815.000000;0.851481
9814.000000;0.851065
9813.000000;0.851127
9812.000000;0.851661
9811.000000;0.852381
9810.000000;0.852807
9809.000000;0.852640
9808.000000;0.852067
9807.000000;0.851560
9806.000000;0.851410
9805.000000;0.851539
9804.000000;0.851724
9803.000000;0.851821
9802.000000;0.851749
9801.000000;0.851432
9800.000000;0.850895
9799.000000;0.850328
9798.000000;0.849959
9797.000000;0.849841
9796.000000;0.849821
9795.000000;0.849719
9794.000000;0.849470
9793.000000;0.849087
9792.000000;0.848557
9791.000000;0.847891
9790.000000;0.847299
9789.000000;0.847162
9788.000000;0.847701
9787.000000;0.848675
9786.000000;0.849543
9785.000000;0.849933
9784.000000;0.849861
9783.000000;0.849475
9782.000000;0.848770
9781.000000;0.847700
9780.000000;0.846462
9779.000000;0.845508
9778.000000;0.845251
9777.000000;0.845781
9776.000000;0.846801
9775.000000;0.847782
9774.000000;0.848254
9773.000000;0.848089
9772.000000;0.847549
9771.000000;0.847038
9770.000000;0.846819
9769.000000;0.846921
9768.000000;0.847199
9767.000000;0.847428
9766.000000;0.847459
9765.000000;0.847370
9764.000000;0.847378
9763.000000;0.847533
9762.000000;0.847583
9761.000000;0.847268
9760.000000;0.846662
9759.000000;0.846088
9758.000000;0.845758
9757.000000;0.845602
9756.000000;0.845456
9755.000000;0.845261
9754.000000;0.845095
9753.000000;0.845090
9752.000000;0.845322
9751.000000;0.845688
9750.000000;0.845934
9749.000000;0.845891
9748.000000;0.845658
9747.000000;0.845437
9746.000000;0.845247
9745.000000;0.844953
9744.000000;0.844567
9743.000000;0.844310
9742.000000;0.844329
9741.000000;0.844504
9740.000000;0.844640
9739.000000;0.844705
9738.000000;0.844793
9737.000000;0.844927
9736.000000;0.845031
9735.000000;0.845046
9734.000000;0.844973
9733.000000;0.844805
9732.000000;0.844548
9731.000000;0.844316
9730.000000;0.844327
9729.000000;0.844684
9728.000000;0.845181
9727.000000;0.845391
9726.000000;0.845044
9725.000000;0.844319
9724.000000;0.843715
9723.000000;0.843599
9722.000000;0.843886
9721.000000;0.844163
9720.000000;0.844074
9719.000000;0.843585
9718.000000;0.842959
9717.000000;0.842551
9716.000000;0.842547
9715.000000;0.842816
9714.000000;0.843031
9713.000000;0.842989
9712.000000;0.842808
9711.000000;0.842734
9710.000000;0.842834
9709.000000;0.842970
9708.000000;0.843039
9707.000000;0.843118
9706.000000;0.843293
9705.000000;0.843467
9704.000000;0.843413
9703.000000;0.843040
9702.000000;0.842566
9701.000000;0.842355
9700.000000;0.842561
9699.000000;0.842959
9698.000000;0.843188
9697.000000;0.843112
9696.000000;0.842835
9695.000000;0.842436
9694.000000;0.841886
9693.000000;0.841293
9692.000000;0.840971
9691.000000;0.841094
9690.000000;0.841422
9689.000000;0.841563
9688.000000;0.841414
9687.000000;0.841171
9686.000000;0.841036
9685.000000;0.841086
9684.000000;0.841357
9683.000000;0.841789
9682.000000;0.842113
9681.000000;0.842019
9680.000000;0.841459
9679.000000;0.840654
9678.000000;0.839847
9677.000000;0.839240
9676.000000;0.839094
9675.000000;0.839558
9674.000000;0.840375
9673.000000;0.841016
9672.000000;0.841203
9671.000000;0.841089
9670.000000;0.840905
9669.000000;0.840687
9668.000000;0.840459
9667.000000;0.840355
9666.000000;0.840380
9665.000000;0.840309
9664.000000;0.840039
9663.000000;0.839848
9662.000000;0.840033
9661.000000;0.840463
9660.000000;0.840756
9659.000000;0.840785
9658.000000;0.840732
9657.000000;0.840690
9656.000000;0.840531
9655.000000;0.840178
9654.000000;0.839785
9653.000000;0.839552
9652.000000;0.839540
9651.000000;0.839698
9650.000000;0.839931
9649.000000;0.840083
9648.000000;0.839974
9647.000000;0.839566
9646.000000;0.839013
9645.000000;0.838517
9644.000000;0.838175
9643.000000;0.837978
9642.000000;0.837891
9641.000000;0.837896
9640.000000;0.838037
9639.000000;0.838416
9638.000000;0.839080
9637.000000;0.839889
9636.000000;0.840548
9635.000000;0.840824
9634.000000;0.840692
9633.000000;0.840279
9632.000000;0.839718
9631.000000;0.839078
9630.000000;0.838408
9629.000000;0.837785
9628.000000;0.837296
9627.000000;0.836955
9626.000000;0.836692
9625.000000;0.836456
9624.000000;0.836308
9623.000000;0.836335
9622.000000;0.836488
9621.000000;0.836603
9620.000000;0.836582
9619.000000;0.836464
9618.000000;0.836303
9617.000000;0.836108
9616.000000;0.835959
9615.000000;0.835992
9614.000000;0.836187
9613.000000;0.836298
9612.000000;0.836143
9611.000000;0.835859
9610.000000;0.835706
9609.000000;0.835714
9608.000000;0.835706
9607.000000;0.835628
9606.000000;0.835619
9605.000000;0.835739
9604.000000;0.835828
9603.000000;0.835717
9602.000000;0.835440
9601.000000;0.835174
9600.000000;0.835076
9599.000000;0.835209
9598.000000;0.835511
9597.000000;0.835780
9596.000000;0.835780
9595.000000;0.835460
9594.000000;0.835016
9593.000000;0.834700
9592.000000;0.834612
9591.000000;0.834683
9590.000000;0.834779
9589.000000;0.834787
9588.000000;0.834662
9587.000000;0.834466
9586.000000;0.834321
9585.000000;0.834321
9584.000000;0.834460
9583.000000;0.834658
9582.000000;0.834801
9581.000000;0.834807
9580.000000;0.834720
9579.000000;0.834709
9578.000000;0.834897
9577.000000;0.835203
9576.000000;0.835435
9575.000000;0.835500
9574.000000;0.835420
9573.000000;0.835189
9572.000000;0.834789
9571.000000;0.834372
9570.000000;0.834216
9569.000000;0.834415
9568.000000;0.834725
9567.000000;0.834798
9566.000000;0.834497
9565.000000;0.833898
9564.000000;0.833156
9563.000000;0.832481
9562.000000;0.832124
9561.000000;0.832185
9560.000000;0.832457
9559.000000;0.832589
9558.000000;0.832411
9557.000000;0.832029
9556.000000;0.831658
9555.000000;0.831471
9554.000000;0.831557
9553.000000;0.831847
9552.000000;0.832089
9551.000000;0.832049
9550.000000;0.831800
9549.000000;0.831692
9548.000000;0.831971
9547.000000;0.832487
9546.000000;0.832844
9545.000000;0.832767
9544.000000;0.832274
9543.000000;0.831576
9542.000000;0.830927
9541.000000;0.830550
9540.000000;0.830563
9539.000000;0.830891
9538.000000;0.831281
9537.000000;0.831466
9536.000000;0.831367
9535.000000;0.831140
9534.000000;0.831033
9533.000000;0.831182
9532.000000;0.831515
9531.000000;0.831839
9530.000000;0.831972
9529.000000;0.831817
9528.000000;0.831365
9527.000000;0.830720
9526.000000;0.830113
9525.000000;0.829814
9524.000000;0.829952
9523.000000;0.830411
9522.000000;0.830924
9521.000000;0.831257
9520.000000;0.831304
9519.000000;0.831068
9518.000000;0.830629
9517.000000;0.830118
9516.000000;0.829663
9515.000000;0.829324
9514.000000;0.829119
9513.000000;0.829088
9512.000000;0.829270
9511.000000;0.829587
9510.000000;0.829837
9509.000000;0.829872
9508.000000;0.829735
9507.000000;0.829573
9506.000000;0.829465
9505.000000;0.829426
9504.000000;0.829501
9503.000000;0.829719
9502.000000;0.829969
9501.000000;0.830065
9500.000000;0.829963
9499.000000;0.829771
9498.000000;0.829507
9497.000000;0.829050
9496.000000;0.828434
9495.000000;0.828009
9494.000000;0.828071
9493.000000;0.828406
9492.000000;0.828459
9491.000000;0.827973
9490.000000;0.827295
9489.000000;0.826954
9488.000000;0.827098
9487.000000;0.827424
9486.000000;0.827543
9485.000000;0.827329
9484.000000;0.826973
9483.000000;0.826784
9482.000000;0.826887
9481.000000;0.827117
9480.000000;0.827235
9479.000000;0.827232
9478.000000;0.827297
9477.000000;0.827488
9476.000000;0.827593
9475.000000;0.827406
9474.000000;0.826970
9473.000000;0.826454
9472.000000;0.825934
9471.000000;0.825469
9470.000000;0.825266
9469.000000;0.825525
9468.000000;0.826161
9467.000000;0.826833
9466.000000;0.827273
9465.000000;0.827429
9464.000000;0.827326
9463.000000;0.826982
9462.000000;0.826528
9461.000000;0.826219
9460.000000;0.826204
9459.000000;0.826383
9458.000000;0.826574
9457.000000;0.826709
9456.000000;0.826803
9455.000000;0.826831
9454.000000;0.826754
9453.000000;0.826597
9452.000000;0.826393
9451.000000;0.826097
9450.000000;0.825665
9449.000000;0.825192
9448.000000;0.824856
9447.000000;0.824724
9446.000000;0.824700
9445.000000;0.824674
9444.000000;0.824634
9443.000000;0.824602
9442.000000;0.824569
9441.000000;0.824537
9440.000000;0.824559
9439.000000;0.824662
9438.000000;0.824761
9437.000000;0.824734
9436.000000;0.824558
9435.000000;0.824326
9434.000000;0.824139
9433.000000;0.824034
9432.000000;0.824021
9431.000000;0.824082
9430.000000;0.824120
9429.000000;0.824007
9428.000000;0.823753
9427.000000;0.823558
9426.000000;0.823576
9425.000000;0.823669
9424.000000;0.823522
9423.000000;0.823069
9422.000000;0.822648
9421.000000;0.822654
9420.000000;0.823093
9419.000000;0.823593
9418.000000;0.823825
9417.000000;0.823799
9416.000000;0.823741
9415.000000;0.823785
9414.000000;0.823854
9413.000000;0.823809
9412.000000;0.823605
9411.000000;0.823308
9410.000000;0.822991
9409.000000;0.822682
9408.000000;0.822419
9407.000000;0.822305
9406.000000;0.822429
9405.000000;0.822718
9404.000000;0.822928
9403.000000;0.822873
9402.000000;0.822608
9401.000000;0.822352
9400.000000;0.822250
9399.000000;0.822257
9398.000000;0.822245
9397.000000;0.822164
9396.000000;0.822090
9395.000000;0.822155
9394.000000;0.822395
9393.000000;0.822621
9392.000000;0.822515
9391.000000;0.821944
9390.000000;0.821173
9389.000000;0.820646
9388.000000;0.820541
9387.000000;0.820659
9386.000000;0.820745
9385.000000;0.820798
9384.000000;0.820961
9383.000000;0.821222
9382.000000;0.821392
9381.000000;0.821349
9380.000000;0.821191
9379.000000;0.821085
9378.000000;0.821049
9377.000000;0.820935
9376.000000;0.820633
9375.000000;0.820258
9374.000000;0.820084
9373.000000;0.820275
9372.000000;0.820673
9371.000000;0.820880
9370.000000;0.820596
9369.000000;0.819885
9368.000000;0.819122
9367.000000;0.818687
9366.000000;0.818695
9365.000000;0.818978
9364.000000;0.819278
9363.000000;0.819451
9362.000000;0.819506
9361.000000;0.819482
9360.000000;0.819375
9359.000000;0.819196
9358.000000;0.819030
9357.000000;0.818967
9356.000000;0.819020
9355.000000;0.819183
9354.000000;0.819481
9353.000000;0.819878
9352.000000;0.820163
9351.000000;0.820078
9350.000000;0.819587
9349.000000;0.818925
9348.000000;0.818391
9347.000000;0.818180
9346.000000;0.818379
9345.000000;0.818929
9344.000000;0.819553
9343.000000;0.819904
9342.000000;0.819863
9341.000000;0.819579
9340.000000;0.819178
9339.000000;0.818635
9338.000000;0.818047
9337.000000;0.817785
9336.000000;0.818106
9335.000000;0.818741
9334.000000;0.819119
9333.000000;0.818973
9332.000000;0.818513
9331.000000;0.818038
9330.000000;0.817646
9329.000000;0.817375
9328.000000;0.817330
9327.000000;0.817535
9326.000000;0.817805
9325.000000;0.817936
9324.000000;0.817914
9323.000000;0.817821
9322.000000;0.817657
9321.000000;0.817395
9320.000000;0.817122
9319.000000;0.816962
9318.000000;0.816896
9317.000000;0.816806
9316.000000;0.816705
9315.000000;0.816750
9314.000000;0.816977
9313.000000;0.817174
9312.000000;0.817117
9311.000000;0.816869
9310.000000;0.816719
9309.000000;0.816827
9308.000000;0.817049
9307.000000;0.817140
9306.000000;0.817048
9305.000000;0.816904
9304.000000;0.816770
9303.000000;0.816554
9302.000000;0.816219
9301.000000;0.815966
9300.000000;0.816053
9299.000000;0.816457
9298.000000;0.816840
9297.000000;0.816896
9296.000000;0.816643
9295.000000;0.816318
9294.000000;0.816074
9293.000000;0.815871
9292.000000;0.815621
9291.000000;0.815328
9290.000000;0.815038
9289.000000;0.814772
9288.000000;0.814557
9287.000000;0.814474
9286.000000;0.814579
9285.000000;0.814785
9284.000000;0.814889
9283.000000;0.814780
9282.000000;0.814581
9281.000000;0.814535
9280.000000;0.814753
9279.000000;0.815134
9278.000000;0.815493
9277.000000;0.815733
9276.000000;0.815871
9275.000000;0.815927
9274.000000;0.815836
9273.000000;0.815461
9272.000000;0.814739
9271.000000;0.813831
9270.000000;0.813079
9269.000000;0.812753
9268.000000;0.812819
9267.000000;0.813025
9266.000000;0.813187
9265.000000;0.813313
9264.000000;0.813446
9263.000000;0.813534
9262.000000;0.813513
9261.000000;0.813420
9260.000000;0.813343
9259.000000;0.813323
9258.000000;0.813362
9257.000000;0.813445
9256.000000;0.813486
9255.000000;0.813340
9254.000000;0.812980
9253.000000;0.812593
9252.000000;0.812407
9251.000000;0.812466
9250.000000;0.812677
9249.000000;0.812968
9248.000000;0.813267
9247.000000;0.813372
9246.000000;0.813082
9245.000000;0.812461
9244.000000;0.811821
9243.000000;0.811395
9242.000000;0.811158
9241.000000;0.811018
9240.000000;0.811012
9239.000000;0.811227
9238.000000;0.811637
9237.000000;0.812088
9236.000000;0.812401
9235.000000;0.812420
9234.000000;0.812095
9233.000000;0.811594
9232.000000;0.811236
9231.000000;0.811223
9230.000000;0.811463
9229.000000;0.811730
9228.000000;0.811907
9227.000000;0.811987
9226.000000;0.811919
9225.000000;0.811625
9224.000000;0.811178
9223.000000;0.810798
9222.000000;0.810632
9221.000000;0.810611
9220.000000;0.810582
9219.000000;0.810494
9218.000000;0.810426
9217.000000;0.810449
9216.000000;0.810541
9215.000000;0.810617
9214.000000;0.810633
9213.000000;0.810642
9212.000000;0.810734
9211.000000;0.810902
9210.000000;0.810972
9209.000000;0.810702
9208.000000;0.810023
9207.000000;0.809177
9206.000000;0.808583
9205.000000;0.808516
9204.000000;0.808905
9203.000000;0.809441
9202.000000;0.809853
9201.000000;0.810054
9200.000000;0.810045
9199.000000;0.809824
9198.000000;0.809462
9197.000000;0.809154
9196.000000;0.809058
9195.000000;0.809104
9194.000000;0.809090
9193.000000;0.808975
9192.000000;0.808936
9191.000000;0.809077
9190.000000;0.809219
9189.000000;0.809117
9188.000000;0.808796
9187.000000;0.808521
9186.000000;0.808462
9185.000000;0.808515
9184.000000;0.808473
9183.000000;0.808254
9182.000000;0.807932
9181.000000;0.807612
9180.000000;0.807386
9179.000000;0.807338
9178.000000;0.807494
9177.000000;0.807767
9176.000000;0.807998
9175.000000;0.808086
9174.000000;0.808040
9173.000000;0.807919
9172.000000;0.807777
9171.000000;0.807659
9170.000000;0.807597
9169.000000;0.807545
9168.000000;0.807384
9167.000000;0.807060
9166.000000;0.806688
9165.000000;0.806464
9164.000000;0.806480
9163.000000;0.806683
9162.000000;0.806976
9161.000000;0.807282
9160.000000;0.807493
9159.000000;0.807497
9158.000000;0.807301
9157.000000;0.807062
9156.000000;0.806931
9155.000000;0.806903
9154.000000;0.806888
9153.000000;0.806843
9152.000000;0.806780
9151.000000;0.806680
9150.000000;0.806497
9149.000000;0.806236
9148.000000;0.805974
9147.000000;0.805814
9146.000000;0.805840
9145.000000;0.806071
9144.000000;0.806409
9143.000000;0.806653
9142.000000;0.806651
9141.000000;0.806425
9140.000000;0.806113
9139.000000;0.805843
9138.000000;0.805696
9137.000000;0.805710
9136.000000;0.805843
9135.000000;0.805992
9134.000000;0.806113
9133.000000;0.806253
9132.000000;0.806367
9131.000000;0.806233
9130.000000;0.805727
9129.000000;0.805107
9128.000000;0.804804
9127.000000;0.804927
9126.000000;0.805167
9125.000000;0.805206
9124.000000;0.805047
9123.000000;0.804860
9122.000000;0.804718
9121.000000;0.804634
9120.000000;0.804691
9119.000000;0.804955
9118.000000;0.805289
9117.000000;0.805416
9116.000000;0.805176
9115.000000;0.804668
9114.000000;0.804154
9113.000000;0.803873
9112.000000;0.803891
9111.000000;0.804065
9110.000000;0.804180
9109.000000;0.804159
9108.000000;0.804109
9107.000000;0.804140
9106.000000;0.804199
9105.000000;0.804150
9104.000000;0.803967
9103.000000;0.803776
9102.000000;0.803722
9101.000000;0.803830
9100.000000;0.803977
9099.000000;0.803985
9098.000000;0.803781
9097.000000;0.803482
9096.000000;0.803285
9095.000000;0.803244
9094.000000;0.803234
9093.000000;0.803119
9092.000000;0.802902
9091.000000;0.802660
9090.000000;0.802432
9089.000000;0.802226
9088.000000;0.802085
9087.000000;0.802060
9086.000000;0.802159
9085.000000;0.802362
9084.000000;0.802622
9083.000000;0.802826
9082.000000;0.802840
9081.000000;0.802655
9080.000000;0.802413
9079.000000;0.802237
9078.000000;0.802098
9077.000000;0.801923
9076.000000;0.801737
9075.000000;0.801591
9074.000000;0.801444
9073.000000;0.801241
9072.000000;0.801053
9071.000000;0.801009
9070.000000;0.801109
9069.000000;0.801237
9068.000000;0.801352
9067.000000;0.801548
9066.000000;0.801869
9065.000000;0.802196
9064.000000;0.802347
9063.000000;0.802241
9062.000000;0.801955
9061.000000;0.801657
9060.000000;0.801514
9059.000000;0.801574
9058.000000;0.801726
9057.000000;0.801803
9056.000000;0.801763
9055.000000;0.801690
9054.000000;0.801646
9053.000000;0.801572
