Criado como novo conjunto de dados;"2706_e01_daniel.spp","21242.9 Secs"
cm-1;Abs
10000.000000;0.681889
9999.000000;0.682037
9998.000000;0.682186
9997.000000;0.682334
9996.000000;0.682483
9995.000000;0.682632
9994.000000;0.682780
9993.000000;0.682930
9992.000000;0.683076
9991.000000;0.683228
9990.000000;0.683370
9989.000000;0.683535
9988.000000;0.683544
9987.000000;0.683119
9986.000000;0.682347
9985.000000;0.681583
9984.000000;0.681115
9983.000000;0.681018
9982.000000;0.681214
9981.000000;0.681459
9980.000000;0.681438
9979.000000;0.681137
9978.000000;0.680969
9977.000000;0.681243
9976.000000;0.681650
9975.000000;0.681637
9974.000000;0.681217
9973.000000;0.680986
9972.000000;0.681318
9971.000000;0.681893
9970.000000;0.682165
9969.000000;0.681984
9968.000000;0.681615
9967.000000;0.681360
9966.000000;0.681356
9965.000000;0.681568
9964.000000;0.681792
9963.000000;0.681735
9962.000000;0.681260
9961.000000;0.680535
9960.000000;0.679897
9959.000000;0.679596
9958.000000;0.679680
9957.000000;0.680041
9956.000000;0.680499
9955.000000;0.680929
9954.000000;0.681337
9953.000000;0.681769
9952.000000;0.682120
9951.000000;0.682123
9950.000000;0.681559
9949.000000;0.680475
9948.000000;0.679199
9947.000000;0.678169
9946.000000;0.677714
9945.000000;0.677876
9944.000000;0.678434
9943.000000;0.679126
9942.000000;0.679803
9941.000000;0.680345
9940.000000;0.680576
9939.000000;0.680400
9938.000000;0.679976
9937.000000;0.679572
9936.000000;0.679265
9935.000000;0.678935
9934.000000;0.678523
9933.000000;0.678141
9932.000000;0.677900
9931.000000;0.677766
9930.000000;0.677628
9929.000000;0.677384
9928.000000;0.676938
9927.000000;0.676274
9926.000000;0.675585
9925.000000;0.675228
9924.000000;0.675416
9923.000000;0.675998
9922.000000;0.676567
9921.000000;0.676790
9920.000000;0.676635
9919.000000;0.676332
9918.000000;0.676124
9917.000000;0.676029
9916.000000;0.675899
9915.000000;0.675731
9914.000000;0.675795
9913.000000;0.676299
9912.000000;0.677014
9911.000000;0.677427
9910.000000;0.677266
9909.000000;0.676693
9908.000000;0.676000
9907.000000;0.675321
9906.000000;0.674719
9905.000000;0.674346
9904.000000;0.674351
9903.000000;0.674715
9902.000000;0.675272
9901.000000;0.675826
9900.000000;0.676188
9899.000000;0.676195
9898.000000;0.675817
9897.000000;0.675195
9896.000000;0.674514
9895.000000;0.673911
9894.000000;0.673531
9893.000000;0.673547
9892.000000;0.673988
9891.000000;0.674611
9890.000000;0.675074
9889.000000;0.675239
9888.000000;0.675220
9887.000000;0.675157
9886.000000;0.675053
9885.000000;0.674845
9884.000000;0.674548
9883.000000;0.674278
9882.000000;0.674142
9881.000000;0.674152
9880.000000;0.674248
9879.000000;0.674344
9878.000000;0.674316
9877.000000;0.674004
9876.000000;0.673366
9875.000000;0.672674
9874.000000;0.672417
9873.000000;0.672848
9872.000000;0.673656
9871.000000;0.674211
9870.000000;0.674140
9869.000000;0.673577
9868.000000;0.672885
9867.000000;0.672328
9866.000000;0.672020
9865.000000;0.671991
9864.000000;0.672181
9863.000000;0.672438
9862.000000;0.672619
9861.000000;0.672633
9860.000000;0.672405
9859.000000;0.671918
9858.000000;0.671357
9857.000000;0.671038
9856.000000;0.671069
9855.000000;0.671170
9854.000000;0.670970
9853.000000;0.670441
9852.000000;0.669896
9851.000000;0.669608
9850.000000;0.669568
9849.000000;0.669600
9848.000000;0.669602
9847.000000;0.669611
9846.000000;0.669738
9845.000000;0.670037
9844.000000;0.670417
9843.000000;0.670682
9842.000000;0.670711
9841.000000;0.670578
9840.000000;0.670444
9839.000000;0.670359
9838.000000;0.670249
9837.000000;0.670069
9836.000000;0.669845
9835.000000;0.669588
9834.000000;0.669261
9833.000000;0.668867
9832.000000;0.668444
9831.000000;0.667947
9830.000000;0.667280
9829.000000;0.666521
9828.000000;0.666015
9827.000000;0.666067
9826.000000;0.666598
9825.000000;0.667232
9824.000000;0.667709
9823.000000;0.668070
9822.000000;0.668434
9821.000000;0.668734
9820.000000;0.668784
9819.000000;0.668540
9818.000000;0.668221
9817.000000;0.668148
9816.000000;0.668489
9815.000000;0.669095
9814.000000;0.669552
9813.000000;0.669481
9812.000000;0.668884
9811.000000;0.668134
9810.000000;0.667578
9809.000000;0.667201
9808.000000;0.666784
9807.000000;0.666288
9806.000000;0.665930
9805.000000;0.665865
9804.000000;0.665978
9803.000000;0.666039
9802.000000;0.665971
9801.000000;0.665885
9800.000000;0.665939
9799.000000;0.666220
9798.000000;0.666679
9797.000000;0.667125
9796.000000;0.667383
9795.000000;0.667490
9794.000000;0.667639
9793.000000;0.667860
9792.000000;0.667908
9791.000000;0.667587
9790.000000;0.667048
9789.000000;0.666637
9788.000000;0.666496
9787.000000;0.666489
9786.000000;0.666483
9785.000000;0.666515
9784.000000;0.666689
9783.000000;0.667006
9782.000000;0.667329
9781.000000;0.667428
9780.000000;0.667079
9779.000000;0.666281
9778.000000;0.665364
9777.000000;0.664754
9776.000000;0.664569
9775.000000;0.664558
9774.000000;0.664447
9773.000000;0.664243
9772.000000;0.664159
9771.000000;0.664363
9770.000000;0.664846
9769.000000;0.665436
9768.000000;0.665851
9767.000000;0.665842
9766.000000;0.665412
9765.000000;0.664852
9764.000000;0.664491
9763.000000;0.664418
9762.000000;0.664479
9761.000000;0.664497
9760.000000;0.664419
9759.000000;0.664273
9758.000000;0.664108
9757.000000;0.663983
9756.000000;0.663975
9755.000000;0.664124
9754.000000;0.664349
9753.000000;0.664462
9752.000000;0.664299
9751.000000;0.663906
9750.000000;0.663540
9749.000000;0.663434
9748.000000;0.663542
9747.000000;0.663592
9746.000000;0.663388
9745.000000;0.663022
9744.000000;0.662734
9743.000000;0.662649
9742.000000;0.662712
9741.000000;0.662819
9740.000000;0.662909
9739.000000;0.662938
9738.000000;0.662879
9737.000000;0.662790
9736.000000;0.662822
9735.000000;0.663042
9734.000000;0.663275
9733.000000;0.663199
9732.000000;0.662677
9731.000000;0.661952
9730.000000;0.661456
9729.000000;0.661445
9728.000000;0.661845
9727.000000;0.662390
9726.000000;0.662813
9725.000000;0.662921
9724.000000;0.662648
9723.000000;0.662122
9722.000000;0.661609
9721.000000;0.661283
9720.000000;0.661081
9719.000000;0.660821
9718.000000;0.660435
9717.000000;0.660025
9716.000000;0.659747
9715.000000;0.659691
9714.000000;0.659816
9713.000000;0.659942
9712.000000;0.659879
9711.000000;0.659661
9710.000000;0.659580
9709.000000;0.659840
9708.000000;0.660214
9707.000000;0.660235
9706.000000;0.659729
9705.000000;0.659017
9704.000000;0.658576
9703.000000;0.658596
9702.000000;0.658920
9701.000000;0.659238
9700.000000;0.659315
9699.000000;0.659115
9698.000000;0.658807
9697.000000;0.658587
9696.000000;0.658466
9695.000000;0.658335
9694.000000;0.658224
9693.000000;0.658340
9692.000000;0.658744
9691.000000;0.659164
9690.000000;0.659272
9689.000000;0.659064
9688.000000;0.658789
9687.000000;0.658600
9686.000000;0.658433
9685.000000;0.658200
9684.000000;0.657906
9683.000000;0.657569
9682.000000;0.657195
9681.000000;0.656900
9680.000000;0.656882
9679.000000;0.657186
9678.000000;0.657594
9677.000000;0.657855
9676.000000;0.657937
9675.000000;0.657956
9674.000000;0.657950
9673.000000;0.657883
9672.000000;0.657839
9671.000000;0.658010
9670.000000;0.658397
9669.000000;0.658667
9668.000000;0.658435
9667.000000;0.657682
9666.000000;0.656775
9665.000000;0.656081
9664.000000;0.655682
9663.000000;0.655471
9662.000000;0.655392
9661.000000;0.655469
9660.000000;0.655675
9659.000000;0.655894
9658.000000;0.656062
9657.000000;0.656235
9656.000000;0.656458
9655.000000;0.656620
9654.000000;0.656527
9653.000000;0.656132
9652.000000;0.655666
9651.000000;0.655449
9650.000000;0.655594
9649.000000;0.655889
9648.000000;0.655996
9647.000000;0.655765
9646.000000;0.655338
9645.000000;0.654975
9644.000000;0.654798
9643.000000;0.654726
9642.000000;0.654611
9641.000000;0.654418
9640.000000;0.654248
9639.000000;0.654214
9638.000000;0.654310
9637.000000;0.654444
9636.000000;0.654561
9635.000000;0.654692
9634.000000;0.654822
9633.000000;0.654815
9632.000000;0.654559
9631.000000;0.654161
9630.000000;0.653886
9629.000000;0.653857
9628.000000;0.653923
9627.000000;0.653884
9626.000000;0.653743
9625.000000;0.653666
9624.000000;0.653752
9623.000000;0.653946
9622.000000;0.654122
9621.000000;0.654182
9620.000000;0.654084
9619.000000;0.653849
9618.000000;0.653541
9617.000000;0.653211
9616.000000;0.652882
9615.000000;0.652628
9614.000000;0.652564
9613.000000;0.652686
9612.000000;0.652790
9611.000000;0.652670
9610.000000;0.652382
9609.000000;0.652172
9608.000000;0.652173
9607.000000;0.652300
9606.000000;0.652457
9605.000000;0.652677
9604.000000;0.652975
9603.000000;0.653172
9602.000000;0.653042
9601.000000;0.652617
9600.000000;0.652232
9599.000000;0.652190
9598.000000;0.652422
9597.000000;0.652547
9596.000000;0.652277
9595.000000;0.651714
9594.000000;0.651209
9593.000000;0.651011
9592.000000;0.651109
9591.000000;0.651388
9590.000000;0.651746
9589.000000;0.652035
9588.000000;0.652049
9587.000000;0.651732
9586.000000;0.651326
9585.000000;0.651160
9584.000000;0.651302
9583.000000;0.651511
9582.000000;0.651516
9581.000000;0.651248
9580.000000;0.650868
9579.000000;0.650616
9578.000000;0.650624
9577.000000;0.650762
9576.000000;0.650737
9575.000000;0.650450
9574.000000;0.650165
9573.000000;0.650196
9572.000000;0.650509
9571.000000;0.650810
9570.000000;0.650970
9569.000000;0.651113
9568.000000;0.651277
9567.000000;0.651270
9566.000000;0.650965
9565.000000;0.650522
9564.000000;0.650168
9563.000000;0.649921
9562.000000;0.649696
9561.000000;0.649539
9560.000000;0.649572
9559.000000;0.649728
9558.000000;0.649728
9557.000000;0.649362
9556.000000;0.648741
9555.000000;0.648249
9554.000000;0.648253
9553.000000;0.648795
9552.000000;0.649530
9551.000000;0.649996
9550.000000;0.650015
9549.000000;0.649775
9548.000000;0.649559
9547.000000;0.649479
9546.000000;0.649487
9545.000000;0.649508
9544.000000;0.649469
9543.000000;0.649303
9542.000000;0.649018
9541.000000;0.648711
9540.000000;0.648465
9539.000000;0.648293
9538.000000;0.648214
9537.000000;0.648271
9536.000000;0.648421
9535.000000;0.648505
9534.000000;0.648438
9533.000000;0.648328
9532.000000;0.648316
9531.000000;0.648389
9530.000000;0.648431
9529.000000;0.648371
9528.000000;0.648173
9527.000000;0.647775
9526.000000;0.647189
9525.000000;0.646632
9524.000000;0.646393
9523.000000;0.646564
9522.000000;0.646990
9521.000000;0.647437
9520.000000;0.647733
9519.000000;0.647786
9518.000000;0.647599
9517.000000;0.647278
9516.000000;0.646954
9515.000000;0.646674
9514.000000;0.646426
9513.000000;0.646199
9512.000000;0.645990
9511.000000;0.645789
9510.000000;0.645642
9509.000000;0.645654
9508.000000;0.645843
9507.000000;0.646052
9506.000000;0.646141
9505.000000;0.646191
9504.000000;0.646357
9503.000000;0.646580
9502.000000;0.646623
9501.000000;0.646417
9500.000000;0.646175
9499.000000;0.646095
9498.000000;0.646114
9497.000000;0.646047
9496.000000;0.645873
9495.000000;0.645733
9494.000000;0.645704
9493.000000;0.645649
9492.000000;0.645337
9491.000000;0.644697
9490.000000;0.643971
9489.000000;0.643563
9488.000000;0.643670
9487.000000;0.644056
9486.000000;0.644280
9485.000000;0.644165
9484.000000;0.643960
9483.000000;0.644011
9482.000000;0.644364
9481.000000;0.644760
9480.000000;0.644937
9479.000000;0.644866
9478.000000;0.644679
9477.000000;0.644473
9476.000000;0.644237
9475.000000;0.643970
9474.000000;0.643784
9473.000000;0.643826
9472.000000;0.644095
9471.000000;0.644421
9470.000000;0.644644
9469.000000;0.644747
9468.000000;0.644788
9467.000000;0.644772
9466.000000;0.644702
9465.000000;0.644652
9464.000000;0.644662
9463.000000;0.644602
9462.000000;0.644278
9461.000000;0.643698
9460.000000;0.643098
9459.000000;0.642705
9458.000000;0.642565
9457.000000;0.642595
9456.000000;0.642682
9455.000000;0.642707
9454.000000;0.642575
9453.000000;0.642292
9452.000000;0.641947
9451.000000;0.641620
9450.000000;0.641374
9449.000000;0.641293
9448.000000;0.641414
9447.000000;0.641629
9446.000000;0.641809
9445.000000;0.642017
9444.000000;0.642409
9443.000000;0.642871
9442.000000;0.642996
9441.000000;0.642566
9440.000000;0.641880
9439.000000;0.641410
9438.000000;0.641258
9437.000000;0.641176
9436.000000;0.640989
9435.000000;0.640773
9434.000000;0.640642
9433.000000;0.640589
9432.000000;0.640595
9431.000000;0.640724
9430.000000;0.641019
9429.000000;0.641420
9428.000000;0.641821
9427.000000;0.642112
9426.000000;0.642151
9425.000000;0.641852
9424.000000;0.641344
9423.000000;0.640930
9422.000000;0.640794
9421.000000;0.640843
9420.000000;0.640902
9419.000000;0.640938
9418.000000;0.640991
9417.000000;0.640988
9416.000000;0.640805
9415.000000;0.640478
9414.000000;0.640191
9413.000000;0.640035
9412.000000;0.639914
9411.000000;0.639724
9410.000000;0.639529
9409.000000;0.639469
9408.000000;0.639582
9407.000000;0.639760
9406.000000;0.639857
9405.000000;0.639770
9404.000000;0.639492
9403.000000;0.639164
9402.000000;0.639034
9401.000000;0.639239
9400.000000;0.639600
9399.000000;0.639731
9398.000000;0.639439
9397.000000;0.638949
9396.000000;0.638664
9395.000000;0.638741
9394.000000;0.638968
9393.000000;0.639033
9392.000000;0.638821
9391.000000;0.638463
9390.000000;0.638193
9389.000000;0.638192
9388.000000;0.638472
9387.000000;0.638834
9386.000000;0.638990
9385.000000;0.638790
9384.000000;0.638347
9383.000000;0.637890
9382.000000;0.637547
9381.000000;0.637306
9380.000000;0.637140
9379.000000;0.637077
9378.000000;0.637135
9377.000000;0.637260
9376.000000;0.637360
9375.000000;0.637391
9374.000000;0.637375
9373.000000;0.637357
9372.000000;0.637348
9371.000000;0.637319
9370.000000;0.637235
9369.000000;0.637111
9368.000000;0.637002
9367.000000;0.636912
9366.000000;0.636783
9365.000000;0.636603
9364.000000;0.636494
9363.000000;0.636599
9362.000000;0.636868
9361.000000;0.637027
9360.000000;0.636822
9359.000000;0.636267
9358.000000;0.635648
9357.000000;0.635298
9356.000000;0.635397
9355.000000;0.635886
9354.000000;0.636512
9353.000000;0.636958
9352.000000;0.637031
9351.000000;0.636766
9350.000000;0.636354
9349.000000;0.635989
9348.000000;0.635766
9347.000000;0.635695
9346.000000;0.635733
9345.000000;0.635807
9344.000000;0.635853
9343.000000;0.635864
9342.000000;0.635872
9341.000000;0.635862
9340.000000;0.635743
9339.000000;0.635462
9338.000000;0.635106
9337.000000;0.634871
9336.000000;0.634879
9335.000000;0.635069
9334.000000;0.635262
9333.000000;0.635303
9332.000000;0.635149
9331.000000;0.634865
9330.000000;0.634585
9329.000000;0.634445
9328.000000;0.634490
9327.000000;0.634632
9326.000000;0.634734
9325.000000;0.634738
9324.000000;0.634677
9323.000000;0.634563
9322.000000;0.634351
9321.000000;0.634042
9320.000000;0.633762
9319.000000;0.633662
9318.000000;0.633776
9317.000000;0.634020
9316.000000;0.634299
9315.000000;0.634549
9314.000000;0.634712
9313.000000;0.634763
9312.000000;0.634751
9311.000000;0.634734
9310.000000;0.634677
9309.000000;0.634490
9308.000000;0.634181
9307.000000;0.633856
9306.000000;0.633576
9305.000000;0.633271
9304.000000;0.632876
9303.000000;0.632458
9302.000000;0.632162
9301.000000;0.632100
9300.000000;0.632296
9299.000000;0.632684
9298.000000;0.633081
9297.000000;0.633282
9296.000000;0.633258
9295.000000;0.633213
9294.000000;0.633359
9293.000000;0.633677
9292.000000;0.633958
9291.000000;0.634012
9290.000000;0.633758
9289.000000;0.633202
9288.000000;0.632465
9287.000000;0.631799
9286.000000;0.631411
9285.000000;0.631288
9284.000000;0.631283
9283.000000;0.631357
9282.000000;0.631586
9281.000000;0.631910
9280.000000;0.632083
9279.000000;0.631933
9278.000000;0.631559
9277.000000;0.631184
9276.000000;0.630922
9275.000000;0.630787
9274.000000;0.630808
9273.000000;0.630997
9272.000000;0.631249
9271.000000;0.631391
9270.000000;0.631329
9269.000000;0.631085
9268.000000;0.630730
9267.000000;0.630350
9266.000000;0.630037
9265.000000;0.629837
9264.000000;0.629740
9263.000000;0.629756
9262.000000;0.629950
9261.000000;0.630322
9260.000000;0.630717
9259.000000;0.630946
9258.000000;0.630981
9257.000000;0.630937
9256.000000;0.630906
9255.000000;0.630897
9254.000000;0.630912
9253.000000;0.630948
9252.000000;0.630903
9251.000000;0.630615
9250.000000;0.630066
9249.000000;0.629477
9248.000000;0.629129
9247.000000;0.629096
9246.000000;0.629214
9245.000000;0.629257
9244.000000;0.629128
9243.000000;0.628900
9242.000000;0.628720
9241.000000;0.628683
9240.000000;0.628766
9239.000000;0.628898
9238.000000;0.629043
9237.000000;0.629217
9236.000000;0.629427
9235.000000;0.629630
9234.000000;0.629756
9233.000000;0.629756
9232.000000;0.629639
9231.000000;0.629503
9230.000000;0.629467
9229.000000;0.629535
9228.000000;0.629532
9227.000000;0.629265
9226.000000;0.628752
9225.000000;0.628242
9224.000000;0.627974
9223.000000;0.627974
9222.000000;0.628092
9221.000000;0.628174
9220.000000;0.628153
9219.000000;0.628029
9218.000000;0.627819
9217.000000;0.627530
9216.000000;0.627166
9215.000000;0.626761
9214.000000;0.626397
9213.000000;0.626162
9212.000000;0.626077
9211.000000;0.626098
9210.000000;0.626187
9209.000000;0.626339
9208.000000;0.626533
9207.000000;0.626726
9206.000000;0.626907
9205.000000;0.627102
9204.000000;0.627280
9203.000000;0.627326
9202.000000;0.627165
9201.000000;0.626891
9200.000000;0.626695
9199.000000;0.626655
9198.000000;0.626677
9197.000000;0.626646
9196.000000;0.626586
9195.000000;0.626630
9194.000000;0.626846
9193.000000;0.627134
9192.000000;0.627302
9191.000000;0.627220
9190.000000;0.626907
9189.000000;0.626484
9188.000000;0.626073
9187.000000;0.625750
9186.000000;0.625579
9185.000000;0.625628
9184.000000;0.625918
9183.000000;0.626349
9182.000000;0.626712
9181.000000;0.626834
9180.000000;0.626736
9179.000000;0.626588
9178.000000;0.626492
9177.000000;0.626343
9176.000000;0.625984
9175.000000;0.625459
9174.000000;0.625003
9173.000000;0.624786
9172.000000;0.624753
9171.000000;0.624758
9170.000000;0.624743
9169.000000;0.624738
9168.000000;0.624780
9167.000000;0.624934
9166.000000;0.625277
9165.000000;0.625742
9164.000000;0.626039
9163.000000;0.625908
9162.000000;0.625424
9161.000000;0.624911
9160.000000;0.624550
9159.000000;0.624242
9158.000000;0.623880
9157.000000;0.623563
9156.000000;0.623440
9155.000000;0.623500
9154.000000;0.623626
9153.000000;0.623764
9152.000000;0.623916
9151.000000;0.624041
9150.000000;0.624102
9149.000000;0.624144
9148.000000;0.624216
9147.000000;0.624229
9146.000000;0.624026
9145.000000;0.623596
9144.000000;0.623122
9143.000000;0.622769
9142.000000;0.622523
9141.000000;0.622266
9140.000000;0.621954
9139.000000;0.621682
9138.000000;0.621599
9137.000000;0.621764
9136.000000;0.622085
9135.000000;0.622392
9134.000000;0.622585
9133.000000;0.622686
9132.000000;0.622731
9131.000000;0.622680
9130.000000;0.622465
9129.000000;0.622111
9128.000000;0.621751
9127.000000;0.621542
9126.000000;0.621571
9125.000000;0.621811
9124.000000;0.622114
9123.000000;0.622281
9122.000000;0.622219
9121.000000;0.622016
9120.000000;0.621827
9119.000000;0.621707
9118.000000;0.621599
9117.000000;0.621457
9116.000000;0.621308
9115.000000;0.621202
9114.000000;0.621179
9113.000000;0.621279
9112.000000;0.621503
9111.000000;0.621748
9110.000000;0.621855
9109.000000;0.621727
9108.000000;0.621397
9107.000000;0.620962
9106.000000;0.620535
9105.000000;0.620235
9104.000000;0.620147
9103.000000;0.620228
9102.000000;0.620338
9101.000000;0.620401
9100.000000;0.620483
9099.000000;0.620669
9098.000000;0.620904
9097.000000;0.621037
9096.000000;0.620996
9095.000000;0.620853
9094.000000;0.620716
9093.000000;0.620585
9092.000000;0.620357
9091.000000;0.619944
9090.000000;0.619413
9089.000000;0.618989
9088.000000;0.618906
9087.000000;0.619204
9086.000000;0.619680
9085.000000;0.620040
9084.000000;0.620114
9083.000000;0.619955
9082.000000;0.619761
9081.000000;0.619735
9080.000000;0.619950
9079.000000;0.620294
9078.000000;0.620519
9077.000000;0.620408
9076.000000;0.619948
9075.000000;0.619349
9074.000000;0.618881
9073.000000;0.618672
9072.000000;0.618658
9071.000000;0.618693
9070.000000;0.618690
9069.000000;0.618656
9068.000000;0.618653
9067.000000;0.618741
9066.000000;0.618939
9065.000000;0.619190
9064.000000;0.619368
9063.000000;0.619366
9062.000000;0.619208
9061.000000;0.619002
9060.000000;0.618785
9059.000000;0.618480
9058.000000;0.618061
9057.000000;0.617681
9056.000000;0.617550
9055.000000;0.617696
9054.000000;0.617934
9053.000000;0.618068
