Criado como novo conjunto de dados;"2706_e01_daniel.spp","51484.5 Secs"
cm-1;Abs
10000.000000;0.666119
9999.000000;0.665630
9998.000000;0.665148
9997.000000;0.664656
9996.000000;0.664183
9995.000000;0.663672
9994.000000;0.663274
9993.000000;0.663285
9992.000000;0.663468
9991.000000;0.663585
9990.000000;0.663439
9989.000000;0.663095
9988.000000;0.662765
9987.000000;0.662587
9986.000000;0.662516
9985.000000;0.662444
9984.000000;0.662347
9983.000000;0.662293
9982.000000;0.662360
9981.000000;0.662545
9980.000000;0.662738
9979.000000;0.662816
9978.000000;0.662831
9977.000000;0.663034
9976.000000;0.663578
9975.000000;0.664244
9974.000000;0.664582
9973.000000;0.664340
9972.000000;0.663662
9971.000000;0.662873
9970.000000;0.662236
9969.000000;0.661897
9968.000000;0.661872
9967.000000;0.661997
9966.000000;0.662039
9965.000000;0.661923
9964.000000;0.661756
9963.000000;0.661576
9962.000000;0.661258
9961.000000;0.660763
9960.000000;0.660290
9959.000000;0.660035
9958.000000;0.659927
9957.000000;0.659813
9956.000000;0.659791
9955.000000;0.660112
9954.000000;0.660750
9953.000000;0.661315
9952.000000;0.661462
9951.000000;0.661253
9950.000000;0.660982
9949.000000;0.660760
9948.000000;0.660423
9947.000000;0.659872
9946.000000;0.659387
9945.000000;0.659426
9944.000000;0.660071
9943.000000;0.660770
9942.000000;0.660827
9941.000000;0.660171
9940.000000;0.659453
9939.000000;0.659280
9938.000000;0.659582
9937.000000;0.659865
9936.000000;0.659905
9935.000000;0.659872
9934.000000;0.659863
9933.000000;0.659706
9932.000000;0.659316
9931.000000;0.658938
9930.000000;0.658819
9929.000000;0.658824
9928.000000;0.658629
9927.000000;0.658191
9926.000000;0.657791
9925.000000;0.657642
9924.000000;0.657673
9923.000000;0.657751
9922.000000;0.657900
9921.000000;0.658187
9920.000000;0.658470
9919.000000;0.658425
9918.000000;0.657862
9917.000000;0.656985
9916.000000;0.656296
9915.000000;0.656214
9914.000000;0.656728
9913.000000;0.657401
9912.000000;0.657747
9911.000000;0.657604
9910.000000;0.657180
9909.000000;0.656779
9908.000000;0.656550
9907.000000;0.656450
9906.000000;0.656354
9905.000000;0.656177
9904.000000;0.655947
9903.000000;0.655778
9902.000000;0.655746
9901.000000;0.655777
9900.000000;0.655732
9899.000000;0.655590
9898.000000;0.655490
9897.000000;0.655540
9896.000000;0.655673
9895.000000;0.655744
9894.000000;0.655707
9893.000000;0.655619
9892.000000;0.655528
9891.000000;0.655405
9890.000000;0.655189
9889.000000;0.654840
9888.000000;0.654394
9887.000000;0.653996
9886.000000;0.653840
9885.000000;0.653998
9884.000000;0.654341
9883.000000;0.654631
9882.000000;0.654696
9881.000000;0.654460
9880.000000;0.653941
9879.000000;0.653297
9878.000000;0.652811
9877.000000;0.652665
9876.000000;0.652729
9875.000000;0.652686
9874.000000;0.652388
9873.000000;0.651982
9872.000000;0.651708
9871.000000;0.651694
9870.000000;0.651937
9869.000000;0.652376
9868.000000;0.652913
9867.000000;0.653457
9866.000000;0.653961
9865.000000;0.654347
9864.000000;0.654450
9863.000000;0.654190
9862.000000;0.653797
9861.000000;0.653653
9860.000000;0.653813
9859.000000;0.653889
9858.000000;0.653518
9857.000000;0.652829
9856.000000;0.652265
9855.000000;0.652066
9854.000000;0.652099
9853.000000;0.652132
9852.000000;0.652089
9851.000000;0.652025
9850.000000;0.651987
9849.000000;0.651953
9848.000000;0.651870
9847.000000;0.651729
9846.000000;0.651643
9845.000000;0.651759
9844.000000;0.652060
9843.000000;0.652294
9842.000000;0.652190
9841.000000;0.651693
9840.000000;0.650955
9839.000000;0.650186
9838.000000;0.649599
9837.000000;0.649378
9836.000000;0.649542
9835.000000;0.649883
9834.000000;0.650158
9833.000000;0.650297
9832.000000;0.650332
9831.000000;0.650201
9830.000000;0.649804
9829.000000;0.649235
9828.000000;0.648772
9827.000000;0.648609
9826.000000;0.648711
9825.000000;0.648959
9824.000000;0.649271
9823.000000;0.649528
9822.000000;0.649548
9821.000000;0.649263
9820.000000;0.648870
9819.000000;0.648668
9818.000000;0.648750
9817.000000;0.648911
9816.000000;0.648890
9815.000000;0.648632
9814.000000;0.648270
9813.000000;0.647909
9812.000000;0.647541
9811.000000;0.647226
9810.000000;0.647192
9809.000000;0.647597
9808.000000;0.648219
9807.000000;0.648616
9806.000000;0.648609
9805.000000;0.648426
9804.000000;0.648302
9803.000000;0.648180
9802.000000;0.647963
9801.000000;0.647822
9800.000000;0.647990
9799.000000;0.648367
9798.000000;0.648594
9797.000000;0.648492
9796.000000;0.648210
9795.000000;0.647969
9794.000000;0.647854
9793.000000;0.647851
9792.000000;0.647856
9791.000000;0.647662
9790.000000;0.647142
9789.000000;0.646480
9788.000000;0.646033
9787.000000;0.645922
9786.000000;0.645946
9785.000000;0.645936
9784.000000;0.645946
9783.000000;0.646031
9782.000000;0.646048
9781.000000;0.645838
9780.000000;0.645471
9779.000000;0.645178
9778.000000;0.645116
9777.000000;0.645278
9776.000000;0.645539
9775.000000;0.645690
9774.000000;0.645572
9773.000000;0.645263
9772.000000;0.645058
9771.000000;0.645159
9770.000000;0.645466
9769.000000;0.645734
9768.000000;0.645842
9767.000000;0.645795
9766.000000;0.645573
9765.000000;0.645160
9764.000000;0.644685
9763.000000;0.644396
9762.000000;0.644461
9761.000000;0.644826
9760.000000;0.645255
9759.000000;0.645483
9758.000000;0.645368
9757.000000;0.644982
9756.000000;0.644559
9755.000000;0.644330
9754.000000;0.644383
9753.000000;0.644643
9752.000000;0.644894
9751.000000;0.644858
9750.000000;0.644379
9749.000000;0.643613
9748.000000;0.642939
9747.000000;0.642628
9746.000000;0.642661
9745.000000;0.642867
9744.000000;0.643120
9743.000000;0.643321
9742.000000;0.643336
9741.000000;0.643118
9740.000000;0.642825
9739.000000;0.642673
9738.000000;0.642684
9737.000000;0.642690
9736.000000;0.642575
9735.000000;0.642400
9734.000000;0.642287
9733.000000;0.642273
9732.000000;0.642331
9731.000000;0.642424
9730.000000;0.642512
9729.000000;0.642536
9728.000000;0.642435
9727.000000;0.642188
9726.000000;0.641825
9725.000000;0.641426
9724.000000;0.641101
9723.000000;0.640919
9722.000000;0.640856
9721.000000;0.640842
9720.000000;0.640859
9719.000000;0.640933
9718.000000;0.641053
9717.000000;0.641144
9716.000000;0.641171
9715.000000;0.641188
9714.000000;0.641235
9713.000000;0.641225
9712.000000;0.641031
9711.000000;0.640702
9710.000000;0.640491
9709.000000;0.640593
9708.000000;0.640893
9707.000000;0.641078
9706.000000;0.640965
9705.000000;0.640659
9704.000000;0.640381
9703.000000;0.640242
9702.000000;0.640199
9701.000000;0.640124
9700.000000;0.639879
9699.000000;0.639417
9698.000000;0.638895
9697.000000;0.638618
9696.000000;0.638753
9695.000000;0.639110
9694.000000;0.639320
9693.000000;0.639218
9692.000000;0.638995
9691.000000;0.638960
9690.000000;0.639212
9689.000000;0.639558
9688.000000;0.639714
9687.000000;0.639574
9686.000000;0.639280
9685.000000;0.639022
9684.000000;0.638820
9683.000000;0.638579
9682.000000;0.638331
9681.000000;0.638268
9680.000000;0.638428
9679.000000;0.638513
9678.000000;0.638179
9677.000000;0.637447
9676.000000;0.636658
9675.000000;0.636089
9674.000000;0.635777
9673.000000;0.635673
9672.000000;0.635761
9671.000000;0.636004
9670.000000;0.636324
9669.000000;0.636711
9668.000000;0.637203
9667.000000;0.637712
9666.000000;0.638020
9665.000000;0.638026
9664.000000;0.637890
9663.000000;0.637847
9662.000000;0.637917
9661.000000;0.637891
9660.000000;0.637546
9659.000000;0.636874
9658.000000;0.636125
9657.000000;0.635633
9656.000000;0.635521
9655.000000;0.635594
9654.000000;0.635611
9653.000000;0.635633
9652.000000;0.635924
9651.000000;0.636495
9650.000000;0.636941
9649.000000;0.636850
9648.000000;0.636226
9647.000000;0.635404
9646.000000;0.634671
9645.000000;0.634130
9644.000000;0.633823
9643.000000;0.633784
9642.000000;0.633958
9641.000000;0.634194
9640.000000;0.634379
9639.000000;0.634501
9638.000000;0.634612
9637.000000;0.634775
9636.000000;0.635016
9635.000000;0.635262
9634.000000;0.635319
9633.000000;0.634994
9632.000000;0.634282
9631.000000;0.633432
9630.000000;0.632822
9629.000000;0.632743
9628.000000;0.633216
9627.000000;0.633936
9626.000000;0.634472
9625.000000;0.634606
9624.000000;0.634480
9623.000000;0.634386
9622.000000;0.634450
9621.000000;0.634576
9620.000000;0.634613
9619.000000;0.634474
9618.000000;0.634128
9617.000000;0.633603
9616.000000;0.633049
9615.000000;0.632687
9614.000000;0.632646
9613.000000;0.632845
9612.000000;0.633090
9611.000000;0.633236
9610.000000;0.633236
9609.000000;0.633073
9608.000000;0.632732
9607.000000;0.632262
9606.000000;0.631829
9605.000000;0.631631
9604.000000;0.631731
9603.000000;0.631991
9602.000000;0.632193
9601.000000;0.632237
9600.000000;0.632213
9599.000000;0.632286
9598.000000;0.632510
9597.000000;0.632747
9596.000000;0.632766
9595.000000;0.632466
9594.000000;0.631994
9593.000000;0.631636
9592.000000;0.631581
9591.000000;0.631792
9590.000000;0.632079
9589.000000;0.632265
9588.000000;0.632277
9587.000000;0.632161
9586.000000;0.632046
9585.000000;0.632015
9584.000000;0.631983
9583.000000;0.631754
9582.000000;0.631261
9581.000000;0.630686
9580.000000;0.630294
9579.000000;0.630178
9578.000000;0.630226
9577.000000;0.630268
9576.000000;0.630205
9575.000000;0.630062
9574.000000;0.630008
9573.000000;0.630222
9572.000000;0.630635
9571.000000;0.630861
9570.000000;0.630560
9569.000000;0.629861
9568.000000;0.629270
9567.000000;0.629141
9566.000000;0.629398
9565.000000;0.629754
9564.000000;0.630013
9563.000000;0.630093
9562.000000;0.629946
9561.000000;0.629617
9560.000000;0.629275
9559.000000;0.629073
9558.000000;0.629015
9557.000000;0.629021
9556.000000;0.629044
9555.000000;0.629058
9554.000000;0.629018
9553.000000;0.628904
9552.000000;0.628749
9551.000000;0.628535
9550.000000;0.628166
9549.000000;0.627644
9548.000000;0.627198
9547.000000;0.627112
9546.000000;0.627433
9545.000000;0.627929
9544.000000;0.628332
9543.000000;0.628534
9542.000000;0.628570
9541.000000;0.628515
9540.000000;0.628412
9539.000000;0.628243
9538.000000;0.627946
9537.000000;0.627510
9536.000000;0.627090
9535.000000;0.626941
9534.000000;0.627193
9533.000000;0.627667
9532.000000;0.627974
9531.000000;0.627843
9530.000000;0.627372
9529.000000;0.626923
9528.000000;0.626759
9527.000000;0.626825
9526.000000;0.626886
9525.000000;0.626833
9524.000000;0.626770
9523.000000;0.626840
9522.000000;0.627067
9521.000000;0.627354
9520.000000;0.627547
9519.000000;0.627498
9518.000000;0.627171
9517.000000;0.626723
9516.000000;0.626378
9515.000000;0.626213
9514.000000;0.626136
9513.000000;0.626096
9512.000000;0.626167
9511.000000;0.626356
9510.000000;0.626498
9509.000000;0.626452
9508.000000;0.626331
9507.000000;0.626358
9506.000000;0.626536
9505.000000;0.626594
9504.000000;0.626290
9503.000000;0.625672
9502.000000;0.625036
9501.000000;0.624680
9500.000000;0.624704
9499.000000;0.624945
9498.000000;0.625112
9497.000000;0.625035
9496.000000;0.624798
9495.000000;0.624609
9494.000000;0.624551
9493.000000;0.624519
9492.000000;0.624378
9491.000000;0.624122
9490.000000;0.623887
9489.000000;0.623847
9488.000000;0.624085
9487.000000;0.624491
9486.000000;0.624793
9485.000000;0.624777
9484.000000;0.624479
9483.000000;0.624130
9482.000000;0.623904
9481.000000;0.623794
9480.000000;0.623732
9479.000000;0.623708
9478.000000;0.623702
9477.000000;0.623619
9476.000000;0.623382
9475.000000;0.623062
9474.000000;0.622818
9473.000000;0.622715
9472.000000;0.622694
9471.000000;0.622721
9470.000000;0.622857
9469.000000;0.623129
9468.000000;0.623416
9467.000000;0.623521
9466.000000;0.623354
9465.000000;0.622975
9464.000000;0.622527
9463.000000;0.622164
9462.000000;0.621989
9461.000000;0.621967
9460.000000;0.621915
9459.000000;0.621684
9458.000000;0.621359
9457.000000;0.621159
9456.000000;0.621155
9455.000000;0.621210
9454.000000;0.621230
9453.000000;0.621307
9452.000000;0.621478
9451.000000;0.621519
9450.000000;0.621205
9449.000000;0.620706
9448.000000;0.620501
9447.000000;0.620827
9446.000000;0.621393
9445.000000;0.621701
9444.000000;0.621521
9443.000000;0.621006
9442.000000;0.620485
9441.000000;0.620258
9440.000000;0.620456
9439.000000;0.620938
9438.000000;0.621346
9437.000000;0.621383
9436.000000;0.621074
9435.000000;0.620694
9434.000000;0.620459
9433.000000;0.620355
9432.000000;0.620250
9431.000000;0.620081
9430.000000;0.619901
9429.000000;0.619795
9428.000000;0.619803
9427.000000;0.619912
9426.000000;0.620103
9425.000000;0.620344
9424.000000;0.620535
9423.000000;0.620509
9422.000000;0.620168
9421.000000;0.619643
9420.000000;0.619233
9419.000000;0.619138
9418.000000;0.619281
9417.000000;0.619424
9416.000000;0.619411
9415.000000;0.619273
9414.000000;0.619129
9413.000000;0.619067
9412.000000;0.619077
9411.000000;0.619055
9410.000000;0.618870
9409.000000;0.618479
9408.000000;0.617996
9407.000000;0.617623
9406.000000;0.617486
9405.000000;0.617536
9404.000000;0.617613
9403.000000;0.617602
9402.000000;0.617532
9401.000000;0.617508
9400.000000;0.617563
9399.000000;0.617612
9398.000000;0.617575
9397.000000;0.617498
9396.000000;0.617466
9395.000000;0.617451
9394.000000;0.617349
9393.000000;0.617183
9392.000000;0.617152
9391.000000;0.617386
9390.000000;0.617738
9389.000000;0.617894
9388.000000;0.617677
9387.000000;0.617188
9386.000000;0.616672
9385.000000;0.616334
9384.000000;0.616258
9383.000000;0.616409
9382.000000;0.616679
9381.000000;0.616944
9380.000000;0.617111
9379.000000;0.617132
9378.000000;0.617009
9377.000000;0.616815
9376.000000;0.616659
9375.000000;0.616585
9374.000000;0.616524
9373.000000;0.616395
9372.000000;0.616219
9371.000000;0.616085
9370.000000;0.616024
9369.000000;0.615972
9368.000000;0.615885
9367.000000;0.615800
9366.000000;0.615788
9365.000000;0.615845
9364.000000;0.615884
9363.000000;0.615778
9362.000000;0.615425
9361.000000;0.614812
9360.000000;0.614084
9359.000000;0.613520
9358.000000;0.613361
9357.000000;0.613626
9356.000000;0.614089
9355.000000;0.614458
9354.000000;0.614575
9353.000000;0.614472
9352.000000;0.614291
9351.000000;0.614173
9350.000000;0.614193
9349.000000;0.614331
9348.000000;0.614501
9347.000000;0.614616
9346.000000;0.614653
9345.000000;0.614630
9344.000000;0.614526
9343.000000;0.614302
9342.000000;0.613981
9341.000000;0.613666
9340.000000;0.613422
9339.000000;0.613225
9338.000000;0.613050
9337.000000;0.612949
9336.000000;0.612959
9335.000000;0.613002
9334.000000;0.612985
9333.000000;0.612967
9332.000000;0.613090
9331.000000;0.613352
9330.000000;0.613548
9329.000000;0.613516
9328.000000;0.613319
9327.000000;0.613124
9326.000000;0.612985
9325.000000;0.612825
9324.000000;0.612601
9323.000000;0.612396
9322.000000;0.612346
9321.000000;0.612502
9320.000000;0.612752
9319.000000;0.612859
9318.000000;0.612630
9317.000000;0.612135
9316.000000;0.611700
9315.000000;0.611627
9314.000000;0.611909
9313.000000;0.612252
9312.000000;0.612358
9311.000000;0.612144
9310.000000;0.611726
9309.000000;0.611294
9308.000000;0.611027
9307.000000;0.611048
9306.000000;0.611361
9305.000000;0.611796
9304.000000;0.612076
9303.000000;0.611995
9302.000000;0.611603
9301.000000;0.611201
9300.000000;0.611085
9299.000000;0.611239
9298.000000;0.611327
9297.000000;0.611036
9296.000000;0.610419
9295.000000;0.609855
9294.000000;0.609674
9293.000000;0.609877
9292.000000;0.610198
9291.000000;0.610373
9290.000000;0.610323
9289.000000;0.610140
9288.000000;0.609963
9287.000000;0.609900
9286.000000;0.610005
9285.000000;0.610268
9284.000000;0.610594
9283.000000;0.610812
9282.000000;0.610794
9281.000000;0.610586
9280.000000;0.610375
9279.000000;0.610281
9278.000000;0.610236
9277.000000;0.610100
9276.000000;0.609870
9275.000000;0.609667
9274.000000;0.609538
9273.000000;0.609368
9272.000000;0.609009
9271.000000;0.608440
9270.000000;0.607789
9269.000000;0.607276
9268.000000;0.607135
9267.000000;0.607483
9266.000000;0.608165
9265.000000;0.608790
9264.000000;0.609034
9263.000000;0.608880
9262.000000;0.608542
9261.000000;0.608207
9260.000000;0.607960
9259.000000;0.607873
9258.000000;0.608010
9257.000000;0.608288
9256.000000;0.608486
9255.000000;0.608455
9254.000000;0.608248
9253.000000;0.607994
9252.000000;0.607726
9251.000000;0.607426
9250.000000;0.607156
9249.000000;0.607036
9248.000000;0.607098
9247.000000;0.607234
9246.000000;0.607300
9245.000000;0.607250
9244.000000;0.607171
9243.000000;0.607199
9242.000000;0.607371
9241.000000;0.607541
9240.000000;0.607490
9239.000000;0.607180
9238.000000;0.606810
9237.000000;0.606582
9236.000000;0.606467
9235.000000;0.606307
9234.000000;0.606074
9233.000000;0.605901
9232.000000;0.605873
9231.000000;0.605938
9230.000000;0.606031
9229.000000;0.606157
9228.000000;0.606307
9227.000000;0.606402
9226.000000;0.606384
9225.000000;0.606280
9224.000000;0.606145
9223.000000;0.606009
9222.000000;0.605925
9221.000000;0.605958
9220.000000;0.606055
9219.000000;0.606032
9218.000000;0.605784
9217.000000;0.605452
9216.000000;0.605271
9215.000000;0.605319
9214.000000;0.605484
9213.000000;0.605634
9212.000000;0.605713
9211.000000;0.605709
9210.000000;0.605606
9209.000000;0.605400
9208.000000;0.605100
9207.000000;0.604728
9206.000000;0.604354
9205.000000;0.604092
9204.000000;0.604000
9203.000000;0.604002
9202.000000;0.603970
9201.000000;0.603852
9200.000000;0.603680
9199.000000;0.603492
9198.000000;0.603318
9197.000000;0.603228
9196.000000;0.603298
9195.000000;0.603513
9194.000000;0.603762
9193.000000;0.603942
9192.000000;0.604021
9191.000000;0.604030
9190.000000;0.604025
9189.000000;0.604040
9188.000000;0.604041
9187.000000;0.603931
9186.000000;0.603671
9185.000000;0.603346
9184.000000;0.603075
9183.000000;0.602886
9182.000000;0.602745
9181.000000;0.602681
9180.000000;0.602763
9179.000000;0.602959
9178.000000;0.603121
9177.000000;0.603138
9176.000000;0.603044
9175.000000;0.602939
9174.000000;0.602869
9173.000000;0.602803
9172.000000;0.602687
9171.000000;0.602475
9170.000000;0.602165
9169.000000;0.601817
9168.000000;0.601515
9167.000000;0.601287
9166.000000;0.601085
9165.000000;0.600871
9164.000000;0.600690
9163.000000;0.600661
9162.000000;0.600870
9161.000000;0.601255
9160.000000;0.601590
9159.000000;0.601625
9158.000000;0.601303
9157.000000;0.600837
9156.000000;0.600528
9155.000000;0.600520
9154.000000;0.600734
9153.000000;0.600993
9152.000000;0.601153
9151.000000;0.601168
9150.000000;0.601096
9149.000000;0.601042
9148.000000;0.601044
9147.000000;0.601021
9146.000000;0.600892
9145.000000;0.600701
9144.000000;0.600552
9143.000000;0.600450
9142.000000;0.600314
9141.000000;0.600125
9140.000000;0.599951
9139.000000;0.599806
9138.000000;0.599597
9137.000000;0.599292
9136.000000;0.599034
9135.000000;0.599020
9134.000000;0.599275
9133.000000;0.599615
9132.000000;0.599819
9131.000000;0.599791
9130.000000;0.599581
9129.000000;0.599284
9128.000000;0.598966
9127.000000;0.598663
9126.000000;0.598433
9125.000000;0.598347
9124.000000;0.598408
9123.000000;0.598525
9122.000000;0.598628
9121.000000;0.598771
9120.000000;0.599039
9119.000000;0.599381
9118.000000;0.599599
9117.000000;0.599523
9116.000000;0.599140
9115.000000;0.598566
9114.000000;0.597980
9113.000000;0.597585
9112.000000;0.597503
9111.000000;0.597647
9110.000000;0.597757
9109.000000;0.597644
9108.000000;0.597370
9107.000000;0.597150
9106.000000;0.597100
9105.000000;0.597157
9104.000000;0.597207
9103.000000;0.597219
9102.000000;0.597234
9101.000000;0.597261
9100.000000;0.597240
9099.000000;0.597123
9098.000000;0.596963
9097.000000;0.596880
9096.000000;0.596905
9095.000000;0.596928
9094.000000;0.596834
9093.000000;0.596662
9092.000000;0.596561
9091.000000;0.596605
9090.000000;0.596733
9089.000000;0.596855
9088.000000;0.596945
9087.000000;0.597013
9086.000000;0.597052
9085.000000;0.597060
9084.000000;0.597045
9083.000000;0.596997
9082.000000;0.596881
9081.000000;0.596672
9080.000000;0.596374
9079.000000;0.595992
9078.000000;0.595565
9077.000000;0.595200
9076.000000;0.595026
9075.000000;0.595061
9074.000000;0.595187
9073.000000;0.595274
9072.000000;0.595269
9071.000000;0.595143
9070.000000;0.594864
9069.000000;0.594485
9068.000000;0.594206
9067.000000;0.594234
9066.000000;0.594575
9065.000000;0.595014
9064.000000;0.595285
9063.000000;0.595270
9062.000000;0.595041
9061.000000;0.594784
9060.000000;0.594641
9059.000000;0.594606
9058.000000;0.594551
9057.000000;0.594374
9056.000000;0.594116
9055.000000;0.593922
9054.000000;0.593910
9053.000000;0.594063
