Criado como novo conjunto de dados;"2706_e01_daniel.spp","18722.7 Secs"
cm-1;Abs
10000.000000;0.658861
9999.000000;0.658588
9998.000000;0.658315
9997.000000;0.658042
9996.000000;0.657769
9995.000000;0.657496
9994.000000;0.657223
9993.000000;0.656952
9992.000000;0.656678
9991.000000;0.656433
9990.000000;0.656168
9989.000000;0.656225
9988.000000;0.656828
9987.000000;0.657598
9986.000000;0.657961
9985.000000;0.657795
9984.000000;0.657459
9983.000000;0.657446
9982.000000;0.658112
9981.000000;0.659421
9980.000000;0.660766
9979.000000;0.661371
9978.000000;0.661027
9977.000000;0.660126
9976.000000;0.658978
9975.000000;0.657591
9974.000000;0.656153
9973.000000;0.655134
9972.000000;0.654680
9971.000000;0.654398
9970.000000;0.654049
9969.000000;0.654074
9968.000000;0.655085
9967.000000;0.657092
9966.000000;0.659407
9965.000000;0.661088
9964.000000;0.661469
9963.000000;0.660635
9962.000000;0.659461
9961.000000;0.658795
9960.000000;0.658531
9959.000000;0.657897
9958.000000;0.656648
9957.000000;0.655407
9956.000000;0.654741
9955.000000;0.654506
9954.000000;0.654352
9953.000000;0.654274
9952.000000;0.654360
9951.000000;0.654446
9950.000000;0.654377
9949.000000;0.654263
9948.000000;0.654216
9947.000000;0.654149
9946.000000;0.654058
9945.000000;0.654180
9944.000000;0.654697
9943.000000;0.655576
9942.000000;0.656768
9941.000000;0.658154
9940.000000;0.659192
9939.000000;0.659125
9938.000000;0.657788
9937.000000;0.655843
9936.000000;0.654049
9935.000000;0.652733
9934.000000;0.652004
9933.000000;0.651936
9932.000000;0.652330
9931.000000;0.652779
9930.000000;0.653186
9929.000000;0.653812
9928.000000;0.654655
9927.000000;0.655257
9926.000000;0.655352
9925.000000;0.655225
9924.000000;0.655233
9923.000000;0.655394
9922.000000;0.655618
9921.000000;0.655877
9920.000000;0.655977
9919.000000;0.655636
9918.000000;0.654987
9917.000000;0.654502
9916.000000;0.654243
9915.000000;0.653736
9914.000000;0.652775
9913.000000;0.651815
9912.000000;0.651317
9911.000000;0.651239
9910.000000;0.651444
9909.000000;0.652029
9908.000000;0.652894
9907.000000;0.653552
9906.000000;0.653774
9905.000000;0.653950
9904.000000;0.654351
9903.000000;0.654535
9902.000000;0.654020
9901.000000;0.653162
9900.000000;0.652763
9899.000000;0.653045
9898.000000;0.653484
9897.000000;0.653547
9896.000000;0.653188
9895.000000;0.652683
9894.000000;0.652296
9893.000000;0.652066
9892.000000;0.651763
9891.000000;0.651196
9890.000000;0.650631
9889.000000;0.650620
9888.000000;0.651288
9887.000000;0.652095
9886.000000;0.652505
9885.000000;0.652545
9884.000000;0.652477
9883.000000;0.652305
9882.000000;0.651922
9881.000000;0.651498
9880.000000;0.651328
9879.000000;0.651444
9878.000000;0.651662
9877.000000;0.651834
9876.000000;0.651852
9875.000000;0.651539
9874.000000;0.650787
9873.000000;0.649716
9872.000000;0.648581
9871.000000;0.647641
9870.000000;0.647155
9869.000000;0.647303
9868.000000;0.647984
9867.000000;0.648815
9866.000000;0.649415
9865.000000;0.649608
9864.000000;0.649433
9863.000000;0.649160
9862.000000;0.649244
9861.000000;0.649918
9860.000000;0.650778
9859.000000;0.651067
9858.000000;0.650429
9857.000000;0.649113
9856.000000;0.647474
9855.000000;0.645703
9854.000000;0.644130
9853.000000;0.643347
9852.000000;0.643780
9851.000000;0.645305
9850.000000;0.647348
9849.000000;0.649178
9848.000000;0.650147
9847.000000;0.649965
9846.000000;0.648902
9845.000000;0.647536
9844.000000;0.646326
9843.000000;0.645540
9842.000000;0.645393
9841.000000;0.645904
9840.000000;0.646711
9839.000000;0.647374
9838.000000;0.647773
9837.000000;0.647943
9836.000000;0.647764
9835.000000;0.647263
9834.000000;0.646957
9833.000000;0.647255
9832.000000;0.647683
9831.000000;0.647377
9830.000000;0.646330
9829.000000;0.645440
9828.000000;0.645278
9827.000000;0.645553
9826.000000;0.645916
9825.000000;0.646508
9824.000000;0.647383
9823.000000;0.648036
9822.000000;0.647952
9821.000000;0.647236
9820.000000;0.646346
9819.000000;0.645564
9818.000000;0.644981
9817.000000;0.644673
9816.000000;0.644666
9815.000000;0.644978
9814.000000;0.645744
9813.000000;0.646948
9812.000000;0.648027
9811.000000;0.648238
9810.000000;0.647511
9809.000000;0.646495
9808.000000;0.645659
9807.000000;0.644921
9806.000000;0.644246
9805.000000;0.643937
9804.000000;0.644051
9803.000000;0.644104
9802.000000;0.643731
9801.000000;0.643233
9800.000000;0.643087
9799.000000;0.643317
9798.000000;0.643635
9797.000000;0.643815
9796.000000;0.643685
9795.000000;0.643150
9794.000000;0.642528
9793.000000;0.642452
9792.000000;0.643138
9791.000000;0.644088
9790.000000;0.644767
9789.000000;0.645170
9788.000000;0.645409
9787.000000;0.645230
9786.000000;0.644453
9785.000000;0.643561
9784.000000;0.643304
9783.000000;0.643791
9782.000000;0.644324
9781.000000;0.644144
9780.000000;0.643162
9779.000000;0.641979
9778.000000;0.641321
9777.000000;0.641414
9776.000000;0.641857
9775.000000;0.642127
9774.000000;0.642125
9773.000000;0.642044
9772.000000;0.641915
9771.000000;0.641670
9770.000000;0.641545
9769.000000;0.641922
9768.000000;0.642721
9767.000000;0.643401
9766.000000;0.643651
9765.000000;0.643672
9764.000000;0.643687
9763.000000;0.643600
9762.000000;0.643246
9761.000000;0.642609
9760.000000;0.641709
9759.000000;0.640658
9758.000000;0.639848
9757.000000;0.639638
9756.000000;0.639810
9755.000000;0.639812
9754.000000;0.639592
9753.000000;0.639652
9752.000000;0.640208
9751.000000;0.640916
9750.000000;0.641557
9749.000000;0.642329
9748.000000;0.643185
9747.000000;0.643532
9746.000000;0.642968
9745.000000;0.641828
9744.000000;0.640640
9743.000000;0.639576
9742.000000;0.638764
9741.000000;0.638578
9740.000000;0.639092
9739.000000;0.639681
9738.000000;0.639685
9737.000000;0.639189
9736.000000;0.638762
9735.000000;0.638726
9734.000000;0.639107
9733.000000;0.639912
9732.000000;0.640906
9731.000000;0.641400
9730.000000;0.640809
9729.000000;0.639387
9728.000000;0.638001
9727.000000;0.637275
9726.000000;0.637246
9725.000000;0.637689
9724.000000;0.638381
9723.000000;0.639086
9722.000000;0.639603
9721.000000;0.639855
9720.000000;0.639812
9719.000000;0.639446
9718.000000;0.638856
9717.000000;0.638227
9716.000000;0.637546
9715.000000;0.636630
9714.000000;0.635600
9713.000000;0.635049
9712.000000;0.635385
9711.000000;0.636260
9710.000000;0.636985
9709.000000;0.637420
9708.000000;0.638088
9707.000000;0.639388
9706.000000;0.640969
9705.000000;0.641965
9704.000000;0.641726
9703.000000;0.640333
9702.000000;0.638480
9701.000000;0.636858
9700.000000;0.635675
9699.000000;0.634768
9698.000000;0.634035
9697.000000;0.633553
9696.000000;0.633345
9695.000000;0.633335
9694.000000;0.633577
9693.000000;0.634273
9692.000000;0.635434
9691.000000;0.636731
9690.000000;0.637769
9689.000000;0.638369
9688.000000;0.638549
9687.000000;0.638439
9686.000000;0.638234
9685.000000;0.637981
9684.000000;0.637391
9683.000000;0.636160
9682.000000;0.634492
9681.000000;0.633065
9680.000000;0.632402
9679.000000;0.632537
9678.000000;0.633254
9677.000000;0.634298
9676.000000;0.635286
9675.000000;0.635811
9674.000000;0.635810
9673.000000;0.635595
9672.000000;0.635407
9671.000000;0.635228
9670.000000;0.635041
9669.000000;0.634982
9668.000000;0.635119
9667.000000;0.635374
9666.000000;0.635705
9665.000000;0.636073
9664.000000;0.636195
9663.000000;0.635733
9662.000000;0.634846
9661.000000;0.634179
9660.000000;0.634145
9659.000000;0.634576
9658.000000;0.635184
9657.000000;0.635936
9656.000000;0.636739
9655.000000;0.637150
9654.000000;0.636776
9653.000000;0.635751
9652.000000;0.634543
9651.000000;0.633495
9650.000000;0.632752
9649.000000;0.632422
9648.000000;0.632508
9647.000000;0.632808
9646.000000;0.633055
9645.000000;0.633108
9644.000000;0.632924
9643.000000;0.632524
9642.000000;0.632104
9641.000000;0.632015
9640.000000;0.632478
9639.000000;0.633354
9638.000000;0.634225
9637.000000;0.634641
9636.000000;0.634363
9635.000000;0.633563
9634.000000;0.632755
9633.000000;0.632291
9632.000000;0.631982
9631.000000;0.631469
9630.000000;0.630893
9629.000000;0.630829
9628.000000;0.631541
9627.000000;0.632641
9626.000000;0.633532
9625.000000;0.633861
9624.000000;0.633509
9623.000000;0.632556
9622.000000;0.631405
9621.000000;0.630588
9620.000000;0.630279
9619.000000;0.630223
9618.000000;0.630226
9617.000000;0.630389
9616.000000;0.630827
9615.000000;0.631448
9614.000000;0.632114
9613.000000;0.632694
9612.000000;0.632921
9611.000000;0.632582
9610.000000;0.631958
9609.000000;0.631651
9608.000000;0.631818
9607.000000;0.631950
9606.000000;0.631596
9605.000000;0.630923
9604.000000;0.630360
9603.000000;0.630066
9602.000000;0.630036
9601.000000;0.630355
9600.000000;0.631019
9599.000000;0.631713
9598.000000;0.632103
9597.000000;0.632175
9596.000000;0.632047
9595.000000;0.631685
9594.000000;0.631038
9593.000000;0.630302
9592.000000;0.629752
9591.000000;0.629432
9590.000000;0.629209
9589.000000;0.629029
9588.000000;0.628938
9587.000000;0.628919
9586.000000;0.628885
9585.000000;0.628793
9584.000000;0.628706
9583.000000;0.628791
9582.000000;0.629232
9581.000000;0.629972
9580.000000;0.630575
9579.000000;0.630560
9578.000000;0.629943
9577.000000;0.629214
9576.000000;0.628774
9575.000000;0.628654
9574.000000;0.628797
9573.000000;0.629228
9572.000000;0.629785
9571.000000;0.629987
9570.000000;0.629455
9569.000000;0.628334
9568.000000;0.627163
9567.000000;0.626425
9566.000000;0.626304
9565.000000;0.626659
9564.000000;0.627133
9563.000000;0.627438
9562.000000;0.627638
9561.000000;0.628032
9560.000000;0.628720
9559.000000;0.629425
9558.000000;0.629773
9557.000000;0.629554
9556.000000;0.628754
9555.000000;0.627571
9554.000000;0.626430
9553.000000;0.625707
9552.000000;0.625377
9551.000000;0.625147
9550.000000;0.624942
9549.000000;0.625010
9548.000000;0.625499
9547.000000;0.626255
9546.000000;0.627092
9545.000000;0.627978
9544.000000;0.628823
9543.000000;0.629373
9542.000000;0.629463
9541.000000;0.629169
9540.000000;0.628582
9539.000000;0.627647
9538.000000;0.626361
9537.000000;0.624975
9536.000000;0.623879
9535.000000;0.623404
9534.000000;0.623720
9533.000000;0.624721
9532.000000;0.625979
9531.000000;0.627003
9530.000000;0.627614
9529.000000;0.627922
9528.000000;0.627958
9527.000000;0.627593
9526.000000;0.626814
9525.000000;0.625820
9524.000000;0.624812
9523.000000;0.623903
9522.000000;0.623239
9521.000000;0.622935
9520.000000;0.622893
9519.000000;0.622930
9518.000000;0.623094
9517.000000;0.623613
9516.000000;0.624491
9515.000000;0.625415
9514.000000;0.626018
9513.000000;0.626013
9512.000000;0.625177
9511.000000;0.623607
9510.000000;0.621974
9509.000000;0.621093
9508.000000;0.621147
9507.000000;0.621643
9506.000000;0.622145
9505.000000;0.622671
9504.000000;0.623338
9503.000000;0.624026
9502.000000;0.624578
9501.000000;0.624988
9500.000000;0.625251
9499.000000;0.625273
9498.000000;0.625052
9497.000000;0.624690
9496.000000;0.624185
9495.000000;0.623545
9494.000000;0.623086
9493.000000;0.623213
9492.000000;0.623833
9491.000000;0.624391
9490.000000;0.624583
9489.000000;0.624613
9488.000000;0.624605
9487.000000;0.624299
9486.000000;0.623567
9485.000000;0.622799
9484.000000;0.622402
9483.000000;0.622261
9482.000000;0.622016
9481.000000;0.621640
9480.000000;0.621413
9479.000000;0.621490
9478.000000;0.621776
9477.000000;0.622081
9476.000000;0.622214
9475.000000;0.622068
9474.000000;0.621767
9473.000000;0.621544
9472.000000;0.621390
9471.000000;0.621072
9470.000000;0.620625
9469.000000;0.620500
9468.000000;0.621044
9467.000000;0.622073
9466.000000;0.623124
9465.000000;0.623852
9464.000000;0.624009
9463.000000;0.623386
9462.000000;0.622140
9461.000000;0.620937
9460.000000;0.620414
9459.000000;0.620570
9458.000000;0.620893
9457.000000;0.620940
9456.000000;0.620588
9455.000000;0.619906
9454.000000;0.619083
9453.000000;0.618448
9452.000000;0.618275
9451.000000;0.618550
9450.000000;0.619045
9449.000000;0.619583
9448.000000;0.620126
9447.000000;0.620669
9446.000000;0.621183
9445.000000;0.621640
9444.000000;0.622035
9443.000000;0.622383
9442.000000;0.622702
9441.000000;0.622889
9440.000000;0.622665
9439.000000;0.621834
9438.000000;0.620593
9437.000000;0.619415
9436.000000;0.618594
9435.000000;0.618076
9434.000000;0.617716
9433.000000;0.617463
9432.000000;0.617252
9431.000000;0.617007
9430.000000;0.616865
9429.000000;0.617147
9428.000000;0.617929
9427.000000;0.618825
9426.000000;0.619372
9425.000000;0.619482
9424.000000;0.619393
9423.000000;0.619339
9422.000000;0.619413
9421.000000;0.619613
9420.000000;0.619827
9419.000000;0.619825
9418.000000;0.619405
9417.000000;0.618578
9416.000000;0.617592
9415.000000;0.616817
9414.000000;0.616547
9413.000000;0.616781
9412.000000;0.617194
9411.000000;0.617416
9410.000000;0.617341
9409.000000;0.617087
9408.000000;0.616804
9407.000000;0.616676
9406.000000;0.616968
9405.000000;0.617723
9404.000000;0.618475
9403.000000;0.618590
9402.000000;0.617978
9401.000000;0.617189
9400.000000;0.616740
9399.000000;0.616637
9398.000000;0.616600
9397.000000;0.616468
9396.000000;0.616274
9395.000000;0.616158
9394.000000;0.616324
9393.000000;0.616909
9392.000000;0.617757
9391.000000;0.618499
9390.000000;0.618882
9389.000000;0.618872
9388.000000;0.618440
9387.000000;0.617545
9386.000000;0.616397
9385.000000;0.615441
9384.000000;0.614960
9383.000000;0.614888
9382.000000;0.615060
9381.000000;0.615421
9380.000000;0.615888
9379.000000;0.616264
9378.000000;0.616412
9377.000000;0.616383
9376.000000;0.616259
9375.000000;0.616067
9374.000000;0.615887
9373.000000;0.615830
9372.000000;0.615833
9371.000000;0.615685
9370.000000;0.615369
9369.000000;0.615150
9368.000000;0.615244
9367.000000;0.615574
9366.000000;0.615940
9365.000000;0.616193
9364.000000;0.616142
9363.000000;0.615556
9362.000000;0.614484
9361.000000;0.613399
9360.000000;0.612838
9359.000000;0.612970
9358.000000;0.613578
9357.000000;0.614301
9356.000000;0.614782
9355.000000;0.614743
9354.000000;0.614148
9353.000000;0.613307
9352.000000;0.612722
9351.000000;0.612774
9350.000000;0.613467
9349.000000;0.614345
9348.000000;0.614772
9347.000000;0.614464
9346.000000;0.613776
9345.000000;0.613318
9344.000000;0.613300
9343.000000;0.613426
9342.000000;0.613379
9341.000000;0.613186
9340.000000;0.613079
9339.000000;0.613235
9338.000000;0.613685
9337.000000;0.614290
9336.000000;0.614716
9335.000000;0.614627
9334.000000;0.614017
9333.000000;0.613246
9332.000000;0.612728
9331.000000;0.612658
9330.000000;0.612986
9329.000000;0.613459
9328.000000;0.613723
9327.000000;0.613606
9326.000000;0.613315
9325.000000;0.613169
9324.000000;0.613151
9323.000000;0.612975
9322.000000;0.612602
9321.000000;0.612407
9320.000000;0.612708
9319.000000;0.613342
9318.000000;0.613814
9317.000000;0.613790
9316.000000;0.613369
9315.000000;0.612927
9314.000000;0.612736
9313.000000;0.612669
9312.000000;0.612334
9311.000000;0.611576
9310.000000;0.610720
9309.000000;0.610197
9308.000000;0.610089
9307.000000;0.610265
9306.000000;0.610755
9305.000000;0.611639
9304.000000;0.612652
9303.000000;0.613285
9302.000000;0.613353
9301.000000;0.613148
9300.000000;0.612983
9299.000000;0.612875
9298.000000;0.612720
9297.000000;0.612492
9296.000000;0.612170
9295.000000;0.611716
9294.000000;0.611203
9293.000000;0.610762
9292.000000;0.610345
9291.000000;0.609799
9290.000000;0.609212
9289.000000;0.608934
9288.000000;0.609163
9287.000000;0.609721
9286.000000;0.610308
9285.000000;0.610767
9284.000000;0.611022
9283.000000;0.610976
9282.000000;0.610613
9281.000000;0.610071
9280.000000;0.609552
9279.000000;0.609237
9278.000000;0.609247
9277.000000;0.609539
9276.000000;0.609879
9275.000000;0.610093
9274.000000;0.610285
9273.000000;0.610604
9272.000000;0.610916
9271.000000;0.610977
9270.000000;0.610840
9269.000000;0.610754
9268.000000;0.610695
9267.000000;0.610375
9266.000000;0.609731
9265.000000;0.609074
9264.000000;0.608684
9263.000000;0.608574
9262.000000;0.608687
9261.000000;0.608976
9260.000000;0.609213
9259.000000;0.609070
9258.000000;0.608560
9257.000000;0.608127
9256.000000;0.608163
9255.000000;0.608647
9254.000000;0.609296
9253.000000;0.609795
9252.000000;0.609784
9251.000000;0.608982
9250.000000;0.607541
9249.000000;0.606078
9248.000000;0.605183
9247.000000;0.605021
9246.000000;0.605443
9245.000000;0.606209
9244.000000;0.606985
9243.000000;0.607384
9242.000000;0.607240
9241.000000;0.606719
9240.000000;0.606123
9239.000000;0.605745
9238.000000;0.605880
9237.000000;0.606644
9236.000000;0.607647
9235.000000;0.608157
9234.000000;0.607793
9233.000000;0.606887
9232.000000;0.606023
9231.000000;0.605458
9230.000000;0.605135
9229.000000;0.604969
9228.000000;0.604897
9227.000000;0.604832
9226.000000;0.604796
9225.000000;0.604992
9224.000000;0.605544
9223.000000;0.606269
9222.000000;0.606848
9221.000000;0.607140
9220.000000;0.607203
9219.000000;0.607113
9218.000000;0.606889
9217.000000;0.606549
9216.000000;0.606125
9215.000000;0.605688
9214.000000;0.605376
9213.000000;0.605291
9212.000000;0.605367
9211.000000;0.605462
9210.000000;0.605554
9209.000000;0.605685
9208.000000;0.605716
9207.000000;0.605418
9206.000000;0.604853
9205.000000;0.604404
9204.000000;0.604317
9203.000000;0.604426
9202.000000;0.604462
9201.000000;0.604435
9200.000000;0.604540
9199.000000;0.604861
9198.000000;0.605330
9197.000000;0.605841
9196.000000;0.606240
9195.000000;0.606308
9194.000000;0.605934
9193.000000;0.605279
9192.000000;0.604654
9191.000000;0.604292
9190.000000;0.604255
9189.000000;0.604466
9188.000000;0.604735
9187.000000;0.604845
9186.000000;0.604703
9185.000000;0.604377
9184.000000;0.603987
9183.000000;0.603652
9182.000000;0.603510
9181.000000;0.603621
9180.000000;0.603801
9179.000000;0.603749
9178.000000;0.603415
9177.000000;0.603093
9176.000000;0.603024
9175.000000;0.603077
9174.000000;0.602950
9173.000000;0.602599
9172.000000;0.602276
9171.000000;0.602198
9170.000000;0.602321
9169.000000;0.602477
9168.000000;0.602649
9167.000000;0.603017
9166.000000;0.603720
9165.000000;0.604596
9164.000000;0.605212
9163.000000;0.605205
9162.000000;0.604559
9161.000000;0.603511
9160.000000;0.602296
9159.000000;0.601089
9158.000000;0.600146
9157.000000;0.599795
9156.000000;0.600202
9155.000000;0.601178
9154.000000;0.602263
9153.000000;0.603015
9152.000000;0.603267
9151.000000;0.603155
9150.000000;0.602871
9149.000000;0.602436
9148.000000;0.601793
9147.000000;0.601088
9146.000000;0.600638
9145.000000;0.600567
9144.000000;0.600665
9143.000000;0.600728
9142.000000;0.600867
9141.000000;0.601275
9140.000000;0.601853
9139.000000;0.602291
9138.000000;0.602433
9137.000000;0.602343
9136.000000;0.602111
9135.000000;0.601802
9134.000000;0.601503
9133.000000;0.601228
9132.000000;0.600801
9131.000000;0.600062
9130.000000;0.599124
9129.000000;0.598282
9128.000000;0.597733
9127.000000;0.597591
9126.000000;0.597993
9125.000000;0.598899
9124.000000;0.599837
9123.000000;0.600200
9122.000000;0.599897
9121.000000;0.599471
9120.000000;0.599515
9119.000000;0.600131
9118.000000;0.600978
9117.000000;0.601615
9116.000000;0.601747
9115.000000;0.601348
9114.000000;0.600682
9113.000000;0.600090
9112.000000;0.599703
9111.000000;0.599407
9110.000000;0.599079
9109.000000;0.598771
9108.000000;0.598674
9107.000000;0.598946
9106.000000;0.599531
9105.000000;0.600068
9104.000000;0.600108
9103.000000;0.599541
9102.000000;0.598716
9101.000000;0.598061
9100.000000;0.597746
9099.000000;0.597798
9098.000000;0.598276
9097.000000;0.599074
9096.000000;0.599748
9095.000000;0.599884
9094.000000;0.599547
9093.000000;0.599066
9092.000000;0.598512
9091.000000;0.597742
9090.000000;0.596913
9089.000000;0.596506
9088.000000;0.596773
9087.000000;0.597436
9086.000000;0.598053
9085.000000;0.598418
9084.000000;0.598544
9083.000000;0.598483
9082.000000;0.598306
9081.000000;0.598114
9080.000000;0.597955
9079.000000;0.597819
9078.000000;0.597704
9077.000000;0.597585
9076.000000;0.597349
9075.000000;0.596941
9074.000000;0.596536
9073.000000;0.596395
9072.000000;0.596557
9071.000000;0.596830
9070.000000;0.597074
9069.000000;0.597312
9068.000000;0.597570
9067.000000;0.597778
9066.000000;0.597865
9065.000000;0.597789
9064.000000;0.597487
9063.000000;0.596949
9062.000000;0.596313
9061.000000;0.595783
9060.000000;0.595458
9059.000000;0.595347
9058.000000;0.595425
9057.000000;0.595550
9056.000000;0.595445
9055.000000;0.594991
9054.000000;0.594472
9053.000000;0.594339
