Criado como novo conjunto de dados;"2706_e01_daniel.spp","722.1 Secs"
cm-1;Abs
10000.000000;0.031836
9999.000000;0.031895
9998.000000;0.031959
9997.000000;0.031925
9996.000000;0.031843
9995.000000;0.031856
9994.000000;0.032012
9993.000000;0.032198
9992.000000;0.032269
9991.000000;0.032191
9990.000000;0.032023
9989.000000;0.031818
9988.000000;0.031604
9987.000000;0.031432
9986.000000;0.031362
9985.000000;0.031406
9984.000000;0.031508
9983.000000;0.031589
9982.000000;0.031578
9981.000000;0.031436
9980.000000;0.031221
9979.000000;0.031083
9978.000000;0.031145
9977.000000;0.031350
9976.000000;0.031504
9975.000000;0.031480
9974.000000;0.031349
9973.000000;0.031296
9972.000000;0.031425
9971.000000;0.031674
9970.000000;0.031887
9969.000000;0.031939
9968.000000;0.031818
9967.000000;0.031608
9966.000000;0.031409
9965.000000;0.031292
9964.000000;0.031301
9963.000000;0.031439
9962.000000;0.031640
9961.000000;0.031777
9960.000000;0.031756
9959.000000;0.031573
9958.000000;0.031302
9957.000000;0.031047
9956.000000;0.030931
9955.000000;0.031060
9954.000000;0.031410
9953.000000;0.031790
9952.000000;0.032002
9951.000000;0.032020
9950.000000;0.031953
9949.000000;0.031832
9948.000000;0.031570
9947.000000;0.031165
9946.000000;0.030827
9945.000000;0.030787
9944.000000;0.031023
9943.000000;0.031253
9942.000000;0.031234
9941.000000;0.031004
9940.000000;0.030829
9939.000000;0.030921
9938.000000;0.031245
9937.000000;0.031592
9936.000000;0.031803
9935.000000;0.031883
9934.000000;0.031900
9933.000000;0.031844
9932.000000;0.031647
9931.000000;0.031330
9930.000000;0.031020
9929.000000;0.030820
9928.000000;0.030727
9927.000000;0.030709
9926.000000;0.030781
9925.000000;0.030960
9924.000000;0.031194
9923.000000;0.031384
9922.000000;0.031471
9921.000000;0.031464
9920.000000;0.031403
9919.000000;0.031330
9918.000000;0.031263
9917.000000;0.031156
9916.000000;0.030945
9915.000000;0.030668
9914.000000;0.030501
9913.000000;0.030595
9912.000000;0.030905
9911.000000;0.031239
9910.000000;0.031462
9909.000000;0.031570
9908.000000;0.031584
9907.000000;0.031479
9906.000000;0.031278
9905.000000;0.031116
9904.000000;0.031122
9903.000000;0.031258
9902.000000;0.031348
9901.000000;0.031259
9900.000000;0.031014
9899.000000;0.030736
9898.000000;0.030542
9897.000000;0.030497
9896.000000;0.030615
9895.000000;0.030838
9894.000000;0.031043
9893.000000;0.031123
9892.000000;0.031056
9891.000000;0.030900
9890.000000;0.030740
9889.000000;0.030656
9888.000000;0.030707
9887.000000;0.030887
9886.000000;0.031098
9885.000000;0.031226
9884.000000;0.031257
9883.000000;0.031283
9882.000000;0.031361
9881.000000;0.031425
9880.000000;0.031367
9879.000000;0.031176
9878.000000;0.030945
9877.000000;0.030756
9876.000000;0.030623
9875.000000;0.030540
9874.000000;0.030532
9873.000000;0.030618
9872.000000;0.030765
9871.000000;0.030901
9870.000000;0.030967
9869.000000;0.030960
9868.000000;0.030926
9867.000000;0.030932
9866.000000;0.031007
9865.000000;0.031114
9864.000000;0.031186
9863.000000;0.031198
9862.000000;0.031179
9861.000000;0.031182
9860.000000;0.031255
9859.000000;0.031418
9858.000000;0.031602
9857.000000;0.031645
9856.000000;0.031418
9855.000000;0.030991
9854.000000;0.030613
9853.000000;0.030468
9852.000000;0.030516
9851.000000;0.030603
9850.000000;0.030678
9849.000000;0.030813
9848.000000;0.031040
9847.000000;0.031264
9846.000000;0.031376
9845.000000;0.031381
9844.000000;0.031376
9843.000000;0.031406
9842.000000;0.031414
9841.000000;0.031322
9840.000000;0.031144
9839.000000;0.030978
9838.000000;0.030908
9837.000000;0.030917
9836.000000;0.030945
9835.000000;0.030992
9834.000000;0.031129
9833.000000;0.031361
9832.000000;0.031538
9831.000000;0.031455
9830.000000;0.031061
9829.000000;0.030529
9828.000000;0.030107
9827.000000;0.029920
9826.000000;0.029944
9825.000000;0.030111
9824.000000;0.030400
9823.000000;0.030785
9822.000000;0.031165
9821.000000;0.031392
9820.000000;0.031392
9819.000000;0.031231
9818.000000;0.031027
9817.000000;0.030849
9816.000000;0.030703
9815.000000;0.030594
9814.000000;0.030530
9813.000000;0.030476
9812.000000;0.030386
9811.000000;0.030305
9810.000000;0.030379
9809.000000;0.030696
9808.000000;0.031126
9807.000000;0.031385
9806.000000;0.031279
9805.000000;0.030864
9804.000000;0.030391
9803.000000;0.030105
9802.000000;0.030094
9801.000000;0.030271
9800.000000;0.030471
9799.000000;0.030584
9798.000000;0.030625
9797.000000;0.030680
9796.000000;0.030797
9795.000000;0.030939
9794.000000;0.031032
9793.000000;0.031042
9792.000000;0.030989
9791.000000;0.030904
9790.000000;0.030801
9789.000000;0.030701
9788.000000;0.030650
9787.000000;0.030690
9786.000000;0.030808
9785.000000;0.030956
9784.000000;0.031112
9783.000000;0.031295
9782.000000;0.031482
9781.000000;0.031576
9780.000000;0.031491
9779.000000;0.031276
9778.000000;0.031082
9777.000000;0.030998
9776.000000;0.030995
9775.000000;0.031013
9774.000000;0.031040
9773.000000;0.031055
9772.000000;0.030990
9771.000000;0.030808
9770.000000;0.030609
9769.000000;0.030549
9768.000000;0.030665
9767.000000;0.030829
9766.000000;0.030903
9765.000000;0.030876
9764.000000;0.030851
9763.000000;0.030901
9762.000000;0.030969
9761.000000;0.030919
9760.000000;0.030677
9759.000000;0.030350
9758.000000;0.030164
9757.000000;0.030249
9756.000000;0.030494
9755.000000;0.030670
9754.000000;0.030679
9753.000000;0.030644
9752.000000;0.030727
9751.000000;0.030929
9750.000000;0.031110
9749.000000;0.031164
9748.000000;0.031117
9747.000000;0.031044
9746.000000;0.030955
9745.000000;0.030808
9744.000000;0.030616
9743.000000;0.030492
9742.000000;0.030541
9741.000000;0.030727
9740.000000;0.030899
9739.000000;0.030936
9738.000000;0.030834
9737.000000;0.030665
9736.000000;0.030496
9735.000000;0.030383
9734.000000;0.030384
9733.000000;0.030498
9732.000000;0.030629
9731.000000;0.030670
9730.000000;0.030631
9729.000000;0.030633
9728.000000;0.030751
9727.000000;0.030922
9726.000000;0.031027
9725.000000;0.031023
9724.000000;0.030956
9723.000000;0.030895
9722.000000;0.030892
9721.000000;0.030978
9720.000000;0.031127
9719.000000;0.031235
9718.000000;0.031177
9717.000000;0.030947
9716.000000;0.030688
9715.000000;0.030563
9714.000000;0.030597
9713.000000;0.030680
9712.000000;0.030740
9711.000000;0.030839
9710.000000;0.031056
9709.000000;0.031333
9708.000000;0.031503
9707.000000;0.031474
9706.000000;0.031310
9705.000000;0.031107
9704.000000;0.030875
9703.000000;0.030606
9702.000000;0.030373
9701.000000;0.030284
9700.000000;0.030344
9699.000000;0.030470
9698.000000;0.030615
9697.000000;0.030799
9696.000000;0.031015
9695.000000;0.031185
9694.000000;0.031257
9693.000000;0.031277
9692.000000;0.031321
9691.000000;0.031397
9690.000000;0.031454
9689.000000;0.031449
9688.000000;0.031368
9687.000000;0.031229
9686.000000;0.031087
9685.000000;0.031019
9684.000000;0.031043
9683.000000;0.031081
9682.000000;0.031034
9681.000000;0.030879
9680.000000;0.030664
9679.000000;0.030451
9678.000000;0.030292
9677.000000;0.030232
9676.000000;0.030279
9675.000000;0.030378
9674.000000;0.030451
9673.000000;0.030483
9672.000000;0.030510
9671.000000;0.030544
9670.000000;0.030555
9669.000000;0.030539
9668.000000;0.030544
9667.000000;0.030592
9666.000000;0.030625
9665.000000;0.030573
9664.000000;0.030472
9663.000000;0.030448
9662.000000;0.030587
9661.000000;0.030830
9660.000000;0.031038
9659.000000;0.031126
9658.000000;0.031118
9657.000000;0.031083
9656.000000;0.031043
9655.000000;0.030983
9654.000000;0.030912
9653.000000;0.030870
9652.000000;0.030895
9651.000000;0.030983
9650.000000;0.031092
9649.000000;0.031154
9648.000000;0.031097
9647.000000;0.030900
9646.000000;0.030640
9645.000000;0.030438
9644.000000;0.030350
9643.000000;0.030326
9642.000000;0.030318
9641.000000;0.030367
9640.000000;0.030539
9639.000000;0.030793
9638.000000;0.030978
9637.000000;0.030995
9636.000000;0.030896
9635.000000;0.030814
9634.000000;0.030822
9633.000000;0.030894
9632.000000;0.030965
9631.000000;0.030996
9630.000000;0.030984
9629.000000;0.030933
9628.000000;0.030854
9627.000000;0.030762
9626.000000;0.030687
9625.000000;0.030670
9624.000000;0.030743
9623.000000;0.030893
9622.000000;0.031052
9621.000000;0.031147
9620.000000;0.031148
9619.000000;0.031068
9618.000000;0.030917
9617.000000;0.030712
9616.000000;0.030522
9615.000000;0.030466
9614.000000;0.030615
9613.000000;0.030896
9612.000000;0.031146
9611.000000;0.031263
9610.000000;0.031274
9609.000000;0.031245
9608.000000;0.031179
9607.000000;0.031038
9606.000000;0.030862
9605.000000;0.030768
9604.000000;0.030821
9603.000000;0.030939
9602.000000;0.030978
9601.000000;0.030906
9600.000000;0.030833
9599.000000;0.030854
9598.000000;0.030929
9597.000000;0.030953
9596.000000;0.030915
9595.000000;0.030922
9594.000000;0.031047
9593.000000;0.031228
9592.000000;0.031342
9591.000000;0.031345
9590.000000;0.031279
9589.000000;0.031177
9588.000000;0.031031
9587.000000;0.030853
9586.000000;0.030715
9585.000000;0.030678
9584.000000;0.030737
9583.000000;0.030829
9582.000000;0.030894
9581.000000;0.030904
9580.000000;0.030865
9579.000000;0.030812
9578.000000;0.030776
9577.000000;0.030760
9576.000000;0.030761
9575.000000;0.030817
9574.000000;0.030965
9573.000000;0.031147
9572.000000;0.031214
9571.000000;0.031097
9570.000000;0.030903
9569.000000;0.030808
9568.000000;0.030872
9567.000000;0.031006
9566.000000;0.031098
9565.000000;0.031099
9564.000000;0.031012
9563.000000;0.030887
9562.000000;0.030804
9561.000000;0.030805
9560.000000;0.030839
9559.000000;0.030825
9558.000000;0.030770
9557.000000;0.030755
9556.000000;0.030814
9555.000000;0.030898
9554.000000;0.030972
9553.000000;0.031058
9552.000000;0.031165
9551.000000;0.031255
9550.000000;0.031315
9549.000000;0.031403
9548.000000;0.031556
9547.000000;0.031708
9546.000000;0.031754
9545.000000;0.031677
9544.000000;0.031544
9543.000000;0.031428
9542.000000;0.031359
9541.000000;0.031327
9540.000000;0.031278
9539.000000;0.031146
9538.000000;0.030943
9537.000000;0.030798
9536.000000;0.030827
9535.000000;0.030996
9534.000000;0.031148
9533.000000;0.031172
9532.000000;0.031084
9531.000000;0.030952
9530.000000;0.030822
9529.000000;0.030728
9528.000000;0.030712
9527.000000;0.030799
9526.000000;0.030967
9525.000000;0.031163
9524.000000;0.031332
9523.000000;0.031429
9522.000000;0.031434
9521.000000;0.031361
9520.000000;0.031246
9519.000000;0.031106
9518.000000;0.030934
9517.000000;0.030752
9516.000000;0.030631
9515.000000;0.030646
9514.000000;0.030806
9513.000000;0.031037
9512.000000;0.031240
9511.000000;0.031357
9510.000000;0.031389
9509.000000;0.031370
9508.000000;0.031315
9507.000000;0.031221
9506.000000;0.031098
9505.000000;0.030985
9504.000000;0.030908
9503.000000;0.030865
9502.000000;0.030860
9501.000000;0.030938
9500.000000;0.031137
9499.000000;0.031423
9498.000000;0.031679
9497.000000;0.031787
9496.000000;0.031701
9495.000000;0.031455
9494.000000;0.031130
9493.000000;0.030831
9492.000000;0.030656
9491.000000;0.030663
9490.000000;0.030838
9489.000000;0.031097
9488.000000;0.031333
9487.000000;0.031474
9486.000000;0.031517
9485.000000;0.031501
9484.000000;0.031443
9483.000000;0.031324
9482.000000;0.031128
9481.000000;0.030900
9480.000000;0.030711
9479.000000;0.030605
9478.000000;0.030571
9477.000000;0.030584
9476.000000;0.030642
9475.000000;0.030767
9474.000000;0.030957
9473.000000;0.031148
9472.000000;0.031237
9471.000000;0.031156
9470.000000;0.030942
9469.000000;0.030719
9468.000000;0.030596
9467.000000;0.030600
9466.000000;0.030688
9465.000000;0.030803
9464.000000;0.030900
9463.000000;0.030961
9462.000000;0.031000
9461.000000;0.031045
9460.000000;0.031083
9459.000000;0.031066
9458.000000;0.030984
9457.000000;0.030895
9456.000000;0.030853
9455.000000;0.030845
9454.000000;0.030845
9453.000000;0.030891
9452.000000;0.031030
9451.000000;0.031211
9450.000000;0.031309
9449.000000;0.031272
9448.000000;0.031181
9447.000000;0.031153
9446.000000;0.031233
9445.000000;0.031373
9444.000000;0.031477
9443.000000;0.031462
9442.000000;0.031342
9441.000000;0.031243
9440.000000;0.031286
9439.000000;0.031429
9438.000000;0.031487
9437.000000;0.031350
9436.000000;0.031109
9435.000000;0.030948
9434.000000;0.030960
9433.000000;0.031107
9432.000000;0.031299
9431.000000;0.031452
9430.000000;0.031502
9429.000000;0.031446
9428.000000;0.031368
9427.000000;0.031360
9426.000000;0.031406
9425.000000;0.031394
9424.000000;0.031248
9423.000000;0.031017
9422.000000;0.030835
9421.000000;0.030812
9420.000000;0.030953
9419.000000;0.031155
9418.000000;0.031278
9417.000000;0.031261
9416.000000;0.031162
9415.000000;0.031092
9414.000000;0.031092
9413.000000;0.031105
9412.000000;0.031072
9411.000000;0.030999
9410.000000;0.030931
9409.000000;0.030902
9408.000000;0.030928
9407.000000;0.031027
9406.000000;0.031190
9405.000000;0.031337
9404.000000;0.031357
9403.000000;0.031237
9402.000000;0.031114
9401.000000;0.031150
9400.000000;0.031346
9399.000000;0.031518
9398.000000;0.031503
9397.000000;0.031332
9396.000000;0.031191
9395.000000;0.031203
9394.000000;0.031310
9393.000000;0.031370
9392.000000;0.031318
9391.000000;0.031218
9390.000000;0.031180
9389.000000;0.031258
9388.000000;0.031414
9387.000000;0.031552
9386.000000;0.031594
9385.000000;0.031536
9384.000000;0.031451
9383.000000;0.031420
9382.000000;0.031461
9381.000000;0.031515
9380.000000;0.031506
9379.000000;0.031417
9378.000000;0.031321
9377.000000;0.031313
9376.000000;0.031385
9375.000000;0.031416
9374.000000;0.031297
9373.000000;0.031080
9372.000000;0.030933
9371.000000;0.030944
9370.000000;0.031039
9369.000000;0.031105
9368.000000;0.031133
9367.000000;0.031197
9366.000000;0.031312
9365.000000;0.031401
9364.000000;0.031395
9363.000000;0.031309
9362.000000;0.031204
9361.000000;0.031122
9360.000000;0.031065
9359.000000;0.031025
9358.000000;0.030995
9357.000000;0.030990
9356.000000;0.031043
9355.000000;0.031179
9354.000000;0.031359
9353.000000;0.031481
9352.000000;0.031468
9351.000000;0.031358
9350.000000;0.031266
9349.000000;0.031262
9348.000000;0.031314
9347.000000;0.031360
9346.000000;0.031411
9345.000000;0.031525
9344.000000;0.031693
9343.000000;0.031811
9342.000000;0.031781
9341.000000;0.031622
9340.000000;0.031442
9339.000000;0.031321
9338.000000;0.031265
9337.000000;0.031252
9336.000000;0.031273
9335.000000;0.031324
9334.000000;0.031392
9333.000000;0.031458
9332.000000;0.031507
9331.000000;0.031531
9330.000000;0.031541
9329.000000;0.031576
9328.000000;0.031649
9327.000000;0.031695
9326.000000;0.031627
9325.000000;0.031462
9324.000000;0.031326
9323.000000;0.031320
9322.000000;0.031414
9321.000000;0.031513
9320.000000;0.031570
9319.000000;0.031590
9318.000000;0.031561
9317.000000;0.031468
9316.000000;0.031343
9315.000000;0.031242
9314.000000;0.031175
9313.000000;0.031119
9312.000000;0.031099
9311.000000;0.031174
9310.000000;0.031340
9309.000000;0.031501
9308.000000;0.031588
9307.000000;0.031650
9306.000000;0.031773
9305.000000;0.031944
9304.000000;0.032034
9303.000000;0.031928
9302.000000;0.031655
9301.000000;0.031381
9300.000000;0.031278
9299.000000;0.031389
9298.000000;0.031598
9297.000000;0.031740
9296.000000;0.031736
9295.000000;0.031634
9294.000000;0.031531
9293.000000;0.031480
9292.000000;0.031472
9291.000000;0.031472
9290.000000;0.031453
9289.000000;0.031416
9288.000000;0.031388
9287.000000;0.031404
9286.000000;0.031475
9285.000000;0.031584
9284.000000;0.031700
9283.000000;0.031782
9282.000000;0.031787
9281.000000;0.031703
9280.000000;0.031602
9279.000000;0.031587
9278.000000;0.031683
9277.000000;0.031796
9276.000000;0.031822
9275.000000;0.031758
9274.000000;0.031691
9273.000000;0.031679
9272.000000;0.031687
9271.000000;0.031636
9270.000000;0.031487
9269.000000;0.031281
9268.000000;0.031108
9267.000000;0.031046
9266.000000;0.031099
9265.000000;0.031208
9264.000000;0.031310
9263.000000;0.031392
9262.000000;0.031456
9261.000000;0.031467
9260.000000;0.031377
9259.000000;0.031209
9258.000000;0.031072
9257.000000;0.031074
9256.000000;0.031227
9255.000000;0.031442
9254.000000;0.031599
9253.000000;0.031626
9252.000000;0.031537
9251.000000;0.031416
9250.000000;0.031356
9249.000000;0.031383
9248.000000;0.031447
9247.000000;0.031477
9246.000000;0.031445
9245.000000;0.031372
9244.000000;0.031307
9243.000000;0.031298
9242.000000;0.031366
9241.000000;0.031489
9240.000000;0.031631
9239.000000;0.031790
9238.000000;0.031990
9237.000000;0.032202
9236.000000;0.032316
9235.000000;0.032229
9234.000000;0.031961
9233.000000;0.031649
9232.000000;0.031433
9231.000000;0.031370
9230.000000;0.031450
9229.000000;0.031625
9228.000000;0.031811
9227.000000;0.031910
9226.000000;0.031885
9225.000000;0.031801
9224.000000;0.031745
9223.000000;0.031734
9222.000000;0.031710
9221.000000;0.031639
9220.000000;0.031556
9219.000000;0.031507
9218.000000;0.031476
9217.000000;0.031417
9216.000000;0.031341
9215.000000;0.031335
9214.000000;0.031470
9213.000000;0.031722
9212.000000;0.031989
9211.000000;0.032180
9210.000000;0.032257
9209.000000;0.032213
9208.000000;0.032048
9207.000000;0.031806
9206.000000;0.031600
9205.000000;0.031536
9204.000000;0.031615
9203.000000;0.031725
9202.000000;0.031756
9201.000000;0.031687
9200.000000;0.031569
9199.000000;0.031475
9198.000000;0.031473
9197.000000;0.031601
9196.000000;0.031814
9195.000000;0.031979
9194.000000;0.031979
9193.000000;0.031826
9192.000000;0.031647
9191.000000;0.031548
9190.000000;0.031538
9189.000000;0.031553
9188.000000;0.031541
9187.000000;0.031497
9186.000000;0.031465
9185.000000;0.031517
9184.000000;0.031685
9183.000000;0.031896
9182.000000;0.032016
9181.000000;0.031988
9180.000000;0.031903
9179.000000;0.031896
9178.000000;0.031999
9177.000000;0.032119
9176.000000;0.032170
9175.000000;0.032160
9174.000000;0.032156
9173.000000;0.032191
9172.000000;0.032235
9171.000000;0.032238
9170.000000;0.032173
9169.000000;0.032044
9168.000000;0.031893
9167.000000;0.031796
9166.000000;0.031820
9165.000000;0.031953
9164.000000;0.032094
9163.000000;0.032142
9162.000000;0.032091
9161.000000;0.032023
9160.000000;0.031999
9159.000000;0.031993
9158.000000;0.031956
9157.000000;0.031899
9156.000000;0.031877
9155.000000;0.031904
9154.000000;0.031946
9153.000000;0.031974
9152.000000;0.032003
9151.000000;0.032046
9150.000000;0.032071
9149.000000;0.032039
9148.000000;0.031945
9147.000000;0.031815
9146.000000;0.031680
9145.000000;0.031570
9144.000000;0.031525
9143.000000;0.031575
9142.000000;0.031694
9141.000000;0.031811
9140.000000;0.031863
9139.000000;0.031840
9138.000000;0.031787
9137.000000;0.031756
9136.000000;0.031780
9135.000000;0.031851
9134.000000;0.031940
9133.000000;0.032020
9132.000000;0.032076
9131.000000;0.032090
9130.000000;0.032043
9129.000000;0.031934
9128.000000;0.031812
9127.000000;0.031744
9126.000000;0.031763
9125.000000;0.031842
9124.000000;0.031914
9123.000000;0.031940
9122.000000;0.031932
9121.000000;0.031949
9120.000000;0.032026
9119.000000;0.032127
9118.000000;0.032165
9117.000000;0.032083
9116.000000;0.031928
9115.000000;0.031822
9114.000000;0.031860
9113.000000;0.032022
9112.000000;0.032193
9111.000000;0.032271
9110.000000;0.032250
9109.000000;0.032205
9108.000000;0.032196
9107.000000;0.032213
9106.000000;0.032211
9105.000000;0.032179
9104.000000;0.032144
9103.000000;0.032132
9102.000000;0.032141
9101.000000;0.032162
9100.000000;0.032184
9099.000000;0.032179
9098.000000;0.032115
9097.000000;0.032003
9096.000000;0.031897
9095.000000;0.031841
9094.000000;0.031830
9093.000000;0.031844
9092.000000;0.031895
9091.000000;0.032005
9090.000000;0.032148
9089.000000;0.032254
9088.000000;0.032273
9087.000000;0.032224
9086.000000;0.032179
9085.000000;0.032201
9084.000000;0.032289
9083.000000;0.032376
9082.000000;0.032382
9081.000000;0.032288
9080.000000;0.032146
9079.000000;0.032009
9078.000000;0.031873
9077.000000;0.031717
9076.000000;0.031567
9075.000000;0.031483
9074.000000;0.031491
9073.000000;0.031559
9072.000000;0.031642
9071.000000;0.031720
9070.000000;0.031778
9069.000000;0.031798
9068.000000;0.031799
9067.000000;0.031846
9066.000000;0.032003
9065.000000;0.032259
9064.000000;0.032518
9063.000000;0.032665
9062.000000;0.032645
9061.000000;0.032497
9060.000000;0.032312
9059.000000;0.032170
9058.000000;0.032105
9057.000000;0.032113
9056.000000;0.032173
9055.000000;0.032249
9054.000000;0.032298
9053.000000;0.032293
