Criado como novo conjunto de dados;"2706_e01_daniel.spp","35103.6 Secs"
cm-1;Abs
10000.000000;0.660055
9999.000000;0.660070
9998.000000;0.659936
9997.000000;0.659529
9996.000000;0.659055
9995.000000;0.658771
9994.000000;0.658707
9993.000000;0.658720
9992.000000;0.658677
9991.000000;0.658571
9990.000000;0.658466
9989.000000;0.658409
9988.000000;0.658435
9987.000000;0.658591
9986.000000;0.658839
9985.000000;0.658962
9984.000000;0.658737
9983.000000;0.658249
9982.000000;0.657887
9981.000000;0.657893
9980.000000;0.658068
9979.000000;0.658016
9978.000000;0.657596
9977.000000;0.656960
9976.000000;0.656278
9975.000000;0.655662
9974.000000;0.655347
9973.000000;0.655651
9972.000000;0.656609
9971.000000;0.657751
9970.000000;0.658419
9969.000000;0.658294
9968.000000;0.657571
9967.000000;0.656719
9966.000000;0.656152
9965.000000;0.656050
9964.000000;0.656322
9963.000000;0.656693
9962.000000;0.656917
9961.000000;0.656933
9960.000000;0.656782
9959.000000;0.656443
9958.000000;0.655869
9957.000000;0.655208
9956.000000;0.654831
9955.000000;0.654999
9954.000000;0.655557
9953.000000;0.656078
9952.000000;0.656282
9951.000000;0.656201
9950.000000;0.655967
9949.000000;0.655597
9948.000000;0.655099
9947.000000;0.654646
9946.000000;0.654493
9945.000000;0.654716
9944.000000;0.655090
9943.000000;0.655240
9942.000000;0.654924
9941.000000;0.654251
9940.000000;0.653657
9939.000000;0.653573
9938.000000;0.654016
9937.000000;0.654564
9936.000000;0.654777
9935.000000;0.654605
9934.000000;0.654283
9933.000000;0.653989
9932.000000;0.653759
9931.000000;0.653665
9930.000000;0.653817
9929.000000;0.654160
9928.000000;0.654440
9927.000000;0.654464
9926.000000;0.654269
9925.000000;0.653988
9924.000000;0.653680
9923.000000;0.653382
9922.000000;0.653177
9921.000000;0.653107
9920.000000;0.653088
9919.000000;0.653012
9918.000000;0.652860
9917.000000;0.652631
9916.000000;0.652247
9915.000000;0.651681
9914.000000;0.651126
9913.000000;0.650890
9912.000000;0.651098
9911.000000;0.651577
9910.000000;0.652025
9909.000000;0.652212
9908.000000;0.652055
9907.000000;0.651656
9906.000000;0.651299
9905.000000;0.651283
9904.000000;0.651634
9903.000000;0.652033
9902.000000;0.652121
9901.000000;0.651860
9900.000000;0.651483
9899.000000;0.651140
9898.000000;0.650757
9897.000000;0.650270
9896.000000;0.649832
9895.000000;0.649645
9894.000000;0.649667
9893.000000;0.649645
9892.000000;0.649432
9891.000000;0.649159
9890.000000;0.649083
9889.000000;0.649361
9888.000000;0.649944
9887.000000;0.650567
9886.000000;0.650846
9885.000000;0.650564
9884.000000;0.649942
9883.000000;0.649465
9882.000000;0.649378
9881.000000;0.649463
9880.000000;0.649415
9879.000000;0.649228
9878.000000;0.649086
9877.000000;0.649022
9876.000000;0.648893
9875.000000;0.648591
9874.000000;0.648132
9873.000000;0.647631
9872.000000;0.647357
9871.000000;0.647654
9870.000000;0.648530
9869.000000;0.649427
9868.000000;0.649714
9867.000000;0.649391
9866.000000;0.648992
9865.000000;0.648815
9864.000000;0.648618
9863.000000;0.648152
9862.000000;0.647595
9861.000000;0.647260
9860.000000;0.647181
9859.000000;0.647242
9858.000000;0.647430
9857.000000;0.647673
9856.000000;0.647623
9855.000000;0.646998
9854.000000;0.646098
9853.000000;0.645614
9852.000000;0.645894
9851.000000;0.646617
9850.000000;0.647230
9849.000000;0.647491
9848.000000;0.647502
9847.000000;0.647422
9846.000000;0.647306
9845.000000;0.647136
9844.000000;0.646892
9843.000000;0.646603
9842.000000;0.646340
9841.000000;0.646124
9840.000000;0.645863
9839.000000;0.645461
9838.000000;0.644981
9837.000000;0.644623
9836.000000;0.644542
9835.000000;0.644752
9834.000000;0.645194
9833.000000;0.645754
9832.000000;0.646205
9831.000000;0.646313
9830.000000;0.646070
9829.000000;0.645742
9828.000000;0.645562
9827.000000;0.645467
9826.000000;0.645242
9825.000000;0.644857
9824.000000;0.644502
9823.000000;0.644306
9822.000000;0.644192
9821.000000;0.644059
9820.000000;0.643993
9819.000000;0.644165
9818.000000;0.644580
9817.000000;0.645042
9816.000000;0.645336
9815.000000;0.645359
9814.000000;0.645077
9813.000000;0.644549
9812.000000;0.644046
9811.000000;0.643969
9810.000000;0.644482
9809.000000;0.645250
9808.000000;0.645696
9807.000000;0.645531
9806.000000;0.644910
9805.000000;0.644123
9804.000000;0.643317
9803.000000;0.642559
9802.000000;0.641988
9801.000000;0.641765
9800.000000;0.641925
9799.000000;0.642332
9798.000000;0.642738
9797.000000;0.642866
9796.000000;0.642578
9795.000000;0.642060
9794.000000;0.641732
9793.000000;0.641858
9792.000000;0.642273
9791.000000;0.642597
9790.000000;0.642637
9789.000000;0.642494
9788.000000;0.642332
9787.000000;0.642220
9786.000000;0.642197
9785.000000;0.642309
9784.000000;0.642500
9783.000000;0.642573
9782.000000;0.642338
9781.000000;0.641782
9780.000000;0.641079
9779.000000;0.640478
9778.000000;0.640178
9777.000000;0.640246
9776.000000;0.640583
9775.000000;0.640979
9774.000000;0.641206
9773.000000;0.641112
9772.000000;0.640720
9771.000000;0.640286
9770.000000;0.640156
9769.000000;0.640461
9768.000000;0.640947
9767.000000;0.641219
9766.000000;0.641155
9765.000000;0.640975
9764.000000;0.640923
9763.000000;0.640999
9762.000000;0.641042
9761.000000;0.640934
9760.000000;0.640668
9759.000000;0.640297
9758.000000;0.639909
9757.000000;0.639600
9756.000000;0.639384
9755.000000;0.639179
9754.000000;0.638952
9753.000000;0.638837
9752.000000;0.639031
9751.000000;0.639560
9750.000000;0.640197
9749.000000;0.640611
9748.000000;0.640600
9747.000000;0.640204
9746.000000;0.639665
9745.000000;0.639257
9744.000000;0.639128
9743.000000;0.639269
9742.000000;0.639566
9741.000000;0.639846
9740.000000;0.639900
9739.000000;0.639593
9738.000000;0.639025
9737.000000;0.638526
9736.000000;0.638403
9735.000000;0.638652
9734.000000;0.638965
9733.000000;0.638999
9732.000000;0.638654
9731.000000;0.638139
9730.000000;0.637796
9729.000000;0.637817
9728.000000;0.638062
9727.000000;0.638193
9726.000000;0.638010
9725.000000;0.637630
9724.000000;0.637326
9723.000000;0.637268
9722.000000;0.637443
9721.000000;0.637733
9720.000000;0.637990
9719.000000;0.638094
9718.000000;0.638040
9717.000000;0.637912
9716.000000;0.637703
9715.000000;0.637262
9714.000000;0.636543
9713.000000;0.635827
9712.000000;0.635526
9711.000000;0.635771
9710.000000;0.636325
9709.000000;0.636874
9708.000000;0.637248
9707.000000;0.637365
9706.000000;0.637179
9705.000000;0.636744
9704.000000;0.636209
9703.000000;0.635649
9702.000000;0.635028
9701.000000;0.634396
9700.000000;0.633975
9699.000000;0.633933
9698.000000;0.634186
9697.000000;0.634518
9696.000000;0.634828
9695.000000;0.635141
9694.000000;0.635464
9693.000000;0.635740
9692.000000;0.635940
9691.000000;0.636075
9690.000000;0.636159
9689.000000;0.636206
9688.000000;0.636217
9687.000000;0.636121
9686.000000;0.635808
9685.000000;0.635298
9684.000000;0.634785
9683.000000;0.634442
9682.000000;0.634246
9681.000000;0.634097
9680.000000;0.633996
9679.000000;0.633975
9678.000000;0.633931
9677.000000;0.633716
9676.000000;0.633381
9675.000000;0.633162
9674.000000;0.633201
9673.000000;0.633399
9672.000000;0.633551
9671.000000;0.633526
9670.000000;0.633322
9669.000000;0.633053
9668.000000;0.632893
9667.000000;0.632924
9666.000000;0.633040
9665.000000;0.633086
9664.000000;0.633063
9663.000000;0.633073
9662.000000;0.633084
9661.000000;0.632950
9660.000000;0.632679
9659.000000;0.632500
9658.000000;0.632580
9657.000000;0.632834
9656.000000;0.633103
9655.000000;0.633379
9654.000000;0.633721
9653.000000;0.634034
9652.000000;0.634106
9651.000000;0.633839
9650.000000;0.633338
9649.000000;0.632778
9648.000000;0.632265
9647.000000;0.631834
9646.000000;0.631508
9645.000000;0.631321
9644.000000;0.631291
9643.000000;0.631375
9642.000000;0.631466
9641.000000;0.631489
9640.000000;0.631474
9639.000000;0.631499
9638.000000;0.631536
9637.000000;0.631445
9636.000000;0.631137
9635.000000;0.630682
9634.000000;0.630255
9633.000000;0.630017
9632.000000;0.630056
9631.000000;0.630350
9630.000000;0.630747
9629.000000;0.631051
9628.000000;0.631190
9627.000000;0.631234
9626.000000;0.631230
9625.000000;0.631096
9624.000000;0.630759
9623.000000;0.630326
9622.000000;0.630018
9621.000000;0.629963
9620.000000;0.630084
9619.000000;0.630199
9618.000000;0.630174
9617.000000;0.630006
9616.000000;0.629788
9615.000000;0.629597
9614.000000;0.629418
9613.000000;0.629196
9612.000000;0.628943
9611.000000;0.628741
9610.000000;0.628647
9609.000000;0.628656
9608.000000;0.628735
9607.000000;0.628838
9606.000000;0.628907
9605.000000;0.628935
9604.000000;0.629004
9603.000000;0.629139
9602.000000;0.629158
9601.000000;0.628815
9600.000000;0.628143
9599.000000;0.627523
9598.000000;0.627303
9597.000000;0.627468
9596.000000;0.627736
9595.000000;0.627876
9594.000000;0.627836
9593.000000;0.627672
9592.000000;0.627516
9591.000000;0.627538
9590.000000;0.627805
9589.000000;0.628151
9588.000000;0.628306
9587.000000;0.628170
9586.000000;0.627904
9585.000000;0.627752
9584.000000;0.627814
9583.000000;0.627965
9582.000000;0.627971
9581.000000;0.627706
9580.000000;0.627301
9579.000000;0.627027
9578.000000;0.626993
9577.000000;0.627056
9576.000000;0.627081
9575.000000;0.627146
9574.000000;0.627376
9573.000000;0.627658
9572.000000;0.627708
9571.000000;0.627420
9570.000000;0.626986
9569.000000;0.626647
9568.000000;0.626444
9567.000000;0.626250
9566.000000;0.625952
9565.000000;0.625548
9564.000000;0.625170
9563.000000;0.625051
9562.000000;0.625358
9561.000000;0.625988
9560.000000;0.626566
9559.000000;0.626737
9558.000000;0.626456
9557.000000;0.625960
9556.000000;0.625526
9555.000000;0.625298
9554.000000;0.625302
9553.000000;0.625500
9552.000000;0.625785
9551.000000;0.626008
9550.000000;0.626101
9549.000000;0.626167
9548.000000;0.626382
9547.000000;0.626749
9546.000000;0.627010
9545.000000;0.626864
9544.000000;0.626265
9543.000000;0.625458
9542.000000;0.624767
9541.000000;0.624388
9540.000000;0.624360
9539.000000;0.624575
9538.000000;0.624801
9537.000000;0.624827
9536.000000;0.624652
9535.000000;0.624470
9534.000000;0.624404
9533.000000;0.624359
9532.000000;0.624214
9531.000000;0.624047
9530.000000;0.624008
9529.000000;0.624077
9528.000000;0.624096
9527.000000;0.624033
9526.000000;0.624018
9525.000000;0.624110
9524.000000;0.624205
9523.000000;0.624232
9522.000000;0.624261
9521.000000;0.624315
9520.000000;0.624188
9519.000000;0.623654
9518.000000;0.622803
9517.000000;0.622030
9516.000000;0.621656
9515.000000;0.621663
9514.000000;0.621801
9513.000000;0.621886
9512.000000;0.621926
9511.000000;0.622023
9510.000000;0.622215
9509.000000;0.622432
9508.000000;0.622551
9507.000000;0.622481
9506.000000;0.622217
9505.000000;0.621854
9504.000000;0.621560
9503.000000;0.621504
9502.000000;0.621760
9501.000000;0.622256
9500.000000;0.622798
9499.000000;0.623175
9498.000000;0.623262
9497.000000;0.623079
9496.000000;0.622758
9495.000000;0.622463
9494.000000;0.622275
9493.000000;0.622147
9492.000000;0.621962
9491.000000;0.621681
9490.000000;0.621433
9489.000000;0.621409
9488.000000;0.621627
9487.000000;0.621832
9486.000000;0.621722
9485.000000;0.621294
9484.000000;0.620887
9483.000000;0.620817
9482.000000;0.621018
9481.000000;0.621142
9480.000000;0.620984
9479.000000;0.620686
9478.000000;0.620503
9477.000000;0.620490
9476.000000;0.620536
9475.000000;0.620577
9474.000000;0.620656
9473.000000;0.620782
9472.000000;0.620861
9471.000000;0.620806
9470.000000;0.620639
9469.000000;0.620440
9468.000000;0.620260
9467.000000;0.620116
9466.000000;0.620025
9465.000000;0.619975
9464.000000;0.619889
9463.000000;0.619687
9462.000000;0.619383
9461.000000;0.619107
9460.000000;0.618983
9459.000000;0.619021
9458.000000;0.619124
9457.000000;0.619176
9456.000000;0.619123
9455.000000;0.618995
9454.000000;0.618888
9453.000000;0.618899
9452.000000;0.619028
9451.000000;0.619159
9450.000000;0.619201
9449.000000;0.619229
9448.000000;0.619407
9447.000000;0.619728
9446.000000;0.619923
9445.000000;0.619718
9444.000000;0.619158
9443.000000;0.618571
9442.000000;0.618258
9441.000000;0.618283
9440.000000;0.618535
9439.000000;0.618847
9438.000000;0.619021
9437.000000;0.618880
9436.000000;0.618410
9435.000000;0.617833
9434.000000;0.617437
9433.000000;0.617355
9432.000000;0.617497
9431.000000;0.617665
9430.000000;0.617692
9429.000000;0.617518
9428.000000;0.617223
9427.000000;0.616988
9426.000000;0.616973
9425.000000;0.617186
9424.000000;0.617478
9423.000000;0.617656
9422.000000;0.617595
9421.000000;0.617305
9420.000000;0.616924
9419.000000;0.616623
9418.000000;0.616488
9417.000000;0.616466
9416.000000;0.616448
9415.000000;0.616388
9414.000000;0.616321
9413.000000;0.616291
9412.000000;0.616291
9411.000000;0.616282
9410.000000;0.616242
9409.000000;0.616203
9408.000000;0.616226
9407.000000;0.616322
9406.000000;0.616383
9405.000000;0.616253
9404.000000;0.615903
9403.000000;0.615528
9402.000000;0.615381
9401.000000;0.615509
9400.000000;0.615690
9399.000000;0.615644
9398.000000;0.615310
9397.000000;0.614883
9396.000000;0.614605
9395.000000;0.614543
9394.000000;0.614576
9393.000000;0.614556
9392.000000;0.614472
9391.000000;0.614432
9390.000000;0.614504
9389.000000;0.614613
9388.000000;0.614621
9387.000000;0.614486
9386.000000;0.614301
9385.000000;0.614184
9384.000000;0.614154
9383.000000;0.614138
9382.000000;0.614063
9381.000000;0.613907
9380.000000;0.613681
9379.000000;0.613420
9378.000000;0.613204
9377.000000;0.613135
9376.000000;0.613231
9375.000000;0.613379
9374.000000;0.613434
9373.000000;0.613370
9372.000000;0.613288
9371.000000;0.613299
9370.000000;0.613414
9369.000000;0.613546
9368.000000;0.613585
9367.000000;0.613477
9366.000000;0.613275
9365.000000;0.613113
9364.000000;0.613047
9363.000000;0.612976
9362.000000;0.612770
9361.000000;0.612479
9360.000000;0.612288
9359.000000;0.612258
9358.000000;0.612253
9357.000000;0.612169
9356.000000;0.612078
9355.000000;0.612054
9354.000000;0.611986
9353.000000;0.611756
9352.000000;0.611518
9351.000000;0.611576
9350.000000;0.611965
9349.000000;0.612332
9348.000000;0.612288
9347.000000;0.611789
9346.000000;0.611131
9345.000000;0.610674
9344.000000;0.610619
9343.000000;0.610923
9342.000000;0.611342
9341.000000;0.611612
9340.000000;0.611653
9339.000000;0.611605
9338.000000;0.611634
9337.000000;0.611760
9336.000000;0.611870
9335.000000;0.611816
9334.000000;0.611500
9333.000000;0.610943
9332.000000;0.610332
9331.000000;0.609925
9330.000000;0.609822
9329.000000;0.609895
9328.000000;0.609974
9327.000000;0.610053
9326.000000;0.610229
9325.000000;0.610490
9324.000000;0.610667
9323.000000;0.610602
9322.000000;0.610316
9321.000000;0.609991
9320.000000;0.609811
9319.000000;0.609833
9318.000000;0.609971
9317.000000;0.610093
9316.000000;0.610154
9315.000000;0.610209
9314.000000;0.610306
9313.000000;0.610410
9312.000000;0.610433
9311.000000;0.610344
9310.000000;0.610194
9309.000000;0.610058
9308.000000;0.609963
9307.000000;0.609854
9306.000000;0.609636
9305.000000;0.609267
9304.000000;0.608842
9303.000000;0.608537
9302.000000;0.608460
9301.000000;0.608571
9300.000000;0.608747
9299.000000;0.608908
9298.000000;0.609043
9297.000000;0.609151
9296.000000;0.609213
9295.000000;0.609199
9294.000000;0.609097
9293.000000;0.608940
9292.000000;0.608821
9291.000000;0.608862
9290.000000;0.609100
9289.000000;0.609409
9288.000000;0.609573
9287.000000;0.609472
9286.000000;0.609175
9285.000000;0.608848
9284.000000;0.608597
9283.000000;0.608422
9282.000000;0.608290
9281.000000;0.608202
9280.000000;0.608171
9279.000000;0.608183
9278.000000;0.608201
9277.000000;0.608171
9276.000000;0.608027
9275.000000;0.607731
9274.000000;0.607346
9273.000000;0.607030
9272.000000;0.606870
9271.000000;0.606751
9270.000000;0.606496
9269.000000;0.606146
9268.000000;0.605997
9267.000000;0.606268
9266.000000;0.606806
9265.000000;0.607197
9264.000000;0.607147
9263.000000;0.606728
9262.000000;0.606284
9261.000000;0.606139
9260.000000;0.606366
9259.000000;0.606740
9258.000000;0.606927
9257.000000;0.606752
9256.000000;0.606301
9255.000000;0.605787
9254.000000;0.605379
9253.000000;0.605184
9252.000000;0.605271
9251.000000;0.605598
9250.000000;0.605969
9249.000000;0.606179
9248.000000;0.606198
9247.000000;0.606126
9246.000000;0.606017
9245.000000;0.605857
9244.000000;0.605689
9243.000000;0.605614
9242.000000;0.605645
9241.000000;0.605673
9240.000000;0.605611
9239.000000;0.605478
9238.000000;0.605298
9237.000000;0.605025
9236.000000;0.604647
9235.000000;0.604270
9234.000000;0.604025
9233.000000;0.603936
9232.000000;0.603970
9231.000000;0.604151
9230.000000;0.604520
9229.000000;0.604955
9228.000000;0.605169
9227.000000;0.604968
9226.000000;0.604501
9225.000000;0.604159
9224.000000;0.604208
9223.000000;0.604515
9222.000000;0.604689
9221.000000;0.604464
9220.000000;0.603914
9219.000000;0.603308
9218.000000;0.602858
9217.000000;0.602627
9216.000000;0.602613
9215.000000;0.602808
9214.000000;0.603159
9213.000000;0.603549
9212.000000;0.603850
9211.000000;0.603969
9210.000000;0.603873
9209.000000;0.603591
9208.000000;0.603208
9207.000000;0.602827
9206.000000;0.602534
9205.000000;0.602397
9204.000000;0.602433
9203.000000;0.602567
9202.000000;0.602661
9201.000000;0.602635
9200.000000;0.602539
9199.000000;0.602463
9198.000000;0.602433
9197.000000;0.602434
9196.000000;0.602473
9195.000000;0.602543
9194.000000;0.602568
9193.000000;0.602469
9192.000000;0.602259
9191.000000;0.602020
9190.000000;0.601810
9189.000000;0.601653
9188.000000;0.601586
9187.000000;0.601626
9186.000000;0.601715
9185.000000;0.601783
9184.000000;0.601827
9183.000000;0.601852
9182.000000;0.601769
9181.000000;0.601481
9180.000000;0.601081
9179.000000;0.600817
9178.000000;0.600817
9177.000000;0.600952
9176.000000;0.600999
9175.000000;0.600884
9174.000000;0.600702
9173.000000;0.600585
9172.000000;0.600574
9171.000000;0.600585
9170.000000;0.600461
9169.000000;0.600133
9168.000000;0.599757
9167.000000;0.599620
9166.000000;0.599828
9165.000000;0.600131
9164.000000;0.600154
9163.000000;0.599793
9162.000000;0.599340
9161.000000;0.599194
9160.000000;0.599480
9159.000000;0.599962
9158.000000;0.600316
9157.000000;0.600430
9156.000000;0.600437
9155.000000;0.600473
9154.000000;0.600507
9153.000000;0.600400
9152.000000;0.600084
9151.000000;0.599651
9150.000000;0.599299
9149.000000;0.599221
9148.000000;0.599453
9147.000000;0.599788
9146.000000;0.599914
9145.000000;0.599713
9144.000000;0.599371
9143.000000;0.599131
9142.000000;0.599027
9141.000000;0.598934
9140.000000;0.598784
9139.000000;0.598600
9138.000000;0.598376
9137.000000;0.598110
9136.000000;0.597920
9135.000000;0.597962
9134.000000;0.598192
9133.000000;0.598372
9132.000000;0.598350
9131.000000;0.598234
9130.000000;0.598211
9129.000000;0.598297
9128.000000;0.598333
9127.000000;0.598185
9126.000000;0.597883
9125.000000;0.597574
9124.000000;0.597373
9123.000000;0.597267
9122.000000;0.597190
9121.000000;0.597174
9120.000000;0.597349
9119.000000;0.597718
9118.000000;0.598036
9117.000000;0.598044
9116.000000;0.597793
9115.000000;0.597573
9114.000000;0.597532
9113.000000;0.597535
9112.000000;0.597419
9111.000000;0.597230
9110.000000;0.597126
9109.000000;0.597169
9108.000000;0.597284
9107.000000;0.597372
9106.000000;0.597364
9105.000000;0.597229
9104.000000;0.596980
9103.000000;0.596663
9102.000000;0.596342
9101.000000;0.596116
9100.000000;0.596113
9099.000000;0.596360
9098.000000;0.596679
9097.000000;0.596808
9096.000000;0.596650
9095.000000;0.596322
9094.000000;0.595963
9093.000000;0.595616
9092.000000;0.595314
9091.000000;0.595149
9090.000000;0.595179
9089.000000;0.595342
9088.000000;0.595518
9087.000000;0.595621
9086.000000;0.595611
9085.000000;0.595498
9084.000000;0.595381
9083.000000;0.595379
9082.000000;0.595494
9081.000000;0.595591
9080.000000;0.595561
9079.000000;0.595410
9078.000000;0.595187
9077.000000;0.594931
9076.000000;0.594712
9075.000000;0.594636
9074.000000;0.594720
9073.000000;0.594845
9072.000000;0.594903
9071.000000;0.594902
9070.000000;0.594885
9069.000000;0.594832
9068.000000;0.594712
9067.000000;0.594575
9066.000000;0.594513
9065.000000;0.594571
9064.000000;0.594722
9063.000000;0.594899
9062.000000;0.595001
9061.000000;0.594926
9060.000000;0.594657
9059.000000;0.594276
9058.000000;0.593880
9057.000000;0.593533
9056.000000;0.593302
9055.000000;0.593232
9054.000000;0.593244
9053.000000;0.593170
