Criado como novo conjunto de dados;"2706_e01_daniel.spp","25203.0 Secs"
cm-1;Abs
10000.000000;0.857985
9999.000000;0.857351
9998.000000;0.856718
9997.000000;0.856086
9996.000000;0.855455
9995.000000;0.854824
9994.000000;0.854196
9993.000000;0.853565
9992.000000;0.852943
9991.000000;0.852201
9990.000000;0.851690
9989.000000;0.851557
9988.000000;0.851575
9987.000000;0.851362
9986.000000;0.850726
9985.000000;0.849812
9984.000000;0.848974
9983.000000;0.848558
9982.000000;0.848755
9981.000000;0.849487
9980.000000;0.850402
9979.000000;0.851058
9978.000000;0.851192
9977.000000;0.850820
9976.000000;0.850127
9975.000000;0.849392
9974.000000;0.848970
9973.000000;0.849141
9972.000000;0.849826
9971.000000;0.850546
9970.000000;0.850804
9969.000000;0.850520
9968.000000;0.850016
9967.000000;0.849603
9966.000000;0.849326
9965.000000;0.849112
9964.000000;0.849001
9963.000000;0.849085
9962.000000;0.849299
9961.000000;0.849428
9960.000000;0.849347
9959.000000;0.849115
9958.000000;0.848779
9957.000000;0.848270
9956.000000;0.847607
9955.000000;0.847085
9954.000000;0.847044
9953.000000;0.847497
9952.000000;0.848141
9951.000000;0.848718
9950.000000;0.849143
9949.000000;0.849289
9948.000000;0.848953
9947.000000;0.848209
9946.000000;0.847580
9945.000000;0.847581
9944.000000;0.848145
9943.000000;0.848678
9942.000000;0.848708
9941.000000;0.848336
9940.000000;0.848026
9939.000000;0.848089
9938.000000;0.848436
9937.000000;0.848742
9936.000000;0.848787
9935.000000;0.848631
9934.000000;0.848456
9933.000000;0.848288
9932.000000;0.847960
9931.000000;0.847365
9930.000000;0.846651
9929.000000;0.846067
9928.000000;0.845718
9927.000000;0.845528
9926.000000;0.845382
9925.000000;0.845222
9924.000000;0.845066
9923.000000;0.845016
9922.000000;0.845194
9921.000000;0.845558
9920.000000;0.845839
9919.000000;0.845767
9918.000000;0.845331
9917.000000;0.844730
9916.000000;0.844164
9915.000000;0.843790
9914.000000;0.843787
9913.000000;0.844245
9912.000000;0.844955
9911.000000;0.845519
9910.000000;0.845728
9909.000000;0.845711
9908.000000;0.845659
9907.000000;0.845572
9906.000000;0.845377
9905.000000;0.845146
9904.000000;0.845008
9903.000000;0.844899
9902.000000;0.844568
9901.000000;0.843888
9900.000000;0.843069
9899.000000;0.842523
9898.000000;0.842522
9897.000000;0.842995
9896.000000;0.843621
9895.000000;0.844104
9894.000000;0.844343
9893.000000;0.844356
9892.000000;0.844097
9891.000000;0.843436
9890.000000;0.842379
9889.000000;0.841215
9888.000000;0.840377
9887.000000;0.840134
9886.000000;0.840446
9885.000000;0.841066
9884.000000;0.841717
9883.000000;0.842190
9882.000000;0.842378
9881.000000;0.842322
9880.000000;0.842175
9879.000000;0.842053
9878.000000;0.841915
9877.000000;0.841647
9876.000000;0.841290
9875.000000;0.841152
9874.000000;0.841576
9873.000000;0.842551
9872.000000;0.843538
9871.000000;0.843789
9870.000000;0.842973
9869.000000;0.841533
9868.000000;0.840349
9867.000000;0.839985
9866.000000;0.840294
9865.000000;0.840773
9864.000000;0.841133
9863.000000;0.841405
9862.000000;0.841608
9861.000000;0.841629
9860.000000;0.841468
9859.000000;0.841305
9858.000000;0.841180
9857.000000;0.840866
9856.000000;0.840257
9855.000000;0.839661
9854.000000;0.839410
9853.000000;0.839365
9852.000000;0.839146
9851.000000;0.838753
9850.000000;0.838578
9849.000000;0.838810
9848.000000;0.839191
9847.000000;0.839438
9846.000000;0.839549
9845.000000;0.839568
9844.000000;0.839405
9843.000000;0.839100
9842.000000;0.838958
9841.000000;0.839119
9840.000000;0.839231
9839.000000;0.838855
9838.000000;0.838068
9837.000000;0.837333
9836.000000;0.836888
9835.000000;0.836627
9834.000000;0.836504
9833.000000;0.836657
9832.000000;0.837030
9831.000000;0.837237
9830.000000;0.836980
9829.000000;0.836422
9828.000000;0.835949
9827.000000;0.835712
9826.000000;0.835612
9825.000000;0.835641
9824.000000;0.835966
9823.000000;0.836613
9822.000000;0.837281
9821.000000;0.837613
9820.000000;0.837600
9819.000000;0.837580
9818.000000;0.837830
9817.000000;0.838259
9816.000000;0.838561
9815.000000;0.838578
9814.000000;0.838370
9813.000000;0.837988
9812.000000;0.837368
9811.000000;0.836531
9810.000000;0.835718
9809.000000;0.835208
9808.000000;0.835065
9807.000000;0.835154
9806.000000;0.835326
9805.000000;0.835507
9804.000000;0.835624
9803.000000;0.835609
9802.000000;0.835497
9801.000000;0.835423
9800.000000;0.835466
9799.000000;0.835565
9798.000000;0.835593
9797.000000;0.835446
9796.000000;0.835090
9795.000000;0.834599
9794.000000;0.834185
9793.000000;0.834040
9792.000000;0.834103
9791.000000;0.834055
9790.000000;0.833670
9789.000000;0.833122
9788.000000;0.832828
9787.000000;0.832966
9786.000000;0.833261
9785.000000;0.833339
9784.000000;0.833196
9783.000000;0.833189
9782.000000;0.833532
9781.000000;0.833959
9780.000000;0.833985
9779.000000;0.833431
9778.000000;0.832583
9777.000000;0.831846
9776.000000;0.831369
9775.000000;0.831046
9774.000000;0.830758
9773.000000;0.830574
9772.000000;0.830719
9771.000000;0.831355
9770.000000;0.832328
9769.000000;0.833132
9768.000000;0.833266
9767.000000;0.832680
9766.000000;0.831844
9765.000000;0.831345
9764.000000;0.831464
9763.000000;0.832072
9762.000000;0.832770
9761.000000;0.833070
9760.000000;0.832623
9759.000000;0.831483
9758.000000;0.830167
9757.000000;0.829317
9756.000000;0.829245
9755.000000;0.829758
9754.000000;0.830386
9753.000000;0.830747
9752.000000;0.830773
9751.000000;0.830691
9750.000000;0.830804
9749.000000;0.831222
9748.000000;0.831766
9747.000000;0.832122
9746.000000;0.832099
9745.000000;0.831747
9744.000000;0.831298
9743.000000;0.830997
9742.000000;0.830959
9741.000000;0.831097
9740.000000;0.831202
9739.000000;0.831125
9738.000000;0.830897
9737.000000;0.830657
9736.000000;0.830492
9735.000000;0.830347
9734.000000;0.830094
9733.000000;0.829691
9732.000000;0.829245
9731.000000;0.828883
9730.000000;0.828588
9729.000000;0.828253
9728.000000;0.827894
9727.000000;0.827706
9726.000000;0.827824
9725.000000;0.828105
9724.000000;0.828281
9723.000000;0.828271
9722.000000;0.828249
9721.000000;0.828418
9720.000000;0.828833
9719.000000;0.829398
9718.000000;0.829910
9717.000000;0.830113
9716.000000;0.829867
9715.000000;0.829321
9714.000000;0.828794
9713.000000;0.828500
9712.000000;0.828451
9711.000000;0.828578
9710.000000;0.828764
9709.000000;0.828803
9708.000000;0.828572
9707.000000;0.828281
9706.000000;0.828282
9705.000000;0.828536
9704.000000;0.828502
9703.000000;0.827763
9702.000000;0.826592
9701.000000;0.825676
9700.000000;0.825380
9699.000000;0.825489
9698.000000;0.825574
9697.000000;0.825434
9696.000000;0.825198
9695.000000;0.825148
9694.000000;0.825459
9693.000000;0.825999
9692.000000;0.826438
9691.000000;0.826630
9690.000000;0.826797
9689.000000;0.827135
9688.000000;0.827376
9687.000000;0.826995
9686.000000;0.825916
9685.000000;0.824734
9684.000000;0.824153
9683.000000;0.824334
9682.000000;0.824905
9681.000000;0.825434
9680.000000;0.825753
9679.000000;0.825902
9678.000000;0.825958
9677.000000;0.825937
9676.000000;0.825782
9675.000000;0.825416
9674.000000;0.824863
9673.000000;0.824324
9672.000000;0.824050
9671.000000;0.824083
9670.000000;0.824195
9669.000000;0.824142
9668.000000;0.823941
9667.000000;0.823797
9666.000000;0.823792
9665.000000;0.823795
9664.000000;0.823712
9663.000000;0.823686
9662.000000;0.823915
9661.000000;0.824352
9660.000000;0.824702
9659.000000;0.824732
9658.000000;0.824465
9657.000000;0.824109
9656.000000;0.823881
9655.000000;0.823909
9654.000000;0.824164
9653.000000;0.824472
9652.000000;0.824645
9651.000000;0.824605
9650.000000;0.824362
9649.000000;0.823914
9648.000000;0.823315
9647.000000;0.822769
9646.000000;0.822487
9645.000000;0.822440
9644.000000;0.822416
9643.000000;0.822312
9642.000000;0.822229
9641.000000;0.822245
9640.000000;0.822285
9639.000000;0.822267
9638.000000;0.822202
9637.000000;0.822057
9636.000000;0.821733
9635.000000;0.821262
9634.000000;0.820874
9633.000000;0.820741
9632.000000;0.820809
9631.000000;0.820991
9630.000000;0.821314
9629.000000;0.821736
9628.000000;0.821987
9627.000000;0.821818
9626.000000;0.821330
9625.000000;0.820861
9624.000000;0.820627
9623.000000;0.820659
9622.000000;0.820968
9621.000000;0.821521
9620.000000;0.822046
9619.000000;0.822125
9618.000000;0.821557
9617.000000;0.820568
9616.000000;0.819601
9615.000000;0.819018
9614.000000;0.818955
9613.000000;0.819302
9612.000000;0.819793
9611.000000;0.820180
9610.000000;0.820384
9609.000000;0.820420
9608.000000;0.820274
9607.000000;0.819953
9606.000000;0.819628
9605.000000;0.819553
9604.000000;0.819814
9603.000000;0.820231
9602.000000;0.820539
9601.000000;0.820629
9600.000000;0.820586
9599.000000;0.820593
9598.000000;0.820764
9597.000000;0.821021
9596.000000;0.821135
9595.000000;0.820940
9594.000000;0.820466
9593.000000;0.819845
9592.000000;0.819175
9591.000000;0.818576
9590.000000;0.818266
9589.000000;0.818393
9588.000000;0.818801
9587.000000;0.819150
9586.000000;0.819273
9585.000000;0.819264
9584.000000;0.819203
9583.000000;0.819000
9582.000000;0.818596
9581.000000;0.818158
9580.000000;0.817898
9579.000000;0.817776
9578.000000;0.817543
9577.000000;0.817080
9576.000000;0.816554
9575.000000;0.816198
9574.000000;0.816042
9573.000000;0.815957
9572.000000;0.815938
9571.000000;0.816208
9570.000000;0.816970
9569.000000;0.818098
9568.000000;0.819140
9567.000000;0.819646
9566.000000;0.819460
9565.000000;0.818753
9564.000000;0.817885
9563.000000;0.817231
9562.000000;0.817005
9561.000000;0.817134
9560.000000;0.817346
9559.000000;0.817424
9558.000000;0.817354
9557.000000;0.817235
9556.000000;0.817153
9555.000000;0.817150
9554.000000;0.817193
9553.000000;0.817135
9552.000000;0.816836
9551.000000;0.816390
9550.000000;0.816115
9549.000000;0.816191
9548.000000;0.816437
9547.000000;0.816558
9546.000000;0.816508
9545.000000;0.816451
9544.000000;0.816470
9543.000000;0.816496
9542.000000;0.816471
9541.000000;0.816379
9540.000000;0.816131
9539.000000;0.815619
9538.000000;0.814936
9537.000000;0.814382
9536.000000;0.814218
9535.000000;0.814504
9534.000000;0.815156
9533.000000;0.815974
9532.000000;0.816586
9531.000000;0.816567
9530.000000;0.815803
9529.000000;0.814672
9528.000000;0.813762
9527.000000;0.813406
9526.000000;0.813503
9525.000000;0.813741
9524.000000;0.813905
9523.000000;0.814011
9522.000000;0.814180
9521.000000;0.814430
9520.000000;0.814609
9519.000000;0.814559
9518.000000;0.814293
9517.000000;0.813968
9516.000000;0.813691
9515.000000;0.813446
9514.000000;0.813209
9513.000000;0.813043
9512.000000;0.813045
9511.000000;0.813235
9510.000000;0.813510
9509.000000;0.813669
9508.000000;0.813519
9507.000000;0.813032
9506.000000;0.812411
9505.000000;0.811951
9504.000000;0.811810
9503.000000;0.811977
9502.000000;0.812389
9501.000000;0.812970
9500.000000;0.813520
9499.000000;0.813726
9498.000000;0.813405
9497.000000;0.812711
9496.000000;0.811981
9495.000000;0.811385
9494.000000;0.810806
9493.000000;0.810106
9492.000000;0.809451
9491.000000;0.809278
9490.000000;0.809864
9489.000000;0.810944
9488.000000;0.811831
9487.000000;0.811986
9486.000000;0.811483
9485.000000;0.810874
9484.000000;0.810663
9483.000000;0.810953
9482.000000;0.811528
9481.000000;0.812129
9480.000000;0.812581
9479.000000;0.812730
9478.000000;0.812421
9477.000000;0.811629
9476.000000;0.810607
9475.000000;0.809839
9474.000000;0.809735
9473.000000;0.810290
9472.000000;0.811040
9471.000000;0.811434
9470.000000;0.811296
9469.000000;0.810912
9468.000000;0.810662
9467.000000;0.810610
9466.000000;0.810507
9465.000000;0.810156
9464.000000;0.809678
9463.000000;0.809333
9462.000000;0.809166
9461.000000;0.808984
9460.000000;0.808708
9459.000000;0.808570
9458.000000;0.808814
9457.000000;0.809284
9456.000000;0.809502
9455.000000;0.809174
9454.000000;0.808491
9453.000000;0.807897
9452.000000;0.807673
9451.000000;0.807776
9450.000000;0.807948
9449.000000;0.807948
9448.000000;0.807762
9447.000000;0.807623
9446.000000;0.807733
9445.000000;0.807979
9444.000000;0.808073
9443.000000;0.807979
9442.000000;0.808015
9441.000000;0.808404
9440.000000;0.808929
9439.000000;0.809157
9438.000000;0.808924
9437.000000;0.808431
9436.000000;0.807976
9435.000000;0.807749
9434.000000;0.807796
9433.000000;0.807978
9432.000000;0.808021
9431.000000;0.807776
9430.000000;0.807415
9429.000000;0.807233
9428.000000;0.807278
9427.000000;0.807330
9426.000000;0.807216
9425.000000;0.806959
9424.000000;0.806650
9423.000000;0.806346
9422.000000;0.806162
9421.000000;0.806292
9420.000000;0.806816
9419.000000;0.807552
9418.000000;0.808177
9417.000000;0.808454
9416.000000;0.808337
9415.000000;0.807932
9414.000000;0.807399
9413.000000;0.806867
9412.000000;0.806419
9411.000000;0.806136
9410.000000;0.806086
9409.000000;0.806218
9408.000000;0.806326
9407.000000;0.806229
9406.000000;0.805935
9405.000000;0.805563
9404.000000;0.805153
9403.000000;0.804705
9402.000000;0.804330
9401.000000;0.804181
9400.000000;0.804221
9399.000000;0.804231
9398.000000;0.804125
9397.000000;0.804081
9396.000000;0.804277
9395.000000;0.804607
9394.000000;0.804778
9393.000000;0.804638
9392.000000;0.804299
9391.000000;0.804006
9390.000000;0.803951
9389.000000;0.804176
9388.000000;0.804556
9387.000000;0.804853
9386.000000;0.804877
9385.000000;0.804642
9384.000000;0.804350
9383.000000;0.804203
9382.000000;0.804221
9381.000000;0.804239
9380.000000;0.804078
9379.000000;0.803730
9378.000000;0.803382
9377.000000;0.803247
9376.000000;0.803382
9375.000000;0.803631
9374.000000;0.803729
9373.000000;0.803467
9372.000000;0.802853
9371.000000;0.802164
9370.000000;0.801783
9369.000000;0.801922
9368.000000;0.802473
9367.000000;0.803120
9366.000000;0.803553
9365.000000;0.803598
9364.000000;0.803279
9363.000000;0.802827
9362.000000;0.802548
9361.000000;0.802554
9360.000000;0.802672
9359.000000;0.802695
9358.000000;0.802658
9357.000000;0.802746
9356.000000;0.802964
9355.000000;0.803073
9354.000000;0.802890
9353.000000;0.802514
9352.000000;0.802200
9351.000000;0.802063
9350.000000;0.802005
9349.000000;0.801883
9348.000000;0.801703
9347.000000;0.801627
9346.000000;0.801772
9345.000000;0.802030
9344.000000;0.802143
9343.000000;0.802010
9342.000000;0.801799
9341.000000;0.801718
9340.000000;0.801754
9339.000000;0.801749
9338.000000;0.801642
9337.000000;0.801467
9336.000000;0.801200
9335.000000;0.800802
9334.000000;0.800398
9333.000000;0.800217
9332.000000;0.800291
9331.000000;0.800404
9330.000000;0.800388
9329.000000;0.800315
9328.000000;0.800285
9327.000000;0.800202
9326.000000;0.799931
9325.000000;0.799575
9324.000000;0.799426
9323.000000;0.799648
9322.000000;0.800113
9321.000000;0.800573
9320.000000;0.800887
9319.000000;0.801063
9318.000000;0.801146
9317.000000;0.801097
9316.000000;0.800823
9315.000000;0.800316
9314.000000;0.799753
9313.000000;0.799372
9312.000000;0.799261
9311.000000;0.799287
9310.000000;0.799262
9309.000000;0.799120
9308.000000;0.798956
9307.000000;0.798926
9306.000000;0.799123
9305.000000;0.799417
9304.000000;0.799443
9303.000000;0.798904
9302.000000;0.797960
9301.000000;0.797206
9300.000000;0.797127
9299.000000;0.797649
9298.000000;0.798274
9297.000000;0.798603
9296.000000;0.798584
9295.000000;0.798351
9294.000000;0.798014
9293.000000;0.797660
9292.000000;0.797402
9291.000000;0.797331
9290.000000;0.797455
9289.000000;0.797690
9288.000000;0.797877
9287.000000;0.797819
9286.000000;0.797418
9285.000000;0.796813
9284.000000;0.796296
9283.000000;0.796039
9282.000000;0.795986
9281.000000;0.796053
9280.000000;0.796298
9279.000000;0.796778
9278.000000;0.797327
9277.000000;0.797644
9276.000000;0.797617
9275.000000;0.797417
9274.000000;0.797222
9273.000000;0.797007
9272.000000;0.796690
9271.000000;0.796355
9270.000000;0.796180
9269.000000;0.796196
9268.000000;0.796258
9267.000000;0.796242
9266.000000;0.796141
9265.000000;0.795959
9264.000000;0.795660
9263.000000;0.795281
9262.000000;0.794983
9261.000000;0.794887
9260.000000;0.794934
9259.000000;0.795000
9258.000000;0.795087
9257.000000;0.795300
9256.000000;0.795632
9255.000000;0.795899
9254.000000;0.795912
9253.000000;0.795668
9252.000000;0.795339
9251.000000;0.795090
9250.000000;0.794940
9249.000000;0.794774
9248.000000;0.794485
9247.000000;0.794097
9246.000000;0.793762
9245.000000;0.793618
9244.000000;0.793672
9243.000000;0.793794
9242.000000;0.793827
9241.000000;0.793720
9240.000000;0.793589
9239.000000;0.793626
9238.000000;0.793895
9237.000000;0.794226
9236.000000;0.794375
9235.000000;0.794293
9234.000000;0.794145
9233.000000;0.794063
9232.000000;0.793996
9231.000000;0.793860
9230.000000;0.793710
9229.000000;0.793667
9228.000000;0.793732
9227.000000;0.793784
9226.000000;0.793748
9225.000000;0.793652
9224.000000;0.793547
9223.000000;0.793454
9222.000000;0.793393
9221.000000;0.793363
9220.000000;0.793293
9219.000000;0.793092
9218.000000;0.792758
9217.000000;0.792408
9216.000000;0.792171
9215.000000;0.792100
9214.000000;0.792160
9213.000000;0.792258
9212.000000;0.792298
9211.000000;0.792254
9210.000000;0.792208
9209.000000;0.792254
9208.000000;0.792368
9207.000000;0.792427
9206.000000;0.792354
9205.000000;0.792202
9204.000000;0.792082
9203.000000;0.792050
9202.000000;0.792060
9201.000000;0.791986
9200.000000;0.791717
9199.000000;0.791287
9198.000000;0.790914
9197.000000;0.790826
9196.000000;0.791013
9195.000000;0.791206
9194.000000;0.791134
9193.000000;0.790773
9192.000000;0.790325
9191.000000;0.790015
9190.000000;0.789949
9189.000000;0.790107
9188.000000;0.790382
9187.000000;0.790605
9186.000000;0.790645
9185.000000;0.790531
9184.000000;0.790445
9183.000000;0.790520
9182.000000;0.790651
9181.000000;0.790617
9180.000000;0.790374
9179.000000;0.790150
9178.000000;0.790186
9177.000000;0.790475
9176.000000;0.790832
9175.000000;0.791142
9174.000000;0.791393
9173.000000;0.791523
9172.000000;0.791413
9171.000000;0.791053
9170.000000;0.790585
9169.000000;0.790135
9168.000000;0.789729
9167.000000;0.789395
9166.000000;0.789192
9165.000000;0.789087
9164.000000;0.788967
9163.000000;0.788852
9162.000000;0.788920
9161.000000;0.789221
9160.000000;0.789505
9159.000000;0.789517
9158.000000;0.789320
9157.000000;0.789170
9156.000000;0.789161
9155.000000;0.789180
9154.000000;0.789150
9153.000000;0.789107
9152.000000;0.789068
9151.000000;0.789010
9150.000000;0.788955
9149.000000;0.788933
9148.000000;0.788856
9147.000000;0.788616
9146.000000;0.788292
9145.000000;0.788081
9144.000000;0.788017
9143.000000;0.787942
9142.000000;0.787781
9141.000000;0.787650
9140.000000;0.787612
9139.000000;0.787536
9138.000000;0.787298
9137.000000;0.786998
9136.000000;0.786844
9135.000000;0.786920
9134.000000;0.787155
9133.000000;0.787427
9132.000000;0.787598
9131.000000;0.787552
9130.000000;0.787317
9129.000000;0.787082
9128.000000;0.787002
9127.000000;0.787027
9126.000000;0.787013
9125.000000;0.786911
9124.000000;0.786775
9123.000000;0.786635
9122.000000;0.786489
9121.000000;0.786383
9120.000000;0.786402
9119.000000;0.786548
9118.000000;0.786714
9117.000000;0.786777
9116.000000;0.786700
9115.000000;0.786543
9114.000000;0.786412
9113.000000;0.786374
9112.000000;0.786389
9111.000000;0.786343
9110.000000;0.786170
9109.000000;0.785926
9108.000000;0.785727
9107.000000;0.785653
9106.000000;0.785716
9105.000000;0.785865
9104.000000;0.785982
9103.000000;0.785934
9102.000000;0.785694
9101.000000;0.785396
9100.000000;0.785197
9099.000000;0.785109
9098.000000;0.785015
9097.000000;0.784831
9096.000000;0.784607
9095.000000;0.784465
9094.000000;0.784484
9093.000000;0.784632
9092.000000;0.784802
9091.000000;0.784904
9090.000000;0.784931
9089.000000;0.784935
9088.000000;0.784960
9087.000000;0.785018
9086.000000;0.785110
9085.000000;0.785198
9084.000000;0.785177
9083.000000;0.784957
9082.000000;0.784594
9081.000000;0.784260
9080.000000;0.784047
9079.000000;0.783878
9078.000000;0.783670
9077.000000;0.783465
9076.000000;0.783317
9075.000000;0.783129
9074.000000;0.782762
9073.000000;0.782288
9072.000000;0.781980
9071.000000;0.782006
9070.000000;0.782246
9069.000000;0.782462
9068.000000;0.782571
9067.000000;0.782664
9066.000000;0.782815
9065.000000;0.782979
9064.000000;0.783057
9063.000000;0.782989
9062.000000;0.782777
9061.000000;0.782493
9060.000000;0.782279
9059.000000;0.782278
9058.000000;0.782490
9057.000000;0.782733
9056.000000;0.782778
9055.000000;0.782565
9054.000000;0.782244
9053.000000;0.782032
