Criado como novo conjunto de dados;"2706_e01_daniel.spp","70386.4 Secs"
cm-1;Abs
10000.000000;0.795865
9999.000000;0.796685
9998.000000;0.797511
9997.000000;0.798329
9996.000000;0.799166
9995.000000;0.799972
9994.000000;0.800861
9993.000000;0.801805
9992.000000;0.802259
9991.000000;0.802194
9990.000000;0.801838
9989.000000;0.801484
9988.000000;0.801213
9987.000000;0.800933
9986.000000;0.800523
9985.000000;0.799986
9984.000000;0.799502
9983.000000;0.799362
9982.000000;0.799807
9981.000000;0.800806
9980.000000;0.801975
9979.000000;0.802797
9978.000000;0.802973
9977.000000;0.802537
9976.000000;0.801684
9975.000000;0.800642
9974.000000;0.799687
9973.000000;0.799050
9972.000000;0.798675
9971.000000;0.798276
9970.000000;0.797795
9969.000000;0.797630
9968.000000;0.798182
9967.000000;0.799292
9966.000000;0.800344
9965.000000;0.800894
9964.000000;0.800966
9963.000000;0.800771
9962.000000;0.800404
9961.000000;0.799863
9960.000000;0.799191
9959.000000;0.798493
9958.000000;0.797947
9957.000000;0.797766
9956.000000;0.798024
9955.000000;0.798499
9954.000000;0.798834
9953.000000;0.798880
9952.000000;0.798724
9951.000000;0.798403
9950.000000;0.797781
9949.000000;0.796806
9948.000000;0.795749
9947.000000;0.795081
9946.000000;0.795109
9945.000000;0.795703
9944.000000;0.796358
9943.000000;0.796595
9942.000000;0.796398
9941.000000;0.796143
9940.000000;0.796057
9939.000000;0.795925
9938.000000;0.795482
9937.000000;0.794922
9936.000000;0.794713
9935.000000;0.795008
9934.000000;0.795520
9933.000000;0.795912
9932.000000;0.796052
9931.000000;0.795892
9930.000000;0.795457
9929.000000;0.795004
9928.000000;0.794896
9927.000000;0.795164
9926.000000;0.795406
9925.000000;0.795215
9924.000000;0.794572
9923.000000;0.793780
9922.000000;0.793205
9921.000000;0.793106
9920.000000;0.793498
9919.000000;0.794088
9918.000000;0.794515
9917.000000;0.794685
9916.000000;0.794696
9915.000000;0.794511
9914.000000;0.794009
9913.000000;0.793374
9912.000000;0.793049
9911.000000;0.793163
9910.000000;0.793325
9909.000000;0.793166
9908.000000;0.792806
9907.000000;0.792560
9906.000000;0.792474
9905.000000;0.792403
9904.000000;0.792351
9903.000000;0.792446
9902.000000;0.792694
9901.000000;0.793001
9900.000000;0.793295
9899.000000;0.793455
9898.000000;0.793295
9897.000000;0.792844
9896.000000;0.792460
9895.000000;0.792384
9894.000000;0.792322
9893.000000;0.791820
9892.000000;0.790970
9891.000000;0.790383
9890.000000;0.790444
9889.000000;0.790916
9888.000000;0.791350
9887.000000;0.791591
9886.000000;0.791733
9885.000000;0.791785
9884.000000;0.791599
9883.000000;0.791092
9882.000000;0.790401
9881.000000;0.789826
9880.000000;0.789612
9879.000000;0.789736
9878.000000;0.789898
9877.000000;0.789822
9876.000000;0.789588
9875.000000;0.789535
9874.000000;0.789819
9873.000000;0.790195
9872.000000;0.790313
9871.000000;0.790131
9870.000000;0.789915
9869.000000;0.789902
9868.000000;0.790083
9867.000000;0.790288
9866.000000;0.790370
9865.000000;0.790273
9864.000000;0.789999
9863.000000;0.789571
9862.000000;0.789046
9861.000000;0.788552
9860.000000;0.788303
9859.000000;0.788485
9858.000000;0.789058
9857.000000;0.789660
9856.000000;0.789834
9855.000000;0.789400
9854.000000;0.788568
9853.000000;0.787652
9852.000000;0.786786
9851.000000;0.785984
9850.000000;0.785379
9849.000000;0.785182
9848.000000;0.785394
9847.000000;0.785736
9846.000000;0.785951
9845.000000;0.786053
9844.000000;0.786200
9843.000000;0.786422
9842.000000;0.786571
9841.000000;0.786496
9840.000000;0.786174
9839.000000;0.785722
9838.000000;0.785343
9837.000000;0.785183
9836.000000;0.785220
9835.000000;0.785337
9834.000000;0.785532
9833.000000;0.785890
9832.000000;0.786278
9831.000000;0.786292
9830.000000;0.785727
9829.000000;0.784956
9828.000000;0.784562
9827.000000;0.784660
9826.000000;0.784867
9825.000000;0.784894
9824.000000;0.784851
9823.000000;0.784905
9822.000000;0.784954
9821.000000;0.784852
9820.000000;0.784698
9819.000000;0.784665
9818.000000;0.784668
9817.000000;0.784489
9816.000000;0.784183
9815.000000;0.784087
9814.000000;0.784341
9813.000000;0.784591
9812.000000;0.784330
9811.000000;0.783496
9810.000000;0.782614
9809.000000;0.782311
9808.000000;0.782727
9807.000000;0.783430
9806.000000;0.783843
9805.000000;0.783706
9804.000000;0.783179
9803.000000;0.782606
9802.000000;0.782240
9801.000000;0.782137
9800.000000;0.782214
9799.000000;0.782384
9798.000000;0.782612
9797.000000;0.782842
9796.000000;0.782924
9795.000000;0.782726
9794.000000;0.782325
9793.000000;0.781971
9792.000000;0.781826
9791.000000;0.781844
9790.000000;0.781954
9789.000000;0.782184
9788.000000;0.782500
9787.000000;0.782698
9786.000000;0.782605
9785.000000;0.782300
9784.000000;0.781974
9783.000000;0.781671
9782.000000;0.781327
9781.000000;0.780980
9780.000000;0.780755
9779.000000;0.780682
9778.000000;0.780699
9777.000000;0.780769
9776.000000;0.780812
9775.000000;0.780617
9774.000000;0.780058
9773.000000;0.779371
9772.000000;0.778959
9771.000000;0.778920
9770.000000;0.778996
9769.000000;0.778988
9768.000000;0.778998
9767.000000;0.779163
9766.000000;0.779413
9765.000000;0.779614
9764.000000;0.779751
9763.000000;0.779824
9762.000000;0.779715
9761.000000;0.779367
9760.000000;0.778974
9759.000000;0.778805
9758.000000;0.778831
9757.000000;0.778691
9756.000000;0.778087
9755.000000;0.777162
9754.000000;0.776427
9753.000000;0.776289
9752.000000;0.776668
9751.000000;0.777093
9750.000000;0.777211
9749.000000;0.777100
9748.000000;0.777051
9747.000000;0.777155
9746.000000;0.777273
9745.000000;0.777317
9744.000000;0.777355
9743.000000;0.777405
9742.000000;0.777334
9741.000000;0.777031
9740.000000;0.776562
9739.000000;0.776101
9738.000000;0.775798
9737.000000;0.775723
9736.000000;0.775829
9735.000000;0.775920
9734.000000;0.775795
9733.000000;0.775443
9732.000000;0.775024
9731.000000;0.774660
9730.000000;0.774390
9729.000000;0.774316
9728.000000;0.774574
9727.000000;0.775070
9726.000000;0.775428
9725.000000;0.775336
9724.000000;0.774848
9723.000000;0.774284
9722.000000;0.773938
9721.000000;0.773947
9720.000000;0.774265
9719.000000;0.774635
9718.000000;0.774697
9717.000000;0.774296
9716.000000;0.773630
9715.000000;0.773035
9714.000000;0.772724
9713.000000;0.772791
9712.000000;0.773289
9711.000000;0.774113
9710.000000;0.774890
9709.000000;0.775204
9708.000000;0.774940
9707.000000;0.774294
9706.000000;0.773494
9705.000000;0.772664
9704.000000;0.771920
9703.000000;0.771415
9702.000000;0.771205
9701.000000;0.771215
9700.000000;0.771361
9699.000000;0.771620
9698.000000;0.771924
9697.000000;0.772103
9696.000000;0.772048
9695.000000;0.771862
9694.000000;0.771747
9693.000000;0.771763
9692.000000;0.771804
9691.000000;0.771780
9690.000000;0.771711
9689.000000;0.771621
9688.000000;0.771459
9687.000000;0.771203
9686.000000;0.770961
9685.000000;0.770865
9684.000000;0.770906
9683.000000;0.770995
9682.000000;0.771131
9681.000000;0.771373
9680.000000;0.771614
9679.000000;0.771571
9678.000000;0.771088
9677.000000;0.770375
9676.000000;0.769817
9675.000000;0.769614
9674.000000;0.769704
9673.000000;0.769954
9672.000000;0.770261
9671.000000;0.770500
9670.000000;0.770528
9669.000000;0.770330
9668.000000;0.770085
9667.000000;0.769995
9666.000000;0.770078
9665.000000;0.770130
9664.000000;0.769887
9663.000000;0.769278
9662.000000;0.768549
9661.000000;0.768112
9660.000000;0.768149
9659.000000;0.768409
9658.000000;0.768440
9657.000000;0.768064
9656.000000;0.767551
9655.000000;0.767341
9654.000000;0.767662
9653.000000;0.768398
9652.000000;0.769198
9651.000000;0.769666
9650.000000;0.769562
9649.000000;0.768957
9648.000000;0.768194
9647.000000;0.767645
9646.000000;0.767459
9645.000000;0.767535
9644.000000;0.767703
9643.000000;0.767897
9642.000000;0.768135
9641.000000;0.768391
9640.000000;0.768544
9639.000000;0.768493
9638.000000;0.768270
9637.000000;0.767984
9636.000000;0.767682
9635.000000;0.767354
9634.000000;0.767059
9633.000000;0.766940
9632.000000;0.767046
9631.000000;0.767220
9630.000000;0.767216
9629.000000;0.766901
9628.000000;0.766329
9627.000000;0.765686
9626.000000;0.765225
9625.000000;0.765166
9624.000000;0.765559
9623.000000;0.766235
9622.000000;0.766917
9621.000000;0.767372
9620.000000;0.767454
9619.000000;0.767127
9618.000000;0.766542
9617.000000;0.766024
9616.000000;0.765848
9615.000000;0.766005
9614.000000;0.766233
9613.000000;0.766286
9612.000000;0.766127
9611.000000;0.765877
9610.000000;0.765637
9609.000000;0.765385
9608.000000;0.765030
9607.000000;0.764563
9606.000000;0.764148
9605.000000;0.764009
9604.000000;0.764223
9603.000000;0.764640
9602.000000;0.765006
9601.000000;0.765131
9600.000000;0.764952
9599.000000;0.764543
9598.000000;0.764084
9597.000000;0.763774
9596.000000;0.763696
9595.000000;0.763784
9594.000000;0.763890
9593.000000;0.763845
9592.000000;0.763532
9591.000000;0.763000
9590.000000;0.762493
9589.000000;0.762215
9588.000000;0.762080
9587.000000;0.761807
9586.000000;0.761313
9585.000000;0.760850
9584.000000;0.760722
9583.000000;0.760986
9582.000000;0.761481
9581.000000;0.761980
9580.000000;0.762257
9579.000000;0.762161
9578.000000;0.761774
9577.000000;0.761389
9576.000000;0.761267
9575.000000;0.761446
9574.000000;0.761822
9573.000000;0.762266
9572.000000;0.762607
9571.000000;0.762676
9570.000000;0.762479
9569.000000;0.762185
9568.000000;0.761874
9567.000000;0.761474
9566.000000;0.761017
9565.000000;0.760750
9564.000000;0.760838
9563.000000;0.761119
9562.000000;0.761327
9561.000000;0.761396
9560.000000;0.761382
9559.000000;0.761262
9558.000000;0.761024
9557.000000;0.760814
9556.000000;0.760761
9555.000000;0.760738
9554.000000;0.760537
9553.000000;0.760201
9552.000000;0.759970
9551.000000;0.759935
9550.000000;0.759972
9549.000000;0.759988
9548.000000;0.760024
9547.000000;0.760085
9546.000000;0.760067
9545.000000;0.759890
9544.000000;0.759611
9543.000000;0.759374
9542.000000;0.759311
9541.000000;0.759414
9540.000000;0.759460
9539.000000;0.759183
9538.000000;0.758642
9537.000000;0.758288
9536.000000;0.758448
9535.000000;0.758872
9534.000000;0.758986
9533.000000;0.758551
9532.000000;0.757851
9531.000000;0.757272
9530.000000;0.756945
9529.000000;0.756801
9528.000000;0.756762
9527.000000;0.756817
9526.000000;0.757023
9525.000000;0.757424
9524.000000;0.757887
9523.000000;0.758109
9522.000000;0.757955
9521.000000;0.757694
9520.000000;0.757687
9519.000000;0.757891
9518.000000;0.757913
9517.000000;0.757531
9516.000000;0.756922
9515.000000;0.756376
9514.000000;0.756032
9513.000000;0.755899
9512.000000;0.755916
9511.000000;0.755923
9510.000000;0.755787
9509.000000;0.755639
9508.000000;0.755805
9507.000000;0.756393
9506.000000;0.757068
9505.000000;0.757327
9504.000000;0.756929
9503.000000;0.756041
9502.000000;0.755106
9501.000000;0.754594
9500.000000;0.754718
9499.000000;0.755275
9498.000000;0.755839
9497.000000;0.756152
9496.000000;0.756268
9495.000000;0.756344
9494.000000;0.756408
9493.000000;0.756377
9492.000000;0.756178
9491.000000;0.755818
9490.000000;0.755405
9489.000000;0.755095
9488.000000;0.754923
9487.000000;0.754731
9486.000000;0.754382
9485.000000;0.754004
9484.000000;0.753884
9483.000000;0.754127
9482.000000;0.754547
9481.000000;0.754879
9480.000000;0.754944
9479.000000;0.754641
9478.000000;0.753964
9477.000000;0.753110
9476.000000;0.752405
9475.000000;0.752069
9474.000000;0.752107
9473.000000;0.752412
9472.000000;0.752834
9471.000000;0.753170
9470.000000;0.753264
9469.000000;0.753175
9468.000000;0.753123
9467.000000;0.753211
9466.000000;0.753289
9465.000000;0.753146
9464.000000;0.752733
9463.000000;0.752168
9462.000000;0.751611
9461.000000;0.751197
9460.000000;0.751010
9459.000000;0.751067
9458.000000;0.751355
9457.000000;0.751819
9456.000000;0.752286
9455.000000;0.752511
9454.000000;0.752443
9453.000000;0.752336
9452.000000;0.752434
9451.000000;0.752603
9450.000000;0.752486
9449.000000;0.751996
9448.000000;0.751418
9447.000000;0.751035
9446.000000;0.750875
9445.000000;0.750847
9444.000000;0.750906
9443.000000;0.750990
9442.000000;0.751007
9441.000000;0.750996
9440.000000;0.751145
9439.000000;0.751534
9438.000000;0.751981
9437.000000;0.752217
9436.000000;0.752092
9435.000000;0.751567
9434.000000;0.750695
9433.000000;0.749702
9432.000000;0.748922
9431.000000;0.748493
9430.000000;0.748237
9429.000000;0.747975
9428.000000;0.747825
9427.000000;0.748018
9426.000000;0.748494
9425.000000;0.748886
9424.000000;0.748931
9423.000000;0.748744
9422.000000;0.748622
9421.000000;0.748681
9420.000000;0.748779
9419.000000;0.748770
9418.000000;0.748718
9417.000000;0.748796
9416.000000;0.749020
9415.000000;0.749179
9414.000000;0.749089
9413.000000;0.748808
9412.000000;0.748548
9411.000000;0.748426
9410.000000;0.748390
9409.000000;0.748334
9408.000000;0.748168
9407.000000;0.747837
9406.000000;0.747392
9405.000000;0.747009
9404.000000;0.746839
9403.000000;0.746836
9402.000000;0.746840
9401.000000;0.746810
9400.000000;0.746842
9399.000000;0.746983
9398.000000;0.747153
9397.000000;0.747256
9396.000000;0.747249
9395.000000;0.747094
9394.000000;0.746788
9393.000000;0.746441
9392.000000;0.746214
9391.000000;0.746151
9390.000000;0.746160
9389.000000;0.746167
9388.000000;0.746169
9387.000000;0.746135
9386.000000;0.746006
9385.000000;0.745818
9384.000000;0.745696
9383.000000;0.745678
9382.000000;0.745638
9381.000000;0.745462
9380.000000;0.745205
9379.000000;0.745028
9378.000000;0.745038
9377.000000;0.745203
9376.000000;0.745358
9375.000000;0.745307
9374.000000;0.745004
9373.000000;0.744628
9372.000000;0.744376
9371.000000;0.744208
9370.000000;0.743946
9369.000000;0.743586
9368.000000;0.743350
9367.000000;0.743371
9366.000000;0.743508
9365.000000;0.743550
9364.000000;0.743466
9363.000000;0.743354
9362.000000;0.743261
9361.000000;0.743191
9360.000000;0.743169
9359.000000;0.743194
9358.000000;0.743138
9357.000000;0.742827
9356.000000;0.742260
9355.000000;0.741707
9354.000000;0.741550
9353.000000;0.741973
9352.000000;0.742737
9351.000000;0.743288
9350.000000;0.743202
9349.000000;0.742582
9348.000000;0.741962
9347.000000;0.741819
9346.000000;0.742195
9345.000000;0.742745
9344.000000;0.743044
9343.000000;0.742879
9342.000000;0.742369
9341.000000;0.741851
9340.000000;0.741616
9339.000000;0.741715
9338.000000;0.741993
9337.000000;0.742239
9336.000000;0.742256
9335.000000;0.741928
9334.000000;0.741361
9333.000000;0.740909
9332.000000;0.740847
9331.000000;0.741033
9330.000000;0.741050
9329.000000;0.740698
9328.000000;0.740175
9327.000000;0.739743
9326.000000;0.739458
9325.000000;0.739296
9324.000000;0.739331
9323.000000;0.739616
9322.000000;0.740006
9321.000000;0.740267
9320.000000;0.740323
9319.000000;0.740301
9318.000000;0.740349
9317.000000;0.740491
9316.000000;0.740616
9315.000000;0.740573
9314.000000;0.740304
9313.000000;0.739947
9312.000000;0.739752
9311.000000;0.739848
9310.000000;0.740110
9309.000000;0.740290
9308.000000;0.740244
9307.000000;0.740027
9306.000000;0.739813
9305.000000;0.739747
9304.000000;0.739799
9303.000000;0.739763
9302.000000;0.739459
9301.000000;0.738959
9300.000000;0.738536
9299.000000;0.738381
9298.000000;0.738412
9297.000000;0.738390
9296.000000;0.738167
9295.000000;0.737809
9294.000000;0.737526
9293.000000;0.737482
9292.000000;0.737608
9291.000000;0.737634
9290.000000;0.737363
9289.000000;0.736934
9288.000000;0.736700
9287.000000;0.736868
9286.000000;0.737324
9285.000000;0.737788
9284.000000;0.738016
9283.000000;0.737883
9282.000000;0.737423
9281.000000;0.736854
9280.000000;0.736444
9279.000000;0.736301
9278.000000;0.736357
9277.000000;0.736548
9276.000000;0.736866
9275.000000;0.737183
9274.000000;0.737224
9273.000000;0.736835
9272.000000;0.736183
9271.000000;0.735583
9270.000000;0.735201
9269.000000;0.735025
9268.000000;0.735020
9267.000000;0.735165
9266.000000;0.735386
9265.000000;0.735589
9264.000000;0.735756
9263.000000;0.735908
9262.000000;0.735974
9261.000000;0.735818
9260.000000;0.735436
9259.000000;0.735052
9258.000000;0.734939
9257.000000;0.735150
9256.000000;0.735468
9255.000000;0.735636
9254.000000;0.735602
9253.000000;0.735523
9252.000000;0.735492
9251.000000;0.735375
9250.000000;0.734987
9249.000000;0.734417
9248.000000;0.734020
9247.000000;0.734044
9246.000000;0.734327
9245.000000;0.734476
9244.000000;0.734297
9243.000000;0.733971
9242.000000;0.733793
9241.000000;0.733838
9240.000000;0.733946
9239.000000;0.733982
9238.000000;0.733987
9237.000000;0.734039
9236.000000;0.734073
9235.000000;0.733959
9234.000000;0.733729
9233.000000;0.733570
9232.000000;0.733555
9231.000000;0.733502
9230.000000;0.733178
9229.000000;0.732575
9228.000000;0.731896
9227.000000;0.731333
9226.000000;0.730989
9225.000000;0.730936
9224.000000;0.731203
9223.000000;0.731680
9222.000000;0.732133
9221.000000;0.732351
9220.000000;0.732269
9219.000000;0.731975
9218.000000;0.731667
9217.000000;0.731549
9216.000000;0.731666
9215.000000;0.731833
9214.000000;0.731804
9213.000000;0.731531
9212.000000;0.731193
9211.000000;0.730981
9210.000000;0.730902
9209.000000;0.730798
9208.000000;0.730522
9207.000000;0.730117
9206.000000;0.729809
9205.000000;0.729803
9204.000000;0.730042
9203.000000;0.730265
9202.000000;0.730319
9201.000000;0.730315
9200.000000;0.730415
9199.000000;0.730576
9198.000000;0.730627
9197.000000;0.730488
9196.000000;0.730215
9195.000000;0.729889
9194.000000;0.729617
9193.000000;0.729518
9192.000000;0.729563
9191.000000;0.729482
9190.000000;0.729038
9189.000000;0.728365
9188.000000;0.727844
9187.000000;0.727682
9186.000000;0.727795
9185.000000;0.728068
9184.000000;0.728461
9183.000000;0.728816
9182.000000;0.728856
9181.000000;0.728516
9180.000000;0.728123
9179.000000;0.728058
9178.000000;0.728353
9177.000000;0.728710
9176.000000;0.728842
9175.000000;0.728692
9174.000000;0.728413
9173.000000;0.728221
9172.000000;0.728224
9171.000000;0.728317
9170.000000;0.728293
9169.000000;0.728099
9168.000000;0.727883
9167.000000;0.727751
9166.000000;0.727600
9165.000000;0.727276
9164.000000;0.726818
9163.000000;0.726411
9162.000000;0.726170
9161.000000;0.726069
9160.000000;0.726068
9159.000000;0.726174
9158.000000;0.726368
9157.000000;0.726540
9156.000000;0.726568
9155.000000;0.726455
9154.000000;0.726364
9153.000000;0.726471
9152.000000;0.726755
9151.000000;0.726974
9150.000000;0.726910
9149.000000;0.726601
9148.000000;0.726266
9147.000000;0.726002
9146.000000;0.725702
9145.000000;0.725260
9144.000000;0.724777
9143.000000;0.724476
9142.000000;0.724495
9141.000000;0.724796
9140.000000;0.725199
9139.000000;0.725448
9138.000000;0.725338
9137.000000;0.724873
9136.000000;0.724293
9135.000000;0.723899
9134.000000;0.723834
9133.000000;0.724028
9132.000000;0.724314
9131.000000;0.724565
9130.000000;0.724753
9129.000000;0.724898
9128.000000;0.724971
9127.000000;0.724872
9126.000000;0.724559
9125.000000;0.724168
9124.000000;0.723901
9123.000000;0.723806
9122.000000;0.723753
9121.000000;0.723664
9120.000000;0.723639
9119.000000;0.723793
9118.000000;0.724006
9117.000000;0.723984
9116.000000;0.723568
9115.000000;0.722938
9114.000000;0.722463
9113.000000;0.722368
9112.000000;0.722577
9111.000000;0.722854
9110.000000;0.723055
9109.000000;0.723181
9108.000000;0.723229
9107.000000;0.723098
9106.000000;0.722720
9105.000000;0.722214
9104.000000;0.721834
9103.000000;0.721751
9102.000000;0.721927
9101.000000;0.722171
9100.000000;0.722268
9099.000000;0.722121
9098.000000;0.721821
9097.000000;0.721567
9096.000000;0.721456
9095.000000;0.721396
9094.000000;0.721254
9093.000000;0.721041
9092.000000;0.720863
9091.000000;0.720745
9090.000000;0.720634
9089.000000;0.720534
9088.000000;0.720497
9087.000000;0.720488
9086.000000;0.720386
9085.000000;0.720154
9084.000000;0.719932
9083.000000;0.719898
9082.000000;0.720103
9081.000000;0.720439
9080.000000;0.720712
9079.000000;0.720731
9078.000000;0.720434
9077.000000;0.719946
9076.000000;0.719470
9075.000000;0.719112
9074.000000;0.718871
9073.000000;0.718760
9072.000000;0.718840
9071.000000;0.719074
9070.000000;0.719261
9069.000000;0.719182
9068.000000;0.718817
9067.000000;0.718385
9066.000000;0.718185
9065.000000;0.718366
9064.000000;0.718795
9063.000000;0.719137
9062.000000;0.719134
9061.000000;0.718814
9060.000000;0.718396
9059.000000;0.718044
9058.000000;0.717761
9057.000000;0.717493
9056.000000;0.717242
9055.000000;0.717080
9054.000000;0.717097
9053.000000;0.717330
