Criado como novo conjunto de dados;"2706_e01_daniel.spp","107287.4 Secs"
cm-1;Abs
10000.000000;0.862435
9999.000000;0.862979
9998.000000;0.863524
9997.000000;0.864069
9996.000000;0.864616
9995.000000;0.865164
9994.000000;0.865693
9993.000000;0.865861
9992.000000;0.865348
9991.000000;0.864533
9990.000000;0.864006
9989.000000;0.864034
9988.000000;0.864433
9987.000000;0.864904
9986.000000;0.865240
9985.000000;0.865299
9984.000000;0.865004
9983.000000;0.864479
9982.000000;0.864039
9981.000000;0.863896
9980.000000;0.863959
9979.000000;0.864025
9978.000000;0.864078
9977.000000;0.864229
9976.000000;0.864424
9975.000000;0.864406
9974.000000;0.864025
9973.000000;0.863464
9972.000000;0.863088
9971.000000;0.863162
9970.000000;0.863686
9969.000000;0.864382
9968.000000;0.864801
9967.000000;0.864610
9966.000000;0.863893
9965.000000;0.863079
9964.000000;0.862524
9963.000000;0.862233
9962.000000;0.862037
9961.000000;0.861901
9960.000000;0.861927
9959.000000;0.862169
9958.000000;0.862580
9957.000000;0.863061
9956.000000;0.863425
9955.000000;0.863426
9954.000000;0.863008
9953.000000;0.862496
9952.000000;0.862375
9951.000000;0.862832
9950.000000;0.863575
9949.000000;0.864057
9948.000000;0.863800
9947.000000;0.862686
9946.000000;0.861159
9945.000000;0.860047
9944.000000;0.859885
9943.000000;0.860358
9942.000000;0.860654
9941.000000;0.860427
9940.000000;0.860114
9939.000000;0.860241
9938.000000;0.860721
9937.000000;0.861106
9936.000000;0.861239
9935.000000;0.861289
9934.000000;0.861263
9933.000000;0.860900
9932.000000;0.860155
9931.000000;0.859471
9930.000000;0.859324
9929.000000;0.859655
9928.000000;0.859939
9927.000000;0.859794
9926.000000;0.859361
9925.000000;0.859055
9924.000000;0.859088
9923.000000;0.859326
9922.000000;0.859569
9921.000000;0.859818
9920.000000;0.860179
9919.000000;0.860589
9918.000000;0.860773
9917.000000;0.860509
9916.000000;0.859873
9915.000000;0.859176
9914.000000;0.858730
9913.000000;0.858660
9912.000000;0.858862
9911.000000;0.859095
9910.000000;0.859160
9909.000000;0.859054
9908.000000;0.858922
9907.000000;0.858891
9906.000000;0.858963
9905.000000;0.859044
9904.000000;0.858998
9903.000000;0.858703
9902.000000;0.858207
9901.000000;0.857815
9900.000000;0.857860
9899.000000;0.858335
9898.000000;0.858891
9897.000000;0.859246
9896.000000;0.859391
9895.000000;0.859331
9894.000000;0.858900
9893.000000;0.858086
9892.000000;0.857326
9891.000000;0.857134
9890.000000;0.857499
9889.000000;0.857940
9888.000000;0.858134
9887.000000;0.858194
9886.000000;0.858273
9885.000000;0.858269
9884.000000;0.858079
9883.000000;0.857894
9882.000000;0.857987
9881.000000;0.858308
9880.000000;0.858486
9879.000000;0.858168
9878.000000;0.857271
9877.000000;0.856029
9876.000000;0.854941
9875.000000;0.854525
9874.000000;0.854883
9873.000000;0.855520
9872.000000;0.855782
9871.000000;0.855499
9870.000000;0.855064
9869.000000;0.854926
9868.000000;0.855173
9867.000000;0.855632
9866.000000;0.856123
9865.000000;0.856523
9864.000000;0.856739
9863.000000;0.856801
9862.000000;0.856895
9861.000000;0.857167
9860.000000;0.857518
9859.000000;0.857709
9858.000000;0.857633
9857.000000;0.857396
9856.000000;0.857149
9855.000000;0.856923
9854.000000;0.856627
9853.000000;0.856134
9852.000000;0.855400
9851.000000;0.854574
9850.000000;0.853997
9849.000000;0.853987
9848.000000;0.854574
9847.000000;0.855478
9846.000000;0.856319
9845.000000;0.856769
9844.000000;0.856579
9843.000000;0.855668
9842.000000;0.854309
9841.000000;0.853080
9840.000000;0.852462
9839.000000;0.852511
9838.000000;0.852972
9837.000000;0.853587
9836.000000;0.854176
9835.000000;0.854565
9834.000000;0.854716
9833.000000;0.854866
9832.000000;0.855232
9831.000000;0.855544
9830.000000;0.855185
9829.000000;0.853965
9828.000000;0.852495
9827.000000;0.851539
9826.000000;0.851196
9825.000000;0.851028
9824.000000;0.850835
9823.000000;0.850884
9822.000000;0.851336
9821.000000;0.851864
9820.000000;0.852063
9819.000000;0.851974
9818.000000;0.851909
9817.000000;0.851939
9816.000000;0.851864
9815.000000;0.851634
9814.000000;0.851444
9813.000000;0.851354
9812.000000;0.851137
9811.000000;0.850690
9810.000000;0.850385
9809.000000;0.850713
9808.000000;0.851617
9807.000000;0.852424
9806.000000;0.852518
9805.000000;0.851920
9804.000000;0.851185
9803.000000;0.850842
9802.000000;0.851042
9801.000000;0.851590
9800.000000;0.852147
9799.000000;0.852384
9798.000000;0.852100
9797.000000;0.851304
9796.000000;0.850241
9795.000000;0.849317
9794.000000;0.848925
9793.000000;0.849181
9792.000000;0.849772
9791.000000;0.850161
9790.000000;0.850089
9789.000000;0.849830
9788.000000;0.849832
9787.000000;0.850165
9786.000000;0.850468
9785.000000;0.850444
9784.000000;0.850217
9783.000000;0.850112
9782.000000;0.850228
9781.000000;0.850371
9780.000000;0.850343
9779.000000;0.850169
9778.000000;0.850047
9777.000000;0.850168
9776.000000;0.850550
9775.000000;0.850973
9774.000000;0.851096
9773.000000;0.850734
9772.000000;0.850037
9771.000000;0.849341
9770.000000;0.848877
9769.000000;0.848635
9768.000000;0.848490
9767.000000;0.848395
9766.000000;0.848411
9765.000000;0.848625
9764.000000;0.849022
9763.000000;0.849435
9762.000000;0.849628
9761.000000;0.849471
9760.000000;0.849073
9759.000000;0.848717
9758.000000;0.848640
9757.000000;0.848842
9756.000000;0.849065
9755.000000;0.848972
9754.000000;0.848400
9753.000000;0.847509
9752.000000;0.846654
9751.000000;0.846124
9750.000000;0.845972
9749.000000;0.846073
9748.000000;0.846269
9747.000000;0.846456
9746.000000;0.846628
9745.000000;0.846882
9744.000000;0.847345
9743.000000;0.847982
9742.000000;0.848541
9741.000000;0.848730
9740.000000;0.848472
9739.000000;0.847925
9738.000000;0.847300
9737.000000;0.846745
9736.000000;0.846363
9735.000000;0.846248
9734.000000;0.846425
9733.000000;0.846789
9732.000000;0.847144
9731.000000;0.847349
9730.000000;0.847466
9729.000000;0.847700
9728.000000;0.848126
9727.000000;0.848477
9726.000000;0.848328
9725.000000;0.847535
9724.000000;0.846417
9723.000000;0.845460
9722.000000;0.844948
9721.000000;0.844903
9720.000000;0.845239
9719.000000;0.845777
9718.000000;0.846220
9717.000000;0.846318
9716.000000;0.846117
9715.000000;0.845893
9714.000000;0.845820
9713.000000;0.845817
9712.000000;0.845750
9711.000000;0.845648
9710.000000;0.845660
9709.000000;0.845871
9708.000000;0.846206
9707.000000;0.846435
9706.000000;0.846271
9705.000000;0.845594
9704.000000;0.844625
9703.000000;0.843794
9702.000000;0.843369
9701.000000;0.843301
9700.000000;0.843448
9699.000000;0.843797
9698.000000;0.844364
9697.000000;0.844989
9696.000000;0.845420
9695.000000;0.845585
9694.000000;0.845624
9693.000000;0.845621
9692.000000;0.845460
9691.000000;0.845009
9690.000000;0.844332
9689.000000;0.843654
9688.000000;0.843158
9687.000000;0.842911
9686.000000;0.842902
9685.000000;0.843046
9684.000000;0.843174
9683.000000;0.843140
9682.000000;0.842986
9681.000000;0.842901
9680.000000;0.842957
9679.000000;0.842974
9678.000000;0.842729
9677.000000;0.842246
9676.000000;0.841797
9675.000000;0.841617
9674.000000;0.841703
9673.000000;0.841903
9672.000000;0.842077
9671.000000;0.842161
9670.000000;0.842157
9669.000000;0.842143
9668.000000;0.842235
9667.000000;0.842459
9666.000000;0.842712
9665.000000;0.842879
9664.000000;0.842934
9663.000000;0.842889
9662.000000;0.842697
9661.000000;0.842325
9660.000000;0.841853
9659.000000;0.841419
9658.000000;0.841096
9657.000000;0.840916
9656.000000;0.840973
9655.000000;0.841352
9654.000000;0.841957
9653.000000;0.842511
9652.000000;0.842773
9651.000000;0.842689
9650.000000;0.842330
9649.000000;0.841770
9648.000000;0.841120
9647.000000;0.840593
9646.000000;0.840428
9645.000000;0.840708
9644.000000;0.841255
9643.000000;0.841722
9642.000000;0.841819
9641.000000;0.841504
9640.000000;0.840994
9639.000000;0.840579
9638.000000;0.840395
9637.000000;0.840363
9636.000000;0.840284
9635.000000;0.840012
9634.000000;0.839588
9633.000000;0.839261
9632.000000;0.839307
9631.000000;0.839728
9630.000000;0.840175
9629.000000;0.840236
9628.000000;0.839847
9627.000000;0.839338
9626.000000;0.839081
9625.000000;0.839161
9624.000000;0.839386
9623.000000;0.839527
9622.000000;0.839505
9621.000000;0.839417
9620.000000;0.839412
9619.000000;0.839521
9618.000000;0.839619
9617.000000;0.839572
9616.000000;0.839391
9615.000000;0.839176
9614.000000;0.838968
9613.000000;0.838749
9612.000000;0.838560
9611.000000;0.838492
9610.000000;0.838540
9609.000000;0.838569
9608.000000;0.838476
9607.000000;0.838298
9606.000000;0.838148
9605.000000;0.838119
9604.000000;0.838263
9603.000000;0.838527
9602.000000;0.838685
9601.000000;0.838462
9600.000000;0.837834
9599.000000;0.837091
9598.000000;0.836557
9597.000000;0.836302
9596.000000;0.836224
9595.000000;0.836262
9594.000000;0.836437
9593.000000;0.836717
9592.000000;0.837010
9591.000000;0.837267
9590.000000;0.837492
9589.000000;0.837667
9588.000000;0.837725
9587.000000;0.837636
9586.000000;0.837457
9585.000000;0.837283
9584.000000;0.837169
9583.000000;0.837073
9582.000000;0.836872
9581.000000;0.836503
9580.000000;0.836086
9579.000000;0.835845
9578.000000;0.835870
9577.000000;0.836057
9576.000000;0.836316
9575.000000;0.836688
9574.000000;0.837160
9573.000000;0.837474
9572.000000;0.837299
9571.000000;0.836590
9570.000000;0.835634
9569.000000;0.834779
9568.000000;0.834198
9567.000000;0.833882
9566.000000;0.833726
9565.000000;0.833642
9564.000000;0.833665
9563.000000;0.833905
9562.000000;0.834306
9561.000000;0.834563
9560.000000;0.834468
9559.000000;0.834280
9558.000000;0.834455
9557.000000;0.834999
9556.000000;0.835377
9555.000000;0.835196
9554.000000;0.834748
9553.000000;0.834622
9552.000000;0.834949
9551.000000;0.835321
9550.000000;0.835376
9549.000000;0.835205
9548.000000;0.835105
9547.000000;0.835157
9546.000000;0.835158
9545.000000;0.834890
9544.000000;0.834363
9543.000000;0.833812
9542.000000;0.833487
9541.000000;0.833421
9540.000000;0.833416
9539.000000;0.833281
9538.000000;0.833042
9537.000000;0.832890
9536.000000;0.832953
9535.000000;0.833204
9534.000000;0.833518
9533.000000;0.833737
9532.000000;0.833698
9531.000000;0.833349
9530.000000;0.832846
9529.000000;0.832442
9528.000000;0.832263
9527.000000;0.832271
9526.000000;0.832432
9525.000000;0.832758
9524.000000;0.833168
9523.000000;0.833471
9522.000000;0.833559
9521.000000;0.833496
9520.000000;0.833329
9519.000000;0.832964
9518.000000;0.832357
9517.000000;0.831726
9516.000000;0.831384
9515.000000;0.831406
9514.000000;0.831605
9513.000000;0.831808
9512.000000;0.832008
9511.000000;0.832237
9510.000000;0.832472
9509.000000;0.832690
9508.000000;0.832905
9507.000000;0.833089
9506.000000;0.833124
9505.000000;0.832901
9504.000000;0.832408
9503.000000;0.831740
9502.000000;0.831077
9501.000000;0.830657
9500.000000;0.830630
9499.000000;0.830891
9498.000000;0.831149
9497.000000;0.831228
9496.000000;0.831221
9495.000000;0.831287
9494.000000;0.831393
9493.000000;0.831356
9492.000000;0.831100
9491.000000;0.830773
9490.000000;0.830589
9489.000000;0.830611
9488.000000;0.830715
9487.000000;0.830738
9486.000000;0.830642
9485.000000;0.830533
9484.000000;0.830500
9483.000000;0.830509
9482.000000;0.830465
9481.000000;0.830370
9480.000000;0.830304
9479.000000;0.830266
9478.000000;0.830143
9477.000000;0.829863
9476.000000;0.829509
9475.000000;0.829234
9474.000000;0.829121
9473.000000;0.829144
9472.000000;0.829201
9471.000000;0.829174
9470.000000;0.829039
9469.000000;0.828917
9468.000000;0.828925
9467.000000;0.828990
9466.000000;0.828957
9465.000000;0.828861
9464.000000;0.828898
9463.000000;0.829035
9462.000000;0.828910
9461.000000;0.828302
9460.000000;0.827541
9459.000000;0.827188
9458.000000;0.827402
9457.000000;0.827838
9456.000000;0.828112
9455.000000;0.828134
9454.000000;0.828014
9453.000000;0.827882
9452.000000;0.827844
9451.000000;0.827917
9450.000000;0.827945
9449.000000;0.827763
9448.000000;0.827490
9447.000000;0.827455
9446.000000;0.827755
9445.000000;0.828076
9444.000000;0.828079
9443.000000;0.827811
9442.000000;0.827583
9441.000000;0.827577
9440.000000;0.827708
9439.000000;0.827823
9438.000000;0.827859
9437.000000;0.827827
9436.000000;0.827753
9435.000000;0.827638
9434.000000;0.827437
9433.000000;0.827092
9432.000000;0.826652
9431.000000;0.826307
9430.000000;0.826225
9429.000000;0.826368
9428.000000;0.826544
9427.000000;0.826598
9426.000000;0.826517
9425.000000;0.826351
9424.000000;0.826117
9423.000000;0.825785
9422.000000;0.825349
9421.000000;0.824917
9420.000000;0.824697
9419.000000;0.824804
9418.000000;0.825081
9417.000000;0.825207
9416.000000;0.825041
9415.000000;0.824762
9414.000000;0.824619
9413.000000;0.824666
9412.000000;0.824815
9411.000000;0.825015
9410.000000;0.825242
9409.000000;0.825395
9408.000000;0.825392
9407.000000;0.825329
9406.000000;0.825357
9405.000000;0.825418
9404.000000;0.825314
9403.000000;0.825088
9402.000000;0.825084
9401.000000;0.825481
9400.000000;0.825912
9399.000000;0.825801
9398.000000;0.825046
9397.000000;0.824163
9396.000000;0.823721
9395.000000;0.823810
9394.000000;0.824123
9393.000000;0.824391
9392.000000;0.824564
9391.000000;0.824665
9390.000000;0.824647
9389.000000;0.824456
9388.000000;0.824118
9387.000000;0.823708
9386.000000;0.823321
9385.000000;0.823084
9384.000000;0.823080
9383.000000;0.823196
9382.000000;0.823152
9381.000000;0.822819
9380.000000;0.822431
9379.000000;0.822348
9378.000000;0.822628
9377.000000;0.822966
9376.000000;0.823070
9375.000000;0.822956
9374.000000;0.822835
9373.000000;0.822830
9372.000000;0.822915
9371.000000;0.823031
9370.000000;0.823173
9369.000000;0.823365
9368.000000;0.823591
9367.000000;0.823751
9366.000000;0.823709
9365.000000;0.823443
9364.000000;0.823106
9363.000000;0.822838
9362.000000;0.822547
9361.000000;0.822043
9360.000000;0.821407
9359.000000;0.821023
9358.000000;0.821108
9357.000000;0.821415
9356.000000;0.821586
9355.000000;0.821654
9354.000000;0.821903
9353.000000;0.822313
9352.000000;0.822491
9351.000000;0.822257
9350.000000;0.821986
9349.000000;0.822128
9348.000000;0.822571
9347.000000;0.822744
9346.000000;0.822311
9345.000000;0.821525
9344.000000;0.820866
9343.000000;0.820524
9342.000000;0.820355
9341.000000;0.820192
9340.000000;0.820061
9339.000000;0.820095
9338.000000;0.820361
9337.000000;0.820773
9336.000000;0.821131
9335.000000;0.821245
9334.000000;0.821075
9333.000000;0.820769
9332.000000;0.820542
9331.000000;0.820495
9330.000000;0.820570
9329.000000;0.820661
9328.000000;0.820715
9327.000000;0.820726
9326.000000;0.820700
9325.000000;0.820662
9324.000000;0.820628
9323.000000;0.820538
9322.000000;0.820285
9321.000000;0.819888
9320.000000;0.819581
9319.000000;0.819615
9318.000000;0.819976
9317.000000;0.820381
9316.000000;0.820554
9315.000000;0.820430
9314.000000;0.820088
9313.000000;0.819631
9312.000000;0.819182
9311.000000;0.818882
9310.000000;0.818787
9309.000000;0.818820
9308.000000;0.818878
9307.000000;0.818937
9306.000000;0.818988
9305.000000;0.818946
9304.000000;0.818724
9303.000000;0.818374
9302.000000;0.818078
9301.000000;0.817981
9300.000000;0.818100
9299.000000;0.818344
9298.000000;0.818571
9297.000000;0.818646
9296.000000;0.818530
9295.000000;0.818317
9294.000000;0.818141
9293.000000;0.818040
9292.000000;0.817948
9291.000000;0.817810
9290.000000;0.817638
9289.000000;0.817478
9288.000000;0.817364
9287.000000;0.817311
9286.000000;0.817286
9285.000000;0.817233
9284.000000;0.817179
9283.000000;0.817274
9282.000000;0.817613
9281.000000;0.818029
9280.000000;0.818196
9279.000000;0.817967
9278.000000;0.817519
9277.000000;0.817118
9276.000000;0.816825
9275.000000;0.816534
9274.000000;0.816210
9273.000000;0.815980
9272.000000;0.815972
9271.000000;0.816140
9270.000000;0.816294
9269.000000;0.816279
9268.000000;0.816107
9267.000000;0.815923
9266.000000;0.815855
9265.000000;0.815921
9264.000000;0.816046
9263.000000;0.816137
9262.000000;0.816106
9261.000000;0.815860
9260.000000;0.815388
9259.000000;0.814860
9258.000000;0.814566
9257.000000;0.814683
9256.000000;0.815101
9255.000000;0.815516
9254.000000;0.815699
9253.000000;0.815658
9252.000000;0.815574
9251.000000;0.815599
9250.000000;0.815713
9249.000000;0.815765
9248.000000;0.815643
9247.000000;0.815379
9246.000000;0.815085
9245.000000;0.814807
9244.000000;0.814517
9243.000000;0.814254
9242.000000;0.814184
9241.000000;0.814442
9240.000000;0.814943
9239.000000;0.815415
9238.000000;0.815645
9237.000000;0.815645
9236.000000;0.815574
9235.000000;0.815514
9234.000000;0.815387
9233.000000;0.815081
9232.000000;0.814636
9231.000000;0.814253
9230.000000;0.814111
9229.000000;0.814197
9228.000000;0.814332
9227.000000;0.814358
9226.000000;0.814267
9225.000000;0.814158
9224.000000;0.814102
9223.000000;0.814061
9222.000000;0.813909
9221.000000;0.813538
9220.000000;0.812991
9219.000000;0.812495
9218.000000;0.812308
9217.000000;0.812492
9216.000000;0.812839
9215.000000;0.813066
9214.000000;0.813063
9213.000000;0.812949
9212.000000;0.812880
9211.000000;0.812873
9210.000000;0.812826
9209.000000;0.812654
9208.000000;0.812380
9207.000000;0.812088
9206.000000;0.811821
9205.000000;0.811567
9204.000000;0.811326
9203.000000;0.811143
9202.000000;0.811039
9201.000000;0.810958
9200.000000;0.810844
9199.000000;0.810755
9198.000000;0.810827
9197.000000;0.811108
9196.000000;0.811478
9195.000000;0.811752
9194.000000;0.811831
9193.000000;0.811725
9192.000000;0.811522
9191.000000;0.811350
9190.000000;0.811305
9189.000000;0.811336
9188.000000;0.811258
9187.000000;0.810971
9186.000000;0.810622
9185.000000;0.810464
9184.000000;0.810564
9183.000000;0.810749
9182.000000;0.810839
9181.000000;0.810818
9180.000000;0.810762
9179.000000;0.810716
9178.000000;0.810702
9177.000000;0.810766
9176.000000;0.810928
9175.000000;0.811100
9174.000000;0.811141
9173.000000;0.810952
9172.000000;0.810522
9171.000000;0.809951
9170.000000;0.809457
9169.000000;0.809282
9168.000000;0.809482
9167.000000;0.809852
9166.000000;0.810121
9165.000000;0.810194
9164.000000;0.810124
9163.000000;0.809946
9162.000000;0.809679
9161.000000;0.809436
9160.000000;0.809375
9159.000000;0.809497
9158.000000;0.809632
9157.000000;0.809668
9156.000000;0.809656
9155.000000;0.809648
9154.000000;0.809562
9153.000000;0.809309
9152.000000;0.808953
9151.000000;0.808625
9150.000000;0.808375
9149.000000;0.808196
9148.000000;0.808127
9147.000000;0.808188
9146.000000;0.808269
9145.000000;0.808233
9144.000000;0.808101
9143.000000;0.808017
9142.000000;0.808041
9141.000000;0.808108
9140.000000;0.808161
9139.000000;0.808202
9138.000000;0.808210
9137.000000;0.808143
9136.000000;0.808065
9135.000000;0.808096
9134.000000;0.808202
9133.000000;0.808184
9132.000000;0.807962
9131.000000;0.807718
9130.000000;0.807636
9129.000000;0.807636
9128.000000;0.807528
9127.000000;0.807335
9126.000000;0.807261
9125.000000;0.807374
9124.000000;0.807505
9123.000000;0.807491
9122.000000;0.807361
9121.000000;0.807243
9120.000000;0.807189
9119.000000;0.807164
9118.000000;0.807117
9117.000000;0.806987
9116.000000;0.806734
9115.000000;0.806406
9114.000000;0.806123
9113.000000;0.805973
9112.000000;0.805956
9111.000000;0.806067
9110.000000;0.806300
9109.000000;0.806551
9108.000000;0.806603
9107.000000;0.806341
9106.000000;0.805920
9105.000000;0.805618
9104.000000;0.805540
9103.000000;0.805566
9102.000000;0.805555
9101.000000;0.805479
9100.000000;0.805375
9099.000000;0.805266
9098.000000;0.805182
9097.000000;0.805155
9096.000000;0.805146
9095.000000;0.805042
9094.000000;0.804791
9093.000000;0.804481
9092.000000;0.804246
9091.000000;0.804148
9090.000000;0.804198
9089.000000;0.804426
9088.000000;0.804836
9087.000000;0.805295
9086.000000;0.805581
9085.000000;0.805574
9084.000000;0.805374
9083.000000;0.805206
9082.000000;0.805216
9081.000000;0.805349
9080.000000;0.805374
9079.000000;0.805063
9078.000000;0.804412
9077.000000;0.803699
9076.000000;0.803292
9075.000000;0.803342
9074.000000;0.803693
9073.000000;0.804084
9072.000000;0.804388
9071.000000;0.804618
9070.000000;0.804781
9069.000000;0.804811
9068.000000;0.804668
9067.000000;0.804437
9066.000000;0.804259
9065.000000;0.804198
9064.000000;0.804188
9063.000000;0.804143
9062.000000;0.804053
9061.000000;0.803957
9060.000000;0.803843
9059.000000;0.803630
9058.000000;0.803276
9057.000000;0.802856
9056.000000;0.802513
9055.000000;0.802346
9054.000000;0.802370
9053.000000;0.802535
