Criado como novo conjunto de dados;"2706_e01_daniel.spp","51124.5 Secs"
cm-1;Abs
10000.000000;0.611086
9999.000000;0.611504
9998.000000;0.612173
9997.000000;0.612366
9996.000000;0.611437
9995.000000;0.609680
9994.000000;0.608159
9993.000000;0.607607
9992.000000;0.607881
9991.000000;0.608506
9990.000000;0.609281
9989.000000;0.610095
9988.000000;0.610561
9987.000000;0.610311
9986.000000;0.609535
9985.000000;0.608873
9984.000000;0.608791
9983.000000;0.609269
9982.000000;0.610013
9981.000000;0.610691
9980.000000;0.610973
9979.000000;0.610642
9978.000000;0.609788
9977.000000;0.608760
9976.000000;0.607868
9975.000000;0.607235
9974.000000;0.606942
9973.000000;0.607107
9972.000000;0.607673
9971.000000;0.608256
9970.000000;0.608428
9969.000000;0.608118
9968.000000;0.607592
9967.000000;0.607095
9966.000000;0.606728
9965.000000;0.606641
9964.000000;0.607013
9963.000000;0.607712
9962.000000;0.608233
9961.000000;0.608203
9960.000000;0.607746
9959.000000;0.607190
9958.000000;0.606622
9957.000000;0.606042
9956.000000;0.605717
9955.000000;0.605963
9954.000000;0.606619
9953.000000;0.607119
9952.000000;0.607117
9951.000000;0.606745
9950.000000;0.606269
9949.000000;0.605813
9948.000000;0.605481
9947.000000;0.605378
9946.000000;0.605428
9945.000000;0.605446
9944.000000;0.605465
9943.000000;0.605645
9942.000000;0.605803
9941.000000;0.605469
9940.000000;0.604628
9939.000000;0.603984
9938.000000;0.604175
9937.000000;0.604986
9936.000000;0.605653
9935.000000;0.605720
9934.000000;0.605302
9933.000000;0.604692
9932.000000;0.604117
9931.000000;0.603798
9930.000000;0.603893
9929.000000;0.604300
9928.000000;0.604697
9927.000000;0.604790
9926.000000;0.604467
9925.000000;0.603786
9924.000000;0.602936
9923.000000;0.602130
9922.000000;0.601483
9921.000000;0.601071
9920.000000;0.601116
9919.000000;0.601837
9918.000000;0.602997
9917.000000;0.603864
9916.000000;0.603880
9915.000000;0.603204
9914.000000;0.602398
9913.000000;0.601805
9912.000000;0.601502
9911.000000;0.601592
9910.000000;0.602137
9909.000000;0.602849
9908.000000;0.603203
9907.000000;0.602964
9906.000000;0.602417
9905.000000;0.602046
9904.000000;0.602090
9903.000000;0.602377
9902.000000;0.602452
9901.000000;0.601956
9900.000000;0.601015
9899.000000;0.600169
9898.000000;0.599800
9897.000000;0.599787
9896.000000;0.599840
9895.000000;0.599939
9894.000000;0.600175
9893.000000;0.600361
9892.000000;0.600199
9891.000000;0.599801
9890.000000;0.599655
9889.000000;0.600010
9888.000000;0.600573
9887.000000;0.600917
9886.000000;0.600921
9885.000000;0.600707
9884.000000;0.600359
9883.000000;0.599867
9882.000000;0.599237
9881.000000;0.598523
9880.000000;0.597856
9879.000000;0.597498
9878.000000;0.597740
9877.000000;0.598570
9876.000000;0.599476
9875.000000;0.599733
9874.000000;0.599038
9873.000000;0.597845
9872.000000;0.596991
9871.000000;0.596949
9870.000000;0.597493
9869.000000;0.598082
9868.000000;0.598427
9867.000000;0.598561
9866.000000;0.598498
9865.000000;0.598165
9864.000000;0.597714
9863.000000;0.597566
9862.000000;0.597948
9861.000000;0.598595
9860.000000;0.599096
9859.000000;0.599315
9858.000000;0.599244
9857.000000;0.598729
9856.000000;0.597691
9855.000000;0.596560
9854.000000;0.596055
9853.000000;0.596435
9852.000000;0.597177
9851.000000;0.597509
9850.000000;0.597158
9849.000000;0.596516
9848.000000;0.596164
9847.000000;0.596305
9846.000000;0.596607
9845.000000;0.596591
9844.000000;0.596170
9843.000000;0.595753
9842.000000;0.595798
9841.000000;0.596341
9840.000000;0.597025
9839.000000;0.597461
9838.000000;0.597456
9837.000000;0.597026
9836.000000;0.596387
9835.000000;0.595882
9834.000000;0.595762
9833.000000;0.595988
9832.000000;0.596306
9831.000000;0.596445
9830.000000;0.596209
9829.000000;0.595520
9828.000000;0.594565
9827.000000;0.593795
9826.000000;0.593616
9825.000000;0.594031
9824.000000;0.594696
9823.000000;0.595237
9822.000000;0.595450
9821.000000;0.595313
9820.000000;0.594967
9819.000000;0.594673
9818.000000;0.594606
9817.000000;0.594662
9816.000000;0.594578
9815.000000;0.594264
9814.000000;0.593916
9813.000000;0.593767
9812.000000;0.593806
9811.000000;0.593769
9810.000000;0.593440
9809.000000;0.592959
9808.000000;0.592770
9807.000000;0.593141
9806.000000;0.593769
9805.000000;0.594024
9804.000000;0.593594
9803.000000;0.592747
9802.000000;0.591923
9801.000000;0.591336
9800.000000;0.591046
9799.000000;0.591119
9798.000000;0.591487
9797.000000;0.591849
9796.000000;0.591939
9795.000000;0.591796
9794.000000;0.591591
9793.000000;0.591345
9792.000000;0.591034
9791.000000;0.590815
9790.000000;0.590885
9789.000000;0.591203
9788.000000;0.591549
9787.000000;0.591771
9786.000000;0.591787
9785.000000;0.591490
9784.000000;0.590920
9783.000000;0.590431
9782.000000;0.590386
9781.000000;0.590704
9780.000000;0.590982
9779.000000;0.591028
9778.000000;0.590981
9777.000000;0.590929
9776.000000;0.590712
9775.000000;0.590253
9774.000000;0.589813
9773.000000;0.589758
9772.000000;0.590196
9771.000000;0.590914
9770.000000;0.591535
9769.000000;0.591688
9768.000000;0.591190
9767.000000;0.590211
9766.000000;0.589227
9765.000000;0.588728
9764.000000;0.588927
9763.000000;0.589665
9762.000000;0.590490
9761.000000;0.590913
9760.000000;0.590729
9759.000000;0.590108
9758.000000;0.589345
9757.000000;0.588603
9756.000000;0.587983
9755.000000;0.587694
9754.000000;0.587927
9753.000000;0.588576
9752.000000;0.589305
9751.000000;0.589855
9750.000000;0.590132
9749.000000;0.590034
9748.000000;0.589443
9747.000000;0.588449
9746.000000;0.587410
9745.000000;0.586734
9744.000000;0.586653
9743.000000;0.587138
9742.000000;0.587864
9741.000000;0.588348
9740.000000;0.588337
9739.000000;0.588084
9738.000000;0.588030
9737.000000;0.588229
9736.000000;0.588290
9735.000000;0.587899
9734.000000;0.587196
9733.000000;0.586587
9732.000000;0.586363
9731.000000;0.586553
9730.000000;0.586928
9729.000000;0.587098
9728.000000;0.586792
9727.000000;0.586137
9726.000000;0.585561
9725.000000;0.585394
9724.000000;0.585691
9723.000000;0.586357
9722.000000;0.587185
9721.000000;0.587753
9720.000000;0.587644
9719.000000;0.586923
9718.000000;0.586151
9717.000000;0.585791
9716.000000;0.585834
9715.000000;0.586110
9714.000000;0.586633
9713.000000;0.587342
9712.000000;0.587787
9711.000000;0.587508
9710.000000;0.586674
9709.000000;0.585976
9708.000000;0.585851
9707.000000;0.586095
9706.000000;0.586251
9705.000000;0.586121
9704.000000;0.585776
9703.000000;0.585310
9702.000000;0.584769
9701.000000;0.584229
9700.000000;0.583788
9699.000000;0.583504
9698.000000;0.583396
9697.000000;0.583475
9696.000000;0.583713
9695.000000;0.584026
9694.000000;0.584318
9693.000000;0.584530
9692.000000;0.584641
9691.000000;0.584676
9690.000000;0.584719
9689.000000;0.584852
9688.000000;0.585070
9687.000000;0.585246
9686.000000;0.585246
9685.000000;0.585062
9684.000000;0.584810
9683.000000;0.584584
9682.000000;0.584310
9681.000000;0.583805
9680.000000;0.583049
9679.000000;0.582384
9678.000000;0.582274
9677.000000;0.582781
9676.000000;0.583366
9675.000000;0.583389
9674.000000;0.582791
9673.000000;0.582115
9672.000000;0.581826
9671.000000;0.581833
9670.000000;0.581761
9669.000000;0.581507
9668.000000;0.581305
9667.000000;0.581320
9666.000000;0.581420
9665.000000;0.581402
9664.000000;0.581264
9663.000000;0.581180
9662.000000;0.581314
9661.000000;0.581733
9660.000000;0.582406
9659.000000;0.583154
9658.000000;0.583655
9657.000000;0.583636
9656.000000;0.583116
9655.000000;0.582431
9654.000000;0.581992
9653.000000;0.581992
9652.000000;0.582298
9651.000000;0.582532
9650.000000;0.582305
9649.000000;0.581467
9648.000000;0.580236
9647.000000;0.579096
9646.000000;0.578514
9645.000000;0.578684
9644.000000;0.579414
9643.000000;0.580251
9642.000000;0.580758
9641.000000;0.580770
9640.000000;0.580421
9639.000000;0.579984
9638.000000;0.579700
9637.000000;0.579675
9636.000000;0.579833
9635.000000;0.579946
9634.000000;0.579847
9633.000000;0.579640
9632.000000;0.579602
9631.000000;0.579814
9630.000000;0.580022
9629.000000;0.579931
9628.000000;0.579514
9627.000000;0.578945
9626.000000;0.578382
9625.000000;0.577972
9624.000000;0.577945
9623.000000;0.578441
9622.000000;0.579260
9621.000000;0.579965
9620.000000;0.580246
9619.000000;0.580062
9618.000000;0.579483
9617.000000;0.578643
9616.000000;0.577864
9615.000000;0.577549
9614.000000;0.577813
9613.000000;0.578359
9612.000000;0.578793
9611.000000;0.578929
9610.000000;0.578722
9609.000000;0.578126
9608.000000;0.577238
9607.000000;0.576438
9606.000000;0.576164
9605.000000;0.576526
9604.000000;0.577244
9603.000000;0.577922
9602.000000;0.578314
9601.000000;0.578365
9600.000000;0.578137
9599.000000;0.577743
9598.000000;0.577322
9597.000000;0.577015
9596.000000;0.576934
9595.000000;0.577046
9594.000000;0.577138
9593.000000;0.576992
9592.000000;0.576634
9591.000000;0.576275
9590.000000;0.576026
9589.000000;0.575800
9588.000000;0.575548
9587.000000;0.575419
9586.000000;0.575547
9585.000000;0.575816
9584.000000;0.575992
9583.000000;0.576010
9582.000000;0.575985
9581.000000;0.575999
9580.000000;0.576020
9579.000000;0.576020
9578.000000;0.576046
9577.000000;0.576160
9576.000000;0.576372
9575.000000;0.576621
9574.000000;0.576779
9573.000000;0.576727
9572.000000;0.576472
9571.000000;0.576136
9570.000000;0.575810
9569.000000;0.575536
9568.000000;0.575442
9567.000000;0.575697
9566.000000;0.576193
9565.000000;0.576467
9564.000000;0.576162
9563.000000;0.575502
9562.000000;0.575063
9561.000000;0.575112
9560.000000;0.575388
9559.000000;0.575515
9558.000000;0.575398
9557.000000;0.575160
9556.000000;0.574925
9555.000000;0.574765
9554.000000;0.574713
9553.000000;0.574688
9552.000000;0.574554
9551.000000;0.574343
9550.000000;0.574322
9549.000000;0.574664
9548.000000;0.575133
9547.000000;0.575251
9546.000000;0.574811
9545.000000;0.574102
9544.000000;0.573603
9543.000000;0.573529
9542.000000;0.573723
9541.000000;0.573937
9540.000000;0.574115
9539.000000;0.574330
9538.000000;0.574510
9537.000000;0.574369
9536.000000;0.573725
9535.000000;0.572804
9534.000000;0.572080
9533.000000;0.571799
9532.000000;0.571772
9531.000000;0.571685
9530.000000;0.571505
9529.000000;0.571483
9528.000000;0.571805
9527.000000;0.572336
9526.000000;0.572743
9525.000000;0.572813
9524.000000;0.572619
9523.000000;0.572398
9522.000000;0.572281
9521.000000;0.572190
9520.000000;0.571990
9519.000000;0.571685
9518.000000;0.571398
9517.000000;0.571186
9516.000000;0.570966
9515.000000;0.570687
9514.000000;0.570483
9513.000000;0.570561
9512.000000;0.570974
9511.000000;0.571555
9510.000000;0.572080
9509.000000;0.572403
9508.000000;0.572431
9507.000000;0.572097
9506.000000;0.571461
9505.000000;0.570797
9504.000000;0.570419
9503.000000;0.570377
9502.000000;0.570406
9501.000000;0.570253
9500.000000;0.570000
9499.000000;0.569924
9498.000000;0.570088
9497.000000;0.570232
9496.000000;0.570138
9495.000000;0.569917
9494.000000;0.569813
9493.000000;0.569838
9492.000000;0.569812
9491.000000;0.569727
9490.000000;0.569816
9489.000000;0.570165
9488.000000;0.570465
9487.000000;0.570325
9486.000000;0.569764
9485.000000;0.569198
9484.000000;0.568985
9483.000000;0.569126
9482.000000;0.569399
9481.000000;0.569613
9480.000000;0.569658
9479.000000;0.569488
9478.000000;0.569168
9477.000000;0.568888
9476.000000;0.568798
9475.000000;0.568862
9474.000000;0.568937
9473.000000;0.568944
9472.000000;0.568864
9471.000000;0.568633
9470.000000;0.568184
9469.000000;0.567636
9468.000000;0.567319
9467.000000;0.567502
9466.000000;0.568132
9465.000000;0.568849
9464.000000;0.569260
9463.000000;0.569202
9462.000000;0.568789
9461.000000;0.568244
9460.000000;0.567704
9459.000000;0.567215
9458.000000;0.566893
9457.000000;0.566951
9456.000000;0.567442
9455.000000;0.568049
9454.000000;0.568318
9453.000000;0.568111
9452.000000;0.567678
9451.000000;0.567283
9450.000000;0.566942
9449.000000;0.566579
9448.000000;0.566254
9447.000000;0.566119
9446.000000;0.566229
9445.000000;0.566525
9444.000000;0.566906
9443.000000;0.567231
9442.000000;0.567347
9441.000000;0.567232
9440.000000;0.567016
9439.000000;0.566786
9438.000000;0.566467
9437.000000;0.566018
9436.000000;0.565594
9435.000000;0.565356
9434.000000;0.565230
9433.000000;0.565051
9432.000000;0.564860
9431.000000;0.564812
9430.000000;0.564867
9429.000000;0.564832
9428.000000;0.564744
9427.000000;0.564904
9426.000000;0.565431
9425.000000;0.565993
9424.000000;0.566150
9423.000000;0.565852
9422.000000;0.565436
9421.000000;0.565222
9420.000000;0.565243
9419.000000;0.565313
9418.000000;0.565210
9417.000000;0.564836
9416.000000;0.564272
9415.000000;0.563704
9414.000000;0.563283
9413.000000;0.563085
9412.000000;0.563165
9411.000000;0.563535
9410.000000;0.564020
9409.000000;0.564296
9408.000000;0.564176
9407.000000;0.563806
9406.000000;0.563472
9405.000000;0.563298
9404.000000;0.563223
9403.000000;0.563200
9402.000000;0.563234
9401.000000;0.563268
9400.000000;0.563151
9399.000000;0.562812
9398.000000;0.562377
9397.000000;0.562094
9396.000000;0.562133
9395.000000;0.562451
9394.000000;0.562795
9393.000000;0.562885
9392.000000;0.562659
9391.000000;0.562348
9390.000000;0.562248
9389.000000;0.562441
9388.000000;0.562788
9387.000000;0.563134
9386.000000;0.563414
9385.000000;0.563551
9384.000000;0.563422
9383.000000;0.563015
9382.000000;0.562524
9381.000000;0.562187
9380.000000;0.562069
9379.000000;0.562078
9378.000000;0.562108
9377.000000;0.562094
9376.000000;0.561941
9375.000000;0.561570
9374.000000;0.561070
9373.000000;0.560732
9372.000000;0.560835
9371.000000;0.561391
9370.000000;0.562073
9369.000000;0.562419
9368.000000;0.562147
9367.000000;0.561410
9366.000000;0.560707
9365.000000;0.560466
9364.000000;0.560680
9363.000000;0.560988
9362.000000;0.561105
9361.000000;0.561042
9360.000000;0.560906
9359.000000;0.560700
9358.000000;0.560419
9357.000000;0.560181
9356.000000;0.560093
9355.000000;0.560081
9354.000000;0.560014
9353.000000;0.559924
9352.000000;0.559922
9351.000000;0.559940
9350.000000;0.559778
9349.000000;0.559382
9348.000000;0.558934
9347.000000;0.558648
9346.000000;0.558632
9345.000000;0.558922
9344.000000;0.559446
9343.000000;0.559915
9342.000000;0.559976
9341.000000;0.559556
9340.000000;0.558945
9339.000000;0.558502
9338.000000;0.558418
9337.000000;0.558727
9336.000000;0.559307
9335.000000;0.559803
9334.000000;0.559793
9333.000000;0.559196
9332.000000;0.558380
9331.000000;0.557792
9330.000000;0.557615
9329.000000;0.557840
9328.000000;0.558408
9327.000000;0.559119
9326.000000;0.559609
9325.000000;0.559614
9324.000000;0.559194
9323.000000;0.558586
9322.000000;0.558005
9321.000000;0.557678
9320.000000;0.557828
9319.000000;0.558401
9318.000000;0.558960
9317.000000;0.559091
9316.000000;0.558794
9315.000000;0.558318
9314.000000;0.557813
9313.000000;0.557378
9312.000000;0.557224
9311.000000;0.557472
9310.000000;0.557867
9309.000000;0.558021
9308.000000;0.557894
9307.000000;0.557751
9306.000000;0.557685
9305.000000;0.557501
9304.000000;0.557078
9303.000000;0.556575
9302.000000;0.556216
9301.000000;0.556087
9300.000000;0.556156
9299.000000;0.556295
9298.000000;0.556253
9297.000000;0.555841
9296.000000;0.555205
9295.000000;0.554722
9294.000000;0.554617
9293.000000;0.554847
9292.000000;0.555313
9291.000000;0.555920
9290.000000;0.556416
9289.000000;0.556460
9288.000000;0.556000
9287.000000;0.555390
9286.000000;0.555039
9285.000000;0.555050
9284.000000;0.555240
9283.000000;0.555342
9282.000000;0.555156
9281.000000;0.554725
9280.000000;0.554382
9279.000000;0.554444
9278.000000;0.554804
9277.000000;0.555033
9276.000000;0.554936
9275.000000;0.554767
9274.000000;0.554814
9273.000000;0.555037
9272.000000;0.555230
9271.000000;0.555321
9270.000000;0.555332
9269.000000;0.555222
9268.000000;0.554957
9267.000000;0.554613
9266.000000;0.554292
9265.000000;0.554052
9264.000000;0.553986
9263.000000;0.554199
9262.000000;0.554560
9261.000000;0.554679
9260.000000;0.554332
9259.000000;0.553772
9258.000000;0.553444
9257.000000;0.553488
9256.000000;0.553716
9255.000000;0.553938
9254.000000;0.554099
9253.000000;0.554149
9252.000000;0.554019
9251.000000;0.553731
9250.000000;0.553383
9249.000000;0.553033
9248.000000;0.552712
9247.000000;0.552530
9246.000000;0.552607
9245.000000;0.552867
9244.000000;0.553023
9243.000000;0.552835
9242.000000;0.552327
9241.000000;0.551758
9240.000000;0.551408
9239.000000;0.551399
9238.000000;0.551644
9237.000000;0.551971
9236.000000;0.552275
9235.000000;0.552504
9234.000000;0.552536
9233.000000;0.552213
9232.000000;0.551592
9231.000000;0.551060
9230.000000;0.551028
9229.000000;0.551524
9228.000000;0.552131
9227.000000;0.552348
9226.000000;0.551984
9225.000000;0.551285
9224.000000;0.550707
9223.000000;0.550538
9222.000000;0.550691
9221.000000;0.550860
9220.000000;0.550876
9219.000000;0.550831
9218.000000;0.550849
9217.000000;0.550888
9216.000000;0.550849
9215.000000;0.550767
9214.000000;0.550755
9213.000000;0.550813
9212.000000;0.550829
9211.000000;0.550718
9210.000000;0.550460
9209.000000;0.550038
9208.000000;0.549474
9207.000000;0.548943
9206.000000;0.548722
9205.000000;0.548948
9204.000000;0.549429
9203.000000;0.549769
9202.000000;0.549702
9201.000000;0.549340
9200.000000;0.549050
9199.000000;0.549072
9198.000000;0.549277
9197.000000;0.549381
9196.000000;0.549330
9195.000000;0.549320
9194.000000;0.549411
9193.000000;0.549328
9192.000000;0.548794
9191.000000;0.547946
9190.000000;0.547239
9189.000000;0.546994
9188.000000;0.547201
9187.000000;0.547703
9186.000000;0.548363
9185.000000;0.548972
9184.000000;0.549203
9183.000000;0.548836
9182.000000;0.548043
9181.000000;0.547337
9180.000000;0.547169
9179.000000;0.547551
9178.000000;0.548076
9177.000000;0.548302
9176.000000;0.548139
9175.000000;0.547861
9174.000000;0.547765
9173.000000;0.547884
9172.000000;0.548021
9171.000000;0.547979
9170.000000;0.547682
9169.000000;0.547189
9168.000000;0.546670
9167.000000;0.546367
9166.000000;0.546423
9165.000000;0.546720
9164.000000;0.546971
9163.000000;0.547009
9162.000000;0.546933
9161.000000;0.546902
9160.000000;0.546866
9159.000000;0.546619
9158.000000;0.546113
9157.000000;0.545616
9156.000000;0.545478
9155.000000;0.545796
9154.000000;0.546347
9153.000000;0.546796
9152.000000;0.546930
9151.000000;0.546730
9150.000000;0.546343
9149.000000;0.545980
9148.000000;0.545775
9147.000000;0.545687
9146.000000;0.545590
9145.000000;0.545459
9144.000000;0.545383
9143.000000;0.545385
9142.000000;0.545356
9141.000000;0.545225
9140.000000;0.545108
9139.000000;0.545157
9138.000000;0.545326
9137.000000;0.545402
9136.000000;0.545261
9135.000000;0.544999
9134.000000;0.544817
9133.000000;0.544844
9132.000000;0.545031
9131.000000;0.545167
9130.000000;0.545020
9129.000000;0.544570
9128.000000;0.544090
9127.000000;0.543893
9126.000000;0.544000
9125.000000;0.544141
9124.000000;0.544080
9123.000000;0.543871
9122.000000;0.543765
9121.000000;0.543948
9120.000000;0.544364
9119.000000;0.544751
9118.000000;0.544824
9117.000000;0.544501
9116.000000;0.543965
9115.000000;0.543529
9114.000000;0.543428
9113.000000;0.543702
9112.000000;0.544152
9111.000000;0.544381
9110.000000;0.544065
9109.000000;0.543315
9108.000000;0.542658
9107.000000;0.542514
9106.000000;0.542744
9105.000000;0.542878
9104.000000;0.542691
9103.000000;0.542360
9102.000000;0.542102
9101.000000;0.541925
9100.000000;0.541798
9099.000000;0.541802
9098.000000;0.541988
9097.000000;0.542216
9096.000000;0.542293
9095.000000;0.542173
9094.000000;0.541962
9093.000000;0.541803
9092.000000;0.541823
9091.000000;0.542072
9090.000000;0.542405
9089.000000;0.542539
9088.000000;0.542333
9087.000000;0.541967
9086.000000;0.541753
9085.000000;0.541826
9084.000000;0.542082
9083.000000;0.542339
9082.000000;0.542452
9081.000000;0.542345
9080.000000;0.542042
9079.000000;0.541667
9078.000000;0.541345
9077.000000;0.541094
9076.000000;0.540879
9075.000000;0.540741
9074.000000;0.540811
9073.000000;0.541140
9072.000000;0.541542
9071.000000;0.541669
9070.000000;0.541292
9069.000000;0.540552
9068.000000;0.539879
9067.000000;0.539610
9066.000000;0.539718
9065.000000;0.539954
9064.000000;0.540180
9063.000000;0.540453
9062.000000;0.540795
9061.000000;0.541043
9060.000000;0.540994
9059.000000;0.540635
9058.000000;0.540145
9057.000000;0.539721
9056.000000;0.539444
9055.000000;0.539307
9054.000000;0.539309
9053.000000;0.539499
