Criado como novo conjunto de dados;"2706_e01_daniel.spp","57785.0 Secs"
cm-1;Abs
10000.000000;0.839929
9999.000000;0.839415
9998.000000;0.838902
9997.000000;0.838389
9996.000000;0.837876
9995.000000;0.837367
9994.000000;0.836853
9993.000000;0.836348
9992.000000;0.835830
9991.000000;0.835337
9990.000000;0.834792
9989.000000;0.834510
9988.000000;0.834738
9987.000000;0.835079
9986.000000;0.835065
9985.000000;0.834596
9984.000000;0.833979
9983.000000;0.833429
9982.000000;0.832848
9981.000000;0.832120
9980.000000;0.831408
9979.000000;0.830950
9978.000000;0.830742
9977.000000;0.830666
9976.000000;0.830831
9975.000000;0.831471
9974.000000;0.832508
9973.000000;0.833499
9972.000000;0.834087
9971.000000;0.834275
9970.000000;0.834207
9969.000000;0.833958
9968.000000;0.833646
9967.000000;0.833476
9966.000000;0.833496
9965.000000;0.833514
9964.000000;0.833427
9963.000000;0.833408
9962.000000;0.833568
9961.000000;0.833639
9960.000000;0.833277
9959.000000;0.832583
9958.000000;0.832038
9957.000000;0.831956
9956.000000;0.832191
9955.000000;0.832341
9954.000000;0.832063
9953.000000;0.831283
9952.000000;0.830301
9951.000000;0.829669
9950.000000;0.829712
9949.000000;0.830127
9948.000000;0.830227
9947.000000;0.829634
9946.000000;0.828651
9945.000000;0.827931
9944.000000;0.827900
9943.000000;0.828502
9942.000000;0.829343
9941.000000;0.830006
9940.000000;0.830342
9939.000000;0.830525
9938.000000;0.830801
9937.000000;0.831195
9936.000000;0.831463
9935.000000;0.831286
9934.000000;0.830533
9933.000000;0.829438
9932.000000;0.828538
9931.000000;0.828266
9930.000000;0.828515
9929.000000;0.828756
9928.000000;0.828687
9927.000000;0.828557
9926.000000;0.828669
9925.000000;0.828816
9924.000000;0.828552
9923.000000;0.827895
9922.000000;0.827347
9921.000000;0.827247
9920.000000;0.827488
9919.000000;0.827897
9918.000000;0.828464
9917.000000;0.829037
9916.000000;0.829160
9915.000000;0.828561
9914.000000;0.827589
9913.000000;0.826871
9912.000000;0.826635
9911.000000;0.826633
9910.000000;0.826605
9909.000000;0.826541
9908.000000;0.826528
9907.000000;0.826607
9906.000000;0.826805
9905.000000;0.827104
9904.000000;0.827305
9903.000000;0.827146
9902.000000;0.826638
9901.000000;0.826121
9900.000000;0.825866
9899.000000;0.825753
9898.000000;0.825495
9897.000000;0.825076
9896.000000;0.824791
9895.000000;0.824883
9894.000000;0.825303
9893.000000;0.825849
9892.000000;0.826356
9891.000000;0.826648
9890.000000;0.826501
9889.000000;0.825881
9888.000000;0.825131
9887.000000;0.824683
9886.000000;0.824559
9885.000000;0.824388
9884.000000;0.824006
9883.000000;0.823842
9882.000000;0.824472
9881.000000;0.825859
9880.000000;0.827229
9879.000000;0.827722
9878.000000;0.827069
9877.000000;0.825681
9876.000000;0.824244
9875.000000;0.823279
9874.000000;0.822928
9873.000000;0.822997
9872.000000;0.823179
9871.000000;0.823287
9870.000000;0.823331
9869.000000;0.823416
9868.000000;0.823616
9867.000000;0.823873
9866.000000;0.823953
9865.000000;0.823586
9864.000000;0.822770
9863.000000;0.821894
9862.000000;0.821429
9861.000000;0.821495
9860.000000;0.821824
9859.000000;0.822076
9858.000000;0.822073
9857.000000;0.821772
9856.000000;0.821238
9855.000000;0.820675
9854.000000;0.820317
9853.000000;0.820237
9852.000000;0.820373
9851.000000;0.820706
9850.000000;0.821246
9849.000000;0.821804
9848.000000;0.822041
9847.000000;0.821844
9846.000000;0.821447
9845.000000;0.821086
9844.000000;0.820731
9843.000000;0.820306
9842.000000;0.819945
9841.000000;0.819776
9840.000000;0.819652
9839.000000;0.819378
9838.000000;0.819105
9837.000000;0.819157
9836.000000;0.819501
9835.000000;0.819728
9834.000000;0.819606
9833.000000;0.819348
9832.000000;0.819192
9831.000000;0.819020
9830.000000;0.818638
9829.000000;0.818226
9828.000000;0.818206
9827.000000;0.818687
9826.000000;0.819311
9825.000000;0.819681
9824.000000;0.819766
9823.000000;0.819811
9822.000000;0.819952
9821.000000;0.820043
9820.000000;0.819838
9819.000000;0.819293
9818.000000;0.818649
9817.000000;0.818223
9816.000000;0.818110
9815.000000;0.818123
9814.000000;0.818009
9813.000000;0.817698
9812.000000;0.817324
9811.000000;0.817072
9810.000000;0.817047
9809.000000;0.817241
9808.000000;0.817524
9807.000000;0.817691
9806.000000;0.817610
9805.000000;0.817365
9804.000000;0.817215
9803.000000;0.817361
9802.000000;0.817774
9801.000000;0.818232
9800.000000;0.818487
9799.000000;0.818409
9798.000000;0.818034
9797.000000;0.817501
9796.000000;0.816905
9795.000000;0.816226
9794.000000;0.815507
9793.000000;0.815036
9792.000000;0.815162
9791.000000;0.815822
9790.000000;0.816406
9789.000000;0.816312
9788.000000;0.815574
9787.000000;0.814787
9786.000000;0.814450
9785.000000;0.814594
9784.000000;0.815005
9783.000000;0.815501
9782.000000;0.815876
9781.000000;0.815848
9780.000000;0.815343
9779.000000;0.814721
9778.000000;0.814447
9777.000000;0.814573
9776.000000;0.814737
9775.000000;0.814682
9774.000000;0.814533
9773.000000;0.814505
9772.000000;0.814580
9771.000000;0.814633
9770.000000;0.814704
9769.000000;0.814930
9768.000000;0.815244
9767.000000;0.815339
9766.000000;0.815008
9765.000000;0.814438
9764.000000;0.814082
9763.000000;0.814229
9762.000000;0.814702
9761.000000;0.814996
9760.000000;0.814759
9759.000000;0.814138
9758.000000;0.813591
9757.000000;0.813370
9756.000000;0.813284
9755.000000;0.813013
9754.000000;0.812537
9753.000000;0.812137
9752.000000;0.812033
9751.000000;0.812172
9750.000000;0.812363
9749.000000;0.812500
9748.000000;0.812574
9747.000000;0.812580
9746.000000;0.812494
9745.000000;0.812338
9744.000000;0.812170
9743.000000;0.812036
9742.000000;0.811952
9741.000000;0.811968
9740.000000;0.812175
9739.000000;0.812607
9738.000000;0.813126
9737.000000;0.813427
9736.000000;0.813245
9735.000000;0.812597
9734.000000;0.811815
9733.000000;0.811278
9732.000000;0.811106
9731.000000;0.811125
9730.000000;0.811105
9729.000000;0.810968
9728.000000;0.810764
9727.000000;0.810554
9726.000000;0.810395
9725.000000;0.810364
9724.000000;0.810444
9723.000000;0.810425
9722.000000;0.810091
9721.000000;0.809561
9720.000000;0.809292
9719.000000;0.809602
9718.000000;0.810266
9717.000000;0.810742
9716.000000;0.810753
9715.000000;0.810469
9714.000000;0.810146
9713.000000;0.809812
9712.000000;0.809429
9711.000000;0.809142
9710.000000;0.809143
9709.000000;0.809376
9708.000000;0.809553
9707.000000;0.809486
9706.000000;0.809262
9705.000000;0.809101
9704.000000;0.809122
9703.000000;0.809263
9702.000000;0.809330
9701.000000;0.809107
9700.000000;0.808565
9699.000000;0.807979
9698.000000;0.807741
9697.000000;0.807970
9696.000000;0.808361
9695.000000;0.808464
9694.000000;0.808107
9693.000000;0.807527
9692.000000;0.807119
9691.000000;0.807096
9690.000000;0.807336
9689.000000;0.807538
9688.000000;0.807511
9687.000000;0.807334
9686.000000;0.807219
9685.000000;0.807269
9684.000000;0.807417
9683.000000;0.807544
9682.000000;0.807552
9681.000000;0.807362
9680.000000;0.806978
9679.000000;0.806563
9678.000000;0.806319
9677.000000;0.806262
9676.000000;0.806207
9675.000000;0.806023
9674.000000;0.805783
9673.000000;0.805622
9672.000000;0.805568
9671.000000;0.805612
9670.000000;0.805809
9669.000000;0.806192
9668.000000;0.806661
9667.000000;0.807057
9666.000000;0.807301
9665.000000;0.807354
9664.000000;0.807144
9663.000000;0.806663
9662.000000;0.806088
9661.000000;0.805655
9660.000000;0.805459
9659.000000;0.805494
9658.000000;0.805812
9657.000000;0.806411
9656.000000;0.806958
9655.000000;0.806906
9654.000000;0.806049
9653.000000;0.804868
9652.000000;0.804133
9651.000000;0.804214
9650.000000;0.804841
9649.000000;0.805483
9648.000000;0.805850
9647.000000;0.806003
9646.000000;0.806098
9645.000000;0.806122
9644.000000;0.805942
9643.000000;0.805560
9642.000000;0.805189
9641.000000;0.805009
9640.000000;0.804913
9639.000000;0.804651
9638.000000;0.804202
9637.000000;0.803840
9636.000000;0.803788
9635.000000;0.803951
9634.000000;0.804067
9633.000000;0.804026
9632.000000;0.803890
9631.000000;0.803696
9630.000000;0.803393
9629.000000;0.802981
9628.000000;0.802599
9627.000000;0.802431
9626.000000;0.802568
9625.000000;0.802938
9624.000000;0.803316
9623.000000;0.803442
9622.000000;0.803212
9621.000000;0.802776
9620.000000;0.802384
9619.000000;0.802126
9618.000000;0.801896
9617.000000;0.801594
9616.000000;0.801261
9615.000000;0.801017
9614.000000;0.800947
9613.000000;0.801071
9612.000000;0.801347
9611.000000;0.801649
9610.000000;0.801799
9609.000000;0.801709
9608.000000;0.801447
9607.000000;0.801159
9606.000000;0.800950
9605.000000;0.800861
9604.000000;0.800914
9603.000000;0.801109
9602.000000;0.801394
9601.000000;0.801670
9600.000000;0.801800
9599.000000;0.801670
9598.000000;0.801314
9597.000000;0.800990
9596.000000;0.800999
9595.000000;0.801359
9594.000000;0.801725
9593.000000;0.801753
9592.000000;0.801462
9591.000000;0.801106
9590.000000;0.800802
9589.000000;0.800453
9588.000000;0.800057
9587.000000;0.799863
9586.000000;0.800115
9585.000000;0.800714
9584.000000;0.801249
9583.000000;0.801344
9582.000000;0.800944
9581.000000;0.800310
9580.000000;0.799770
9579.000000;0.799437
9578.000000;0.799150
9577.000000;0.798732
9576.000000;0.798272
9575.000000;0.798072
9574.000000;0.798272
9573.000000;0.798650
9572.000000;0.798829
9571.000000;0.798616
9570.000000;0.798086
9569.000000;0.797449
9568.000000;0.796920
9567.000000;0.796647
9566.000000;0.796647
9565.000000;0.796820
9564.000000;0.797075
9563.000000;0.797394
9562.000000;0.797707
9561.000000;0.797815
9560.000000;0.797566
9559.000000;0.797090
9558.000000;0.796727
9557.000000;0.796700
9556.000000;0.796935
9555.000000;0.797207
9554.000000;0.797372
9553.000000;0.797427
9552.000000;0.797434
9551.000000;0.797421
9550.000000;0.797372
9549.000000;0.797272
9548.000000;0.797179
9547.000000;0.797189
9546.000000;0.797313
9545.000000;0.797431
9544.000000;0.797419
9543.000000;0.797248
9542.000000;0.796951
9541.000000;0.796552
9540.000000;0.796118
9539.000000;0.795786
9538.000000;0.795648
9537.000000;0.795654
9536.000000;0.795719
9535.000000;0.795853
9534.000000;0.796045
9533.000000;0.796106
9532.000000;0.795838
9531.000000;0.795348
9530.000000;0.795003
9529.000000;0.795018
9528.000000;0.795237
9527.000000;0.795387
9526.000000;0.795375
9525.000000;0.795259
9524.000000;0.795072
9523.000000;0.794808
9522.000000;0.794523
9521.000000;0.794322
9520.000000;0.794293
9519.000000;0.794469
9518.000000;0.794774
9517.000000;0.794979
9516.000000;0.794838
9515.000000;0.794375
9514.000000;0.793905
9513.000000;0.793668
9512.000000;0.793555
9511.000000;0.793335
9510.000000;0.793057
9509.000000;0.793031
9508.000000;0.793407
9507.000000;0.793926
9506.000000;0.794159
9505.000000;0.793931
9504.000000;0.793464
9503.000000;0.793140
9502.000000;0.793158
9501.000000;0.793414
9500.000000;0.793665
9499.000000;0.793792
9498.000000;0.793838
9497.000000;0.793837
9496.000000;0.793727
9495.000000;0.793477
9494.000000;0.793170
9493.000000;0.792898
9492.000000;0.792646
9491.000000;0.792405
9490.000000;0.792309
9489.000000;0.792506
9488.000000;0.792904
9487.000000;0.793170
9486.000000;0.793053
9485.000000;0.792610
9484.000000;0.792096
9483.000000;0.791701
9482.000000;0.791470
9481.000000;0.791382
9480.000000;0.791407
9479.000000;0.791434
9478.000000;0.791249
9477.000000;0.790722
9476.000000;0.790050
9475.000000;0.789686
9474.000000;0.789888
9473.000000;0.790372
9472.000000;0.790569
9471.000000;0.790271
9470.000000;0.789876
9469.000000;0.789891
9468.000000;0.790347
9467.000000;0.790826
9466.000000;0.790960
9465.000000;0.790755
9464.000000;0.790431
9463.000000;0.790140
9462.000000;0.789888
9461.000000;0.789631
9460.000000;0.789350
9459.000000;0.789084
9458.000000;0.788893
9457.000000;0.788793
9456.000000;0.788744
9455.000000;0.788724
9454.000000;0.788776
9453.000000;0.788932
9452.000000;0.789112
9451.000000;0.789176
9450.000000;0.789067
9449.000000;0.788853
9448.000000;0.788662
9447.000000;0.788626
9446.000000;0.788806
9445.000000;0.789103
9444.000000;0.789282
9443.000000;0.789200
9442.000000;0.788979
9441.000000;0.788861
9440.000000;0.788906
9439.000000;0.788958
9438.000000;0.788880
9437.000000;0.788688
9436.000000;0.788440
9435.000000;0.788127
9434.000000;0.787779
9433.000000;0.787545
9432.000000;0.787564
9431.000000;0.787778
9430.000000;0.787956
9429.000000;0.787904
9428.000000;0.787629
9427.000000;0.787323
9426.000000;0.787219
9425.000000;0.787376
9424.000000;0.787585
9423.000000;0.787534
9422.000000;0.787153
9421.000000;0.786742
9420.000000;0.786671
9419.000000;0.786974
9418.000000;0.787345
9417.000000;0.787525
9416.000000;0.787554
9415.000000;0.787570
9414.000000;0.787501
9413.000000;0.787125
9412.000000;0.786416
9411.000000;0.785669
9410.000000;0.785203
9409.000000;0.785069
9408.000000;0.785123
9407.000000;0.785277
9406.000000;0.785509
9405.000000;0.785692
9404.000000;0.785626
9403.000000;0.785302
9402.000000;0.784969
9401.000000;0.784863
9400.000000;0.784964
9399.000000;0.785099
9398.000000;0.785167
9397.000000;0.785137
9396.000000;0.784966
9395.000000;0.784684
9394.000000;0.784487
9393.000000;0.784564
9392.000000;0.784835
9391.000000;0.785037
9390.000000;0.785101
9389.000000;0.785257
9388.000000;0.785672
9387.000000;0.786154
9386.000000;0.786344
9385.000000;0.786101
9384.000000;0.785582
9383.000000;0.784987
9382.000000;0.784411
9381.000000;0.783946
9380.000000;0.783740
9379.000000;0.783852
9378.000000;0.784118
9377.000000;0.784296
9376.000000;0.784323
9375.000000;0.784336
9374.000000;0.784436
9373.000000;0.784539
9372.000000;0.784510
9371.000000;0.784366
9370.000000;0.784234
9369.000000;0.784148
9368.000000;0.784005
9367.000000;0.783741
9366.000000;0.783432
9365.000000;0.783161
9364.000000;0.782872
9363.000000;0.782444
9362.000000;0.781887
9361.000000;0.781372
9360.000000;0.781068
9359.000000;0.781014
9358.000000;0.781169
9357.000000;0.781523
9356.000000;0.782082
9355.000000;0.782733
9354.000000;0.783197
9353.000000;0.783237
9352.000000;0.782935
9351.000000;0.782651
9350.000000;0.782615
9349.000000;0.782618
9348.000000;0.782258
9347.000000;0.781460
9346.000000;0.780608
9345.000000;0.780107
9344.000000;0.779976
9343.000000;0.779959
9342.000000;0.779906
9341.000000;0.779893
9340.000000;0.780018
9339.000000;0.780234
9338.000000;0.780430
9337.000000;0.780578
9336.000000;0.780728
9335.000000;0.780872
9334.000000;0.780873
9333.000000;0.780578
9332.000000;0.780053
9331.000000;0.779647
9330.000000;0.779713
9329.000000;0.780240
9328.000000;0.780843
9327.000000;0.781136
9326.000000;0.781024
9325.000000;0.780621
9324.000000;0.780046
9323.000000;0.779425
9322.000000;0.778968
9321.000000;0.778878
9320.000000;0.779180
9319.000000;0.779701
9318.000000;0.780172
9317.000000;0.780315
9316.000000;0.779961
9315.000000;0.779248
9314.000000;0.778632
9313.000000;0.778533
9312.000000;0.778948
9311.000000;0.779469
9310.000000;0.779677
9309.000000;0.779461
9308.000000;0.779034
9307.000000;0.778764
9306.000000;0.778923
9305.000000;0.779427
9304.000000;0.779834
9303.000000;0.779741
9302.000000;0.779192
9301.000000;0.778613
9300.000000;0.778356
9299.000000;0.778419
9298.000000;0.778570
9297.000000;0.778575
9296.000000;0.778300
9295.000000;0.777787
9294.000000;0.777307
9293.000000;0.777199
9292.000000;0.777541
9291.000000;0.778064
9290.000000;0.778433
9289.000000;0.778535
9288.000000;0.778450
9287.000000;0.778255
9286.000000;0.777978
9285.000000;0.777688
9284.000000;0.777491
9283.000000;0.777428
9282.000000;0.777417
9281.000000;0.777312
9280.000000;0.777028
9279.000000;0.776632
9278.000000;0.776327
9277.000000;0.776294
9276.000000;0.776545
9275.000000;0.776907
9274.000000;0.777157
9273.000000;0.777154
9272.000000;0.776881
9271.000000;0.776439
9270.000000;0.776008
9269.000000;0.775741
9268.000000;0.775666
9267.000000;0.775687
9266.000000;0.775671
9265.000000;0.775514
9264.000000;0.775185
9263.000000;0.774765
9262.000000;0.774430
9261.000000;0.774333
9260.000000;0.774490
9259.000000;0.774802
9258.000000;0.775127
9257.000000;0.775311
9256.000000;0.775262
9255.000000;0.775072
9254.000000;0.774988
9253.000000;0.775120
9252.000000;0.775243
9251.000000;0.775045
9250.000000;0.774538
9249.000000;0.774056
9248.000000;0.773843
9247.000000;0.773824
9246.000000;0.773807
9245.000000;0.773735
9244.000000;0.773652
9243.000000;0.773553
9242.000000;0.773389
9241.000000;0.773176
9240.000000;0.773003
9239.000000;0.772969
9238.000000;0.773136
9237.000000;0.773483
9236.000000;0.773869
9235.000000;0.774103
9234.000000;0.774093
9233.000000;0.773872
9232.000000;0.773516
9231.000000;0.773109
9230.000000;0.772801
9229.000000;0.772741
9228.000000;0.772889
9227.000000;0.773003
9226.000000;0.772876
9225.000000;0.772545
9224.000000;0.772205
9223.000000;0.771996
9222.000000;0.771924
9221.000000;0.771920
9220.000000;0.771898
9219.000000;0.771805
9218.000000;0.771673
9217.000000;0.771590
9216.000000;0.771598
9215.000000;0.771632
9214.000000;0.771597
9213.000000;0.771470
9212.000000;0.771330
9211.000000;0.771320
9210.000000;0.771514
9209.000000;0.771756
9208.000000;0.771691
9207.000000;0.771108
9206.000000;0.770262
9205.000000;0.769706
9204.000000;0.769739
9203.000000;0.770159
9202.000000;0.770564
9201.000000;0.770753
9200.000000;0.770762
9199.000000;0.770682
9198.000000;0.770605
9197.000000;0.770626
9196.000000;0.770725
9195.000000;0.770706
9194.000000;0.770387
9193.000000;0.769851
9192.000000;0.769403
9191.000000;0.769277
9190.000000;0.769463
9189.000000;0.769770
9188.000000;0.769979
9187.000000;0.769955
9186.000000;0.769718
9185.000000;0.769406
9184.000000;0.769166
9183.000000;0.769048
9182.000000;0.769049
9181.000000;0.769170
9180.000000;0.769385
9179.000000;0.769598
9178.000000;0.769711
9177.000000;0.769724
9176.000000;0.769685
9175.000000;0.769589
9174.000000;0.769366
9173.000000;0.768990
9172.000000;0.768554
9171.000000;0.768223
9170.000000;0.768114
9169.000000;0.768184
9168.000000;0.768224
9167.000000;0.768046
9166.000000;0.767688
9165.000000;0.767404
9164.000000;0.767403
9163.000000;0.767660
9162.000000;0.767986
9161.000000;0.768202
9160.000000;0.768203
9159.000000;0.767973
9158.000000;0.767613
9157.000000;0.767312
9156.000000;0.767186
9155.000000;0.767179
9154.000000;0.767169
9153.000000;0.767107
9152.000000;0.766991
9151.000000;0.766798
9150.000000;0.766558
9149.000000;0.766420
9148.000000;0.766503
9147.000000;0.766708
9146.000000;0.766812
9145.000000;0.766749
9144.000000;0.766658
9143.000000;0.766628
9142.000000;0.766546
9141.000000;0.766272
9140.000000;0.765857
9139.000000;0.765479
9138.000000;0.765249
9137.000000;0.765174
9136.000000;0.765275
9135.000000;0.765589
9134.000000;0.766025
9133.000000;0.766328
9132.000000;0.766302
9131.000000;0.766012
9130.000000;0.765703
9129.000000;0.765517
9128.000000;0.765406
9127.000000;0.765290
9126.000000;0.765167
9125.000000;0.765011
9124.000000;0.764707
9123.000000;0.764242
9122.000000;0.763865
9121.000000;0.763851
9120.000000;0.764147
9119.000000;0.764421
9118.000000;0.764471
9117.000000;0.764389
9116.000000;0.764285
9115.000000;0.764077
9114.000000;0.763711
9113.000000;0.763396
9112.000000;0.763418
9111.000000;0.763789
9110.000000;0.764234
9109.000000;0.764496
9108.000000;0.764513
9107.000000;0.764346
9106.000000;0.764101
9105.000000;0.763923
9104.000000;0.763916
9103.000000;0.764012
9102.000000;0.764017
9101.000000;0.763835
9100.000000;0.763559
9099.000000;0.763317
9098.000000;0.763103
9097.000000;0.762846
9096.000000;0.762573
9095.000000;0.762409
9094.000000;0.762403
9093.000000;0.762405
9092.000000;0.762198
9091.000000;0.761763
9090.000000;0.761358
9089.000000;0.761265
9088.000000;0.761482
9087.000000;0.761743
9086.000000;0.761831
9085.000000;0.761775
9084.000000;0.761710
9083.000000;0.761659
9082.000000;0.761545
9081.000000;0.761326
9080.000000;0.761027
9079.000000;0.760685
9078.000000;0.760371
9077.000000;0.760214
9076.000000;0.760299
9075.000000;0.760544
9074.000000;0.760783
9073.000000;0.760951
9072.000000;0.761088
9071.000000;0.761183
9070.000000;0.761136
9069.000000;0.760918
9068.000000;0.760664
9067.000000;0.760556
9066.000000;0.760639
9065.000000;0.760806
9064.000000;0.760916
9063.000000;0.760904
9062.000000;0.760800
9061.000000;0.760665
9060.000000;0.760521
9059.000000;0.760339
9058.000000;0.760111
9057.000000;0.759891
9056.000000;0.759744
9055.000000;0.759668
9054.000000;0.759623
9053.000000;0.759604
