Criado como novo conjunto de dados;"2706_e01_daniel.spp","93786.7 Secs"
cm-1;Abs
10000.000000;0.854977
9999.000000;0.855133
9998.000000;0.855290
9997.000000;0.855446
9996.000000;0.855603
9995.000000;0.855759
9994.000000;0.855916
9993.000000;0.856073
9992.000000;0.856231
9991.000000;0.856287
9990.000000;0.856063
9989.000000;0.855620
9988.000000;0.855221
9987.000000;0.855010
9986.000000;0.854956
9985.000000;0.855041
9984.000000;0.855268
9983.000000;0.855498
9982.000000;0.855516
9981.000000;0.855291
9980.000000;0.854963
9979.000000;0.854560
9978.000000;0.853930
9977.000000;0.853043
9976.000000;0.852190
9975.000000;0.851784
9974.000000;0.852007
9973.000000;0.852664
9972.000000;0.853312
9971.000000;0.853555
9970.000000;0.853404
9969.000000;0.853357
9968.000000;0.853943
9967.000000;0.855109
9966.000000;0.856212
9965.000000;0.856647
9964.000000;0.856363
9963.000000;0.855682
9962.000000;0.854872
9961.000000;0.854080
9960.000000;0.853498
9959.000000;0.853268
9958.000000;0.853207
9957.000000;0.852903
9956.000000;0.852203
9955.000000;0.851455
9954.000000;0.851142
9953.000000;0.851348
9952.000000;0.851701
9951.000000;0.851794
9950.000000;0.851557
9949.000000;0.851241
9948.000000;0.851130
9947.000000;0.851311
9946.000000;0.851642
9945.000000;0.851864
9944.000000;0.851815
9943.000000;0.851597
9942.000000;0.851495
9941.000000;0.851649
9940.000000;0.851840
9939.000000;0.851718
9938.000000;0.851233
9937.000000;0.850738
9936.000000;0.850569
9935.000000;0.850670
9934.000000;0.850720
9933.000000;0.850567
9932.000000;0.850374
9931.000000;0.850349
9930.000000;0.850469
9929.000000;0.850545
9928.000000;0.850459
9927.000000;0.850255
9926.000000;0.850058
9925.000000;0.849980
9924.000000;0.850094
9923.000000;0.850386
9922.000000;0.850704
9921.000000;0.850805
9920.000000;0.850546
9919.000000;0.850024
9918.000000;0.849497
9917.000000;0.849162
9916.000000;0.849070
9915.000000;0.849224
9914.000000;0.849620
9913.000000;0.850091
9912.000000;0.850241
9911.000000;0.849742
9910.000000;0.848716
9909.000000;0.847654
9908.000000;0.846913
9907.000000;0.846464
9906.000000;0.846169
9905.000000;0.846079
9904.000000;0.846290
9903.000000;0.846639
9902.000000;0.846811
9901.000000;0.846717
9900.000000;0.846543
9899.000000;0.846422
9898.000000;0.846244
9897.000000;0.845859
9896.000000;0.845351
9895.000000;0.845017
9894.000000;0.845128
9893.000000;0.845689
9892.000000;0.846373
9891.000000;0.846714
9890.000000;0.846511
9889.000000;0.846053
9888.000000;0.845814
9887.000000;0.845904
9886.000000;0.845973
9885.000000;0.845682
9884.000000;0.845109
9883.000000;0.844617
9882.000000;0.844460
9881.000000;0.844631
9880.000000;0.844990
9879.000000;0.845400
9878.000000;0.845758
9877.000000;0.845984
9876.000000;0.845996
9875.000000;0.845736
9874.000000;0.845307
9873.000000;0.845056
9872.000000;0.845324
9871.000000;0.846036
9870.000000;0.846677
9869.000000;0.846821
9868.000000;0.846567
9867.000000;0.846332
9866.000000;0.846299
9865.000000;0.846266
9864.000000;0.845983
9863.000000;0.845471
9862.000000;0.844983
9861.000000;0.844752
9860.000000;0.844797
9859.000000;0.844921
9858.000000;0.844905
9857.000000;0.844744
9856.000000;0.844627
9855.000000;0.844631
9854.000000;0.844547
9853.000000;0.844146
9852.000000;0.843529
9851.000000;0.843069
9850.000000;0.843016
9849.000000;0.843317
9848.000000;0.843770
9847.000000;0.844182
9846.000000;0.844367
9845.000000;0.844218
9844.000000;0.843866
9843.000000;0.843633
9842.000000;0.843684
9841.000000;0.843803
9840.000000;0.843586
9839.000000;0.842825
9838.000000;0.841681
9837.000000;0.840614
9836.000000;0.840167
9835.000000;0.840654
9834.000000;0.841860
9833.000000;0.843076
9832.000000;0.843596
9831.000000;0.843277
9830.000000;0.842580
9829.000000;0.842058
9828.000000;0.841844
9827.000000;0.841632
9826.000000;0.841134
9825.000000;0.840491
9824.000000;0.840195
9823.000000;0.840582
9822.000000;0.841474
9821.000000;0.842383
9820.000000;0.843000
9819.000000;0.843308
9818.000000;0.843295
9817.000000;0.842817
9816.000000;0.841928
9815.000000;0.841112
9814.000000;0.840889
9813.000000;0.841211
9812.000000;0.841466
9811.000000;0.841143
9810.000000;0.840355
9809.000000;0.839651
9808.000000;0.839436
9807.000000;0.839671
9806.000000;0.840016
9805.000000;0.840170
9804.000000;0.840091
9803.000000;0.839967
9802.000000;0.839995
9801.000000;0.840179
9800.000000;0.840370
9799.000000;0.840476
9798.000000;0.840561
9797.000000;0.840706
9796.000000;0.840843
9795.000000;0.840812
9794.000000;0.840537
9793.000000;0.840124
9792.000000;0.839768
9791.000000;0.839627
9790.000000;0.839744
9789.000000;0.840043
9788.000000;0.840350
9787.000000;0.840492
9786.000000;0.840399
9785.000000;0.840161
9784.000000;0.839944
9783.000000;0.839833
9782.000000;0.839749
9781.000000;0.839535
9780.000000;0.839152
9779.000000;0.838747
9778.000000;0.838492
9777.000000;0.838383
9776.000000;0.838300
9775.000000;0.838240
9774.000000;0.838343
9773.000000;0.838620
9772.000000;0.838772
9771.000000;0.838475
9770.000000;0.837818
9769.000000;0.837321
9768.000000;0.837417
9767.000000;0.837998
9766.000000;0.838543
9765.000000;0.838663
9764.000000;0.838438
9763.000000;0.838238
9762.000000;0.838280
9761.000000;0.838415
9760.000000;0.838338
9759.000000;0.837928
9758.000000;0.837348
9757.000000;0.836811
9756.000000;0.836361
9755.000000;0.835938
9754.000000;0.835608
9753.000000;0.835564
9752.000000;0.835856
9751.000000;0.836207
9750.000000;0.836236
9749.000000;0.835843
9748.000000;0.835296
9747.000000;0.834952
9746.000000;0.834965
9745.000000;0.835252
9744.000000;0.835654
9743.000000;0.836057
9742.000000;0.836441
9741.000000;0.836832
9740.000000;0.837200
9739.000000;0.837371
9738.000000;0.837107
9737.000000;0.836358
9736.000000;0.835406
9735.000000;0.834692
9734.000000;0.834461
9733.000000;0.834622
9732.000000;0.834902
9731.000000;0.835116
9730.000000;0.835276
9729.000000;0.835498
9728.000000;0.835826
9727.000000;0.836109
9726.000000;0.836074
9725.000000;0.835583
9724.000000;0.834805
9723.000000;0.834109
9722.000000;0.833756
9721.000000;0.833752
9720.000000;0.833955
9719.000000;0.834205
9718.000000;0.834341
9717.000000;0.834252
9716.000000;0.834034
9715.000000;0.833987
9714.000000;0.834280
9713.000000;0.834691
9712.000000;0.834830
9711.000000;0.834616
9710.000000;0.834343
9709.000000;0.834296
9708.000000;0.834466
9707.000000;0.834696
9706.000000;0.834886
9705.000000;0.834944
9704.000000;0.834755
9703.000000;0.834335
9702.000000;0.833888
9701.000000;0.833519
9700.000000;0.833024
9699.000000;0.832213
9698.000000;0.831348
9697.000000;0.830985
9696.000000;0.831352
9695.000000;0.832091
9694.000000;0.832668
9693.000000;0.832850
9692.000000;0.832712
9691.000000;0.832390
9690.000000;0.832008
9689.000000;0.831728
9688.000000;0.831676
9687.000000;0.831819
9686.000000;0.832007
9685.000000;0.832127
9684.000000;0.832172
9683.000000;0.832197
9682.000000;0.832243
9681.000000;0.832267
9680.000000;0.832111
9679.000000;0.831635
9678.000000;0.830931
9677.000000;0.830304
9676.000000;0.829982
9675.000000;0.829893
9674.000000;0.829819
9673.000000;0.829667
9672.000000;0.829503
9671.000000;0.829408
9670.000000;0.829432
9669.000000;0.829637
9668.000000;0.830061
9667.000000;0.830634
9666.000000;0.831203
9665.000000;0.831609
9664.000000;0.831692
9663.000000;0.831329
9662.000000;0.830585
9661.000000;0.829793
9660.000000;0.829343
9659.000000;0.829367
9658.000000;0.829680
9657.000000;0.829956
9656.000000;0.829918
9655.000000;0.829476
9654.000000;0.828850
9653.000000;0.828480
9652.000000;0.828610
9651.000000;0.828961
9650.000000;0.828994
9649.000000;0.828519
9648.000000;0.827892
9647.000000;0.827574
9646.000000;0.827681
9645.000000;0.828011
9644.000000;0.828316
9643.000000;0.828432
9642.000000;0.828279
9641.000000;0.827897
9640.000000;0.827474
9639.000000;0.827246
9638.000000;0.827339
9637.000000;0.827700
9636.000000;0.828093
9635.000000;0.828203
9634.000000;0.827884
9633.000000;0.827359
9632.000000;0.827017
9631.000000;0.826992
9630.000000;0.827077
9629.000000;0.827085
9628.000000;0.827102
9627.000000;0.827257
9626.000000;0.827458
9625.000000;0.827527
9624.000000;0.827503
9623.000000;0.827596
9622.000000;0.827883
9621.000000;0.828202
9620.000000;0.828329
9619.000000;0.828131
9618.000000;0.827618
9617.000000;0.826971
9616.000000;0.826502
9615.000000;0.826433
9614.000000;0.826680
9613.000000;0.826934
9612.000000;0.826964
9611.000000;0.826774
9610.000000;0.826515
9609.000000;0.826354
9608.000000;0.826381
9607.000000;0.826516
9606.000000;0.826534
9605.000000;0.826277
9604.000000;0.825825
9603.000000;0.825374
9602.000000;0.825014
9601.000000;0.824756
9600.000000;0.824709
9599.000000;0.825004
9598.000000;0.825542
9597.000000;0.826016
9596.000000;0.826245
9595.000000;0.826318
9594.000000;0.826343
9593.000000;0.826237
9592.000000;0.825896
9591.000000;0.825438
9590.000000;0.825106
9589.000000;0.824992
9588.000000;0.824995
9587.000000;0.825027
9586.000000;0.825106
9585.000000;0.825242
9584.000000;0.825323
9583.000000;0.825191
9582.000000;0.824823
9581.000000;0.824393
9580.000000;0.824124
9579.000000;0.824067
9578.000000;0.824053
9577.000000;0.823907
9576.000000;0.823704
9575.000000;0.823685
9574.000000;0.823924
9573.000000;0.824171
9572.000000;0.824117
9571.000000;0.823721
9570.000000;0.823207
9569.000000;0.822812
9568.000000;0.822632
9567.000000;0.822653
9566.000000;0.822831
9565.000000;0.823092
9564.000000;0.823347
9563.000000;0.823519
9562.000000;0.823558
9561.000000;0.823435
9560.000000;0.823163
9559.000000;0.822816
9558.000000;0.822490
9557.000000;0.822231
9556.000000;0.822005
9555.000000;0.821732
9554.000000;0.821380
9553.000000;0.821059
9552.000000;0.821010
9551.000000;0.821399
9550.000000;0.822100
9549.000000;0.822729
9548.000000;0.822956
9547.000000;0.822761
9546.000000;0.822382
9545.000000;0.822084
9544.000000;0.822024
9543.000000;0.822175
9542.000000;0.822283
9541.000000;0.821988
9540.000000;0.821185
9539.000000;0.820244
9538.000000;0.819742
9537.000000;0.819938
9536.000000;0.820586
9535.000000;0.821228
9534.000000;0.821562
9533.000000;0.821535
9532.000000;0.821280
9531.000000;0.821010
9530.000000;0.820888
9529.000000;0.820879
9528.000000;0.820810
9527.000000;0.820607
9526.000000;0.820409
9525.000000;0.820370
9524.000000;0.820464
9523.000000;0.820557
9522.000000;0.820576
9521.000000;0.820523
9520.000000;0.820405
9519.000000;0.820275
9518.000000;0.820252
9517.000000;0.820356
9516.000000;0.820368
9515.000000;0.820034
9514.000000;0.819418
9513.000000;0.818915
9512.000000;0.818865
9511.000000;0.819254
9510.000000;0.819809
9509.000000;0.820245
9508.000000;0.820398
9507.000000;0.820262
9506.000000;0.819986
9505.000000;0.819759
9504.000000;0.819633
9503.000000;0.819505
9502.000000;0.819328
9501.000000;0.819209
9500.000000;0.819225
9499.000000;0.819246
9498.000000;0.819076
9497.000000;0.818692
9496.000000;0.818233
9495.000000;0.817826
9494.000000;0.817553
9493.000000;0.817486
9492.000000;0.817602
9491.000000;0.817694
9490.000000;0.817593
9489.000000;0.817467
9488.000000;0.817692
9487.000000;0.818359
9486.000000;0.819092
9485.000000;0.819456
9484.000000;0.819386
9483.000000;0.819092
9482.000000;0.818725
9481.000000;0.818312
9480.000000;0.817911
9479.000000;0.817585
9478.000000;0.817259
9477.000000;0.816811
9476.000000;0.816329
9475.000000;0.816111
9474.000000;0.816331
9473.000000;0.816820
9472.000000;0.817226
9471.000000;0.817323
9470.000000;0.817118
9469.000000;0.816756
9468.000000;0.816420
9467.000000;0.816240
9466.000000;0.816209
9465.000000;0.816204
9464.000000;0.816144
9463.000000;0.816071
9462.000000;0.816037
9461.000000;0.815938
9460.000000;0.815596
9459.000000;0.814999
9458.000000;0.814395
9457.000000;0.814076
9456.000000;0.814142
9455.000000;0.814471
9454.000000;0.814879
9453.000000;0.815210
9452.000000;0.815330
9451.000000;0.815169
9450.000000;0.814835
9449.000000;0.814623
9448.000000;0.814799
9447.000000;0.815328
9446.000000;0.815861
9445.000000;0.816023
9444.000000;0.815706
9443.000000;0.815101
9442.000000;0.814499
9441.000000;0.814082
9440.000000;0.813859
9439.000000;0.813747
9438.000000;0.813719
9437.000000;0.813847
9436.000000;0.814199
9435.000000;0.814700
9434.000000;0.815150
9433.000000;0.815377
9432.000000;0.815348
9431.000000;0.815119
9430.000000;0.814768
9429.000000;0.814397
9428.000000;0.814111
9427.000000;0.813927
9426.000000;0.813763
9425.000000;0.813555
9424.000000;0.813316
9423.000000;0.813038
9422.000000;0.812658
9421.000000;0.812234
9420.000000;0.812043
9419.000000;0.812298
9418.000000;0.812812
9417.000000;0.813137
9416.000000;0.813077
9415.000000;0.812878
9414.000000;0.812861
9413.000000;0.813029
9412.000000;0.813166
9411.000000;0.813159
9410.000000;0.813078
9409.000000;0.813016
9408.000000;0.813004
9407.000000;0.813064
9406.000000;0.813193
9405.000000;0.813315
9404.000000;0.813352
9403.000000;0.813312
9402.000000;0.813218
9401.000000;0.812982
9400.000000;0.812515
9399.000000;0.811943
9398.000000;0.811583
9397.000000;0.811627
9396.000000;0.811959
9395.000000;0.812287
9394.000000;0.812399
9393.000000;0.812244
9392.000000;0.811922
9391.000000;0.811645
9390.000000;0.811608
9389.000000;0.811776
9388.000000;0.811855
9387.000000;0.811587
9386.000000;0.811047
9385.000000;0.810555
9384.000000;0.810307
9383.000000;0.810204
9382.000000;0.810048
9381.000000;0.809830
9380.000000;0.809748
9379.000000;0.809981
9378.000000;0.810484
9377.000000;0.811011
9376.000000;0.811323
9375.000000;0.811383
9374.000000;0.811324
9373.000000;0.811247
9372.000000;0.811095
9371.000000;0.810783
9370.000000;0.810363
9369.000000;0.810003
9368.000000;0.809802
9367.000000;0.809703
9366.000000;0.809608
9365.000000;0.809484
9364.000000;0.809334
9363.000000;0.809167
9362.000000;0.809050
9361.000000;0.809144
9360.000000;0.809566
9359.000000;0.810184
9358.000000;0.810636
9357.000000;0.810630
9356.000000;0.810216
9355.000000;0.809732
9354.000000;0.809460
9353.000000;0.809386
9352.000000;0.809319
9351.000000;0.809181
9350.000000;0.809104
9349.000000;0.809218
9348.000000;0.809449
9347.000000;0.809618
9346.000000;0.809670
9345.000000;0.809692
9344.000000;0.809688
9343.000000;0.809460
9342.000000;0.808823
9341.000000;0.807879
9340.000000;0.807028
9339.000000;0.806689
9338.000000;0.806995
9337.000000;0.807688
9336.000000;0.808283
9335.000000;0.808414
9334.000000;0.808100
9333.000000;0.807666
9332.000000;0.807369
9331.000000;0.807183
9330.000000;0.806995
9329.000000;0.806880
9328.000000;0.806997
9327.000000;0.807258
9326.000000;0.807320
9325.000000;0.806998
9324.000000;0.806559
9323.000000;0.806459
9322.000000;0.806839
9321.000000;0.807421
9320.000000;0.807864
9319.000000;0.808082
9318.000000;0.808165
9317.000000;0.808115
9316.000000;0.807807
9315.000000;0.807214
9314.000000;0.806522
9313.000000;0.805978
9312.000000;0.805670
9311.000000;0.805519
9310.000000;0.805462
9309.000000;0.805525
9308.000000;0.805722
9307.000000;0.805971
9306.000000;0.806168
9305.000000;0.806268
9304.000000;0.806252
9303.000000;0.806092
9302.000000;0.805840
9301.000000;0.805690
9300.000000;0.805820
9299.000000;0.806159
9298.000000;0.806441
9297.000000;0.806488
9296.000000;0.806337
9295.000000;0.806040
9294.000000;0.805538
9293.000000;0.804854
9292.000000;0.804310
9291.000000;0.804314
9290.000000;0.804890
9289.000000;0.805579
9288.000000;0.805884
9287.000000;0.805761
9286.000000;0.805572
9285.000000;0.805622
9284.000000;0.805842
9283.000000;0.805917
9282.000000;0.805639
9281.000000;0.805078
9280.000000;0.804494
9279.000000;0.804138
9278.000000;0.804122
9277.000000;0.804378
9276.000000;0.804706
9275.000000;0.804901
9274.000000;0.804901
9273.000000;0.804802
9272.000000;0.804708
9271.000000;0.804580
9270.000000;0.804288
9269.000000;0.803814
9268.000000;0.803334
9267.000000;0.803070
9266.000000;0.803066
9265.000000;0.803160
9264.000000;0.803155
9263.000000;0.803007
9262.000000;0.802815
9261.000000;0.802678
9260.000000;0.802579
9259.000000;0.802455
9258.000000;0.802344
9257.000000;0.802384
9256.000000;0.802658
9255.000000;0.803053
9254.000000;0.803332
9253.000000;0.803333
9252.000000;0.803069
9251.000000;0.802681
9250.000000;0.802336
9249.000000;0.802148
9248.000000;0.802092
9247.000000;0.802002
9246.000000;0.801744
9245.000000;0.801409
9244.000000;0.801264
9243.000000;0.801453
9242.000000;0.801830
9241.000000;0.802163
9240.000000;0.802396
9239.000000;0.802591
9238.000000;0.802681
9237.000000;0.802439
9236.000000;0.801774
9235.000000;0.800918
9234.000000;0.800244
9233.000000;0.799942
9232.000000;0.799951
9231.000000;0.800151
9230.000000;0.800511
9229.000000;0.801018
9228.000000;0.801544
9227.000000;0.801861
9226.000000;0.801821
9225.000000;0.801495
9224.000000;0.801129
9223.000000;0.800941
9222.000000;0.800941
9221.000000;0.800952
9220.000000;0.800843
9219.000000;0.800692
9218.000000;0.800695
9217.000000;0.800897
9216.000000;0.801106
9215.000000;0.801116
9214.000000;0.800958
9213.000000;0.800837
9212.000000;0.800841
9211.000000;0.800816
9210.000000;0.800569
9209.000000;0.800120
9208.000000;0.799694
9207.000000;0.799506
9206.000000;0.799606
9205.000000;0.799873
9204.000000;0.800110
9203.000000;0.800182
9202.000000;0.800120
9201.000000;0.800090
9200.000000;0.800196
9199.000000;0.800356
9198.000000;0.800419
9197.000000;0.800337
9196.000000;0.800142
9195.000000;0.799812
9194.000000;0.799321
9193.000000;0.798821
9192.000000;0.798601
9191.000000;0.798764
9190.000000;0.799063
9189.000000;0.799155
9188.000000;0.798982
9187.000000;0.798781
9186.000000;0.798770
9185.000000;0.798924
9184.000000;0.799069
9183.000000;0.799060
9182.000000;0.798853
9181.000000;0.798478
9180.000000;0.798034
9179.000000;0.797661
9178.000000;0.797454
9177.000000;0.797389
9176.000000;0.797374
9175.000000;0.797384
9174.000000;0.797493
9173.000000;0.797739
9172.000000;0.798005
9171.000000;0.798091
9170.000000;0.797916
9169.000000;0.797616
9168.000000;0.797417
9167.000000;0.797440
9166.000000;0.797629
9165.000000;0.797789
9164.000000;0.797691
9163.000000;0.797237
9162.000000;0.796596
9161.000000;0.796138
9160.000000;0.796105
9159.000000;0.796369
9158.000000;0.796585
9157.000000;0.796561
9156.000000;0.796407
9155.000000;0.796328
9154.000000;0.796382
9153.000000;0.796455
9152.000000;0.796375
9151.000000;0.796047
9150.000000;0.795570
9149.000000;0.795224
9148.000000;0.795226
9147.000000;0.795454
9146.000000;0.795556
9145.000000;0.795395
9144.000000;0.795252
9143.000000;0.795452
9142.000000;0.795904
9141.000000;0.796174
9140.000000;0.796002
9139.000000;0.795573
9138.000000;0.795265
9137.000000;0.795263
9136.000000;0.795464
9135.000000;0.795645
9134.000000;0.795664
9133.000000;0.795551
9132.000000;0.795464
9131.000000;0.795524
9130.000000;0.795665
9129.000000;0.795686
9128.000000;0.795478
9127.000000;0.795169
9126.000000;0.795009
9125.000000;0.795112
9124.000000;0.795362
9123.000000;0.795535
9122.000000;0.795504
9121.000000;0.795310
9120.000000;0.795071
9119.000000;0.794876
9118.000000;0.794770
9117.000000;0.794786
9116.000000;0.794926
9115.000000;0.795108
9114.000000;0.795192
9113.000000;0.795108
9112.000000;0.794933
9111.000000;0.794796
9110.000000;0.794737
9109.000000;0.794679
9108.000000;0.794527
9107.000000;0.794276
9106.000000;0.794013
9105.000000;0.793839
9104.000000;0.793765
9103.000000;0.793697
9102.000000;0.793537
9101.000000;0.793313
9100.000000;0.793178
9099.000000;0.793264
9098.000000;0.793558
9097.000000;0.793911
9096.000000;0.794129
9095.000000;0.794068
9094.000000;0.793707
9093.000000;0.793175
9092.000000;0.792674
9091.000000;0.792352
9090.000000;0.792251
9089.000000;0.792351
9088.000000;0.792594
9087.000000;0.792881
9086.000000;0.793111
9085.000000;0.793262
9084.000000;0.793350
9083.000000;0.793322
9082.000000;0.793100
9081.000000;0.792765
9080.000000;0.792542
9079.000000;0.792513
9078.000000;0.792466
9077.000000;0.792168
9076.000000;0.791694
9075.000000;0.791349
9074.000000;0.791303
9073.000000;0.791474
9072.000000;0.791717
9071.000000;0.791949
9070.000000;0.792066
9069.000000;0.791917
9068.000000;0.791482
9067.000000;0.790994
9066.000000;0.790760
9065.000000;0.790887
9064.000000;0.791221
9063.000000;0.791520
9062.000000;0.791657
9061.000000;0.791669
9060.000000;0.791651
9059.000000;0.791619
9058.000000;0.791516
9057.000000;0.791335
9056.000000;0.791190
9055.000000;0.791181
9054.000000;0.791244
9053.000000;0.791229
