Criado como novo conjunto de dados;"2706_e01_daniel.spp","79746.2 Secs"
cm-1;Abs
10000.000000;0.802845
9999.000000;0.802906
9998.000000;0.802583
9997.000000;0.802026
9996.000000;0.801980
9995.000000;0.802696
9994.000000;0.803442
9993.000000;0.803339
9992.000000;0.802507
9991.000000;0.801800
9990.000000;0.801638
9989.000000;0.801581
9988.000000;0.801099
9987.000000;0.800360
9986.000000;0.800062
9985.000000;0.800609
9984.000000;0.801589
9983.000000;0.802124
9982.000000;0.801779
9981.000000;0.801015
9980.000000;0.800607
9979.000000;0.800744
9978.000000;0.800942
9977.000000;0.800738
9976.000000;0.800146
9975.000000;0.799433
9974.000000;0.798813
9973.000000;0.798451
9972.000000;0.798454
9971.000000;0.798701
9970.000000;0.798907
9969.000000;0.798940
9968.000000;0.798899
9967.000000;0.798856
9966.000000;0.798766
9965.000000;0.798699
9964.000000;0.798867
9963.000000;0.799345
9962.000000;0.799966
9961.000000;0.800520
9960.000000;0.800857
9959.000000;0.800757
9958.000000;0.800010
9957.000000;0.798728
9956.000000;0.797386
9955.000000;0.796493
9954.000000;0.796303
9953.000000;0.796705
9952.000000;0.797187
9951.000000;0.797095
9950.000000;0.796286
9949.000000;0.795432
9948.000000;0.795278
9947.000000;0.795732
9946.000000;0.796067
9945.000000;0.795969
9944.000000;0.795878
9943.000000;0.796192
9942.000000;0.796689
9941.000000;0.796927
9940.000000;0.796797
9939.000000;0.796438
9938.000000;0.795938
9937.000000;0.795371
9936.000000;0.794908
9935.000000;0.794688
9934.000000;0.794697
9933.000000;0.794860
9932.000000;0.795106
9931.000000;0.795357
9930.000000;0.795568
9929.000000;0.795714
9928.000000;0.795616
9927.000000;0.794967
9926.000000;0.793835
9925.000000;0.792880
9924.000000;0.792629
9923.000000;0.792748
9922.000000;0.792533
9921.000000;0.791963
9920.000000;0.791655
9919.000000;0.791848
9918.000000;0.792100
9917.000000;0.792114
9916.000000;0.792239
9915.000000;0.792838
9914.000000;0.793631
9913.000000;0.793970
9912.000000;0.793495
9911.000000;0.792395
9910.000000;0.791288
9909.000000;0.790900
9908.000000;0.791486
9907.000000;0.792480
9906.000000;0.793058
9905.000000;0.793094
9904.000000;0.793134
9903.000000;0.793388
9902.000000;0.793362
9901.000000;0.792663
9900.000000;0.791638
9899.000000;0.790902
9898.000000;0.790633
9897.000000;0.790641
9896.000000;0.790801
9895.000000;0.791093
9894.000000;0.791419
9893.000000;0.791642
9892.000000;0.791679
9891.000000;0.791471
9890.000000;0.791045
9889.000000;0.790668
9888.000000;0.790644
9887.000000;0.790910
9886.000000;0.791056
9885.000000;0.790805
9884.000000;0.790211
9883.000000;0.789419
9882.000000;0.788567
9881.000000;0.787941
9880.000000;0.787820
9879.000000;0.788071
9878.000000;0.788239
9877.000000;0.788127
9876.000000;0.787960
9875.000000;0.787898
9874.000000;0.787733
9873.000000;0.787200
9872.000000;0.786314
9871.000000;0.785372
9870.000000;0.784844
9869.000000;0.785205
9868.000000;0.786515
9867.000000;0.788157
9866.000000;0.789326
9865.000000;0.789748
9864.000000;0.789625
9863.000000;0.789072
9862.000000;0.788179
9861.000000;0.787479
9860.000000;0.787592
9859.000000;0.788294
9858.000000;0.788583
9857.000000;0.787895
9856.000000;0.786741
9855.000000;0.785885
9854.000000;0.785497
9853.000000;0.785375
9852.000000;0.785449
9851.000000;0.785649
9850.000000;0.785695
9849.000000;0.785443
9848.000000;0.785169
9847.000000;0.785153
9846.000000;0.785249
9845.000000;0.785156
9844.000000;0.784888
9843.000000;0.784710
9842.000000;0.784804
9841.000000;0.785182
9840.000000;0.785711
9839.000000;0.786050
9838.000000;0.785809
9837.000000;0.784978
9836.000000;0.784015
9835.000000;0.783354
9834.000000;0.783018
9833.000000;0.782795
9832.000000;0.782530
9831.000000;0.782177
9830.000000;0.781820
9829.000000;0.781739
9828.000000;0.782193
9827.000000;0.783047
9826.000000;0.783822
9825.000000;0.784138
9824.000000;0.783891
9823.000000;0.783098
9822.000000;0.781941
9821.000000;0.780934
9820.000000;0.780579
9819.000000;0.780754
9818.000000;0.780883
9817.000000;0.780809
9816.000000;0.781003
9815.000000;0.781718
9814.000000;0.782426
9813.000000;0.782445
9812.000000;0.781764
9811.000000;0.780922
9810.000000;0.780358
9809.000000;0.780177
9808.000000;0.780322
9807.000000;0.780651
9806.000000;0.780928
9805.000000;0.780947
9804.000000;0.780630
9803.000000;0.780010
9802.000000;0.779280
9801.000000;0.778829
9800.000000;0.778955
9799.000000;0.779498
9798.000000;0.780007
9797.000000;0.780297
9796.000000;0.780545
9795.000000;0.780825
9794.000000;0.780953
9793.000000;0.780850
9792.000000;0.780681
9791.000000;0.780499
9790.000000;0.780145
9789.000000;0.779621
9788.000000;0.779185
9787.000000;0.778907
9786.000000;0.778548
9785.000000;0.778098
9784.000000;0.778026
9783.000000;0.778673
9782.000000;0.779647
9781.000000;0.780186
9780.000000;0.779978
9779.000000;0.779376
9778.000000;0.778892
9777.000000;0.778689
9776.000000;0.778521
9775.000000;0.778082
9774.000000;0.777430
9773.000000;0.777011
9772.000000;0.777139
9771.000000;0.777538
9770.000000;0.777620
9769.000000;0.777195
9768.000000;0.776694
9767.000000;0.776703
9766.000000;0.777460
9765.000000;0.778682
9764.000000;0.779620
9763.000000;0.779481
9762.000000;0.778207
9761.000000;0.776694
9760.000000;0.775855
9759.000000;0.775624
9758.000000;0.775317
9757.000000;0.774822
9756.000000;0.774745
9755.000000;0.775361
9754.000000;0.776111
9753.000000;0.776368
9752.000000;0.776170
9751.000000;0.775932
9750.000000;0.775847
9749.000000;0.775864
9748.000000;0.775864
9747.000000;0.775643
9746.000000;0.775084
9745.000000;0.774530
9744.000000;0.774564
9743.000000;0.775238
9742.000000;0.775910
9741.000000;0.776082
9740.000000;0.775983
9739.000000;0.776052
9738.000000;0.776240
9737.000000;0.776190
9736.000000;0.775807
9735.000000;0.775340
9734.000000;0.775065
9733.000000;0.775120
9732.000000;0.775447
9731.000000;0.775725
9730.000000;0.775620
9729.000000;0.775235
9728.000000;0.775013
9727.000000;0.775051
9726.000000;0.774869
9725.000000;0.774097
9724.000000;0.773048
9723.000000;0.772356
9722.000000;0.772320
9721.000000;0.772840
9720.000000;0.773664
9719.000000;0.774409
9718.000000;0.774597
9717.000000;0.774041
9716.000000;0.773112
9715.000000;0.772368
9714.000000;0.772053
9713.000000;0.772112
9712.000000;0.772456
9711.000000;0.772938
9710.000000;0.773234
9709.000000;0.773071
9708.000000;0.772544
9707.000000;0.772054
9706.000000;0.771915
9705.000000;0.772111
9704.000000;0.772311
9703.000000;0.772103
9702.000000;0.771368
9701.000000;0.770502
9700.000000;0.770123
9699.000000;0.770471
9698.000000;0.771180
9697.000000;0.771668
9696.000000;0.771654
9695.000000;0.771325
9694.000000;0.771099
9693.000000;0.771248
9692.000000;0.771592
9691.000000;0.771633
9690.000000;0.771126
9689.000000;0.770425
9688.000000;0.770037
9687.000000;0.770014
9686.000000;0.770081
9685.000000;0.770207
9684.000000;0.770598
9683.000000;0.771146
9682.000000;0.771369
9681.000000;0.771023
9680.000000;0.770401
9679.000000;0.769871
9678.000000;0.769463
9677.000000;0.769051
9676.000000;0.768645
9675.000000;0.768340
9674.000000;0.768149
9673.000000;0.768018
9672.000000;0.767849
9671.000000;0.767538
9670.000000;0.767182
9669.000000;0.767174
9668.000000;0.767781
9667.000000;0.768628
9666.000000;0.768975
9665.000000;0.768540
9664.000000;0.767743
9663.000000;0.767112
9662.000000;0.766795
9661.000000;0.766698
9660.000000;0.766719
9659.000000;0.766727
9658.000000;0.766600
9657.000000;0.766405
9656.000000;0.766290
9655.000000;0.766216
9654.000000;0.766074
9653.000000;0.766037
9652.000000;0.766390
9651.000000;0.766962
9650.000000;0.767152
9649.000000;0.766639
9648.000000;0.765756
9647.000000;0.765059
9646.000000;0.764826
9645.000000;0.765025
9644.000000;0.765418
9643.000000;0.765636
9642.000000;0.765487
9641.000000;0.765246
9640.000000;0.765333
9639.000000;0.765679
9638.000000;0.765797
9637.000000;0.765476
9636.000000;0.764996
9635.000000;0.764629
9634.000000;0.764390
9633.000000;0.764337
9632.000000;0.764598
9631.000000;0.764979
9630.000000;0.765010
9629.000000;0.764584
9628.000000;0.764128
9627.000000;0.763972
9626.000000;0.763998
9625.000000;0.764077
9624.000000;0.764351
9623.000000;0.764808
9622.000000;0.765026
9621.000000;0.764686
9620.000000;0.764007
9619.000000;0.763427
9618.000000;0.763129
9617.000000;0.763116
9616.000000;0.763383
9615.000000;0.763763
9614.000000;0.763917
9613.000000;0.763767
9612.000000;0.763633
9611.000000;0.763713
9610.000000;0.763712
9609.000000;0.763256
9608.000000;0.762413
9607.000000;0.761558
9606.000000;0.760971
9605.000000;0.760759
9604.000000;0.760901
9603.000000;0.761149
9602.000000;0.761163
9601.000000;0.760937
9600.000000;0.760833
9599.000000;0.761024
9598.000000;0.761216
9597.000000;0.761137
9596.000000;0.760975
9595.000000;0.761026
9594.000000;0.761185
9593.000000;0.761099
9592.000000;0.760652
9591.000000;0.760058
9590.000000;0.759649
9589.000000;0.759715
9588.000000;0.760310
9587.000000;0.761035
9586.000000;0.761301
9585.000000;0.761003
9584.000000;0.760664
9583.000000;0.760660
9582.000000;0.760662
9581.000000;0.760157
9580.000000;0.759297
9579.000000;0.758819
9578.000000;0.759195
9577.000000;0.760139
9576.000000;0.760912
9575.000000;0.760981
9574.000000;0.760450
9573.000000;0.759956
9572.000000;0.759983
9571.000000;0.760255
9570.000000;0.760037
9569.000000;0.759127
9568.000000;0.758208
9567.000000;0.758015
9566.000000;0.758487
9565.000000;0.759005
9564.000000;0.759196
9563.000000;0.759172
9562.000000;0.759148
9561.000000;0.759185
9560.000000;0.759263
9559.000000;0.759283
9558.000000;0.759015
9557.000000;0.758292
9556.000000;0.757310
9555.000000;0.756572
9554.000000;0.756474
9553.000000;0.756966
9552.000000;0.757609
9551.000000;0.757937
9550.000000;0.757838
9549.000000;0.757565
9548.000000;0.757351
9547.000000;0.757111
9546.000000;0.756670
9545.000000;0.756166
9544.000000;0.755964
9543.000000;0.756185
9542.000000;0.756590
9541.000000;0.756917
9540.000000;0.757092
9539.000000;0.757079
9538.000000;0.756816
9537.000000;0.756372
9536.000000;0.755898
9535.000000;0.755411
9534.000000;0.754911
9533.000000;0.754679
9532.000000;0.755068
9531.000000;0.755897
9530.000000;0.756471
9529.000000;0.756398
9528.000000;0.756009
9527.000000;0.755761
9526.000000;0.755599
9525.000000;0.755221
9524.000000;0.754676
9523.000000;0.754332
9522.000000;0.754351
9521.000000;0.754508
9520.000000;0.754457
9519.000000;0.754020
9518.000000;0.753310
9517.000000;0.752726
9516.000000;0.752686
9515.000000;0.753259
9514.000000;0.754116
9513.000000;0.754860
9512.000000;0.755240
9511.000000;0.755072
9510.000000;0.754316
9509.000000;0.753363
9508.000000;0.752891
9507.000000;0.753150
9506.000000;0.753634
9505.000000;0.753696
9504.000000;0.753300
9503.000000;0.752924
9502.000000;0.752874
9501.000000;0.753043
9500.000000;0.753242
9499.000000;0.753472
9498.000000;0.753784
9497.000000;0.754066
9496.000000;0.754083
9495.000000;0.753692
9494.000000;0.753012
9493.000000;0.752328
9492.000000;0.751811
9491.000000;0.751413
9490.000000;0.751131
9489.000000;0.751181
9488.000000;0.751681
9487.000000;0.752260
9486.000000;0.752341
9485.000000;0.751840
9484.000000;0.751267
9483.000000;0.751060
9482.000000;0.751125
9481.000000;0.751126
9480.000000;0.750938
9479.000000;0.750669
9478.000000;0.750479
9477.000000;0.750517
9476.000000;0.750804
9475.000000;0.751052
9474.000000;0.750863
9473.000000;0.750273
9472.000000;0.749806
9471.000000;0.749817
9470.000000;0.750040
9469.000000;0.749999
9468.000000;0.749675
9467.000000;0.749471
9466.000000;0.749619
9465.000000;0.749871
9464.000000;0.749797
9463.000000;0.749246
9462.000000;0.748511
9461.000000;0.748054
9460.000000;0.748030
9459.000000;0.748138
9458.000000;0.748047
9457.000000;0.747866
9456.000000;0.747951
9455.000000;0.748321
9454.000000;0.748612
9453.000000;0.748624
9452.000000;0.748567
9451.000000;0.748622
9450.000000;0.748653
9449.000000;0.748552
9448.000000;0.748531
9447.000000;0.748776
9446.000000;0.749045
9445.000000;0.748933
9444.000000;0.748385
9443.000000;0.747681
9442.000000;0.747031
9441.000000;0.746469
9440.000000;0.746061
9439.000000;0.745944
9438.000000;0.746111
9437.000000;0.746319
9436.000000;0.746285
9435.000000;0.745932
9434.000000;0.745474
9433.000000;0.745276
9432.000000;0.745553
9431.000000;0.746151
9430.000000;0.746675
9429.000000;0.746856
9428.000000;0.746692
9427.000000;0.746272
9426.000000;0.745647
9425.000000;0.744974
9424.000000;0.744568
9423.000000;0.744634
9422.000000;0.745006
9421.000000;0.745298
9420.000000;0.745312
9419.000000;0.745216
9418.000000;0.745306
9417.000000;0.745618
9416.000000;0.745839
9415.000000;0.745674
9414.000000;0.745274
9413.000000;0.745115
9412.000000;0.745362
9411.000000;0.745566
9410.000000;0.745224
9409.000000;0.744476
9408.000000;0.743908
9407.000000;0.743738
9406.000000;0.743565
9405.000000;0.743002
9404.000000;0.742230
9403.000000;0.741771
9402.000000;0.741894
9401.000000;0.742404
9400.000000;0.742882
9399.000000;0.743026
9398.000000;0.742837
9397.000000;0.742529
9396.000000;0.742267
9395.000000;0.742063
9394.000000;0.741961
9393.000000;0.742131
9392.000000;0.742561
9391.000000;0.742834
9390.000000;0.742539
9389.000000;0.741866
9388.000000;0.741454
9387.000000;0.741617
9386.000000;0.742025
9385.000000;0.742186
9384.000000;0.741992
9383.000000;0.741686
9382.000000;0.741521
9381.000000;0.741549
9380.000000;0.741614
9379.000000;0.741503
9378.000000;0.741221
9377.000000;0.741035
9376.000000;0.741106
9375.000000;0.741178
9374.000000;0.740927
9373.000000;0.740473
9372.000000;0.740205
9371.000000;0.740173
9370.000000;0.740075
9369.000000;0.739843
9368.000000;0.739797
9367.000000;0.740095
9366.000000;0.740423
9365.000000;0.740403
9364.000000;0.740013
9363.000000;0.739466
9362.000000;0.738972
9361.000000;0.738718
9360.000000;0.738763
9359.000000;0.738827
9358.000000;0.738506
9357.000000;0.737876
9356.000000;0.737528
9355.000000;0.737815
9354.000000;0.738384
9353.000000;0.738713
9352.000000;0.738784
9351.000000;0.738929
9350.000000;0.739199
9349.000000;0.739262
9348.000000;0.738842
9347.000000;0.738038
9346.000000;0.737225
9345.000000;0.736769
9344.000000;0.736767
9343.000000;0.736981
9342.000000;0.737103
9341.000000;0.737146
9340.000000;0.737361
9339.000000;0.737744
9338.000000;0.737903
9337.000000;0.737575
9336.000000;0.737025
9335.000000;0.736698
9334.000000;0.736675
9333.000000;0.736697
9332.000000;0.736586
9331.000000;0.736397
9330.000000;0.736254
9329.000000;0.736220
9328.000000;0.736321
9327.000000;0.736524
9326.000000;0.736739
9325.000000;0.736886
9324.000000;0.736916
9323.000000;0.736747
9322.000000;0.736335
9321.000000;0.735846
9320.000000;0.735577
9319.000000;0.735593
9318.000000;0.735622
9317.000000;0.735426
9316.000000;0.735104
9315.000000;0.734881
9314.000000;0.734760
9313.000000;0.734601
9312.000000;0.734384
9311.000000;0.734207
9310.000000;0.734094
9309.000000;0.734021
9308.000000;0.734079
9307.000000;0.734395
9306.000000;0.734849
9305.000000;0.735060
9304.000000;0.734772
9303.000000;0.734158
9302.000000;0.733639
9301.000000;0.733422
9300.000000;0.733327
9299.000000;0.733122
9298.000000;0.732890
9297.000000;0.732918
9296.000000;0.733223
9295.000000;0.733435
9294.000000;0.733269
9293.000000;0.732909
9292.000000;0.732731
9291.000000;0.732761
9290.000000;0.732661
9289.000000;0.732235
9288.000000;0.731706
9287.000000;0.731464
9286.000000;0.731689
9285.000000;0.732220
9284.000000;0.732686
9283.000000;0.732748
9282.000000;0.732391
9281.000000;0.731946
9280.000000;0.731733
9279.000000;0.731750
9278.000000;0.731834
9277.000000;0.731976
9276.000000;0.732258
9275.000000;0.732550
9274.000000;0.732553
9273.000000;0.732170
9272.000000;0.731598
9271.000000;0.731087
9270.000000;0.730785
9269.000000;0.730794
9268.000000;0.731083
9267.000000;0.731368
9266.000000;0.731351
9265.000000;0.731124
9264.000000;0.731058
9263.000000;0.731256
9262.000000;0.731389
9261.000000;0.731176
9260.000000;0.730770
9259.000000;0.730540
9258.000000;0.730613
9257.000000;0.730770
9256.000000;0.730671
9255.000000;0.730145
9254.000000;0.729407
9253.000000;0.728951
9252.000000;0.729063
9251.000000;0.729452
9250.000000;0.729587
9249.000000;0.729369
9248.000000;0.729185
9247.000000;0.729274
9246.000000;0.729428
9245.000000;0.729413
9244.000000;0.729356
9243.000000;0.729475
9242.000000;0.729648
9241.000000;0.729544
9240.000000;0.729075
9239.000000;0.728539
9238.000000;0.728319
9237.000000;0.728541
9236.000000;0.728974
9235.000000;0.729199
9234.000000;0.728960
9233.000000;0.728385
9232.000000;0.727824
9231.000000;0.727502
9230.000000;0.727447
9229.000000;0.727651
9228.000000;0.728073
9227.000000;0.728482
9226.000000;0.728538
9225.000000;0.728135
9224.000000;0.727495
9223.000000;0.726869
9222.000000;0.726318
9221.000000;0.725842
9220.000000;0.725520
9219.000000;0.725427
9218.000000;0.725523
9217.000000;0.725707
9216.000000;0.725872
9215.000000;0.725920
9214.000000;0.725838
9213.000000;0.725778
9212.000000;0.725879
9211.000000;0.726012
9210.000000;0.725903
9209.000000;0.725530
9208.000000;0.725195
9207.000000;0.725131
9206.000000;0.725228
9205.000000;0.725242
9204.000000;0.725099
9203.000000;0.724913
9202.000000;0.724822
9201.000000;0.724907
9200.000000;0.725163
9199.000000;0.725474
9198.000000;0.725686
9197.000000;0.725715
9196.000000;0.725526
9195.000000;0.725072
9194.000000;0.724424
9193.000000;0.723897
9192.000000;0.723818
9191.000000;0.724132
9190.000000;0.724415
9189.000000;0.724334
9188.000000;0.723946
9187.000000;0.723529
9186.000000;0.723303
9185.000000;0.723340
9184.000000;0.723561
9183.000000;0.723775
9182.000000;0.723843
9181.000000;0.723833
9180.000000;0.723902
9179.000000;0.724040
9178.000000;0.724069
9177.000000;0.723877
9176.000000;0.723514
9175.000000;0.723099
9174.000000;0.722790
9173.000000;0.722744
9172.000000;0.722934
9171.000000;0.723052
9170.000000;0.722832
9169.000000;0.722413
9168.000000;0.722135
9167.000000;0.722018
9166.000000;0.721755
9165.000000;0.721207
9164.000000;0.720607
9163.000000;0.720216
9162.000000;0.720038
9161.000000;0.719966
9160.000000;0.719965
9159.000000;0.720019
9158.000000;0.720079
9157.000000;0.720141
9156.000000;0.720213
9155.000000;0.720203
9154.000000;0.720035
9153.000000;0.719872
9152.000000;0.719972
9151.000000;0.720311
9150.000000;0.720565
9149.000000;0.720522
9148.000000;0.720271
9147.000000;0.719949
9146.000000;0.719581
9145.000000;0.719263
9144.000000;0.719218
9143.000000;0.719507
9142.000000;0.719868
9141.000000;0.719953
9140.000000;0.719616
9139.000000;0.718938
9138.000000;0.718178
9137.000000;0.717719
9136.000000;0.717840
9135.000000;0.718418
9134.000000;0.719038
9133.000000;0.719449
9132.000000;0.719726
9131.000000;0.719942
9130.000000;0.719916
9129.000000;0.719429
9128.000000;0.718547
9127.000000;0.717616
9126.000000;0.717034
9125.000000;0.717033
9124.000000;0.717509
9123.000000;0.718050
9122.000000;0.718286
9121.000000;0.718234
9120.000000;0.718152
9119.000000;0.718089
9118.000000;0.717853
9117.000000;0.717428
9116.000000;0.717112
9115.000000;0.717126
9114.000000;0.717346
9113.000000;0.717534
9112.000000;0.717620
9111.000000;0.717625
9110.000000;0.717507
9109.000000;0.717245
9108.000000;0.716913
9107.000000;0.716562
9106.000000;0.716146
9105.000000;0.715682
9104.000000;0.715338
9103.000000;0.715254
9102.000000;0.715392
9101.000000;0.715609
9100.000000;0.715794
9099.000000;0.715879
9098.000000;0.715856
9097.000000;0.715798
9096.000000;0.715760
9095.000000;0.715654
9094.000000;0.715378
9093.000000;0.715041
9092.000000;0.714867
9091.000000;0.714898
9090.000000;0.714966
9089.000000;0.714995
9088.000000;0.715078
9087.000000;0.715253
9086.000000;0.715417
9085.000000;0.715518
9084.000000;0.715593
9083.000000;0.715569
9082.000000;0.715260
9081.000000;0.714665
9080.000000;0.714074
9079.000000;0.713759
9078.000000;0.713726
9077.000000;0.713807
9076.000000;0.713833
9075.000000;0.713671
9074.000000;0.713314
9073.000000;0.712992
9072.000000;0.712989
9071.000000;0.713273
9070.000000;0.713478
9069.000000;0.713351
9068.000000;0.713033
9067.000000;0.712803
9066.000000;0.712739
9065.000000;0.712728
9064.000000;0.712675
9063.000000;0.712568
9062.000000;0.712432
9061.000000;0.712285
9060.000000;0.712126
9059.000000;0.711952
9058.000000;0.711868
9057.000000;0.712046
9056.000000;0.712432
9055.000000;0.712619
9054.000000;0.712273
9053.000000;0.711635
