Criado como novo conjunto de dados;"2706_e01_daniel.spp","28623.2 Secs"
cm-1;Abs
10000.000000;0.757036
9999.000000;0.756947
9998.000000;0.756856
9997.000000;0.756767
9996.000000;0.756690
9995.000000;0.756772
9994.000000;0.757040
9993.000000;0.757205
9992.000000;0.757130
9991.000000;0.757055
9990.000000;0.757223
9989.000000;0.757529
9988.000000;0.757724
9987.000000;0.757744
9986.000000;0.757596
9985.000000;0.757153
9984.000000;0.756371
9983.000000;0.755571
9982.000000;0.755222
9981.000000;0.755477
9980.000000;0.756115
9979.000000;0.756842
9978.000000;0.757423
9977.000000;0.757609
9976.000000;0.757272
9975.000000;0.756654
9974.000000;0.756235
9973.000000;0.756246
9972.000000;0.756397
9971.000000;0.756171
9970.000000;0.755369
9969.000000;0.754347
9968.000000;0.753724
9967.000000;0.753855
9966.000000;0.754538
9965.000000;0.755219
9964.000000;0.755433
9963.000000;0.755048
9962.000000;0.754199
9961.000000;0.753180
9960.000000;0.752399
9959.000000;0.752204
9958.000000;0.752610
9957.000000;0.753270
9956.000000;0.753770
9955.000000;0.753904
9954.000000;0.753678
9953.000000;0.753252
9952.000000;0.752922
9951.000000;0.752958
9950.000000;0.753333
9949.000000;0.753710
9948.000000;0.753779
9947.000000;0.753484
9946.000000;0.752933
9945.000000;0.752293
9944.000000;0.751852
9943.000000;0.751926
9942.000000;0.752507
9941.000000;0.753166
9940.000000;0.753455
9939.000000;0.753286
9938.000000;0.752826
9937.000000;0.752207
9936.000000;0.751552
9935.000000;0.751108
9934.000000;0.751093
9933.000000;0.751448
9932.000000;0.751896
9931.000000;0.752213
9930.000000;0.752330
9929.000000;0.752295
9928.000000;0.752227
9927.000000;0.752209
9926.000000;0.752100
9925.000000;0.751646
9924.000000;0.750912
9923.000000;0.750421
9922.000000;0.750580
9921.000000;0.751125
9920.000000;0.751419
9919.000000;0.751271
9918.000000;0.751107
9917.000000;0.751307
9916.000000;0.751682
9915.000000;0.751785
9914.000000;0.751528
9913.000000;0.751252
9912.000000;0.751262
9911.000000;0.751515
9910.000000;0.751754
9909.000000;0.751801
9908.000000;0.751591
9907.000000;0.751074
9906.000000;0.750270
9905.000000;0.749427
9904.000000;0.748930
9903.000000;0.748918
9902.000000;0.749110
9901.000000;0.749149
9900.000000;0.749028
9899.000000;0.748982
9898.000000;0.749063
9897.000000;0.749088
9896.000000;0.748961
9895.000000;0.748788
9894.000000;0.748606
9893.000000;0.748305
9892.000000;0.747907
9891.000000;0.747658
9890.000000;0.747715
9889.000000;0.747943
9888.000000;0.748164
9887.000000;0.748374
9886.000000;0.748571
9885.000000;0.748598
9884.000000;0.748347
9883.000000;0.747937
9882.000000;0.747504
9881.000000;0.747015
9880.000000;0.746471
9879.000000;0.746090
9878.000000;0.746027
9877.000000;0.746083
9876.000000;0.745971
9875.000000;0.745745
9874.000000;0.745670
9873.000000;0.745776
9872.000000;0.745842
9871.000000;0.745786
9870.000000;0.745740
9869.000000;0.745751
9868.000000;0.745695
9867.000000;0.745574
9866.000000;0.745583
9865.000000;0.745785
9864.000000;0.745948
9863.000000;0.745833
9862.000000;0.745484
9861.000000;0.745085
9860.000000;0.744706
9859.000000;0.744342
9858.000000;0.744090
9857.000000;0.744080
9856.000000;0.744229
9855.000000;0.744242
9854.000000;0.743926
9853.000000;0.743429
9852.000000;0.743108
9851.000000;0.743192
9850.000000;0.743625
9849.000000;0.744193
9848.000000;0.744714
9847.000000;0.745088
9846.000000;0.745268
9845.000000;0.745302
9844.000000;0.745342
9843.000000;0.745478
9842.000000;0.745568
9841.000000;0.745335
9840.000000;0.744673
9839.000000;0.743752
9838.000000;0.742797
9837.000000;0.741911
9836.000000;0.741172
9835.000000;0.740767
9834.000000;0.740907
9833.000000;0.741608
9832.000000;0.742597
9831.000000;0.743413
9830.000000;0.743640
9829.000000;0.743145
9828.000000;0.742162
9827.000000;0.741097
9826.000000;0.740290
9825.000000;0.739984
9824.000000;0.740343
9823.000000;0.741260
9822.000000;0.742210
9821.000000;0.742612
9820.000000;0.742416
9819.000000;0.742103
9818.000000;0.742006
9817.000000;0.741914
9816.000000;0.741479
9815.000000;0.740750
9814.000000;0.740088
9813.000000;0.739732
9812.000000;0.739705
9811.000000;0.739998
9810.000000;0.740563
9809.000000;0.741172
9808.000000;0.741527
9807.000000;0.741541
9806.000000;0.741371
9805.000000;0.741202
9804.000000;0.741094
9803.000000;0.740975
9802.000000;0.740679
9801.000000;0.740087
9800.000000;0.739342
9799.000000;0.738825
9798.000000;0.738753
9797.000000;0.738897
9796.000000;0.738886
9795.000000;0.738720
9794.000000;0.738754
9793.000000;0.739169
9792.000000;0.739691
9791.000000;0.739882
9790.000000;0.739586
9789.000000;0.739017
9788.000000;0.738491
9787.000000;0.738146
9786.000000;0.737911
9785.000000;0.737711
9784.000000;0.737658
9783.000000;0.737906
9782.000000;0.738324
9781.000000;0.738512
9780.000000;0.738292
9779.000000;0.738010
9778.000000;0.738134
9777.000000;0.738653
9776.000000;0.739091
9775.000000;0.739099
9774.000000;0.738799
9773.000000;0.738507
9772.000000;0.738335
9771.000000;0.738173
9770.000000;0.737933
9769.000000;0.737706
9768.000000;0.737663
9767.000000;0.737830
9766.000000;0.737972
9765.000000;0.737804
9764.000000;0.737358
9763.000000;0.737011
9762.000000;0.736995
9761.000000;0.737005
9760.000000;0.736528
9759.000000;0.735505
9758.000000;0.734443
9757.000000;0.733874
9756.000000;0.733914
9755.000000;0.734375
9754.000000;0.735025
9753.000000;0.735612
9752.000000;0.735844
9751.000000;0.735599
9750.000000;0.735124
9749.000000;0.734845
9748.000000;0.734959
9747.000000;0.735281
9746.000000;0.735491
9745.000000;0.735477
9744.000000;0.735397
9743.000000;0.735448
9742.000000;0.735612
9741.000000;0.735665
9740.000000;0.735434
9739.000000;0.734992
9738.000000;0.734554
9737.000000;0.734266
9736.000000;0.734154
9735.000000;0.734220
9734.000000;0.734444
9733.000000;0.734689
9732.000000;0.734765
9731.000000;0.734643
9730.000000;0.734515
9729.000000;0.734547
9728.000000;0.734649
9727.000000;0.734570
9726.000000;0.734205
9725.000000;0.733721
9724.000000;0.733391
9723.000000;0.733356
9722.000000;0.733536
9721.000000;0.733720
9720.000000;0.733738
9719.000000;0.733561
9718.000000;0.733273
9717.000000;0.732953
9716.000000;0.732651
9715.000000;0.732443
9714.000000;0.732448
9713.000000;0.732720
9712.000000;0.733154
9711.000000;0.733570
9710.000000;0.733869
9709.000000;0.734061
9708.000000;0.734140
9707.000000;0.734004
9706.000000;0.733555
9705.000000;0.732868
9704.000000;0.732219
9703.000000;0.731896
9702.000000;0.731977
9701.000000;0.732256
9700.000000;0.732407
9699.000000;0.732268
9698.000000;0.731979
9697.000000;0.731816
9696.000000;0.731890
9695.000000;0.732044
9694.000000;0.732045
9693.000000;0.731812
9692.000000;0.731411
9691.000000;0.730923
9690.000000;0.730422
9689.000000;0.730043
9688.000000;0.729918
9687.000000;0.730030
9686.000000;0.730237
9685.000000;0.730460
9684.000000;0.730755
9683.000000;0.731156
9682.000000;0.731568
9681.000000;0.731843
9680.000000;0.731874
9679.000000;0.731599
9678.000000;0.731047
9677.000000;0.730440
9676.000000;0.730079
9675.000000;0.730023
9674.000000;0.729997
9673.000000;0.729735
9672.000000;0.729287
9671.000000;0.728884
9670.000000;0.728668
9669.000000;0.728714
9668.000000;0.729119
9667.000000;0.729798
9666.000000;0.730277
9665.000000;0.730036
9664.000000;0.729113
9663.000000;0.728138
9662.000000;0.727698
9661.000000;0.727852
9660.000000;0.728274
9659.000000;0.728640
9658.000000;0.728783
9657.000000;0.728688
9656.000000;0.728509
9655.000000;0.728488
9654.000000;0.728717
9653.000000;0.728997
9652.000000;0.729008
9651.000000;0.728577
9650.000000;0.727786
9649.000000;0.726924
9648.000000;0.726366
9647.000000;0.726351
9646.000000;0.726797
9645.000000;0.727384
9644.000000;0.727877
9643.000000;0.728260
9642.000000;0.728549
9641.000000;0.728619
9640.000000;0.728334
9639.000000;0.727765
9638.000000;0.727168
9637.000000;0.726786
9636.000000;0.726730
9635.000000;0.726951
9634.000000;0.727236
9633.000000;0.727264
9632.000000;0.726804
9631.000000;0.725909
9630.000000;0.724920
9629.000000;0.724255
9628.000000;0.724164
9627.000000;0.724591
9626.000000;0.725258
9625.000000;0.725888
9624.000000;0.726369
9623.000000;0.726700
9622.000000;0.726855
9621.000000;0.726772
9620.000000;0.726440
9619.000000;0.725920
9618.000000;0.725275
9617.000000;0.724604
9616.000000;0.724121
9615.000000;0.724056
9614.000000;0.724422
9613.000000;0.724936
9612.000000;0.725244
9611.000000;0.725192
9610.000000;0.724880
9609.000000;0.724490
9608.000000;0.724108
9607.000000;0.723722
9606.000000;0.723386
9605.000000;0.723301
9604.000000;0.723610
9603.000000;0.724114
9602.000000;0.724368
9601.000000;0.724184
9600.000000;0.723892
9599.000000;0.723933
9598.000000;0.724327
9597.000000;0.724738
9596.000000;0.724940
9595.000000;0.724978
9594.000000;0.724917
9593.000000;0.724724
9592.000000;0.724406
9591.000000;0.724059
9590.000000;0.723711
9589.000000;0.723311
9588.000000;0.722917
9587.000000;0.722701
9586.000000;0.722716
9585.000000;0.722834
9584.000000;0.722959
9583.000000;0.723095
9582.000000;0.723184
9581.000000;0.723077
9580.000000;0.722766
9579.000000;0.722450
9578.000000;0.722274
9577.000000;0.722164
9576.000000;0.722019
9575.000000;0.721891
9574.000000;0.721867
9573.000000;0.721939
9572.000000;0.722087
9571.000000;0.722357
9570.000000;0.722726
9569.000000;0.723035
9568.000000;0.723169
9567.000000;0.723162
9566.000000;0.723032
9565.000000;0.722702
9564.000000;0.722202
9563.000000;0.721792
9562.000000;0.721672
9561.000000;0.721719
9560.000000;0.721682
9559.000000;0.721536
9558.000000;0.721456
9557.000000;0.721523
9556.000000;0.721638
9555.000000;0.721694
9554.000000;0.721640
9553.000000;0.721436
9552.000000;0.721103
9551.000000;0.720820
9550.000000;0.720795
9549.000000;0.721017
9548.000000;0.721260
9547.000000;0.721318
9546.000000;0.721160
9545.000000;0.720850
9544.000000;0.720476
9543.000000;0.720148
9542.000000;0.719944
9541.000000;0.719824
9540.000000;0.719665
9539.000000;0.719454
9538.000000;0.719347
9537.000000;0.719506
9536.000000;0.719916
9535.000000;0.720366
9534.000000;0.720601
9533.000000;0.720502
9532.000000;0.720180
9531.000000;0.719893
9530.000000;0.719809
9529.000000;0.719835
9528.000000;0.719728
9527.000000;0.719386
9526.000000;0.718978
9525.000000;0.718739
9524.000000;0.718701
9523.000000;0.718688
9522.000000;0.718560
9521.000000;0.718367
9520.000000;0.718236
9519.000000;0.718192
9518.000000;0.718177
9517.000000;0.718179
9516.000000;0.718218
9515.000000;0.718228
9514.000000;0.718104
9513.000000;0.717873
9512.000000;0.717675
9511.000000;0.717508
9510.000000;0.717183
9509.000000;0.716655
9508.000000;0.716228
9507.000000;0.716214
9506.000000;0.716511
9505.000000;0.716727
9504.000000;0.716679
9503.000000;0.716547
9502.000000;0.716559
9501.000000;0.716765
9500.000000;0.717136
9499.000000;0.717638
9498.000000;0.718100
9497.000000;0.718212
9496.000000;0.717816
9495.000000;0.717110
9494.000000;0.716450
9493.000000;0.716025
9492.000000;0.715781
9491.000000;0.715582
9490.000000;0.715366
9489.000000;0.715175
9488.000000;0.715090
9487.000000;0.715121
9486.000000;0.715161
9485.000000;0.715098
9484.000000;0.714957
9483.000000;0.714856
9482.000000;0.714840
9481.000000;0.714852
9480.000000;0.714834
9479.000000;0.714764
9478.000000;0.714608
9477.000000;0.714370
9476.000000;0.714181
9475.000000;0.714205
9474.000000;0.714432
9473.000000;0.714687
9472.000000;0.714840
9471.000000;0.714907
9470.000000;0.714919
9469.000000;0.714870
9468.000000;0.714815
9467.000000;0.714863
9466.000000;0.715013
9465.000000;0.715091
9464.000000;0.714955
9463.000000;0.714659
9462.000000;0.714361
9461.000000;0.714140
9460.000000;0.713961
9459.000000;0.713769
9458.000000;0.713575
9457.000000;0.713443
9456.000000;0.713398
9455.000000;0.713346
9454.000000;0.713165
9453.000000;0.712915
9452.000000;0.712823
9451.000000;0.712976
9450.000000;0.713151
9449.000000;0.713118
9448.000000;0.712978
9447.000000;0.712989
9446.000000;0.713154
9445.000000;0.713244
9444.000000;0.713191
9443.000000;0.713159
9442.000000;0.713224
9441.000000;0.713223
9440.000000;0.713007
9439.000000;0.712605
9438.000000;0.712092
9437.000000;0.711525
9436.000000;0.711063
9435.000000;0.710902
9434.000000;0.711021
9433.000000;0.711183
9432.000000;0.711268
9431.000000;0.711386
9430.000000;0.711571
9429.000000;0.711643
9428.000000;0.711495
9427.000000;0.711288
9426.000000;0.711201
9425.000000;0.711177
9424.000000;0.711092
9423.000000;0.710984
9422.000000;0.710945
9421.000000;0.710934
9420.000000;0.710878
9419.000000;0.710821
9418.000000;0.710825
9417.000000;0.710838
9416.000000;0.710789
9415.000000;0.710702
9414.000000;0.710588
9413.000000;0.710371
9412.000000;0.710028
9411.000000;0.709681
9410.000000;0.709424
9409.000000;0.709215
9408.000000;0.709057
9407.000000;0.709064
9406.000000;0.709205
9405.000000;0.709179
9404.000000;0.708797
9403.000000;0.708346
9402.000000;0.708293
9401.000000;0.708711
9400.000000;0.709222
9399.000000;0.709482
9398.000000;0.709488
9397.000000;0.709421
9396.000000;0.709400
9395.000000;0.709435
9394.000000;0.709469
9393.000000;0.709425
9392.000000;0.709292
9391.000000;0.709146
9390.000000;0.709030
9389.000000;0.708882
9388.000000;0.708669
9387.000000;0.708498
9386.000000;0.708485
9385.000000;0.708587
9384.000000;0.708703
9383.000000;0.708845
9382.000000;0.709039
9381.000000;0.709129
9380.000000;0.708913
9379.000000;0.708447
9378.000000;0.708038
9377.000000;0.707890
9376.000000;0.707917
9375.000000;0.707952
9374.000000;0.707972
9373.000000;0.708037
9372.000000;0.708106
9371.000000;0.708036
9370.000000;0.707768
9369.000000;0.707451
9368.000000;0.707327
9367.000000;0.707475
9366.000000;0.707695
9365.000000;0.707709
9364.000000;0.707465
9363.000000;0.707162
9362.000000;0.706982
9361.000000;0.706919
9360.000000;0.706885
9359.000000;0.706842
9358.000000;0.706739
9357.000000;0.706504
9356.000000;0.706200
9355.000000;0.706074
9354.000000;0.706246
9353.000000;0.706465
9352.000000;0.706367
9351.000000;0.705928
9350.000000;0.705483
9349.000000;0.705308
9348.000000;0.705375
9347.000000;0.705516
9346.000000;0.705627
9345.000000;0.705626
9344.000000;0.705396
9343.000000;0.704910
9342.000000;0.704362
9341.000000;0.704051
9340.000000;0.704123
9339.000000;0.704461
9338.000000;0.704793
9337.000000;0.704896
9336.000000;0.704721
9335.000000;0.704397
9334.000000;0.704134
9333.000000;0.704082
9332.000000;0.704246
9331.000000;0.704482
9330.000000;0.704631
9329.000000;0.704664
9328.000000;0.704716
9327.000000;0.704897
9326.000000;0.705116
9325.000000;0.705128
9324.000000;0.704798
9323.000000;0.704235
9322.000000;0.703694
9321.000000;0.703371
9320.000000;0.703320
9319.000000;0.703464
9318.000000;0.703670
9317.000000;0.703838
9316.000000;0.703972
9315.000000;0.704088
9314.000000;0.704096
9313.000000;0.703859
9312.000000;0.703414
9311.000000;0.703017
9310.000000;0.702900
9309.000000;0.703032
9308.000000;0.703200
9307.000000;0.703259
9306.000000;0.703246
9305.000000;0.703270
9304.000000;0.703336
9303.000000;0.703323
9302.000000;0.703135
9301.000000;0.702854
9300.000000;0.702657
9299.000000;0.702561
9298.000000;0.702373
9297.000000;0.702005
9296.000000;0.701693
9295.000000;0.701739
9294.000000;0.702094
9293.000000;0.702433
9292.000000;0.702591
9291.000000;0.702695
9290.000000;0.702825
9289.000000;0.702824
9288.000000;0.702559
9287.000000;0.702145
9286.000000;0.701769
9285.000000;0.701465
9284.000000;0.701208
9283.000000;0.701066
9282.000000;0.701079
9281.000000;0.701110
9280.000000;0.700974
9279.000000;0.700676
9278.000000;0.700389
9277.000000;0.700257
9276.000000;0.700320
9275.000000;0.700543
9274.000000;0.700832
9273.000000;0.701057
9272.000000;0.701148
9271.000000;0.701114
9270.000000;0.700942
9269.000000;0.700601
9268.000000;0.700206
9267.000000;0.700009
9266.000000;0.700120
9265.000000;0.700339
9264.000000;0.700405
9263.000000;0.700269
9262.000000;0.700014
9261.000000;0.699653
9260.000000;0.699187
9259.000000;0.698771
9258.000000;0.698614
9257.000000;0.698764
9256.000000;0.699120
9255.000000;0.699592
9254.000000;0.700079
9253.000000;0.700389
9252.000000;0.700355
9251.000000;0.700030
9250.000000;0.699612
9249.000000;0.699203
9248.000000;0.698818
9247.000000;0.698542
9246.000000;0.698496
9245.000000;0.698629
9244.000000;0.698736
9243.000000;0.698707
9242.000000;0.698629
9241.000000;0.698590
9240.000000;0.698558
9239.000000;0.698494
9238.000000;0.698445
9237.000000;0.698438
9236.000000;0.698379
9235.000000;0.698163
9234.000000;0.697844
9233.000000;0.697607
9232.000000;0.697599
9231.000000;0.697810
9230.000000;0.698102
9229.000000;0.698322
9228.000000;0.698385
9227.000000;0.698270
9226.000000;0.697979
9225.000000;0.697538
9224.000000;0.697061
9223.000000;0.696703
9222.000000;0.696531
9221.000000;0.696472
9220.000000;0.696450
9219.000000;0.696493
9218.000000;0.696641
9217.000000;0.696816
9216.000000;0.696901
9215.000000;0.696899
9214.000000;0.696909
9213.000000;0.696959
9212.000000;0.696957
9211.000000;0.696832
9210.000000;0.696629
9209.000000;0.696429
9208.000000;0.696224
9207.000000;0.695937
9206.000000;0.695539
9205.000000;0.695138
9204.000000;0.694912
9203.000000;0.694941
9202.000000;0.695114
9201.000000;0.695249
9200.000000;0.695295
9199.000000;0.695336
9198.000000;0.695392
9197.000000;0.695328
9196.000000;0.695048
9195.000000;0.694663
9194.000000;0.694395
9193.000000;0.694330
9192.000000;0.694376
9191.000000;0.694397
9190.000000;0.694319
9189.000000;0.694158
9188.000000;0.694022
9187.000000;0.694050
9186.000000;0.694254
9185.000000;0.694448
9184.000000;0.694417
9183.000000;0.694154
9182.000000;0.693845
9181.000000;0.693664
9180.000000;0.693652
9179.000000;0.693766
9178.000000;0.693946
9177.000000;0.694109
9176.000000;0.694186
9175.000000;0.694186
9174.000000;0.694182
9173.000000;0.694218
9172.000000;0.694273
9171.000000;0.694307
9170.000000;0.694304
9169.000000;0.694253
9168.000000;0.694140
9167.000000;0.693959
9166.000000;0.693712
9165.000000;0.693399
9164.000000;0.693025
9163.000000;0.692636
9162.000000;0.692314
9161.000000;0.692154
9160.000000;0.692210
9159.000000;0.692432
9158.000000;0.692662
9157.000000;0.692770
9156.000000;0.692808
9155.000000;0.692948
9154.000000;0.693213
9153.000000;0.693390
9152.000000;0.693255
9151.000000;0.692826
9150.000000;0.692310
9149.000000;0.691867
9148.000000;0.691532
9147.000000;0.691318
9146.000000;0.691262
9145.000000;0.691367
9144.000000;0.691577
9143.000000;0.691808
9142.000000;0.691954
9141.000000;0.691874
9140.000000;0.691501
9139.000000;0.690976
9138.000000;0.690596
9137.000000;0.690571
9136.000000;0.690842
9135.000000;0.691146
9134.000000;0.691248
9133.000000;0.691118
9132.000000;0.690920
9131.000000;0.690847
9130.000000;0.690952
9129.000000;0.691128
9128.000000;0.691218
9127.000000;0.691121
9126.000000;0.690811
9125.000000;0.690333
9124.000000;0.689813
9123.000000;0.689415
9122.000000;0.689240
9121.000000;0.689278
9120.000000;0.689463
9119.000000;0.689691
9118.000000;0.689810
9117.000000;0.689701
9116.000000;0.689442
9115.000000;0.689289
9114.000000;0.689387
9113.000000;0.689574
9112.000000;0.689569
9111.000000;0.689315
9110.000000;0.689017
9109.000000;0.688878
9108.000000;0.688904
9107.000000;0.688963
9106.000000;0.688931
9105.000000;0.688749
9104.000000;0.688451
9103.000000;0.688172
9102.000000;0.688059
9101.000000;0.688141
9100.000000;0.688312
9099.000000;0.688456
9098.000000;0.688543
9097.000000;0.688582
9096.000000;0.688560
9095.000000;0.688456
9094.000000;0.688298
9093.000000;0.688150
9092.000000;0.688076
9091.000000;0.688098
9090.000000;0.688186
9089.000000;0.688255
9088.000000;0.688206
9087.000000;0.688006
9086.000000;0.687732
9085.000000;0.687510
9084.000000;0.687412
9083.000000;0.687380
9082.000000;0.687285
9081.000000;0.687059
9080.000000;0.686773
9079.000000;0.686572
9078.000000;0.686543
9077.000000;0.686662
9076.000000;0.686861
9075.000000;0.687090
9074.000000;0.687312
9073.000000;0.687488
9072.000000;0.687581
9071.000000;0.687553
9070.000000;0.687364
9069.000000;0.687029
9068.000000;0.686676
9067.000000;0.686491
9066.000000;0.686547
9065.000000;0.686729
9064.000000;0.686867
9063.000000;0.686897
9062.000000;0.686854
9061.000000;0.686773
9060.000000;0.686656
9059.000000;0.686521
9058.000000;0.686390
9057.000000;0.686238
9056.000000;0.686030
9055.000000;0.685812
9054.000000;0.685697
9053.000000;0.685724
