Criado como novo conjunto de dados;"2706_e01_daniel.spp","1981.8 Secs"
cm-1;Abs
10000.000000;0.482732
9999.000000;0.482848
9998.000000;0.482961
9997.000000;0.483079
9996.000000;0.483190
9995.000000;0.483314
9994.000000;0.483397
9993.000000;0.483292
9992.000000;0.483057
9991.000000;0.482858
9990.000000;0.482911
9989.000000;0.483301
9988.000000;0.483876
9987.000000;0.484317
9986.000000;0.484382
9985.000000;0.484084
9984.000000;0.483658
9983.000000;0.483362
9982.000000;0.483275
9981.000000;0.483231
9980.000000;0.482959
9979.000000;0.482357
9978.000000;0.481658
9977.000000;0.481265
9976.000000;0.481386
9975.000000;0.481879
9974.000000;0.482468
9973.000000;0.483038
9972.000000;0.483623
9971.000000;0.484171
9970.000000;0.484488
9969.000000;0.484459
9968.000000;0.484226
9967.000000;0.484043
9966.000000;0.484015
9965.000000;0.484026
9964.000000;0.483921
9963.000000;0.483676
9962.000000;0.483393
9961.000000;0.483166
9960.000000;0.482991
9959.000000;0.482813
9958.000000;0.482619
9957.000000;0.482490
9956.000000;0.482533
9955.000000;0.482767
9954.000000;0.483078
9953.000000;0.483298
9952.000000;0.483327
9951.000000;0.483205
9950.000000;0.483071
9949.000000;0.483034
9948.000000;0.483061
9947.000000;0.483016
9946.000000;0.482868
9945.000000;0.482781
9944.000000;0.482918
9943.000000;0.483187
9942.000000;0.483319
9941.000000;0.483223
9940.000000;0.483092
9939.000000;0.483124
9938.000000;0.483257
9937.000000;0.483325
9936.000000;0.483327
9935.000000;0.483373
9934.000000;0.483419
9933.000000;0.483256
9932.000000;0.482804
9931.000000;0.482261
9930.000000;0.481897
9929.000000;0.481794
9928.000000;0.481834
9927.000000;0.481870
9926.000000;0.481850
9925.000000;0.481850
9924.000000;0.481998
9923.000000;0.482319
9922.000000;0.482649
9921.000000;0.482769
9920.000000;0.482640
9919.000000;0.482425
9918.000000;0.482293
9917.000000;0.482265
9916.000000;0.482291
9915.000000;0.482348
9914.000000;0.482431
9913.000000;0.482542
9912.000000;0.482734
9911.000000;0.483072
9910.000000;0.483490
9909.000000;0.483757
9908.000000;0.483681
9907.000000;0.483299
9906.000000;0.482818
9905.000000;0.482436
9904.000000;0.482279
9903.000000;0.482385
9902.000000;0.482641
9901.000000;0.482788
9900.000000;0.482661
9899.000000;0.482415
9898.000000;0.482388
9897.000000;0.482706
9896.000000;0.483142
9895.000000;0.483391
9894.000000;0.483373
9893.000000;0.483197
9892.000000;0.482941
9891.000000;0.482592
9890.000000;0.482203
9889.000000;0.481968
9888.000000;0.482056
9887.000000;0.482388
9886.000000;0.482647
9885.000000;0.482562
9884.000000;0.482162
9883.000000;0.481734
9882.000000;0.481535
9881.000000;0.481590
9880.000000;0.481749
9879.000000;0.481873
9878.000000;0.481927
9877.000000;0.481944
9876.000000;0.481971
9875.000000;0.482039
9874.000000;0.482140
9873.000000;0.482226
9872.000000;0.482244
9871.000000;0.482179
9870.000000;0.482073
9869.000000;0.481994
9868.000000;0.482001
9867.000000;0.482108
9866.000000;0.482266
9865.000000;0.482392
9864.000000;0.482425
9863.000000;0.482346
9862.000000;0.482172
9861.000000;0.481983
9860.000000;0.481918
9859.000000;0.482066
9858.000000;0.482325
9857.000000;0.482456
9856.000000;0.482343
9855.000000;0.482127
9854.000000;0.482032
9853.000000;0.482102
9852.000000;0.482196
9851.000000;0.482188
9850.000000;0.482089
9849.000000;0.481960
9848.000000;0.481837
9847.000000;0.481767
9846.000000;0.481834
9845.000000;0.482068
9844.000000;0.482378
9843.000000;0.482597
9842.000000;0.482614
9841.000000;0.482439
9840.000000;0.482183
9839.000000;0.481986
9838.000000;0.481943
9837.000000;0.482038
9836.000000;0.482170
9835.000000;0.482249
9834.000000;0.482267
9833.000000;0.482259
9832.000000;0.482215
9831.000000;0.482074
9830.000000;0.481802
9829.000000;0.481457
9828.000000;0.481146
9827.000000;0.480947
9826.000000;0.480865
9825.000000;0.480873
9824.000000;0.480952
9823.000000;0.481090
9822.000000;0.481276
9821.000000;0.481524
9820.000000;0.481875
9819.000000;0.482290
9818.000000;0.482579
9817.000000;0.482525
9816.000000;0.482149
9815.000000;0.481771
9814.000000;0.481707
9813.000000;0.481934
9812.000000;0.482153
9811.000000;0.482180
9810.000000;0.482157
9809.000000;0.482292
9808.000000;0.482529
9807.000000;0.482608
9806.000000;0.482440
9805.000000;0.482257
9804.000000;0.482323
9803.000000;0.482602
9802.000000;0.482815
9801.000000;0.482780
9800.000000;0.482575
9799.000000;0.482371
9798.000000;0.482224
9797.000000;0.482108
9796.000000;0.482042
9795.000000;0.482091
9794.000000;0.482261
9793.000000;0.482451
9792.000000;0.482534
9791.000000;0.482437
9790.000000;0.482170
9789.000000;0.481828
9788.000000;0.481549
9787.000000;0.481424
9786.000000;0.481438
9785.000000;0.481541
9784.000000;0.481735
9783.000000;0.482021
9782.000000;0.482294
9781.000000;0.482392
9780.000000;0.482275
9779.000000;0.482087
9778.000000;0.481982
9777.000000;0.481975
9776.000000;0.481975
9775.000000;0.481937
9774.000000;0.481891
9773.000000;0.481878
9772.000000;0.481907
9771.000000;0.481973
9770.000000;0.482052
9769.000000;0.482098
9768.000000;0.482066
9767.000000;0.481945
9766.000000;0.481761
9765.000000;0.481572
9764.000000;0.481492
9763.000000;0.481641
9762.000000;0.482021
9761.000000;0.482424
9760.000000;0.482541
9759.000000;0.482222
9758.000000;0.481629
9757.000000;0.481132
9756.000000;0.481021
9755.000000;0.481288
9754.000000;0.481663
9753.000000;0.481861
9752.000000;0.481785
9751.000000;0.481528
9750.000000;0.481239
9749.000000;0.481042
9748.000000;0.481039
9747.000000;0.481252
9746.000000;0.481549
9745.000000;0.481733
9744.000000;0.481761
9743.000000;0.481801
9742.000000;0.482000
9741.000000;0.482276
9740.000000;0.482429
9739.000000;0.482376
9738.000000;0.482189
9737.000000;0.481947
9736.000000;0.481681
9735.000000;0.481462
9734.000000;0.481398
9733.000000;0.481498
9732.000000;0.481625
9731.000000;0.481641
9730.000000;0.481559
9729.000000;0.481505
9728.000000;0.481590
9727.000000;0.481834
9726.000000;0.482156
9725.000000;0.482411
9724.000000;0.482490
9723.000000;0.482429
9722.000000;0.482374
9721.000000;0.482419
9720.000000;0.482511
9719.000000;0.482539
9718.000000;0.482450
9717.000000;0.482257
9716.000000;0.481997
9715.000000;0.481762
9714.000000;0.481691
9713.000000;0.481847
9712.000000;0.482112
9711.000000;0.482279
9710.000000;0.482282
9709.000000;0.482250
9708.000000;0.482316
9707.000000;0.482453
9706.000000;0.482531
9705.000000;0.482489
9704.000000;0.482388
9703.000000;0.482313
9702.000000;0.482278
9701.000000;0.482225
9700.000000;0.482089
9699.000000;0.481866
9698.000000;0.481631
9697.000000;0.481493
9696.000000;0.481518
9695.000000;0.481668
9694.000000;0.481833
9693.000000;0.481943
9692.000000;0.482049
9691.000000;0.482289
9690.000000;0.482720
9689.000000;0.483200
9688.000000;0.483467
9687.000000;0.483367
9686.000000;0.482989
9685.000000;0.482540
9684.000000;0.482130
9683.000000;0.481753
9682.000000;0.481453
9681.000000;0.481381
9680.000000;0.481613
9679.000000;0.481972
9678.000000;0.482149
9677.000000;0.482008
9676.000000;0.481702
9675.000000;0.481491
9674.000000;0.481501
9673.000000;0.481667
9672.000000;0.481846
9671.000000;0.481943
9670.000000;0.481988
9669.000000;0.482098
9668.000000;0.482324
9667.000000;0.482518
9666.000000;0.482433
9665.000000;0.481985
9664.000000;0.481379
9663.000000;0.480930
9662.000000;0.480798
9661.000000;0.480935
9660.000000;0.481204
9659.000000;0.481488
9658.000000;0.481711
9657.000000;0.481866
9656.000000;0.482013
9655.000000;0.482189
9654.000000;0.482348
9653.000000;0.482429
9652.000000;0.482462
9651.000000;0.482501
9650.000000;0.482479
9649.000000;0.482259
9648.000000;0.481875
9647.000000;0.481581
9646.000000;0.481588
9645.000000;0.481826
9644.000000;0.482049
9643.000000;0.482113
9642.000000;0.482073
9641.000000;0.482047
9640.000000;0.482094
9639.000000;0.482208
9638.000000;0.482321
9637.000000;0.482329
9636.000000;0.482179
9635.000000;0.481970
9634.000000;0.481888
9633.000000;0.482007
9632.000000;0.482198
9631.000000;0.482279
9630.000000;0.482208
9629.000000;0.482100
9628.000000;0.482074
9627.000000;0.482138
9626.000000;0.482225
9625.000000;0.482287
9624.000000;0.482373
9623.000000;0.482600
9622.000000;0.483023
9621.000000;0.483508
9620.000000;0.483761
9619.000000;0.483570
9618.000000;0.483020
9617.000000;0.482442
9616.000000;0.482128
9615.000000;0.482126
9614.000000;0.482307
9613.000000;0.482546
9612.000000;0.482767
9611.000000;0.482873
9610.000000;0.482769
9609.000000;0.482491
9608.000000;0.482228
9607.000000;0.482137
9606.000000;0.482169
9605.000000;0.482136
9604.000000;0.481935
9603.000000;0.481658
9602.000000;0.481499
9601.000000;0.481585
9600.000000;0.481905
9599.000000;0.482326
9598.000000;0.482695
9597.000000;0.482954
9596.000000;0.483170
9595.000000;0.483411
9594.000000;0.483598
9593.000000;0.483566
9592.000000;0.483272
9591.000000;0.482884
9590.000000;0.482609
9589.000000;0.482478
9588.000000;0.482368
9587.000000;0.482204
9586.000000;0.482033
9585.000000;0.481953
9584.000000;0.482015
9583.000000;0.482232
9582.000000;0.482560
9581.000000;0.482860
9580.000000;0.482955
9579.000000;0.482811
9578.000000;0.482606
9577.000000;0.482547
9576.000000;0.482646
9575.000000;0.482749
9574.000000;0.482751
9573.000000;0.482706
9572.000000;0.482694
9571.000000;0.482721
9570.000000;0.482751
9569.000000;0.482788
9568.000000;0.482833
9567.000000;0.482832
9566.000000;0.482761
9565.000000;0.482722
9564.000000;0.482858
9563.000000;0.483170
9562.000000;0.483480
9561.000000;0.483600
9560.000000;0.483500
9559.000000;0.483283
9558.000000;0.483067
9557.000000;0.482918
9556.000000;0.482879
9555.000000;0.482980
9554.000000;0.483203
9553.000000;0.483445
9552.000000;0.483556
9551.000000;0.483458
9550.000000;0.483241
9549.000000;0.483095
9548.000000;0.483127
9547.000000;0.483278
9546.000000;0.483452
9545.000000;0.483637
9544.000000;0.483830
9543.000000;0.483912
9542.000000;0.483749
9541.000000;0.483414
9540.000000;0.483155
9539.000000;0.483108
9538.000000;0.483176
9537.000000;0.483210
9536.000000;0.483199
9535.000000;0.483192
9534.000000;0.483159
9533.000000;0.483054
9532.000000;0.482924
9531.000000;0.482850
9530.000000;0.482848
9529.000000;0.482909
9528.000000;0.483050
9527.000000;0.483240
9526.000000;0.483349
9525.000000;0.483312
9524.000000;0.483278
9523.000000;0.483434
9522.000000;0.483715
9521.000000;0.483858
9520.000000;0.483729
9519.000000;0.483453
9518.000000;0.483193
9517.000000;0.482991
9516.000000;0.482863
9515.000000;0.482864
9514.000000;0.482959
9513.000000;0.482966
9512.000000;0.482757
9511.000000;0.482468
9510.000000;0.482354
9509.000000;0.482498
9508.000000;0.482744
9507.000000;0.482906
9506.000000;0.482960
9505.000000;0.483003
9504.000000;0.483109
9503.000000;0.483231
9502.000000;0.483266
9501.000000;0.483185
9500.000000;0.483095
9499.000000;0.483122
9498.000000;0.483262
9497.000000;0.483405
9496.000000;0.483484
9495.000000;0.483523
9494.000000;0.483514
9493.000000;0.483360
9492.000000;0.483023
9491.000000;0.482648
9490.000000;0.482459
9489.000000;0.482549
9488.000000;0.482821
9487.000000;0.483100
9486.000000;0.483254
9485.000000;0.483255
9484.000000;0.483181
9483.000000;0.483152
9482.000000;0.483219
9481.000000;0.483334
9480.000000;0.483432
9479.000000;0.483479
9478.000000;0.483431
9477.000000;0.483224
9476.000000;0.482898
9475.000000;0.482632
9474.000000;0.482578
9473.000000;0.482679
9472.000000;0.482760
9471.000000;0.482752
9470.000000;0.482718
9469.000000;0.482702
9468.000000;0.482679
9467.000000;0.482667
9466.000000;0.482769
9465.000000;0.483016
9464.000000;0.483297
9463.000000;0.483479
9462.000000;0.483565
9461.000000;0.483639
9460.000000;0.483719
9459.000000;0.483741
9458.000000;0.483665
9457.000000;0.483528
9456.000000;0.483393
9455.000000;0.483302
9454.000000;0.483298
9453.000000;0.483426
9452.000000;0.483657
9451.000000;0.483863
9450.000000;0.483914
9449.000000;0.483838
9448.000000;0.483800
9447.000000;0.483909
9446.000000;0.484060
9445.000000;0.484035
9444.000000;0.483767
9443.000000;0.483422
9442.000000;0.483213
9441.000000;0.483181
9440.000000;0.483212
9439.000000;0.483202
9438.000000;0.483162
9437.000000;0.483155
9436.000000;0.483202
9435.000000;0.483275
9434.000000;0.483331
9433.000000;0.483346
9432.000000;0.483339
9431.000000;0.483367
9430.000000;0.483463
9429.000000;0.483601
9428.000000;0.483739
9427.000000;0.483886
9426.000000;0.484064
9425.000000;0.484223
9424.000000;0.484252
9423.000000;0.484117
9422.000000;0.483941
9421.000000;0.483895
9420.000000;0.484007
9419.000000;0.484124
9418.000000;0.484071
9417.000000;0.483815
9416.000000;0.483481
9415.000000;0.483216
9414.000000;0.483078
9413.000000;0.483034
9412.000000;0.483034
9411.000000;0.483063
9410.000000;0.483134
9409.000000;0.483258
9408.000000;0.483429
9407.000000;0.483609
9406.000000;0.483752
9405.000000;0.483830
9404.000000;0.483868
9403.000000;0.483903
9402.000000;0.483922
9401.000000;0.483866
9400.000000;0.483727
9399.000000;0.483588
9398.000000;0.483536
9397.000000;0.483536
9396.000000;0.483461
9395.000000;0.483249
9394.000000;0.483008
9393.000000;0.482914
9392.000000;0.483040
9391.000000;0.483295
9390.000000;0.483536
9389.000000;0.483689
9388.000000;0.483772
9387.000000;0.483821
9386.000000;0.483836
9385.000000;0.483809
9384.000000;0.483768
9383.000000;0.483768
9382.000000;0.483827
9381.000000;0.483900
9380.000000;0.483917
9379.000000;0.483856
9378.000000;0.483769
9377.000000;0.483746
9376.000000;0.483825
9375.000000;0.483944
9374.000000;0.483991
9373.000000;0.483927
9372.000000;0.483838
9371.000000;0.483831
9370.000000;0.483899
9369.000000;0.483937
9368.000000;0.483907
9367.000000;0.483913
9366.000000;0.484049
9365.000000;0.484238
9364.000000;0.484290
9363.000000;0.484134
9362.000000;0.483899
9361.000000;0.483750
9360.000000;0.483693
9359.000000;0.483612
9358.000000;0.483464
9357.000000;0.483367
9356.000000;0.483465
9355.000000;0.483751
9354.000000;0.484059
9353.000000;0.484240
9352.000000;0.484292
9351.000000;0.484313
9350.000000;0.484346
9349.000000;0.484321
9348.000000;0.484163
9347.000000;0.483931
9346.000000;0.483797
9345.000000;0.483871
9344.000000;0.484073
9343.000000;0.484219
9342.000000;0.484226
9341.000000;0.484193
9340.000000;0.484259
9339.000000;0.484422
9338.000000;0.484549
9337.000000;0.484548
9336.000000;0.484465
9335.000000;0.484399
9334.000000;0.484363
9333.000000;0.484297
9332.000000;0.484169
9331.000000;0.484033
9330.000000;0.483990
9329.000000;0.484099
9328.000000;0.484330
9327.000000;0.484557
9326.000000;0.484652
9325.000000;0.484612
9324.000000;0.484578
9323.000000;0.484663
9322.000000;0.484810
9321.000000;0.484879
9320.000000;0.484858
9319.000000;0.484889
9318.000000;0.485052
9317.000000;0.485231
9316.000000;0.485242
9315.000000;0.485053
9314.000000;0.484790
9313.000000;0.484573
9312.000000;0.484408
9311.000000;0.484259
9310.000000;0.484149
9309.000000;0.484161
9308.000000;0.484343
9307.000000;0.484662
9306.000000;0.485041
9305.000000;0.485404
9304.000000;0.485675
9303.000000;0.485747
9302.000000;0.485535
9301.000000;0.485099
9300.000000;0.484658
9299.000000;0.484425
9298.000000;0.484411
9297.000000;0.484455
9296.000000;0.484429
9295.000000;0.484382
9294.000000;0.484454
9293.000000;0.484699
9292.000000;0.485007
9291.000000;0.485175
9290.000000;0.485082
9289.000000;0.484810
9288.000000;0.484594
9287.000000;0.484588
9286.000000;0.484701
9285.000000;0.484725
9284.000000;0.484607
9283.000000;0.484492
9282.000000;0.484506
9281.000000;0.484614
9280.000000;0.484748
9279.000000;0.484939
9278.000000;0.485216
9277.000000;0.485459
9276.000000;0.485478
9275.000000;0.485250
9274.000000;0.484944
9273.000000;0.484715
9272.000000;0.484551
9271.000000;0.484355
9270.000000;0.484110
9269.000000;0.483920
9268.000000;0.483923
9267.000000;0.484163
9266.000000;0.484521
9265.000000;0.484765
9264.000000;0.484728
9263.000000;0.484452
9262.000000;0.484133
9261.000000;0.483947
9260.000000;0.483950
9259.000000;0.484114
9258.000000;0.484395
9257.000000;0.484741
9256.000000;0.485085
9255.000000;0.485343
9254.000000;0.485431
9253.000000;0.485297
9252.000000;0.485008
9251.000000;0.484771
9250.000000;0.484778
9249.000000;0.484996
9248.000000;0.485175
9247.000000;0.485093
9246.000000;0.484772
9245.000000;0.484430
9244.000000;0.484274
9243.000000;0.484383
9242.000000;0.484710
9241.000000;0.485123
9240.000000;0.485455
9239.000000;0.485576
9238.000000;0.485475
9237.000000;0.485257
9236.000000;0.485045
9235.000000;0.484891
9234.000000;0.484770
9233.000000;0.484669
9232.000000;0.484652
9231.000000;0.484821
9230.000000;0.485184
9229.000000;0.485588
9228.000000;0.485818
9227.000000;0.485774
9226.000000;0.485542
9225.000000;0.485304
9224.000000;0.485188
9223.000000;0.485205
9222.000000;0.485267
9221.000000;0.485274
9220.000000;0.485209
9219.000000;0.485156
9218.000000;0.485189
9217.000000;0.485261
9216.000000;0.485253
9215.000000;0.485150
9214.000000;0.485091
9213.000000;0.485190
9212.000000;0.485381
9211.000000;0.485488
9210.000000;0.485423
9209.000000;0.485235
9208.000000;0.485007
9207.000000;0.484803
9206.000000;0.484720
9205.000000;0.484856
9204.000000;0.485173
9203.000000;0.485464
9202.000000;0.485537
9201.000000;0.485400
9200.000000;0.485220
9199.000000;0.485148
9198.000000;0.485217
9197.000000;0.485391
9196.000000;0.485608
9195.000000;0.485774
9194.000000;0.485802
9193.000000;0.485683
9192.000000;0.485483
9191.000000;0.485244
9190.000000;0.484974
9189.000000;0.484737
9188.000000;0.484668
9187.000000;0.484827
9186.000000;0.485087
9185.000000;0.485258
9184.000000;0.485296
9183.000000;0.485303
9182.000000;0.485340
9181.000000;0.485367
9180.000000;0.485372
9179.000000;0.485432
9178.000000;0.485586
9177.000000;0.485749
9176.000000;0.485831
9175.000000;0.485869
9174.000000;0.485947
9173.000000;0.486027
9172.000000;0.485997
9171.000000;0.485850
9170.000000;0.485718
9169.000000;0.485702
9168.000000;0.485766
9167.000000;0.485827
9166.000000;0.485859
9165.000000;0.485854
9164.000000;0.485782
9163.000000;0.485650
9162.000000;0.485554
9161.000000;0.485591
9160.000000;0.485727
9159.000000;0.485821
9158.000000;0.485765
9157.000000;0.485573
9156.000000;0.485363
9155.000000;0.485300
9154.000000;0.485484
9153.000000;0.485833
9152.000000;0.486102
9151.000000;0.486090
9150.000000;0.485840
9149.000000;0.485573
9148.000000;0.485433
9147.000000;0.485392
9146.000000;0.485394
9145.000000;0.485470
9144.000000;0.485669
9143.000000;0.485932
9142.000000;0.486133
9141.000000;0.486215
9140.000000;0.486207
9139.000000;0.486145
9138.000000;0.486041
9137.000000;0.485931
9136.000000;0.485871
9135.000000;0.485861
9134.000000;0.485848
9133.000000;0.485799
9132.000000;0.485755
9131.000000;0.485767
9130.000000;0.485824
9129.000000;0.485870
9128.000000;0.485883
9127.000000;0.485888
9126.000000;0.485920
9125.000000;0.485978
9124.000000;0.486021
9123.000000;0.485995
9122.000000;0.485869
9121.000000;0.485668
9120.000000;0.485487
9119.000000;0.485424
9118.000000;0.485489
9117.000000;0.485589
9116.000000;0.485628
9115.000000;0.485621
9114.000000;0.485685
9113.000000;0.485898
9112.000000;0.486181
9111.000000;0.486350
9110.000000;0.486282
9109.000000;0.486028
9108.000000;0.485755
9107.000000;0.485595
9106.000000;0.485564
9105.000000;0.485612
9104.000000;0.485704
9103.000000;0.485830
9102.000000;0.485944
9101.000000;0.485955
9100.000000;0.485821
9099.000000;0.485646
9098.000000;0.485615
9097.000000;0.485802
9096.000000;0.486065
9095.000000;0.486199
9094.000000;0.486152
9093.000000;0.486045
9092.000000;0.485992
9091.000000;0.485965
9090.000000;0.485902
9089.000000;0.485853
9088.000000;0.485942
9087.000000;0.486182
9086.000000;0.486407
9085.000000;0.486434
9084.000000;0.486251
9083.000000;0.486028
9082.000000;0.485936
9081.000000;0.485998
9080.000000;0.486101
9079.000000;0.486152
9078.000000;0.486167
9077.000000;0.486193
9076.000000;0.486202
9075.000000;0.486117
9074.000000;0.485944
9073.000000;0.485796
9072.000000;0.485756
9071.000000;0.485790
9070.000000;0.485836
9069.000000;0.485901
9068.000000;0.486017
9067.000000;0.486134
9066.000000;0.486178
9065.000000;0.486179
9064.000000;0.486240
9063.000000;0.486379
9062.000000;0.486495
9061.000000;0.486510
9060.000000;0.486461
9059.000000;0.486414
9058.000000;0.486373
9057.000000;0.486319
9056.000000;0.486268
9055.000000;0.486240
9054.000000;0.486208
9053.000000;0.486141
