Criado como novo conjunto de dados;"2706_e01_daniel.spp","15482.5 Secs"
cm-1;Abs
10000.000000;0.821942
9999.000000;0.822356
9998.000000;0.822767
9997.000000;0.823185
9996.000000;0.823592
9995.000000;0.824022
9994.000000;0.824378
9993.000000;0.824385
9992.000000;0.824173
9991.000000;0.823993
9990.000000;0.823900
9989.000000;0.823714
9988.000000;0.823295
9987.000000;0.822655
9986.000000;0.821831
9985.000000;0.820862
9984.000000;0.819949
9983.000000;0.819448
9982.000000;0.819559
9981.000000;0.820073
9980.000000;0.820537
9979.000000;0.820640
9978.000000;0.820433
9977.000000;0.820226
9976.000000;0.820336
9975.000000;0.820838
9974.000000;0.821455
9973.000000;0.821736
9972.000000;0.821436
9971.000000;0.820723
9970.000000;0.819991
9969.000000;0.819540
9968.000000;0.819476
9967.000000;0.819801
9966.000000;0.820425
9965.000000;0.821079
9964.000000;0.821388
9963.000000;0.821169
9962.000000;0.820643
9961.000000;0.820260
9960.000000;0.820276
9959.000000;0.820529
9958.000000;0.820666
9957.000000;0.820546
9956.000000;0.820341
9955.000000;0.820245
9954.000000;0.820212
9953.000000;0.820061
9952.000000;0.819770
9951.000000;0.819518
9950.000000;0.819479
9949.000000;0.819679
9948.000000;0.820069
9947.000000;0.820558
9946.000000;0.820953
9945.000000;0.821011
9944.000000;0.820662
9943.000000;0.820088
9942.000000;0.819501
9941.000000;0.818955
9940.000000;0.818450
9939.000000;0.818133
9938.000000;0.818240
9937.000000;0.818822
9936.000000;0.819592
9935.000000;0.820056
9934.000000;0.819829
9933.000000;0.818932
9932.000000;0.817830
9931.000000;0.817096
9930.000000;0.816918
9929.000000;0.816967
9928.000000;0.816790
9927.000000;0.816259
9926.000000;0.815611
9925.000000;0.815141
9924.000000;0.814992
9923.000000;0.815125
9922.000000;0.815372
9921.000000;0.815536
9920.000000;0.815557
9919.000000;0.815564
9918.000000;0.815689
9917.000000;0.815888
9916.000000;0.816023
9915.000000;0.816035
9914.000000;0.815944
9913.000000;0.815770
9912.000000;0.815608
9911.000000;0.815661
9910.000000;0.816002
9909.000000;0.816337
9908.000000;0.816271
9907.000000;0.815809
9906.000000;0.815376
9905.000000;0.815278
9904.000000;0.815369
9903.000000;0.815351
9902.000000;0.815198
9901.000000;0.815098
9900.000000;0.815105
9899.000000;0.815052
9898.000000;0.814756
9897.000000;0.814149
9896.000000;0.813298
9895.000000;0.812440
9894.000000;0.811956
9893.000000;0.812096
9892.000000;0.812695
9891.000000;0.813290
9890.000000;0.813582
9889.000000;0.813667
9888.000000;0.813782
9887.000000;0.813951
9886.000000;0.814027
9885.000000;0.813989
9884.000000;0.814029
9883.000000;0.814310
9882.000000;0.814757
9881.000000;0.815124
9880.000000;0.815198
9879.000000;0.814890
9878.000000;0.814243
9877.000000;0.813427
9876.000000;0.812703
9875.000000;0.812245
9874.000000;0.812005
9873.000000;0.811814
9872.000000;0.811608
9871.000000;0.811463
9870.000000;0.811390
9869.000000;0.811257
9868.000000;0.810991
9867.000000;0.810742
9866.000000;0.810740
9865.000000;0.811038
9864.000000;0.811489
9863.000000;0.811941
9862.000000;0.812340
9861.000000;0.812658
9860.000000;0.812808
9859.000000;0.812664
9858.000000;0.812150
9857.000000;0.811310
9856.000000;0.810361
9855.000000;0.809631
9854.000000;0.809339
9853.000000;0.809406
9852.000000;0.809505
9851.000000;0.809339
9850.000000;0.808912
9849.000000;0.808547
9848.000000;0.808636
9847.000000;0.809296
9846.000000;0.810204
9845.000000;0.810812
9844.000000;0.810800
9843.000000;0.810335
9842.000000;0.809842
9841.000000;0.809627
9840.000000;0.809753
9839.000000;0.810159
9838.000000;0.810720
9837.000000;0.811204
9836.000000;0.811362
9835.000000;0.811145
9834.000000;0.810740
9833.000000;0.810346
9832.000000;0.809973
9831.000000;0.809516
9830.000000;0.808964
9829.000000;0.808456
9828.000000;0.808159
9827.000000;0.808122
9826.000000;0.808242
9825.000000;0.808355
9824.000000;0.808377
9823.000000;0.808391
9822.000000;0.808574
9821.000000;0.809022
9820.000000;0.809588
9819.000000;0.809903
9818.000000;0.809619
9817.000000;0.808742
9816.000000;0.807718
9815.000000;0.807102
9814.000000;0.807081
9813.000000;0.807389
9812.000000;0.807673
9811.000000;0.807831
9810.000000;0.807916
9809.000000;0.807875
9808.000000;0.807586
9807.000000;0.807145
9806.000000;0.806870
9805.000000;0.806961
9804.000000;0.807240
9803.000000;0.807315
9802.000000;0.806966
9801.000000;0.806317
9800.000000;0.805681
9799.000000;0.805283
9798.000000;0.805120
9797.000000;0.805057
9796.000000;0.805001
9795.000000;0.804969
9794.000000;0.805022
9793.000000;0.805186
9792.000000;0.805424
9791.000000;0.805626
9790.000000;0.805632
9789.000000;0.805407
9788.000000;0.805175
9787.000000;0.805226
9786.000000;0.805509
9785.000000;0.805601
9784.000000;0.805207
9783.000000;0.804540
9782.000000;0.804027
9781.000000;0.803795
9780.000000;0.803682
9779.000000;0.803650
9778.000000;0.803865
9777.000000;0.804352
9776.000000;0.804846
9775.000000;0.805093
9774.000000;0.805104
9773.000000;0.805006
9772.000000;0.804828
9771.000000;0.804568
9770.000000;0.804311
9769.000000;0.804142
9768.000000;0.803999
9767.000000;0.803742
9766.000000;0.803343
9765.000000;0.802908
9764.000000;0.802562
9763.000000;0.802358
9762.000000;0.802294
9761.000000;0.802351
9760.000000;0.802506
9759.000000;0.802690
9758.000000;0.802735
9757.000000;0.802458
9756.000000;0.801874
9755.000000;0.801304
9754.000000;0.801125
9753.000000;0.801399
9752.000000;0.801850
9751.000000;0.802202
9750.000000;0.802415
9749.000000;0.802564
9748.000000;0.802626
9747.000000;0.802490
9746.000000;0.802113
9745.000000;0.801603
9744.000000;0.801183
9743.000000;0.801039
9742.000000;0.801165
9741.000000;0.801352
9740.000000;0.801425
9739.000000;0.801431
9738.000000;0.801494
9737.000000;0.801549
9736.000000;0.801426
9735.000000;0.801161
9734.000000;0.801025
9733.000000;0.801156
9732.000000;0.801356
9731.000000;0.801361
9730.000000;0.801129
9729.000000;0.800795
9728.000000;0.800465
9727.000000;0.800208
9726.000000;0.800103
9725.000000;0.800136
9724.000000;0.800142
9723.000000;0.799970
9722.000000;0.799657
9721.000000;0.799355
9720.000000;0.799154
9719.000000;0.799104
9718.000000;0.799273
9717.000000;0.799641
9716.000000;0.799983
9715.000000;0.800026
9714.000000;0.799734
9713.000000;0.799333
9712.000000;0.799054
9711.000000;0.798979
9710.000000;0.799091
9709.000000;0.799329
9708.000000;0.799530
9707.000000;0.799431
9706.000000;0.798870
9705.000000;0.797984
9704.000000;0.797125
9703.000000;0.796572
9702.000000;0.796338
9701.000000;0.796297
9700.000000;0.796398
9699.000000;0.796688
9698.000000;0.797111
9697.000000;0.797455
9696.000000;0.797580
9695.000000;0.797582
9694.000000;0.797625
9693.000000;0.797712
9692.000000;0.797794
9691.000000;0.797987
9690.000000;0.798449
9689.000000;0.799057
9688.000000;0.799435
9687.000000;0.799348
9686.000000;0.798873
9685.000000;0.798171
9684.000000;0.797350
9683.000000;0.796605
9682.000000;0.796220
9681.000000;0.796263
9680.000000;0.796463
9679.000000;0.796544
9678.000000;0.796519
9677.000000;0.796510
9676.000000;0.796488
9675.000000;0.796365
9674.000000;0.796213
9673.000000;0.796161
9672.000000;0.796180
9671.000000;0.796163
9670.000000;0.796141
9669.000000;0.796245
9668.000000;0.796513
9667.000000;0.796867
9666.000000;0.797185
9665.000000;0.797265
9664.000000;0.796878
9663.000000;0.796074
9662.000000;0.795310
9661.000000;0.795024
9660.000000;0.795117
9659.000000;0.795133
9658.000000;0.794907
9657.000000;0.794735
9656.000000;0.794866
9655.000000;0.795127
9654.000000;0.795194
9653.000000;0.795028
9652.000000;0.794876
9651.000000;0.794930
9650.000000;0.795114
9649.000000;0.795152
9648.000000;0.794809
9647.000000;0.794124
9646.000000;0.793432
9645.000000;0.793070
9644.000000;0.793043
9643.000000;0.793078
9642.000000;0.792990
9641.000000;0.792870
9640.000000;0.792894
9639.000000;0.793097
9638.000000;0.793400
9637.000000;0.793738
9636.000000;0.794041
9635.000000;0.794181
9634.000000;0.794034
9633.000000;0.793597
9632.000000;0.793009
9631.000000;0.792477
9630.000000;0.792189
9629.000000;0.792225
9628.000000;0.792505
9627.000000;0.792858
9626.000000;0.793130
9625.000000;0.793227
9624.000000;0.793091
9623.000000;0.792767
9622.000000;0.792467
9621.000000;0.792438
9620.000000;0.792713
9619.000000;0.793049
9618.000000;0.793187
9617.000000;0.793098
9616.000000;0.792966
9615.000000;0.792963
9614.000000;0.793063
9613.000000;0.793038
9612.000000;0.792643
9611.000000;0.791868
9610.000000;0.791021
9609.000000;0.790471
9608.000000;0.790318
9607.000000;0.790372
9606.000000;0.790442
9605.000000;0.790494
9604.000000;0.790535
9603.000000;0.790488
9602.000000;0.790312
9601.000000;0.790140
9600.000000;0.790135
9599.000000;0.790252
9598.000000;0.790266
9597.000000;0.790074
9596.000000;0.789872
9595.000000;0.789938
9594.000000;0.790289
9593.000000;0.790606
9592.000000;0.790576
9591.000000;0.790242
9590.000000;0.789934
9589.000000;0.789871
9588.000000;0.789946
9587.000000;0.789944
9586.000000;0.789832
9585.000000;0.789693
9584.000000;0.789484
9583.000000;0.789071
9582.000000;0.788519
9581.000000;0.788135
9580.000000;0.788134
9579.000000;0.788410
9578.000000;0.788725
9577.000000;0.788989
9576.000000;0.789230
9575.000000;0.789402
9574.000000;0.789394
9573.000000;0.789208
9572.000000;0.788956
9571.000000;0.788692
9570.000000;0.788371
9569.000000;0.788019
9568.000000;0.787809
9567.000000;0.787850
9566.000000;0.787984
9565.000000;0.787905
9564.000000;0.787525
9563.000000;0.787107
9562.000000;0.786981
9561.000000;0.787175
9560.000000;0.787438
9559.000000;0.787590
9558.000000;0.787725
9557.000000;0.788009
9556.000000;0.788390
9555.000000;0.788648
9554.000000;0.788662
9553.000000;0.788495
9552.000000;0.788228
9551.000000;0.787873
9550.000000;0.787485
9549.000000;0.787215
9548.000000;0.787158
9547.000000;0.787237
9546.000000;0.787315
9545.000000;0.787348
9544.000000;0.787343
9543.000000;0.787229
9542.000000;0.786902
9541.000000;0.786382
9540.000000;0.785828
9539.000000;0.785410
9538.000000;0.785225
9537.000000;0.785295
9536.000000;0.785550
9535.000000;0.785802
9534.000000;0.785849
9533.000000;0.785658
9532.000000;0.785385
9531.000000;0.785220
9530.000000;0.785246
9529.000000;0.785450
9528.000000;0.785762
9527.000000;0.786044
9526.000000;0.786134
9525.000000;0.786017
9524.000000;0.785883
9523.000000;0.785923
9522.000000;0.786078
9521.000000;0.786078
9520.000000;0.785739
9519.000000;0.785154
9518.000000;0.784566
9517.000000;0.784152
9516.000000;0.783949
9515.000000;0.783909
9514.000000;0.783945
9513.000000;0.783964
9512.000000;0.783927
9511.000000;0.783890
9510.000000;0.783948
9509.000000;0.784152
9508.000000;0.784466
9507.000000;0.784755
9506.000000;0.784816
9505.000000;0.784531
9504.000000;0.784044
9503.000000;0.783696
9502.000000;0.783680
9501.000000;0.783811
9500.000000;0.783775
9499.000000;0.783545
9498.000000;0.783404
9497.000000;0.783545
9496.000000;0.783828
9495.000000;0.783991
9494.000000;0.783924
9493.000000;0.783663
9492.000000;0.783268
9491.000000;0.782873
9490.000000;0.782712
9489.000000;0.782905
9488.000000;0.783250
9487.000000;0.783383
9486.000000;0.783184
9485.000000;0.782847
9484.000000;0.782571
9483.000000;0.782342
9482.000000;0.782094
9481.000000;0.781910
9480.000000;0.781900
9479.000000;0.781948
9478.000000;0.781775
9477.000000;0.781307
9476.000000;0.780846
9475.000000;0.780761
9474.000000;0.781059
9473.000000;0.781376
9472.000000;0.781385
9471.000000;0.781110
9470.000000;0.780794
9469.000000;0.780583
9468.000000;0.780485
9467.000000;0.780515
9466.000000;0.780696
9465.000000;0.780894
9464.000000;0.780853
9463.000000;0.780500
9462.000000;0.780089
9461.000000;0.779907
9460.000000;0.779942
9459.000000;0.779969
9458.000000;0.779904
9457.000000;0.779888
9456.000000;0.780003
9455.000000;0.780085
9454.000000;0.779909
9453.000000;0.779504
9452.000000;0.779174
9451.000000;0.779181
9450.000000;0.779462
9449.000000;0.779704
9448.000000;0.779699
9447.000000;0.779571
9446.000000;0.779585
9445.000000;0.779783
9444.000000;0.779933
9443.000000;0.779830
9442.000000;0.779536
9441.000000;0.779243
9440.000000;0.779061
9439.000000;0.779026
9438.000000;0.779187
9437.000000;0.779514
9436.000000;0.779795
9435.000000;0.779800
9434.000000;0.779546
9433.000000;0.779256
9432.000000;0.779061
9431.000000;0.778884
9430.000000;0.778641
9429.000000;0.778385
9428.000000;0.778212
9427.000000;0.778132
9426.000000;0.778104
9425.000000;0.778097
9424.000000;0.778082
9423.000000;0.778024
9422.000000;0.777925
9421.000000;0.777819
9420.000000;0.777694
9419.000000;0.777493
9418.000000;0.777219
9417.000000;0.776956
9416.000000;0.776764
9415.000000;0.776614
9414.000000;0.776469
9413.000000;0.776367
9412.000000;0.776388
9411.000000;0.776585
9410.000000;0.776977
9409.000000;0.777508
9408.000000;0.777983
9407.000000;0.778133
9406.000000;0.777857
9405.000000;0.777364
9404.000000;0.777014
9403.000000;0.777004
9402.000000;0.777214
9401.000000;0.777327
9400.000000;0.777094
9399.000000;0.776556
9398.000000;0.776058
9397.000000;0.775971
9396.000000;0.776316
9395.000000;0.776697
9394.000000;0.776667
9393.000000;0.776181
9392.000000;0.775630
9391.000000;0.775445
9390.000000;0.775725
9389.000000;0.776229
9388.000000;0.776642
9387.000000;0.776793
9386.000000;0.776655
9385.000000;0.776275
9384.000000;0.775756
9383.000000;0.775256
9382.000000;0.774901
9381.000000;0.774666
9380.000000;0.774430
9379.000000;0.774171
9378.000000;0.774036
9377.000000;0.774159
9376.000000;0.774469
9375.000000;0.774777
9374.000000;0.774985
9373.000000;0.775126
9372.000000;0.775220
9371.000000;0.775220
9370.000000;0.775102
9369.000000;0.774892
9368.000000;0.774610
9367.000000;0.774269
9366.000000;0.773965
9365.000000;0.773848
9364.000000;0.773945
9363.000000;0.774113
9362.000000;0.774211
9361.000000;0.774234
9360.000000;0.774236
9359.000000;0.774191
9358.000000;0.774039
9357.000000;0.773801
9356.000000;0.773583
9355.000000;0.773473
9354.000000;0.773475
9353.000000;0.773510
9352.000000;0.773465
9351.000000;0.773283
9350.000000;0.773043
9349.000000;0.772912
9348.000000;0.772965
9347.000000;0.773100
9346.000000;0.773161
9345.000000;0.773089
9344.000000;0.772929
9343.000000;0.772743
9342.000000;0.772578
9341.000000;0.772470
9340.000000;0.772420
9339.000000;0.772394
9338.000000;0.772366
9337.000000;0.772329
9336.000000;0.772251
9335.000000;0.772084
9334.000000;0.771860
9333.000000;0.771700
9332.000000;0.771668
9331.000000;0.771676
9330.000000;0.771610
9329.000000;0.771468
9328.000000;0.771299
9327.000000;0.771094
9326.000000;0.770855
9325.000000;0.770728
9324.000000;0.770911
9323.000000;0.771416
9322.000000;0.772008
9321.000000;0.772389
9320.000000;0.772386
9319.000000;0.772020
9318.000000;0.771498
9317.000000;0.771120
9316.000000;0.771039
9315.000000;0.771091
9314.000000;0.770957
9313.000000;0.770552
9312.000000;0.770142
9311.000000;0.770022
9310.000000;0.770181
9309.000000;0.770366
9308.000000;0.770378
9307.000000;0.770237
9306.000000;0.770069
9305.000000;0.769933
9304.000000;0.769776
9303.000000;0.769531
9302.000000;0.769244
9301.000000;0.769085
9300.000000;0.769165
9299.000000;0.769373
9298.000000;0.769465
9297.000000;0.769343
9296.000000;0.769156
9295.000000;0.769086
9294.000000;0.769131
9293.000000;0.769191
9292.000000;0.769249
9291.000000;0.769361
9290.000000;0.769508
9289.000000;0.769611
9288.000000;0.769666
9287.000000;0.769741
9286.000000;0.769826
9285.000000;0.769836
9284.000000;0.769775
9283.000000;0.769737
9282.000000;0.769697
9281.000000;0.769432
9280.000000;0.768790
9279.000000;0.767936
9278.000000;0.767235
9277.000000;0.766930
9276.000000;0.767036
9275.000000;0.767443
9274.000000;0.767958
9273.000000;0.768300
9272.000000;0.768256
9271.000000;0.767916
9270.000000;0.767605
9269.000000;0.767529
9268.000000;0.767580
9267.000000;0.767554
9266.000000;0.767431
9265.000000;0.767350
9264.000000;0.767369
9263.000000;0.767397
9262.000000;0.767326
9261.000000;0.767130
9260.000000;0.766852
9259.000000;0.766587
9258.000000;0.766474
9257.000000;0.766626
9256.000000;0.767000
9255.000000;0.767403
9254.000000;0.767624
9253.000000;0.767555
9252.000000;0.767224
9251.000000;0.766780
9250.000000;0.766431
9249.000000;0.766305
9248.000000;0.766317
9247.000000;0.766231
9246.000000;0.765892
9245.000000;0.765383
9244.000000;0.764954
9243.000000;0.764806
9242.000000;0.764953
9241.000000;0.765229
9240.000000;0.765440
9239.000000;0.765513
9238.000000;0.765521
9237.000000;0.765543
9236.000000;0.765573
9235.000000;0.765580
9234.000000;0.765604
9233.000000;0.765680
9232.000000;0.765707
9231.000000;0.765548
9230.000000;0.765247
9229.000000;0.765016
9228.000000;0.764963
9227.000000;0.764950
9226.000000;0.764800
9225.000000;0.764516
9224.000000;0.764216
9223.000000;0.763964
9222.000000;0.763781
9221.000000;0.763738
9220.000000;0.763855
9219.000000;0.763961
9218.000000;0.763821
9217.000000;0.763458
9216.000000;0.763203
9215.000000;0.763342
9214.000000;0.763796
9213.000000;0.764219
9212.000000;0.764359
9211.000000;0.764242
9210.000000;0.764058
9209.000000;0.763940
9208.000000;0.763888
9207.000000;0.763848
9206.000000;0.763805
9205.000000;0.763766
9204.000000;0.763700
9203.000000;0.763546
9202.000000;0.763322
9201.000000;0.763149
9200.000000;0.763117
9199.000000;0.763173
9198.000000;0.763208
9197.000000;0.763199
9196.000000;0.763177
9195.000000;0.763082
9194.000000;0.762791
9193.000000;0.762337
9192.000000;0.761975
9191.000000;0.761929
9190.000000;0.762141
9189.000000;0.762338
9188.000000;0.762307
9187.000000;0.762047
9186.000000;0.761713
9185.000000;0.761496
9184.000000;0.761500
9183.000000;0.761638
9182.000000;0.761663
9181.000000;0.761411
9180.000000;0.761011
9179.000000;0.760772
9178.000000;0.760827
9177.000000;0.760988
9176.000000;0.760985
9175.000000;0.760764
9174.000000;0.760488
9173.000000;0.760318
9172.000000;0.760293
9171.000000;0.760362
9170.000000;0.760460
9169.000000;0.760528
9168.000000;0.760555
9167.000000;0.760596
9166.000000;0.760671
9165.000000;0.760666
9164.000000;0.760415
9163.000000;0.759950
9162.000000;0.759568
9161.000000;0.759563
9160.000000;0.759910
9159.000000;0.760299
9158.000000;0.760467
9157.000000;0.760411
9156.000000;0.760290
9155.000000;0.760214
9154.000000;0.760196
9153.000000;0.760226
9152.000000;0.760248
9151.000000;0.760126
9150.000000;0.759747
9149.000000;0.759229
9148.000000;0.758906
9147.000000;0.758985
9146.000000;0.759280
9145.000000;0.759396
9144.000000;0.759177
9143.000000;0.758862
9142.000000;0.758767
9141.000000;0.758902
9140.000000;0.759005
9139.000000;0.758864
9138.000000;0.758532
9137.000000;0.758217
9136.000000;0.758084
9135.000000;0.758165
9134.000000;0.758399
9133.000000;0.758689
9132.000000;0.758949
9131.000000;0.759110
9130.000000;0.759081
9129.000000;0.758751
9128.000000;0.758124
9127.000000;0.757421
9126.000000;0.756972
9125.000000;0.756945
9124.000000;0.757223
9123.000000;0.757578
9122.000000;0.757883
9121.000000;0.758114
9120.000000;0.758229
9119.000000;0.758164
9118.000000;0.757930
9117.000000;0.757645
9116.000000;0.757445
9115.000000;0.757402
9114.000000;0.757504
9113.000000;0.757662
9112.000000;0.757742
9111.000000;0.757637
9110.000000;0.757352
9109.000000;0.756991
9108.000000;0.756665
9107.000000;0.756406
9106.000000;0.756164
9105.000000;0.755875
9104.000000;0.755552
9103.000000;0.755344
9102.000000;0.755431
9101.000000;0.755818
9100.000000;0.756268
9099.000000;0.756506
9098.000000;0.756498
9097.000000;0.756454
9096.000000;0.756590
9095.000000;0.756945
9094.000000;0.757380
9093.000000;0.757666
9092.000000;0.757580
9091.000000;0.757070
9090.000000;0.756379
9089.000000;0.755890
9088.000000;0.755790
9087.000000;0.755920
9086.000000;0.756016
9085.000000;0.756006
9084.000000;0.755985
9083.000000;0.755975
9082.000000;0.755872
9081.000000;0.755623
9080.000000;0.755359
9079.000000;0.755270
9078.000000;0.755391
9077.000000;0.755554
9076.000000;0.755540
9075.000000;0.755271
9074.000000;0.754860
9073.000000;0.754487
9072.000000;0.754239
9071.000000;0.754101
9070.000000;0.754048
9069.000000;0.754087
9068.000000;0.754181
9067.000000;0.754216
9066.000000;0.754132
9065.000000;0.754022
9064.000000;0.754029
9063.000000;0.754141
9062.000000;0.754212
9061.000000;0.754158
9060.000000;0.754065
9059.000000;0.754034
9058.000000;0.754033
9057.000000;0.753950
9056.000000;0.753766
9055.000000;0.753583
9054.000000;0.753499
9053.000000;0.753509
