Criado como novo conjunto de dados;"2706_e01_daniel.spp","59404.9 Secs"
cm-1;Abs
10000.000000;0.973219
9999.000000;0.971375
9998.000000;0.969538
9997.000000;0.967710
9996.000000;0.965889
9995.000000;0.964076
9994.000000;0.962269
9993.000000;0.960472
9992.000000;0.958675
9991.000000;0.957198
9990.000000;0.956530
9989.000000;0.956756
9988.000000;0.957613
9987.000000;0.958752
9986.000000;0.959849
9985.000000;0.960535
9984.000000;0.960437
9983.000000;0.959484
9982.000000;0.958128
9981.000000;0.957063
9980.000000;0.956662
9979.000000;0.956779
9978.000000;0.957087
9977.000000;0.957440
9976.000000;0.957788
9975.000000;0.957904
9974.000000;0.957508
9973.000000;0.956772
9972.000000;0.956462
9971.000000;0.957249
9970.000000;0.958820
9969.000000;0.959952
9968.000000;0.959669
9967.000000;0.958231
9966.000000;0.956772
9965.000000;0.956119
9964.000000;0.956221
9963.000000;0.956573
9962.000000;0.956780
9961.000000;0.956665
9960.000000;0.956200
9959.000000;0.955595
9958.000000;0.955248
9957.000000;0.955380
9956.000000;0.955807
9955.000000;0.956168
9954.000000;0.956240
9953.000000;0.955938
9952.000000;0.955271
9951.000000;0.954539
9950.000000;0.954323
9949.000000;0.954938
9948.000000;0.955963
9947.000000;0.956602
9946.000000;0.956492
9945.000000;0.955928
9944.000000;0.955361
9943.000000;0.954972
9942.000000;0.954741
9941.000000;0.954648
9940.000000;0.954695
9939.000000;0.954896
9938.000000;0.955308
9937.000000;0.955960
9936.000000;0.956714
9935.000000;0.957315
9934.000000;0.957568
9933.000000;0.957391
9932.000000;0.956793
9931.000000;0.955984
9930.000000;0.955385
9929.000000;0.955290
9928.000000;0.955526
9927.000000;0.955628
9926.000000;0.955355
9925.000000;0.954865
9924.000000;0.954429
9923.000000;0.954226
9922.000000;0.954349
9921.000000;0.954727
9920.000000;0.954991
9919.000000;0.954743
9918.000000;0.954029
9917.000000;0.953288
9916.000000;0.952733
9915.000000;0.952104
9914.000000;0.951168
9913.000000;0.950179
9912.000000;0.949621
9911.000000;0.949699
9910.000000;0.950295
9909.000000;0.951188
9908.000000;0.952072
9907.000000;0.952506
9906.000000;0.952193
9905.000000;0.951314
9904.000000;0.950403
9903.000000;0.949850
9902.000000;0.949651
9901.000000;0.949590
9900.000000;0.949479
9899.000000;0.949232
9898.000000;0.948897
9897.000000;0.948673
9896.000000;0.948756
9895.000000;0.949096
9894.000000;0.949361
9893.000000;0.949237
9892.000000;0.948798
9891.000000;0.948520
9890.000000;0.948835
9889.000000;0.949635
9888.000000;0.950302
9887.000000;0.950298
9886.000000;0.949682
9885.000000;0.948961
9884.000000;0.948529
9883.000000;0.948399
9882.000000;0.948416
9881.000000;0.948481
9880.000000;0.948503
9879.000000;0.948350
9878.000000;0.948009
9877.000000;0.947654
9876.000000;0.947467
9875.000000;0.947455
9874.000000;0.947499
9873.000000;0.947459
9872.000000;0.947179
9871.000000;0.946570
9870.000000;0.945841
9869.000000;0.945489
9868.000000;0.945819
9867.000000;0.946523
9866.000000;0.946939
9865.000000;0.946792
9864.000000;0.946506
9863.000000;0.946660
9862.000000;0.947215
9861.000000;0.947483
9860.000000;0.946904
9859.000000;0.945720
9858.000000;0.944753
9857.000000;0.944592
9856.000000;0.945183
9855.000000;0.946125
9854.000000;0.947093
9853.000000;0.947843
9852.000000;0.948119
9851.000000;0.947888
9850.000000;0.947535
9849.000000;0.947443
9848.000000;0.947406
9847.000000;0.946826
9846.000000;0.945602
9845.000000;0.944465
9844.000000;0.944252
9843.000000;0.945036
9842.000000;0.946116
9841.000000;0.946697
9840.000000;0.946434
9839.000000;0.945515
9838.000000;0.944438
9837.000000;0.943678
9836.000000;0.943405
9835.000000;0.943514
9834.000000;0.943924
9833.000000;0.944666
9832.000000;0.945625
9831.000000;0.946396
9830.000000;0.946600
9829.000000;0.946215
9828.000000;0.945467
9827.000000;0.944575
9826.000000;0.943773
9825.000000;0.943415
9824.000000;0.943719
9823.000000;0.944434
9822.000000;0.944985
9821.000000;0.945034
9820.000000;0.944752
9819.000000;0.944495
9818.000000;0.944358
9817.000000;0.944144
9816.000000;0.943700
9815.000000;0.943147
9814.000000;0.942754
9813.000000;0.942628
9812.000000;0.942612
9811.000000;0.942549
9810.000000;0.942519
9809.000000;0.942665
9808.000000;0.942860
9807.000000;0.942778
9806.000000;0.942384
9805.000000;0.942053
9804.000000;0.942040
9803.000000;0.942043
9802.000000;0.941575
9801.000000;0.940678
9800.000000;0.939961
9799.000000;0.939922
9798.000000;0.940457
9797.000000;0.941072
9796.000000;0.941358
9795.000000;0.941204
9794.000000;0.940736
9793.000000;0.940220
9792.000000;0.939957
9791.000000;0.940075
9790.000000;0.940390
9789.000000;0.940537
9788.000000;0.940306
9787.000000;0.939818
9786.000000;0.939374
9785.000000;0.939183
9784.000000;0.939280
9783.000000;0.939633
9782.000000;0.940167
9781.000000;0.940642
9780.000000;0.940693
9779.000000;0.940172
9778.000000;0.939388
9777.000000;0.938857
9776.000000;0.938807
9775.000000;0.939066
9774.000000;0.939315
9773.000000;0.939299
9772.000000;0.938867
9771.000000;0.938110
9770.000000;0.937478
9769.000000;0.937435
9768.000000;0.937894
9767.000000;0.938244
9766.000000;0.938097
9765.000000;0.937761
9764.000000;0.937777
9763.000000;0.938245
9762.000000;0.938844
9761.000000;0.939315
9760.000000;0.939586
9759.000000;0.939522
9758.000000;0.938937
9757.000000;0.937936
9756.000000;0.936940
9755.000000;0.936281
9754.000000;0.935977
9753.000000;0.935947
9752.000000;0.936210
9751.000000;0.936694
9750.000000;0.936991
9749.000000;0.936584
9748.000000;0.935423
9747.000000;0.934138
9746.000000;0.933557
9745.000000;0.934018
9744.000000;0.935179
9743.000000;0.936418
9742.000000;0.937282
9741.000000;0.937564
9740.000000;0.937207
9739.000000;0.936409
9738.000000;0.935697
9737.000000;0.935598
9736.000000;0.936113
9735.000000;0.936655
9734.000000;0.936621
9733.000000;0.935880
9732.000000;0.934732
9731.000000;0.933653
9730.000000;0.933162
9729.000000;0.933590
9728.000000;0.934657
9727.000000;0.935465
9726.000000;0.935281
9725.000000;0.934341
9724.000000;0.933622
9723.000000;0.933798
9722.000000;0.934599
9721.000000;0.935234
9720.000000;0.935263
9719.000000;0.934952
9718.000000;0.934826
9717.000000;0.935030
9716.000000;0.935176
9715.000000;0.934822
9714.000000;0.934036
9713.000000;0.933363
9712.000000;0.933251
9711.000000;0.933654
9710.000000;0.934201
9709.000000;0.934579
9708.000000;0.934654
9707.000000;0.934418
9706.000000;0.934019
9705.000000;0.933751
9704.000000;0.933800
9703.000000;0.934006
9702.000000;0.934004
9701.000000;0.933600
9700.000000;0.932933
9699.000000;0.932306
9698.000000;0.931979
9697.000000;0.932053
9696.000000;0.932415
9695.000000;0.932829
9694.000000;0.933159
9693.000000;0.933445
9692.000000;0.933701
9691.000000;0.933743
9690.000000;0.933388
9689.000000;0.932764
9688.000000;0.932254
9687.000000;0.932087
9686.000000;0.932106
9685.000000;0.931943
9684.000000;0.931379
9683.000000;0.930594
9682.000000;0.930103
9681.000000;0.930344
9680.000000;0.931191
9679.000000;0.931933
9678.000000;0.931884
9677.000000;0.931012
9676.000000;0.929893
9675.000000;0.929132
9674.000000;0.928964
9673.000000;0.929284
9672.000000;0.929837
9671.000000;0.930344
9670.000000;0.930629
9669.000000;0.930722
9668.000000;0.930815
9667.000000;0.931081
9666.000000;0.931553
9665.000000;0.932079
9664.000000;0.932360
9663.000000;0.932140
9662.000000;0.931499
9661.000000;0.930858
9660.000000;0.930546
9659.000000;0.930461
9658.000000;0.930277
9657.000000;0.929904
9656.000000;0.929542
9655.000000;0.929378
9654.000000;0.929429
9653.000000;0.929639
9652.000000;0.929921
9651.000000;0.930105
9650.000000;0.930028
9649.000000;0.929711
9648.000000;0.929287
9647.000000;0.928793
9646.000000;0.928211
9645.000000;0.927718
9644.000000;0.927626
9643.000000;0.928024
9642.000000;0.928643
9641.000000;0.929131
9640.000000;0.929275
9639.000000;0.928944
9638.000000;0.928080
9637.000000;0.926891
9636.000000;0.925855
9635.000000;0.925348
9634.000000;0.925344
9633.000000;0.925600
9632.000000;0.926015
9631.000000;0.926640
9630.000000;0.927385
9629.000000;0.927928
9628.000000;0.927985
9627.000000;0.927594
9626.000000;0.927057
9625.000000;0.926653
9624.000000;0.926457
9623.000000;0.926415
9622.000000;0.926479
9621.000000;0.926584
9620.000000;0.926565
9619.000000;0.926292
9618.000000;0.925915
9617.000000;0.925795
9616.000000;0.926067
9615.000000;0.926435
9614.000000;0.926539
9613.000000;0.926372
9612.000000;0.926142
9611.000000;0.925886
9610.000000;0.925511
9609.000000;0.925124
9608.000000;0.924983
9607.000000;0.925089
9606.000000;0.925143
9605.000000;0.924985
9604.000000;0.924777
9603.000000;0.924690
9602.000000;0.924688
9601.000000;0.924773
9600.000000;0.925118
9599.000000;0.925739
9598.000000;0.926252
9597.000000;0.926250
9596.000000;0.925785
9595.000000;0.925253
9594.000000;0.924895
9593.000000;0.924672
9592.000000;0.924541
9591.000000;0.924552
9590.000000;0.924672
9589.000000;0.924743
9588.000000;0.924662
9587.000000;0.924444
9586.000000;0.924105
9585.000000;0.923662
9584.000000;0.923270
9583.000000;0.923139
9582.000000;0.923258
9581.000000;0.923357
9580.000000;0.923251
9579.000000;0.923095
9578.000000;0.923171
9577.000000;0.923512
9576.000000;0.923832
9575.000000;0.923783
9574.000000;0.923222
9573.000000;0.922327
9572.000000;0.921555
9571.000000;0.921411
9570.000000;0.922070
9569.000000;0.923156
9568.000000;0.923964
9567.000000;0.924010
9566.000000;0.923396
9565.000000;0.922628
9564.000000;0.922119
9563.000000;0.921879
9562.000000;0.921670
9561.000000;0.921382
9560.000000;0.921211
9559.000000;0.921406
9558.000000;0.921896
9557.000000;0.922283
9556.000000;0.922265
9555.000000;0.921966
9554.000000;0.921745
9553.000000;0.921735
9552.000000;0.921719
9551.000000;0.921488
9550.000000;0.921188
9549.000000;0.921183
9548.000000;0.921619
9547.000000;0.922196
9546.000000;0.922372
9545.000000;0.921820
9544.000000;0.920709
9543.000000;0.919573
9542.000000;0.918862
9541.000000;0.918632
9540.000000;0.918684
9539.000000;0.918934
9538.000000;0.919467
9537.000000;0.920181
9536.000000;0.920638
9535.000000;0.920457
9534.000000;0.919767
9533.000000;0.919034
9532.000000;0.918534
9531.000000;0.918201
9530.000000;0.917950
9529.000000;0.917871
9528.000000;0.918051
9527.000000;0.918398
9526.000000;0.918766
9525.000000;0.919069
9524.000000;0.919209
9523.000000;0.919069
9522.000000;0.918713
9521.000000;0.918422
9520.000000;0.918353
9519.000000;0.918317
9518.000000;0.918053
9517.000000;0.917629
9516.000000;0.917321
9515.000000;0.917187
9514.000000;0.917021
9513.000000;0.916728
9512.000000;0.916500
9511.000000;0.916517
9510.000000;0.916685
9509.000000;0.916827
9508.000000;0.916983
9507.000000;0.917319
9506.000000;0.917753
9505.000000;0.917919
9504.000000;0.917591
9503.000000;0.917017
9502.000000;0.916688
9501.000000;0.916808
9500.000000;0.917126
9499.000000;0.917298
9498.000000;0.917264
9497.000000;0.917172
9496.000000;0.917079
9495.000000;0.916939
9494.000000;0.916808
9493.000000;0.916824
9492.000000;0.916965
9491.000000;0.917019
9490.000000;0.916876
9489.000000;0.916684
9488.000000;0.916606
9487.000000;0.916583
9486.000000;0.916440
9485.000000;0.916130
9484.000000;0.915753
9483.000000;0.915449
9482.000000;0.915353
9481.000000;0.915513
9480.000000;0.915750
9479.000000;0.915721
9478.000000;0.915282
9477.000000;0.914712
9476.000000;0.914427
9475.000000;0.914547
9474.000000;0.914875
9473.000000;0.915191
9472.000000;0.915416
9471.000000;0.915508
9470.000000;0.915394
9469.000000;0.915025
9468.000000;0.914430
9467.000000;0.913751
9466.000000;0.913250
9465.000000;0.913155
9464.000000;0.913377
9463.000000;0.913516
9462.000000;0.913310
9461.000000;0.912955
9460.000000;0.912809
9459.000000;0.912880
9458.000000;0.912889
9457.000000;0.912749
9456.000000;0.912683
9455.000000;0.912834
9454.000000;0.913035
9453.000000;0.913060
9452.000000;0.912913
9451.000000;0.912745
9450.000000;0.912640
9449.000000;0.912592
9448.000000;0.912606
9447.000000;0.912730
9446.000000;0.913025
9445.000000;0.913483
9444.000000;0.913910
9443.000000;0.913947
9442.000000;0.913402
9441.000000;0.912544
9440.000000;0.911879
9439.000000;0.911625
9438.000000;0.911580
9437.000000;0.911497
9436.000000;0.911363
9435.000000;0.911264
9434.000000;0.911222
9433.000000;0.911295
9432.000000;0.911596
9431.000000;0.912046
9430.000000;0.912279
9429.000000;0.912004
9428.000000;0.911374
9427.000000;0.910813
9426.000000;0.910585
9425.000000;0.910651
9424.000000;0.910873
9423.000000;0.911160
9422.000000;0.911449
9421.000000;0.911694
9420.000000;0.911862
9419.000000;0.911872
9418.000000;0.911581
9417.000000;0.910945
9416.000000;0.910154
9415.000000;0.909509
9414.000000;0.909188
9413.000000;0.909163
9412.000000;0.909293
9411.000000;0.909399
9410.000000;0.909344
9409.000000;0.909168
9408.000000;0.909112
9407.000000;0.909358
9406.000000;0.909751
9405.000000;0.909928
9404.000000;0.909740
9403.000000;0.909450
9402.000000;0.909444
9401.000000;0.909822
9400.000000;0.910282
9399.000000;0.910366
9398.000000;0.909856
9397.000000;0.908990
9396.000000;0.908280
9395.000000;0.908047
9394.000000;0.908138
9393.000000;0.908172
9392.000000;0.907995
9391.000000;0.907782
9390.000000;0.907715
9389.000000;0.907760
9388.000000;0.907815
9387.000000;0.907910
9386.000000;0.908133
9385.000000;0.908444
9384.000000;0.908736
9383.000000;0.908990
9382.000000;0.909215
9381.000000;0.909265
9380.000000;0.908901
9379.000000;0.908120
9378.000000;0.907286
9377.000000;0.906809
9376.000000;0.906728
9375.000000;0.906697
9374.000000;0.906370
9373.000000;0.905764
9372.000000;0.905255
9371.000000;0.905253
9370.000000;0.905842
9369.000000;0.906675
9368.000000;0.907247
9367.000000;0.907298
9366.000000;0.906956
9365.000000;0.906509
9364.000000;0.906152
9363.000000;0.905982
9362.000000;0.906057
9361.000000;0.906302
9360.000000;0.906469
9359.000000;0.906386
9358.000000;0.906228
9357.000000;0.906325
9356.000000;0.906651
9355.000000;0.906751
9354.000000;0.906290
9353.000000;0.905515
9352.000000;0.904997
9351.000000;0.905012
9350.000000;0.905312
9349.000000;0.905431
9348.000000;0.905109
9347.000000;0.904466
9346.000000;0.903867
9345.000000;0.903591
9344.000000;0.903558
9343.000000;0.903470
9342.000000;0.903250
9341.000000;0.903188
9340.000000;0.903527
9339.000000;0.904051
9338.000000;0.904305
9337.000000;0.904153
9336.000000;0.903909
9335.000000;0.903923
9334.000000;0.904229
9333.000000;0.904594
9332.000000;0.904735
9331.000000;0.904489
9330.000000;0.903956
9329.000000;0.903478
9328.000000;0.903332
9327.000000;0.903425
9326.000000;0.903459
9325.000000;0.903394
9324.000000;0.903495
9323.000000;0.903862
9322.000000;0.904182
9321.000000;0.904087
9320.000000;0.903596
9319.000000;0.903008
9318.000000;0.902537
9317.000000;0.902254
9316.000000;0.902240
9315.000000;0.902535
9314.000000;0.902944
9313.000000;0.903167
9312.000000;0.903149
9311.000000;0.903121
9310.000000;0.903212
9309.000000;0.903221
9308.000000;0.902898
9307.000000;0.902338
9306.000000;0.901906
9305.000000;0.901815
9304.000000;0.901929
9303.000000;0.902006
9302.000000;0.901976
9301.000000;0.901886
9300.000000;0.901694
9299.000000;0.901311
9298.000000;0.900832
9297.000000;0.900551
9296.000000;0.900653
9295.000000;0.900994
9294.000000;0.901257
9293.000000;0.901258
9292.000000;0.900997
9291.000000;0.900559
9290.000000;0.900088
9289.000000;0.899795
9288.000000;0.899783
9287.000000;0.899924
9286.000000;0.900041
9285.000000;0.900184
9284.000000;0.900495
9283.000000;0.900831
9282.000000;0.900794
9281.000000;0.900268
9280.000000;0.899652
9279.000000;0.899408
9278.000000;0.899529
9277.000000;0.899653
9276.000000;0.899583
9275.000000;0.899431
9274.000000;0.899339
9273.000000;0.899279
9272.000000;0.899171
9271.000000;0.899013
9270.000000;0.898808
9269.000000;0.898508
9268.000000;0.898117
9267.000000;0.897779
9266.000000;0.897688
9265.000000;0.897928
9264.000000;0.898395
9263.000000;0.898852
9262.000000;0.899058
9261.000000;0.898939
9260.000000;0.898666
9259.000000;0.898514
9258.000000;0.898590
9257.000000;0.898726
9256.000000;0.898686
9255.000000;0.898440
9254.000000;0.898172
9253.000000;0.897999
9252.000000;0.897773
9251.000000;0.897252
9250.000000;0.896460
9249.000000;0.895743
9248.000000;0.895397
9247.000000;0.895317
9246.000000;0.895185
9245.000000;0.894945
9244.000000;0.894912
9243.000000;0.895333
9242.000000;0.896020
9241.000000;0.896554
9240.000000;0.896741
9239.000000;0.896702
9238.000000;0.896596
9237.000000;0.896456
9236.000000;0.896306
9235.000000;0.896229
9234.000000;0.896238
9233.000000;0.896195
9232.000000;0.895972
9231.000000;0.895633
9230.000000;0.895389
9229.000000;0.895393
9228.000000;0.895617
9227.000000;0.895893
9226.000000;0.896025
9225.000000;0.895908
9224.000000;0.895589
9223.000000;0.895233
9222.000000;0.894983
9221.000000;0.894864
9220.000000;0.894823
9219.000000;0.894832
9218.000000;0.894914
9217.000000;0.895103
9216.000000;0.895399
9215.000000;0.895742
9214.000000;0.896016
9213.000000;0.896106
9212.000000;0.895977
9211.000000;0.895689
9210.000000;0.895320
9209.000000;0.894901
9208.000000;0.894446
9207.000000;0.894002
9206.000000;0.893628
9205.000000;0.893352
9204.000000;0.893195
9203.000000;0.893183
9202.000000;0.893294
9201.000000;0.893429
9200.000000;0.893501
9199.000000;0.893537
9198.000000;0.893590
9197.000000;0.893595
9196.000000;0.893411
9195.000000;0.893051
9194.000000;0.892750
9193.000000;0.892721
9192.000000;0.892911
9191.000000;0.893069
9190.000000;0.893025
9189.000000;0.892830
9188.000000;0.892640
9187.000000;0.892569
9186.000000;0.892606
9185.000000;0.892621
9184.000000;0.892430
9183.000000;0.891972
9182.000000;0.891406
9181.000000;0.890974
9180.000000;0.890768
9179.000000;0.890715
9178.000000;0.890787
9177.000000;0.891092
9176.000000;0.891674
9175.000000;0.892305
9174.000000;0.892620
9173.000000;0.892475
9172.000000;0.892099
9171.000000;0.891867
9170.000000;0.891934
9169.000000;0.892103
9168.000000;0.892073
9167.000000;0.891771
9166.000000;0.891438
9165.000000;0.891360
9164.000000;0.891562
9163.000000;0.891831
9162.000000;0.891962
9161.000000;0.891923
9160.000000;0.891775
9159.000000;0.891560
9158.000000;0.891298
9157.000000;0.891035
9156.000000;0.890821
9155.000000;0.890696
9154.000000;0.890676
9153.000000;0.890721
9152.000000;0.890699
9151.000000;0.890484
9150.000000;0.890107
9149.000000;0.889711
9148.000000;0.889325
9147.000000;0.888834
9146.000000;0.888250
9145.000000;0.887887
9144.000000;0.888080
9143.000000;0.888761
9142.000000;0.889439
9141.000000;0.889656
9140.000000;0.889366
9139.000000;0.888904
9138.000000;0.888640
9137.000000;0.888678
9136.000000;0.888815
9135.000000;0.888781
9134.000000;0.888531
9133.000000;0.888269
9132.000000;0.888177
9131.000000;0.888165
9130.000000;0.887997
9129.000000;0.887611
9128.000000;0.887218
9127.000000;0.887071
9126.000000;0.887215
9125.000000;0.887472
9124.000000;0.887611
9123.000000;0.887537
9122.000000;0.887340
9121.000000;0.887198
9120.000000;0.887208
9119.000000;0.887312
9118.000000;0.887378
9117.000000;0.887316
9116.000000;0.887127
9115.000000;0.886894
9114.000000;0.886750
9113.000000;0.886782
9112.000000;0.886921
9111.000000;0.886985
9110.000000;0.886877
9109.000000;0.886654
9108.000000;0.886389
9107.000000;0.886061
9106.000000;0.885649
9105.000000;0.885236
9104.000000;0.884937
9103.000000;0.884798
9102.000000;0.884821
9101.000000;0.884985
9100.000000;0.885164
9099.000000;0.885158
9098.000000;0.884931
9097.000000;0.884712
9096.000000;0.884684
9095.000000;0.884723
9094.000000;0.884624
9093.000000;0.884474
9092.000000;0.884517
9091.000000;0.884708
9090.000000;0.884737
9089.000000;0.884541
9088.000000;0.884460
9087.000000;0.884758
9086.000000;0.885243
9085.000000;0.885540
9084.000000;0.885552
9083.000000;0.885431
9082.000000;0.885260
9081.000000;0.885021
9080.000000;0.884817
9079.000000;0.884856
9078.000000;0.885164
9077.000000;0.885462
9076.000000;0.885402
9075.000000;0.884881
9074.000000;0.884096
9073.000000;0.883358
9072.000000;0.882873
9071.000000;0.882638
9070.000000;0.882517
9069.000000;0.882416
9068.000000;0.882384
9067.000000;0.882517
9066.000000;0.882784
9065.000000;0.883015
9064.000000;0.883066
9063.000000;0.882971
9062.000000;0.882879
9061.000000;0.882856
9060.000000;0.882803
9059.000000;0.882640
9058.000000;0.882510
9057.000000;0.882674
9056.000000;0.883137
9055.000000;0.883527
9054.000000;0.883471
9053.000000;0.882995
