Criado como novo conjunto de dados;"2706_e01_daniel.spp","2341.8 Secs"
cm-1;Abs
10000.000000;0.469472
9999.000000;0.469560
9998.000000;0.469648
9997.000000;0.469736
9996.000000;0.469825
9995.000000;0.469912
9994.000000;0.470001
9993.000000;0.470088
9992.000000;0.470178
9991.000000;0.470263
9990.000000;0.470359
9989.000000;0.470393
9988.000000;0.470290
9987.000000;0.470150
9986.000000;0.470060
9985.000000;0.469980
9984.000000;0.469876
9983.000000;0.469864
9982.000000;0.470076
9981.000000;0.470443
9980.000000;0.470772
9979.000000;0.471008
9978.000000;0.471250
9977.000000;0.471486
9976.000000;0.471503
9975.000000;0.471183
9974.000000;0.470772
9973.000000;0.470693
9972.000000;0.471062
9971.000000;0.471547
9970.000000;0.471735
9969.000000;0.471565
9968.000000;0.471308
9967.000000;0.471170
9966.000000;0.471068
9965.000000;0.470797
9964.000000;0.470318
9963.000000;0.469802
9962.000000;0.469446
9961.000000;0.469334
9960.000000;0.469401
9959.000000;0.469468
9958.000000;0.469350
9957.000000;0.469043
9956.000000;0.468778
9955.000000;0.468789
9954.000000;0.469030
9953.000000;0.469229
9952.000000;0.469226
9951.000000;0.469162
9950.000000;0.469281
9949.000000;0.469639
9948.000000;0.470058
9947.000000;0.470313
9946.000000;0.470315
9945.000000;0.470150
9944.000000;0.469973
9943.000000;0.469855
9942.000000;0.469741
9941.000000;0.469579
9940.000000;0.469432
9939.000000;0.469396
9938.000000;0.469450
9937.000000;0.469507
9936.000000;0.469581
9935.000000;0.469759
9934.000000;0.469996
9933.000000;0.470102
9932.000000;0.470004
9931.000000;0.469867
9930.000000;0.469851
9929.000000;0.469873
9928.000000;0.469749
9927.000000;0.469482
9926.000000;0.469273
9925.000000;0.469268
9924.000000;0.469428
9923.000000;0.469652
9922.000000;0.469887
9921.000000;0.470096
9920.000000;0.470216
9919.000000;0.470195
9918.000000;0.470057
9917.000000;0.469867
9916.000000;0.469663
9915.000000;0.469432
9914.000000;0.469169
9913.000000;0.468938
9912.000000;0.468865
9911.000000;0.469038
9910.000000;0.469406
9909.000000;0.469801
9908.000000;0.470051
9907.000000;0.470077
9906.000000;0.469908
9905.000000;0.469621
9904.000000;0.469277
9903.000000;0.468895
9902.000000;0.468504
9901.000000;0.468238
9900.000000;0.468282
9899.000000;0.468656
9898.000000;0.469125
9897.000000;0.469428
9896.000000;0.469550
9895.000000;0.469655
9894.000000;0.469793
9893.000000;0.469844
9892.000000;0.469745
9891.000000;0.469598
9890.000000;0.469510
9889.000000;0.469470
9888.000000;0.469425
9887.000000;0.469358
9886.000000;0.469225
9885.000000;0.468989
9884.000000;0.468786
9883.000000;0.468904
9882.000000;0.469426
9881.000000;0.470015
9880.000000;0.470204
9879.000000;0.469859
9878.000000;0.469252
9877.000000;0.468750
9876.000000;0.468576
9875.000000;0.468774
9874.000000;0.469219
9873.000000;0.469632
9872.000000;0.469765
9871.000000;0.469607
9870.000000;0.469357
9869.000000;0.469195
9868.000000;0.469165
9867.000000;0.469234
9866.000000;0.469350
9865.000000;0.469429
9864.000000;0.469389
9863.000000;0.469246
9862.000000;0.469111
9861.000000;0.469081
9860.000000;0.469195
9859.000000;0.469445
9858.000000;0.469742
9857.000000;0.469895
9856.000000;0.469761
9855.000000;0.469440
9854.000000;0.469213
9853.000000;0.469216
9852.000000;0.469276
9851.000000;0.469154
9850.000000;0.468865
9849.000000;0.468667
9848.000000;0.468752
9847.000000;0.469034
9846.000000;0.469248
9845.000000;0.469211
9844.000000;0.468954
9843.000000;0.468662
9842.000000;0.468498
9841.000000;0.468480
9840.000000;0.468488
9839.000000;0.468395
9838.000000;0.468201
9837.000000;0.468052
9836.000000;0.468119
9835.000000;0.468433
9834.000000;0.468860
9833.000000;0.469217
9832.000000;0.469428
9831.000000;0.469543
9830.000000;0.469635
9829.000000;0.469709
9828.000000;0.469713
9827.000000;0.469593
9826.000000;0.469353
9825.000000;0.469069
9824.000000;0.468862
9823.000000;0.468817
9822.000000;0.468936
9821.000000;0.469163
9820.000000;0.469440
9819.000000;0.469694
9818.000000;0.469803
9817.000000;0.469666
9816.000000;0.469348
9815.000000;0.469049
9814.000000;0.468901
9813.000000;0.468840
9812.000000;0.468727
9811.000000;0.468562
9810.000000;0.468507
9809.000000;0.468696
9808.000000;0.469093
9807.000000;0.469511
9806.000000;0.469748
9805.000000;0.469717
9804.000000;0.469483
9803.000000;0.469193
9802.000000;0.468965
9801.000000;0.468839
9800.000000;0.468844
9799.000000;0.469027
9798.000000;0.469381
9797.000000;0.469754
9796.000000;0.469929
9795.000000;0.469818
9794.000000;0.469539
9793.000000;0.469273
9792.000000;0.469075
9791.000000;0.468861
9790.000000;0.468565
9789.000000;0.468260
9788.000000;0.468075
9787.000000;0.468031
9786.000000;0.468040
9785.000000;0.468082
9784.000000;0.468264
9783.000000;0.468648
9782.000000;0.469078
9781.000000;0.469286
9780.000000;0.469159
9779.000000;0.468807
9778.000000;0.468410
9777.000000;0.468095
9776.000000;0.467961
9775.000000;0.468062
9774.000000;0.468302
9773.000000;0.468452
9772.000000;0.468358
9771.000000;0.468095
9770.000000;0.467872
9769.000000;0.467832
9768.000000;0.467994
9767.000000;0.468297
9766.000000;0.468635
9765.000000;0.468891
9764.000000;0.469013
9763.000000;0.469041
9762.000000;0.469019
9761.000000;0.468939
9760.000000;0.468822
9759.000000;0.468776
9758.000000;0.468891
9757.000000;0.469102
9756.000000;0.469261
9755.000000;0.469315
9754.000000;0.469340
9753.000000;0.469392
9752.000000;0.469432
9751.000000;0.469399
9750.000000;0.469290
9749.000000;0.469123
9748.000000;0.468882
9747.000000;0.468545
9746.000000;0.468167
9745.000000;0.467886
9744.000000;0.467837
9743.000000;0.468052
9742.000000;0.468432
9741.000000;0.468814
9740.000000;0.469067
9739.000000;0.469144
9738.000000;0.469062
9737.000000;0.468882
9736.000000;0.468705
9735.000000;0.468622
9734.000000;0.468646
9733.000000;0.468709
9732.000000;0.468760
9731.000000;0.468840
9730.000000;0.469037
9729.000000;0.469364
9728.000000;0.469719
9727.000000;0.469946
9726.000000;0.469949
9725.000000;0.469771
9724.000000;0.469563
9723.000000;0.469441
9722.000000;0.469378
9721.000000;0.469258
9720.000000;0.469034
9719.000000;0.468781
9718.000000;0.468617
9717.000000;0.468616
9716.000000;0.468790
9715.000000;0.469070
9714.000000;0.469304
9713.000000;0.469364
9712.000000;0.469305
9711.000000;0.469313
9710.000000;0.469443
9709.000000;0.469523
9708.000000;0.469386
9707.000000;0.469116
9706.000000;0.468928
9705.000000;0.468876
9704.000000;0.468820
9703.000000;0.468658
9702.000000;0.468472
9701.000000;0.468421
9700.000000;0.468594
9699.000000;0.468949
9698.000000;0.469322
9697.000000;0.469475
9696.000000;0.469285
9695.000000;0.468928
9694.000000;0.468769
9693.000000;0.469009
9692.000000;0.469499
9691.000000;0.469916
9690.000000;0.470062
9689.000000;0.469932
9688.000000;0.469626
9687.000000;0.469298
9686.000000;0.469123
9685.000000;0.469159
9684.000000;0.469255
9683.000000;0.469192
9682.000000;0.468924
9681.000000;0.468601
9680.000000;0.468354
9679.000000;0.468173
9678.000000;0.468009
9677.000000;0.467904
9676.000000;0.467932
9675.000000;0.468070
9674.000000;0.468222
9673.000000;0.468310
9672.000000;0.468307
9671.000000;0.468213
9670.000000;0.468093
9669.000000;0.468104
9668.000000;0.468381
9667.000000;0.468869
9666.000000;0.469325
9665.000000;0.469536
9664.000000;0.469479
9663.000000;0.469281
9662.000000;0.469062
9661.000000;0.468864
9660.000000;0.468671
9659.000000;0.468462
9658.000000;0.468281
9657.000000;0.468269
9656.000000;0.468559
9655.000000;0.469063
9654.000000;0.469455
9653.000000;0.469456
9652.000000;0.469147
9651.000000;0.468905
9650.000000;0.468990
9649.000000;0.469274
9648.000000;0.469395
9647.000000;0.469140
9646.000000;0.468658
9645.000000;0.468288
9644.000000;0.468252
9643.000000;0.468519
9642.000000;0.468928
9641.000000;0.469364
9640.000000;0.469774
9639.000000;0.470073
9638.000000;0.470161
9637.000000;0.470049
9636.000000;0.469870
9635.000000;0.469722
9634.000000;0.469576
9633.000000;0.469407
9632.000000;0.469291
9631.000000;0.469289
9630.000000;0.469308
9629.000000;0.469204
9628.000000;0.468984
9627.000000;0.468797
9626.000000;0.468734
9625.000000;0.468773
9624.000000;0.468896
9623.000000;0.469133
9622.000000;0.469457
9621.000000;0.469766
9620.000000;0.470000
9619.000000;0.470169
9618.000000;0.470242
9617.000000;0.470136
9616.000000;0.469867
9615.000000;0.469604
9614.000000;0.469483
9613.000000;0.469466
9612.000000;0.469448
9611.000000;0.469436
9610.000000;0.469494
9609.000000;0.469601
9608.000000;0.469642
9607.000000;0.469572
9606.000000;0.469492
9605.000000;0.469568
9604.000000;0.469889
9603.000000;0.470366
9602.000000;0.470738
9601.000000;0.470726
9600.000000;0.470270
9599.000000;0.469624
9598.000000;0.469186
9597.000000;0.469195
9596.000000;0.469592
9595.000000;0.470083
9594.000000;0.470346
9593.000000;0.470241
9592.000000;0.469919
9591.000000;0.469679
9590.000000;0.469670
9589.000000;0.469755
9588.000000;0.469705
9587.000000;0.469501
9586.000000;0.469356
9585.000000;0.469459
9584.000000;0.469764
9583.000000;0.470055
9582.000000;0.470179
9581.000000;0.470174
9580.000000;0.470171
9579.000000;0.470196
9578.000000;0.470119
9577.000000;0.469839
9576.000000;0.469480
9575.000000;0.469300
9574.000000;0.469419
9573.000000;0.469700
9572.000000;0.469945
9571.000000;0.470100
9570.000000;0.470203
9569.000000;0.470231
9568.000000;0.470130
9567.000000;0.469945
9566.000000;0.469794
9565.000000;0.469713
9564.000000;0.469644
9563.000000;0.469590
9562.000000;0.469653
9561.000000;0.469864
9560.000000;0.470072
9559.000000;0.470083
9558.000000;0.469874
9557.000000;0.469599
9556.000000;0.469424
9555.000000;0.469412
9554.000000;0.469533
9553.000000;0.469698
9552.000000;0.469797
9551.000000;0.469782
9550.000000;0.469749
9549.000000;0.469872
9548.000000;0.470214
9547.000000;0.470630
9546.000000;0.470887
9545.000000;0.470881
9544.000000;0.470712
9543.000000;0.470570
9542.000000;0.470561
9541.000000;0.470633
9540.000000;0.470635
9539.000000;0.470464
9538.000000;0.470177
9537.000000;0.469958
9536.000000;0.469933
9535.000000;0.470033
9534.000000;0.470081
9533.000000;0.470000
9532.000000;0.469856
9531.000000;0.469732
9530.000000;0.469638
9529.000000;0.469581
9528.000000;0.469628
9527.000000;0.469813
9526.000000;0.470058
9525.000000;0.470242
9524.000000;0.470308
9523.000000;0.470264
9522.000000;0.470129
9521.000000;0.469982
9520.000000;0.469954
9519.000000;0.470087
9518.000000;0.470208
9517.000000;0.470110
9516.000000;0.469816
9515.000000;0.469566
9514.000000;0.469529
9513.000000;0.469663
9512.000000;0.469877
9511.000000;0.470151
9510.000000;0.470449
9509.000000;0.470658
9508.000000;0.470719
9507.000000;0.470738
9506.000000;0.470809
9505.000000;0.470825
9504.000000;0.470586
9503.000000;0.470089
9502.000000;0.469592
9501.000000;0.469362
9500.000000;0.469442
9499.000000;0.469681
9498.000000;0.469915
9497.000000;0.470090
9496.000000;0.470238
9495.000000;0.470381
9494.000000;0.470450
9493.000000;0.470313
9492.000000;0.469922
9491.000000;0.469438
9490.000000;0.469157
9489.000000;0.469271
9488.000000;0.469684
9487.000000;0.470092
9486.000000;0.470264
9485.000000;0.470234
9484.000000;0.470190
9483.000000;0.470204
9482.000000;0.470148
9481.000000;0.469903
9480.000000;0.469574
9479.000000;0.469393
9478.000000;0.469466
9477.000000;0.469701
9476.000000;0.469992
9475.000000;0.470324
9474.000000;0.470681
9473.000000;0.470958
9472.000000;0.471060
9471.000000;0.471024
9470.000000;0.470969
9469.000000;0.470989
9468.000000;0.471107
9467.000000;0.471288
9466.000000;0.471412
9465.000000;0.471322
9464.000000;0.471011
9463.000000;0.470721
9462.000000;0.470745
9461.000000;0.471098
9460.000000;0.471476
9459.000000;0.471555
9458.000000;0.471291
9457.000000;0.470902
9456.000000;0.470616
9455.000000;0.470490
9454.000000;0.470452
9453.000000;0.470450
9452.000000;0.470507
9451.000000;0.470660
9450.000000;0.470866
9449.000000;0.471045
9448.000000;0.471189
9447.000000;0.471384
9446.000000;0.471676
9445.000000;0.471949
9444.000000;0.471995
9443.000000;0.471746
9442.000000;0.471387
9441.000000;0.471218
9440.000000;0.471354
9439.000000;0.471600
9438.000000;0.471649
9437.000000;0.471397
9436.000000;0.471036
9435.000000;0.470821
9434.000000;0.470832
9433.000000;0.470968
9432.000000;0.471107
9431.000000;0.471149
9430.000000;0.471002
9429.000000;0.470670
9428.000000;0.470363
9427.000000;0.470350
9426.000000;0.470656
9425.000000;0.471003
9424.000000;0.471112
9423.000000;0.470980
9422.000000;0.470801
9421.000000;0.470723
9420.000000;0.470757
9419.000000;0.470850
9418.000000;0.470940
9417.000000;0.470969
9416.000000;0.470938
9415.000000;0.470907
9414.000000;0.470897
9413.000000;0.470860
9412.000000;0.470785
9411.000000;0.470764
9410.000000;0.470853
9409.000000;0.470952
9408.000000;0.470935
9407.000000;0.470833
9406.000000;0.470760
9405.000000;0.470707
9404.000000;0.470565
9403.000000;0.470342
9402.000000;0.470218
9401.000000;0.470316
9400.000000;0.470571
9399.000000;0.470848
9398.000000;0.471097
9397.000000;0.471317
9396.000000;0.471461
9395.000000;0.471470
9394.000000;0.471350
9393.000000;0.471161
9392.000000;0.470962
9391.000000;0.470840
9390.000000;0.470925
9389.000000;0.471267
9388.000000;0.471707
9387.000000;0.471943
9386.000000;0.471776
9385.000000;0.471309
9384.000000;0.470863
9383.000000;0.470696
9382.000000;0.470785
9381.000000;0.470901
9380.000000;0.470871
9379.000000;0.470751
9378.000000;0.470717
9377.000000;0.470863
9376.000000;0.471155
9375.000000;0.471523
9374.000000;0.471876
9373.000000;0.472051
9372.000000;0.471901
9371.000000;0.471497
9370.000000;0.471149
9369.000000;0.471119
9368.000000;0.471353
9367.000000;0.471566
9366.000000;0.471550
9365.000000;0.471340
9364.000000;0.471113
9363.000000;0.471020
9362.000000;0.471117
9361.000000;0.471336
9360.000000;0.471503
9359.000000;0.471428
9358.000000;0.471066
9357.000000;0.470583
9356.000000;0.470246
9355.000000;0.470224
9354.000000;0.470493
9353.000000;0.470889
9352.000000;0.471234
9351.000000;0.471422
9350.000000;0.471429
9349.000000;0.471278
9348.000000;0.471027
9347.000000;0.470780
9346.000000;0.470671
9345.000000;0.470773
9344.000000;0.471040
9343.000000;0.471322
9342.000000;0.471475
9341.000000;0.471446
9340.000000;0.471287
9339.000000;0.471117
9338.000000;0.471040
9337.000000;0.471099
9336.000000;0.471264
9335.000000;0.471478
9334.000000;0.471690
9333.000000;0.471862
9332.000000;0.471960
9331.000000;0.471957
9330.000000;0.471849
9329.000000;0.471652
9328.000000;0.471391
9327.000000;0.471119
9326.000000;0.470916
9325.000000;0.470850
9324.000000;0.470921
9323.000000;0.471069
9322.000000;0.471245
9321.000000;0.471441
9320.000000;0.471659
9319.000000;0.471862
9318.000000;0.472000
9317.000000;0.472059
9316.000000;0.472059
9315.000000;0.472003
9314.000000;0.471881
9313.000000;0.471741
9312.000000;0.471704
9311.000000;0.471863
9310.000000;0.472164
9309.000000;0.472426
9308.000000;0.472517
9307.000000;0.472476
9306.000000;0.472428
9305.000000;0.472413
9304.000000;0.472334
9303.000000;0.472124
9302.000000;0.471879
9301.000000;0.471782
9300.000000;0.471880
9299.000000;0.472012
9298.000000;0.472009
9297.000000;0.471902
9296.000000;0.471864
9295.000000;0.471966
9294.000000;0.472088
9293.000000;0.472088
9292.000000;0.471986
9291.000000;0.471916
9290.000000;0.471959
9289.000000;0.472087
9288.000000;0.472259
9287.000000;0.472466
9286.000000;0.472663
9285.000000;0.472748
9284.000000;0.472655
9283.000000;0.472440
9282.000000;0.472230
9281.000000;0.472113
9280.000000;0.472117
9279.000000;0.472230
9278.000000;0.472404
9277.000000;0.472544
9276.000000;0.472576
9275.000000;0.472513
9274.000000;0.472418
9273.000000;0.472323
9272.000000;0.472223
9271.000000;0.472148
9270.000000;0.472163
9269.000000;0.472281
9268.000000;0.472405
9267.000000;0.472425
9266.000000;0.472336
9265.000000;0.472250
9264.000000;0.472292
9263.000000;0.472475
9262.000000;0.472675
9261.000000;0.472715
9260.000000;0.472524
9259.000000;0.472237
9258.000000;0.472087
9257.000000;0.472169
9256.000000;0.472343
9255.000000;0.472406
9254.000000;0.472327
9253.000000;0.472250
9252.000000;0.472294
9251.000000;0.472410
9250.000000;0.472461
9249.000000;0.472385
9248.000000;0.472251
9247.000000;0.472166
9246.000000;0.472174
9245.000000;0.472220
9244.000000;0.472216
9243.000000;0.472127
9242.000000;0.472010
9241.000000;0.471971
9240.000000;0.472086
9239.000000;0.472369
9238.000000;0.472777
9237.000000;0.473205
9236.000000;0.473499
9235.000000;0.473531
9234.000000;0.473309
9233.000000;0.472974
9232.000000;0.472684
9231.000000;0.472523
9230.000000;0.472504
9229.000000;0.472605
9228.000000;0.472738
9227.000000;0.472770
9226.000000;0.472631
9225.000000;0.472413
9224.000000;0.472283
9223.000000;0.472291
9222.000000;0.472329
9221.000000;0.472277
9220.000000;0.472143
9219.000000;0.472022
9218.000000;0.471966
9217.000000;0.471935
9216.000000;0.471875
9215.000000;0.471797
9214.000000;0.471779
9213.000000;0.471889
9212.000000;0.472129
9211.000000;0.472428
9210.000000;0.472690
9209.000000;0.472839
9208.000000;0.472854
9207.000000;0.472778
9206.000000;0.472677
9205.000000;0.472573
9204.000000;0.472422
9203.000000;0.472199
9202.000000;0.472002
9201.000000;0.471984
9200.000000;0.472173
9199.000000;0.472409
9198.000000;0.472514
9197.000000;0.472478
9196.000000;0.472414
9195.000000;0.472383
9194.000000;0.472347
9193.000000;0.472272
9192.000000;0.472188
9191.000000;0.472152
9190.000000;0.472212
9189.000000;0.472410
9188.000000;0.472712
9187.000000;0.472955
9186.000000;0.472966
9185.000000;0.472759
9184.000000;0.472535
9183.000000;0.472452
9182.000000;0.472482
9181.000000;0.472532
9180.000000;0.472588
9179.000000;0.472678
9178.000000;0.472764
9177.000000;0.472793
9176.000000;0.472785
9175.000000;0.472792
9174.000000;0.472805
9173.000000;0.472802
9172.000000;0.472823
9171.000000;0.472914
9170.000000;0.473008
9169.000000;0.472994
9168.000000;0.472904
9167.000000;0.472922
9166.000000;0.473144
9165.000000;0.473432
9164.000000;0.473552
9163.000000;0.473416
9162.000000;0.473143
9161.000000;0.472928
9160.000000;0.472884
9159.000000;0.472973
9158.000000;0.473054
9157.000000;0.473020
9156.000000;0.472915
9155.000000;0.472893
9154.000000;0.473046
9153.000000;0.473295
9152.000000;0.473469
9151.000000;0.473465
9150.000000;0.473313
9149.000000;0.473125
9148.000000;0.473001
9147.000000;0.472966
9146.000000;0.472956
9145.000000;0.472886
9144.000000;0.472771
9143.000000;0.472733
9142.000000;0.472843
9141.000000;0.472993
9140.000000;0.472989
9139.000000;0.472784
9138.000000;0.472538
9137.000000;0.472435
9136.000000;0.472496
9135.000000;0.472619
9134.000000;0.472748
9133.000000;0.472911
9132.000000;0.473103
9131.000000;0.473234
9130.000000;0.473235
9129.000000;0.473147
9128.000000;0.473063
9127.000000;0.473016
9126.000000;0.472989
9125.000000;0.472992
9124.000000;0.473063
9123.000000;0.473192
9122.000000;0.473311
9121.000000;0.473378
9120.000000;0.473407
9119.000000;0.473412
9118.000000;0.473363
9117.000000;0.473252
9116.000000;0.473145
9115.000000;0.473139
9114.000000;0.473263
9113.000000;0.473451
9112.000000;0.473584
9111.000000;0.473574
9110.000000;0.473415
9109.000000;0.473204
9108.000000;0.473062
9107.000000;0.473040
9106.000000;0.473090
9105.000000;0.473139
9104.000000;0.473149
9103.000000;0.473125
9102.000000;0.473096
9101.000000;0.473102
9100.000000;0.473148
9099.000000;0.473169
9098.000000;0.473097
9097.000000;0.472979
9096.000000;0.472943
9095.000000;0.473029
9094.000000;0.473120
9093.000000;0.473112
9092.000000;0.473067
9091.000000;0.473117
9090.000000;0.473264
9089.000000;0.473390
9088.000000;0.473440
9087.000000;0.473488
9086.000000;0.473596
9085.000000;0.473693
9084.000000;0.473650
9083.000000;0.473436
9082.000000;0.473172
9081.000000;0.473013
9080.000000;0.473016
9079.000000;0.473098
9078.000000;0.473138
9077.000000;0.473117
9076.000000;0.473109
9075.000000;0.473148
9074.000000;0.473153
9073.000000;0.473054
9072.000000;0.472920
9071.000000;0.472881
9070.000000;0.472949
9069.000000;0.473011
9068.000000;0.472997
9067.000000;0.472979
9066.000000;0.473076
9065.000000;0.473304
9064.000000;0.473570
9063.000000;0.473753
9062.000000;0.473802
9061.000000;0.473769
9060.000000;0.473755
9059.000000;0.473794
9058.000000;0.473802
9057.000000;0.473685
9056.000000;0.473476
9055.000000;0.473292
9054.000000;0.473187
9053.000000;0.473132
