Criado como novo conjunto de dados;"2706_e01_daniel.spp","1082.0 Secs"
cm-1;Abs
10000.000000;1.970701
9999.000000;1.964277
9998.000000;1.958122
9997.000000;1.952939
9996.000000;1.950489
9995.000000;1.952314
9994.000000;1.957628
9993.000000;1.963304
9992.000000;1.966196
9991.000000;1.965653
9990.000000;1.964029
9989.000000;1.964499
9988.000000;1.967967
9987.000000;1.972144
9986.000000;1.973758
9985.000000;1.971766
9984.000000;1.968157
9983.000000;1.965580
9982.000000;1.964880
9981.000000;1.965077
9980.000000;1.964768
9979.000000;1.963128
9978.000000;1.960278
9977.000000;1.957376
9976.000000;1.956108
9975.000000;1.957479
9974.000000;1.961024
9973.000000;1.965197
9972.000000;1.968304
9971.000000;1.969303
9970.000000;1.968376
9969.000000;1.967082
9968.000000;1.967499
9967.000000;1.970440
9966.000000;1.974271
9965.000000;1.975793
9964.000000;1.972719
9963.000000;1.965738
9962.000000;1.958480
9961.000000;1.955252
9960.000000;1.957922
9959.000000;1.964231
9958.000000;1.969438
9957.000000;1.970476
9956.000000;1.968221
9955.000000;1.965339
9954.000000;1.963208
9953.000000;1.961705
9952.000000;1.960678
9951.000000;1.960383
9950.000000;1.960978
9949.000000;1.962398
9948.000000;1.964326
9947.000000;1.965765
9946.000000;1.965233
9945.000000;1.962471
9944.000000;1.959587
9943.000000;1.959197
9942.000000;1.961732
9941.000000;1.965682
9940.000000;1.969822
9939.000000;1.973545
9938.000000;1.975503
9937.000000;1.974354
9936.000000;1.971254
9935.000000;1.969163
9934.000000;1.968858
9933.000000;1.967848
9932.000000;1.964420
9931.000000;1.960586
9930.000000;1.959002
9929.000000;1.958844
9928.000000;1.957156
9927.000000;1.953578
9926.000000;1.951193
9925.000000;1.952566
9924.000000;1.956861
9923.000000;1.961131
9922.000000;1.963177
9921.000000;1.962654
9920.000000;1.960648
9919.000000;1.959059
9918.000000;1.959542
9917.000000;1.962021
9916.000000;1.964506
9915.000000;1.965240
9914.000000;1.964683
9913.000000;1.964462
9912.000000;1.964883
9911.000000;1.964820
9910.000000;1.964124
9909.000000;1.964605
9908.000000;1.967508
9907.000000;1.970747
9906.000000;1.970128
9905.000000;1.963867
9904.000000;1.954951
9903.000000;1.948511
9902.000000;1.947862
9901.000000;1.953116
9900.000000;1.961829
9899.000000;1.969973
9898.000000;1.973530
9897.000000;1.971086
9896.000000;1.965172
9895.000000;1.960202
9894.000000;1.958938
9893.000000;1.961197
9892.000000;1.965252
9891.000000;1.969384
9890.000000;1.972232
9889.000000;1.973016
9888.000000;1.972203
9887.000000;1.971335
9886.000000;1.971566
9885.000000;1.972543
9884.000000;1.972849
9883.000000;1.971260
9882.000000;1.967559
9881.000000;1.962729
9880.000000;1.958708
9879.000000;1.957221
9878.000000;1.958219
9877.000000;1.960166
9876.000000;1.962239
9875.000000;1.965156
9874.000000;1.969453
9873.000000;1.973950
9872.000000;1.976606
9871.000000;1.976446
9870.000000;1.974169
9869.000000;1.971493
9868.000000;1.970398
9867.000000;1.971942
9866.000000;1.974729
9865.000000;1.975450
9864.000000;1.972453
9863.000000;1.968180
9862.000000;1.966563
9861.000000;1.968701
9860.000000;1.972165
9859.000000;1.974133
9858.000000;1.973997
9857.000000;1.972762
9856.000000;1.971618
9855.000000;1.971571
9854.000000;1.972760
9853.000000;1.973507
9852.000000;1.971489
9851.000000;1.966832
9850.000000;1.962814
9849.000000;1.962474
9848.000000;1.965417
9847.000000;1.968698
9846.000000;1.970163
9845.000000;1.969909
9844.000000;1.968940
9843.000000;1.967982
9842.000000;1.967727
9841.000000;1.968965
9840.000000;1.971715
9839.000000;1.974489
9838.000000;1.975256
9837.000000;1.973497
9836.000000;1.970950
9835.000000;1.969854
9834.000000;1.970629
9833.000000;1.971822
9832.000000;1.972227
9831.000000;1.972528
9830.000000;1.974113
9829.000000;1.976360
9828.000000;1.976439
9827.000000;1.972725
9826.000000;1.967399
9825.000000;1.964582
9824.000000;1.966468
9823.000000;1.971617
9822.000000;1.976460
9821.000000;1.978129
9820.000000;1.976130
9819.000000;1.971981
9818.000000;1.967691
9817.000000;1.964458
9816.000000;1.962558
9815.000000;1.962135
9814.000000;1.963482
9813.000000;1.966150
9812.000000;1.968372
9811.000000;1.968351
9810.000000;1.966198
9809.000000;1.963878
9808.000000;1.963179
9807.000000;1.964375
9806.000000;1.966834
9805.000000;1.970002
9804.000000;1.973256
9803.000000;1.975592
9802.000000;1.976363
9801.000000;1.976119
9800.000000;1.975970
9799.000000;1.976227
9798.000000;1.976221
9797.000000;1.975438
9796.000000;1.974291
9795.000000;1.973522
9794.000000;1.973395
9793.000000;1.973770
9792.000000;1.974426
9791.000000;1.974904
9790.000000;1.974419
9789.000000;1.972527
9788.000000;1.969876
9787.000000;1.967842
9786.000000;1.967457
9785.000000;1.968890
9784.000000;1.971645
9783.000000;1.974767
9782.000000;1.977144
9781.000000;1.978307
9780.000000;1.978962
9779.000000;1.980097
9778.000000;1.981417
9777.000000;1.981310
9776.000000;1.978933
9775.000000;1.975693
9774.000000;1.973748
9773.000000;1.973497
9772.000000;1.973492
9771.000000;1.972586
9770.000000;1.971142
9769.000000;1.969888
9768.000000;1.968734
9767.000000;1.967507
9766.000000;1.966989
9765.000000;1.968021
9764.000000;1.970002
9763.000000;1.971470
9762.000000;1.972149
9761.000000;1.973225
9760.000000;1.975328
9759.000000;1.977417
9758.000000;1.978274
9757.000000;1.978164
9756.000000;1.978120
9755.000000;1.978087
9754.000000;1.977010
9753.000000;1.974878
9752.000000;1.973275
9751.000000;1.973286
9750.000000;1.973998
9749.000000;1.973973
9748.000000;1.973508
9747.000000;1.974152
9746.000000;1.976220
9745.000000;1.978139
9744.000000;1.978485
9743.000000;1.977381
9742.000000;1.975397
9741.000000;1.972289
9740.000000;1.967798
9739.000000;1.963163
9738.000000;1.960755
9737.000000;1.961946
9736.000000;1.965857
9735.000000;1.970308
9734.000000;1.973673
9733.000000;1.975741
9732.000000;1.977006
9731.000000;1.977464
9730.000000;1.976594
9729.000000;1.974520
9728.000000;1.972537
9727.000000;1.971944
9726.000000;1.972652
9725.000000;1.973578
9724.000000;1.974334
9723.000000;1.975500
9722.000000;1.977125
9721.000000;1.978576
9720.000000;1.979977
9719.000000;1.982291
9718.000000;1.985437
9717.000000;1.987461
9716.000000;1.986815
9715.000000;1.984370
9714.000000;1.981642
9713.000000;1.978430
9712.000000;1.974169
9711.000000;1.970569
9710.000000;1.970472
9709.000000;1.973990
9708.000000;1.977536
9707.000000;1.977604
9706.000000;1.974528
9705.000000;1.971372
9704.000000;1.970392
9703.000000;1.971668
9702.000000;1.973966
9701.000000;1.975809
9700.000000;1.976191
9699.000000;1.975293
9698.000000;1.974518
9697.000000;1.975275
9696.000000;1.977734
9695.000000;1.980874
9694.000000;1.983286
9693.000000;1.983801
9692.000000;1.982055
9691.000000;1.978960
9690.000000;1.976131
9689.000000;1.974425
9688.000000;1.973467
9687.000000;1.972833
9686.000000;1.972923
9685.000000;1.974173
9684.000000;1.976192
9683.000000;1.978248
9682.000000;1.979894
9681.000000;1.980482
9680.000000;1.979069
9679.000000;1.975971
9678.000000;1.973416
9677.000000;1.973170
9676.000000;1.974253
9675.000000;1.974395
9674.000000;1.973395
9673.000000;1.973417
9672.000000;1.975848
9671.000000;1.979360
9670.000000;1.981562
9669.000000;1.981613
9668.000000;1.980591
9667.000000;1.980113
9666.000000;1.981171
9665.000000;1.983315
9664.000000;1.984551
9663.000000;1.983188
9662.000000;1.979990
9661.000000;1.977565
9660.000000;1.977568
9659.000000;1.979184
9658.000000;1.980441
9657.000000;1.980368
9656.000000;1.979340
9655.000000;1.978067
9654.000000;1.977161
9653.000000;1.977112
9652.000000;1.977771
9651.000000;1.978069
9650.000000;1.976966
9649.000000;1.974695
9648.000000;1.972536
9647.000000;1.971459
9646.000000;1.971524
9645.000000;1.972428
9644.000000;1.974002
9643.000000;1.975854
9642.000000;1.976970
9641.000000;1.976371
9640.000000;1.974553
9639.000000;1.973767
9638.000000;1.976066
9637.000000;1.980835
9636.000000;1.984567
9635.000000;1.983876
9634.000000;1.978945
9633.000000;1.973244
9632.000000;1.970019
9631.000000;1.969854
9630.000000;1.971359
9629.000000;1.973383
9628.000000;1.976000
9627.000000;1.979603
9626.000000;1.983640
9625.000000;1.986256
9624.000000;1.985480
9623.000000;1.981344
9622.000000;1.976399
9621.000000;1.973376
9620.000000;1.972614
9619.000000;1.972450
9618.000000;1.971811
9617.000000;1.971257
9616.000000;1.971353
9615.000000;1.971493
9614.000000;1.971117
9613.000000;1.971023
9612.000000;1.972435
9611.000000;1.975355
9610.000000;1.978589
9609.000000;1.980822
9608.000000;1.981075
9607.000000;1.979003
9606.000000;1.975742
9605.000000;1.973660
9604.000000;1.974094
9603.000000;1.975754
9602.000000;1.976243
9601.000000;1.974838
9600.000000;1.972761
9599.000000;1.971110
9598.000000;1.969878
9597.000000;1.968897
9596.000000;1.968539
9595.000000;1.969271
9594.000000;1.971253
9593.000000;1.974337
9592.000000;1.977742
9591.000000;1.979830
9590.000000;1.979289
9589.000000;1.976702
9588.000000;1.974060
9587.000000;1.972861
9586.000000;1.973446
9585.000000;1.975549
9584.000000;1.978139
9583.000000;1.979213
9582.000000;1.977650
9581.000000;1.975394
9580.000000;1.975772
9579.000000;1.979197
9578.000000;1.982320
9577.000000;1.982136
9576.000000;1.979453
9575.000000;1.977149
9574.000000;1.976489
9573.000000;1.976692
9572.000000;1.976997
9571.000000;1.977322
9570.000000;1.977477
9569.000000;1.977462
9568.000000;1.978226
9567.000000;1.980608
9566.000000;1.983572
9565.000000;1.984764
9564.000000;1.983107
9563.000000;1.979902
9562.000000;1.977220
9561.000000;1.976255
9560.000000;1.977311
9559.000000;1.980144
9558.000000;1.983645
9557.000000;1.985863
9556.000000;1.985186
9555.000000;1.981654
9554.000000;1.976972
9553.000000;1.973304
9552.000000;1.971885
9551.000000;1.972356
9550.000000;1.973376
9549.000000;1.974025
9548.000000;1.974475
9547.000000;1.975255
9546.000000;1.976443
9545.000000;1.977907
9544.000000;1.979787
9543.000000;1.982114
9542.000000;1.984346
9541.000000;1.985956
9540.000000;1.987169
9539.000000;1.988428
9538.000000;1.989504
9537.000000;1.989922
9536.000000;1.989975
9535.000000;1.990408
9534.000000;1.991154
9533.000000;1.991318
9532.000000;1.990388
9531.000000;1.988526
9530.000000;1.985838
9529.000000;1.982539
9528.000000;1.979808
9527.000000;1.979168
9526.000000;1.980639
9525.000000;1.982375
9524.000000;1.982589
9523.000000;1.981176
9522.000000;1.979007
9521.000000;1.976479
9520.000000;1.973645
9519.000000;1.971195
9518.000000;1.970397
9517.000000;1.972133
9516.000000;1.976130
9515.000000;1.980768
9514.000000;1.983699
9513.000000;1.983527
9512.000000;1.981249
9511.000000;1.979345
9510.000000;1.979146
9509.000000;1.979669
9508.000000;1.979282
9507.000000;1.977865
9506.000000;1.976722
9505.000000;1.976868
9504.000000;1.978135
9503.000000;1.979686
9502.000000;1.980797
9501.000000;1.981285
9500.000000;1.981639
9499.000000;1.982641
9498.000000;1.984361
9497.000000;1.985622
9496.000000;1.984991
9495.000000;1.982322
9494.000000;1.979007
9493.000000;1.976717
9492.000000;1.976234
9491.000000;1.977337
9490.000000;1.979364
9489.000000;1.981649
9488.000000;1.983617
9487.000000;1.984858
9486.000000;1.985396
9485.000000;1.985722
9484.000000;1.986138
9483.000000;1.986095
9482.000000;1.984905
9481.000000;1.983344
9480.000000;1.983516
9479.000000;1.986249
9478.000000;1.989495
9477.000000;1.990596
9476.000000;1.989609
9475.000000;1.988603
9474.000000;1.988098
9473.000000;1.986581
9472.000000;1.984009
9471.000000;1.983083
9470.000000;1.985364
9469.000000;1.988161
9468.000000;1.987517
9467.000000;1.983480
9466.000000;1.979867
9465.000000;1.979285
9464.000000;1.980844
9463.000000;1.982485
9462.000000;1.983437
9461.000000;1.983811
9460.000000;1.983502
9459.000000;1.982618
9458.000000;1.981839
9457.000000;1.981499
9456.000000;1.981140
9455.000000;1.980438
9454.000000;1.979800
9453.000000;1.979665
9452.000000;1.980013
9451.000000;1.980932
9450.000000;1.982736
9449.000000;1.984912
9448.000000;1.985888
9447.000000;1.984824
9446.000000;1.982961
9445.000000;1.982110
9444.000000;1.982447
9443.000000;1.982812
9442.000000;1.982693
9441.000000;1.982808
9440.000000;1.983763
9439.000000;1.985027
9438.000000;1.985479
9437.000000;1.984473
9436.000000;1.982264
9435.000000;1.979913
9434.000000;1.978880
9433.000000;1.980038
9432.000000;1.982664
9431.000000;1.984719
9430.000000;1.984628
9429.000000;1.982757
9428.000000;1.980835
9427.000000;1.980120
9426.000000;1.980394
9425.000000;1.980574
9424.000000;1.980095
9423.000000;1.979580
9422.000000;1.980112
9421.000000;1.981883
9420.000000;1.983697
9419.000000;1.984148
9418.000000;1.983415
9417.000000;1.983397
9416.000000;1.985605
9415.000000;1.989151
9414.000000;1.991333
9413.000000;1.990430
9412.000000;1.987583
9411.000000;1.985430
9410.000000;1.985383
9409.000000;1.986882
9408.000000;1.988619
9407.000000;1.989528
9406.000000;1.988828
9405.000000;1.986301
9404.000000;1.983221
9403.000000;1.982166
9402.000000;1.984767
9401.000000;1.989639
9400.000000;1.993289
9399.000000;1.993477
9398.000000;1.991170
9397.000000;1.988801
9396.000000;1.987506
9395.000000;1.986716
9394.000000;1.985767
9393.000000;1.984805
9392.000000;1.983968
9391.000000;1.982635
9390.000000;1.980273
9389.000000;1.977595
9388.000000;1.976059
9387.000000;1.976247
9386.000000;1.977220
9385.000000;1.977723
9384.000000;1.977687
9383.000000;1.978042
9382.000000;1.979580
9381.000000;1.982503
9380.000000;1.986499
9379.000000;1.990578
9378.000000;1.993101
9377.000000;1.992967
9376.000000;1.990858
9375.000000;1.988619
9374.000000;1.987429
9373.000000;1.987176
9372.000000;1.987513
9371.000000;1.988558
9370.000000;1.990041
9369.000000;1.990668
9368.000000;1.989347
9367.000000;1.986601
9366.000000;1.983879
9365.000000;1.981872
9364.000000;1.980426
9363.000000;1.979831
9362.000000;1.980986
9361.000000;1.983906
9360.000000;1.986878
9359.000000;1.987944
9358.000000;1.987099
9357.000000;1.986373
9356.000000;1.987695
9355.000000;1.990995
9354.000000;1.994399
9353.000000;1.996028
9352.000000;1.995430
9351.000000;1.993372
9350.000000;1.990796
9349.000000;1.988294
9348.000000;1.986151
9347.000000;1.984405
9346.000000;1.982926
9345.000000;1.981852
9344.000000;1.981886
9343.000000;1.983626
9342.000000;1.986434
9341.000000;1.988506
9340.000000;1.988434
9339.000000;1.986316
9338.000000;1.983168
9337.000000;1.980034
9336.000000;1.978057
9335.000000;1.978480
9334.000000;1.981532
9333.000000;1.985558
9332.000000;1.988197
9331.000000;1.988598
9330.000000;1.987861
9329.000000;1.987382
9328.000000;1.987589
9327.000000;1.988271
9326.000000;1.989260
9325.000000;1.990412
9324.000000;1.991383
9323.000000;1.991801
9322.000000;1.991551
9321.000000;1.990868
9320.000000;1.990287
9319.000000;1.990286
9318.000000;1.990763
9317.000000;1.991110
9316.000000;1.990945
9315.000000;1.990354
9314.000000;1.989230
9313.000000;1.987200
9312.000000;1.984818
9311.000000;1.983939
9310.000000;1.985752
9309.000000;1.988802
9308.000000;1.990149
9307.000000;1.988796
9306.000000;1.986738
9305.000000;1.986181
9304.000000;1.986994
9303.000000;1.987422
9302.000000;1.986403
9301.000000;1.984482
9300.000000;1.982894
9299.000000;1.982465
9298.000000;1.983212
9297.000000;1.984409
9296.000000;1.985083
9295.000000;1.984857
9294.000000;1.984332
9293.000000;1.984473
9292.000000;1.985650
9291.000000;1.987336
9290.000000;1.988688
9289.000000;1.989342
9288.000000;1.989759
9287.000000;1.990832
9286.000000;1.992832
9285.000000;1.994776
9284.000000;1.995138
9283.000000;1.993217
9282.000000;1.989714
9281.000000;1.986154
9280.000000;1.983992
9279.000000;1.983980
9278.000000;1.985825
9277.000000;1.988422
9276.000000;1.990794
9275.000000;1.992659
9274.000000;1.993753
9273.000000;1.993310
9272.000000;1.991172
9271.000000;1.988935
9270.000000;1.988578
9269.000000;1.989777
9268.000000;1.989964
9267.000000;1.987723
9266.000000;1.984761
9265.000000;1.983549
9264.000000;1.984276
9263.000000;1.985331
9262.000000;1.985979
9261.000000;1.987059
9260.000000;1.989077
9259.000000;1.991008
9258.000000;1.991403
9257.000000;1.989979
9256.000000;1.987807
9255.000000;1.986430
9254.000000;1.986844
9253.000000;1.988715
9252.000000;1.990472
9251.000000;1.990665
9250.000000;1.989488
9249.000000;1.988736
9248.000000;1.990049
9247.000000;1.993235
9246.000000;1.996450
9245.000000;1.997920
9244.000000;1.997336
9243.000000;1.995677
9242.000000;1.993953
9241.000000;1.992376
9240.000000;1.990822
9239.000000;1.989655
9238.000000;1.989591
9237.000000;1.990671
9236.000000;1.991881
9235.000000;1.992204
9234.000000;1.991573
9233.000000;1.990480
9232.000000;1.989175
9231.000000;1.987811
9230.000000;1.987050
9229.000000;1.987774
9228.000000;1.989992
9227.000000;1.992500
9226.000000;1.993941
9225.000000;1.993995
9224.000000;1.993215
9223.000000;1.991865
9222.000000;1.989467
9221.000000;1.985811
9220.000000;1.982083
9219.000000;1.980284
9218.000000;1.981152
9217.000000;1.983087
9216.000000;1.983781
9215.000000;1.982876
9214.000000;1.982171
9213.000000;1.983151
9212.000000;1.985272
9211.000000;1.987019
9210.000000;1.987805
9209.000000;1.987991
9208.000000;1.987623
9207.000000;1.986469
9206.000000;1.985167
9205.000000;1.985167
9204.000000;1.987233
9203.000000;1.990321
9202.000000;1.992252
9201.000000;1.991698
9200.000000;1.989456
9199.000000;1.987691
9198.000000;1.987986
9197.000000;1.990141
9196.000000;1.992763
9195.000000;1.994760
9194.000000;1.996059
9193.000000;1.997038
9192.000000;1.997893
9191.000000;1.998758
9190.000000;1.999736
9189.000000;2.000260
9188.000000;1.999067
9187.000000;1.995580
9186.000000;1.991049
9185.000000;1.987701
9184.000000;1.986776
9183.000000;1.987678
9182.000000;1.988855
9181.000000;1.989190
9180.000000;1.988657
9179.000000;1.988004
9178.000000;1.987966
9177.000000;1.988629
9176.000000;1.989448
9175.000000;1.989844
9174.000000;1.989752
9173.000000;1.989695
9172.000000;1.990519
9171.000000;1.992796
9170.000000;1.995817
9169.000000;1.997199
9168.000000;1.994556
9167.000000;1.988249
9166.000000;1.981651
9165.000000;1.978059
9164.000000;1.977996
9163.000000;1.979804
9162.000000;1.982071
9161.000000;1.984622
9160.000000;1.987516
9159.000000;1.990282
9158.000000;1.992431
9157.000000;1.993959
9156.000000;1.995012
9155.000000;1.995506
9154.000000;1.995378
9153.000000;1.994811
9152.000000;1.994010
9151.000000;1.993196
9150.000000;1.992897
9149.000000;1.993670
9148.000000;1.995325
9147.000000;1.996893
9146.000000;1.997631
9145.000000;1.997649
9144.000000;1.997336
9143.000000;1.996700
9142.000000;1.995529
9141.000000;1.993740
9140.000000;1.991334
9139.000000;1.988475
9138.000000;1.985863
9137.000000;1.984554
9136.000000;1.985043
9135.000000;1.986796
9134.000000;1.988931
9133.000000;1.990988
9132.000000;1.992741
9131.000000;1.993748
9130.000000;1.993695
9129.000000;1.992996
9128.000000;1.992545
9127.000000;1.992800
9126.000000;1.993476
9125.000000;1.994085
9124.000000;1.994386
9123.000000;1.994273
9122.000000;1.993594
9121.000000;1.992276
9120.000000;1.990499
9119.000000;1.988597
9118.000000;1.986871
9117.000000;1.985586
9116.000000;1.985043
9115.000000;1.985458
9114.000000;1.986600
9113.000000;1.987661
9112.000000;1.987766
9111.000000;1.986874
9110.000000;1.986000
9109.000000;1.986243
9108.000000;1.987676
9107.000000;1.989512
9106.000000;1.991196
9105.000000;1.992752
9104.000000;1.993963
9103.000000;1.993964
9102.000000;1.992218
9101.000000;1.989495
9100.000000;1.987329
9099.000000;1.986708
9098.000000;1.987678
9097.000000;1.989823
9096.000000;1.992471
9095.000000;1.994581
9094.000000;1.995234
9093.000000;1.994506
9092.000000;1.993268
9091.000000;1.992025
9090.000000;1.990524
9089.000000;1.988684
9088.000000;1.987238
9087.000000;1.986979
9086.000000;1.987816
9085.000000;1.989120
9084.000000;1.990647
9083.000000;1.992427
9082.000000;1.993943
9081.000000;1.994323
9080.000000;1.993607
9079.000000;1.993097
9078.000000;1.993826
9077.000000;1.994968
9076.000000;1.994447
9075.000000;1.991383
9074.000000;1.987394
9073.000000;1.985117
9072.000000;1.985690
9071.000000;1.987848
9070.000000;1.989423
9069.000000;1.989471
9068.000000;1.988753
9067.000000;1.988338
9066.000000;1.988355
9065.000000;1.988470
9064.000000;1.988914
9063.000000;1.990245
9062.000000;1.992329
9061.000000;1.994346
9060.000000;1.995824
9059.000000;1.996956
9058.000000;1.997725
9057.000000;1.997563
9056.000000;1.996343
9055.000000;1.995048
9054.000000;1.994839
9053.000000;1.995777
