Criado como novo conjunto de dados;"2706_e01_daniel.spp","47884.2 Secs"
cm-1;Abs
10000.000000;0.988932
9999.000000;0.987866
9998.000000;0.986859
9997.000000;0.986513
9996.000000;0.987103
9995.000000;0.988031
9994.000000;0.988404
9993.000000;0.987966
9992.000000;0.987284
9991.000000;0.986900
9990.000000;0.986754
9989.000000;0.986525
9988.000000;0.986186
9987.000000;0.985913
9986.000000;0.985725
9985.000000;0.985520
9984.000000;0.985336
9983.000000;0.985305
9982.000000;0.985413
9981.000000;0.985502
9980.000000;0.985449
9979.000000;0.985210
9978.000000;0.984812
9977.000000;0.984431
9976.000000;0.984341
9975.000000;0.984649
9974.000000;0.985169
9973.000000;0.985671
9972.000000;0.986108
9971.000000;0.986512
9970.000000;0.986800
9969.000000;0.986862
9968.000000;0.986691
9967.000000;0.986318
9966.000000;0.985742
9965.000000;0.985049
9964.000000;0.984420
9963.000000;0.983915
9962.000000;0.983422
9961.000000;0.982962
9960.000000;0.982808
9959.000000;0.983116
9958.000000;0.983619
9957.000000;0.983933
9956.000000;0.984010
9955.000000;0.984025
9954.000000;0.983974
9953.000000;0.983704
9952.000000;0.983246
9951.000000;0.982764
9950.000000;0.982187
9949.000000;0.981277
9948.000000;0.980218
9947.000000;0.979793
9946.000000;0.980638
9945.000000;0.982446
9944.000000;0.984185
9943.000000;0.985105
9942.000000;0.985292
9941.000000;0.985181
9940.000000;0.984872
9939.000000;0.984175
9938.000000;0.983191
9937.000000;0.982461
9936.000000;0.982429
9935.000000;0.982935
9934.000000;0.983368
9933.000000;0.983238
9932.000000;0.982545
9931.000000;0.981688
9930.000000;0.981107
9929.000000;0.980974
9928.000000;0.981093
9927.000000;0.981126
9926.000000;0.980923
9925.000000;0.980590
9924.000000;0.980293
9923.000000;0.980146
9922.000000;0.980286
9921.000000;0.980801
9920.000000;0.981474
9919.000000;0.981814
9918.000000;0.981542
9917.000000;0.980881
9916.000000;0.980237
9915.000000;0.979747
9914.000000;0.979323
9913.000000;0.978956
9912.000000;0.978734
9911.000000;0.978672
9910.000000;0.978708
9909.000000;0.978778
9908.000000;0.978767
9907.000000;0.978577
9906.000000;0.978358
9905.000000;0.978401
9904.000000;0.978567
9903.000000;0.978205
9902.000000;0.977015
9901.000000;0.975691
9900.000000;0.975196
9899.000000;0.975612
9898.000000;0.976206
9897.000000;0.976528
9896.000000;0.976828
9895.000000;0.977338
9894.000000;0.977771
9893.000000;0.977752
9892.000000;0.977297
9891.000000;0.976671
9890.000000;0.976148
9889.000000;0.976043
9888.000000;0.976543
9887.000000;0.977290
9886.000000;0.977516
9885.000000;0.976884
9884.000000;0.975893
9883.000000;0.975188
9882.000000;0.974777
9881.000000;0.974290
9880.000000;0.973724
9879.000000;0.973465
9878.000000;0.973658
9877.000000;0.973953
9876.000000;0.973953
9875.000000;0.973651
9874.000000;0.973338
9873.000000;0.973260
9872.000000;0.973446
9871.000000;0.973767
9870.000000;0.974071
9869.000000;0.974289
9868.000000;0.974435
9867.000000;0.974483
9866.000000;0.974275
9865.000000;0.973633
9864.000000;0.972611
9863.000000;0.971641
9862.000000;0.971328
9861.000000;0.971946
9860.000000;0.973090
9859.000000;0.973984
9858.000000;0.974223
9857.000000;0.974060
9856.000000;0.973860
9855.000000;0.973544
9854.000000;0.972870
9853.000000;0.972065
9852.000000;0.971701
9851.000000;0.971905
9850.000000;0.972125
9849.000000;0.971865
9848.000000;0.971364
9847.000000;0.971245
9846.000000;0.971672
9845.000000;0.972126
9844.000000;0.972016
9843.000000;0.971318
9842.000000;0.970521
9841.000000;0.970013
9840.000000;0.969692
9839.000000;0.969247
9838.000000;0.968712
9837.000000;0.968542
9836.000000;0.969077
9835.000000;0.970084
9834.000000;0.970978
9833.000000;0.971351
9832.000000;0.971170
9831.000000;0.970555
9830.000000;0.969630
9829.000000;0.968565
9828.000000;0.967586
9827.000000;0.966896
9826.000000;0.966649
9825.000000;0.966917
9824.000000;0.967555
9823.000000;0.968202
9822.000000;0.968584
9821.000000;0.968740
9820.000000;0.968806
9819.000000;0.968768
9818.000000;0.968619
9817.000000;0.968576
9816.000000;0.968811
9815.000000;0.969082
9814.000000;0.968994
9813.000000;0.968633
9812.000000;0.968562
9811.000000;0.969134
9810.000000;0.970088
9809.000000;0.970883
9808.000000;0.971161
9807.000000;0.970836
9806.000000;0.970035
9805.000000;0.969076
9804.000000;0.968287
9803.000000;0.967715
9802.000000;0.967166
9801.000000;0.966600
9800.000000;0.966268
9799.000000;0.966364
9798.000000;0.966678
9797.000000;0.966761
9796.000000;0.966371
9795.000000;0.965684
9794.000000;0.965110
9793.000000;0.964916
9792.000000;0.964979
9791.000000;0.964913
9790.000000;0.964495
9789.000000;0.963941
9788.000000;0.963678
9787.000000;0.963920
9786.000000;0.964568
9785.000000;0.965402
9784.000000;0.966176
9783.000000;0.966591
9782.000000;0.966381
9781.000000;0.965511
9780.000000;0.964172
9779.000000;0.962651
9778.000000;0.961343
9777.000000;0.960736
9776.000000;0.961115
9775.000000;0.962281
9774.000000;0.963713
9773.000000;0.964981
9772.000000;0.965812
9771.000000;0.965914
9770.000000;0.965121
9769.000000;0.963770
9768.000000;0.962612
9767.000000;0.962184
9766.000000;0.962424
9765.000000;0.962931
9764.000000;0.963353
9763.000000;0.963507
9762.000000;0.963364
9761.000000;0.963096
9760.000000;0.962951
9759.000000;0.962976
9758.000000;0.962978
9757.000000;0.962830
9756.000000;0.962644
9755.000000;0.962557
9754.000000;0.962523
9753.000000;0.962448
9752.000000;0.962342
9751.000000;0.962205
9750.000000;0.961887
9749.000000;0.961277
9748.000000;0.960586
9747.000000;0.960199
9746.000000;0.960242
9745.000000;0.960415
9744.000000;0.960350
9743.000000;0.960060
9742.000000;0.959905
9741.000000;0.960132
9740.000000;0.960516
9739.000000;0.960555
9738.000000;0.959957
9737.000000;0.958899
9736.000000;0.957853
9735.000000;0.957289
9734.000000;0.957482
9733.000000;0.958377
9732.000000;0.959550
9731.000000;0.960457
9730.000000;0.960864
9729.000000;0.960945
9728.000000;0.960905
9727.000000;0.960703
9726.000000;0.960275
9725.000000;0.959800
9724.000000;0.959531
9723.000000;0.959472
9722.000000;0.959459
9721.000000;0.959474
9720.000000;0.959635
9719.000000;0.959883
9718.000000;0.959894
9717.000000;0.959402
9716.000000;0.958506
9715.000000;0.957599
9714.000000;0.957054
9713.000000;0.956946
9712.000000;0.957015
9711.000000;0.956925
9710.000000;0.956552
9709.000000;0.956005
9708.000000;0.955413
9707.000000;0.954884
9706.000000;0.954657
9705.000000;0.954981
9704.000000;0.955695
9703.000000;0.956170
9702.000000;0.955945
9701.000000;0.955281
9700.000000;0.954858
9699.000000;0.955033
9698.000000;0.955586
9697.000000;0.956059
9696.000000;0.956118
9695.000000;0.955720
9694.000000;0.955184
9693.000000;0.955019
9692.000000;0.955412
9691.000000;0.955929
9690.000000;0.955960
9689.000000;0.955422
9688.000000;0.954813
9687.000000;0.954601
9686.000000;0.954773
9685.000000;0.954997
9684.000000;0.954984
9683.000000;0.954630
9682.000000;0.953992
9681.000000;0.953251
9680.000000;0.952603
9679.000000;0.952114
9678.000000;0.951704
9677.000000;0.951283
9676.000000;0.950919
9675.000000;0.950912
9674.000000;0.951630
9673.000000;0.953081
9672.000000;0.954623
9671.000000;0.955357
9670.000000;0.955009
9669.000000;0.954220
9668.000000;0.953804
9667.000000;0.953894
9666.000000;0.954014
9665.000000;0.953771
9664.000000;0.953224
9663.000000;0.952700
9662.000000;0.952516
9661.000000;0.952787
9660.000000;0.953254
9659.000000;0.953409
9658.000000;0.953032
9657.000000;0.952491
9656.000000;0.952272
9655.000000;0.952304
9654.000000;0.952058
9653.000000;0.951250
9652.000000;0.950211
9651.000000;0.949536
9650.000000;0.949598
9649.000000;0.950327
9648.000000;0.951202
9647.000000;0.951510
9646.000000;0.950923
9645.000000;0.949864
9644.000000;0.949099
9643.000000;0.948964
9642.000000;0.949174
9641.000000;0.949314
9640.000000;0.949275
9639.000000;0.949175
9638.000000;0.949134
9637.000000;0.949238
9636.000000;0.949557
9635.000000;0.950054
9634.000000;0.950581
9633.000000;0.951025
9632.000000;0.951406
9631.000000;0.951803
9630.000000;0.952216
9629.000000;0.952490
9628.000000;0.952350
9627.000000;0.951583
9626.000000;0.950294
9625.000000;0.948926
9624.000000;0.947962
9623.000000;0.947645
9622.000000;0.947923
9621.000000;0.948504
9620.000000;0.948936
9619.000000;0.948879
9618.000000;0.948431
9617.000000;0.948036
9616.000000;0.948002
9615.000000;0.948287
9614.000000;0.948791
9613.000000;0.949513
9612.000000;0.950232
9611.000000;0.950416
9610.000000;0.949789
9609.000000;0.948736
9608.000000;0.947823
9607.000000;0.947148
9606.000000;0.946514
9605.000000;0.946039
9604.000000;0.946092
9603.000000;0.946721
9602.000000;0.947538
9601.000000;0.948151
9600.000000;0.948331
9599.000000;0.947876
9598.000000;0.946787
9597.000000;0.945653
9596.000000;0.945373
9595.000000;0.946229
9594.000000;0.947461
9593.000000;0.947971
9592.000000;0.947338
9591.000000;0.946066
9590.000000;0.944989
9589.000000;0.944570
9588.000000;0.944651
9587.000000;0.944754
9586.000000;0.944612
9585.000000;0.944368
9584.000000;0.944262
9583.000000;0.944309
9582.000000;0.944440
9581.000000;0.944746
9580.000000;0.945301
9579.000000;0.945801
9578.000000;0.945735
9577.000000;0.944979
9576.000000;0.944039
9575.000000;0.943614
9574.000000;0.944011
9573.000000;0.944947
9572.000000;0.945791
9571.000000;0.946038
9570.000000;0.945717
9569.000000;0.945297
9568.000000;0.945129
9567.000000;0.945073
9566.000000;0.944792
9565.000000;0.944214
9564.000000;0.943528
9563.000000;0.942892
9562.000000;0.942382
9561.000000;0.942133
9560.000000;0.942231
9559.000000;0.942563
9558.000000;0.942950
9557.000000;0.943314
9556.000000;0.943535
9555.000000;0.943338
9554.000000;0.942644
9553.000000;0.941897
9552.000000;0.941672
9551.000000;0.942021
9550.000000;0.942503
9549.000000;0.942770
9548.000000;0.942798
9547.000000;0.942620
9546.000000;0.942236
9545.000000;0.941811
9544.000000;0.941566
9543.000000;0.941414
9542.000000;0.941037
9541.000000;0.940419
9540.000000;0.939990
9539.000000;0.940099
9538.000000;0.940584
9537.000000;0.941002
9536.000000;0.941104
9535.000000;0.940980
9534.000000;0.940870
9533.000000;0.940923
9532.000000;0.941040
9531.000000;0.940936
9530.000000;0.940486
9529.000000;0.939938
9528.000000;0.939643
9527.000000;0.939648
9526.000000;0.939737
9525.000000;0.939753
9524.000000;0.939644
9523.000000;0.939310
9522.000000;0.938744
9521.000000;0.938270
9520.000000;0.938270
9519.000000;0.938639
9518.000000;0.938835
9517.000000;0.938526
9516.000000;0.937886
9515.000000;0.937213
9514.000000;0.936620
9513.000000;0.936203
9512.000000;0.936172
9511.000000;0.936591
9510.000000;0.937242
9509.000000;0.937882
9508.000000;0.938443
9507.000000;0.938839
9506.000000;0.938868
9505.000000;0.938504
9504.000000;0.938065
9503.000000;0.937844
9502.000000;0.937739
9501.000000;0.937449
9500.000000;0.936927
9499.000000;0.936448
9498.000000;0.936286
9497.000000;0.936496
9496.000000;0.936934
9495.000000;0.937349
9494.000000;0.937510
9493.000000;0.937399
9492.000000;0.937257
9491.000000;0.937358
9490.000000;0.937719
9489.000000;0.938079
9488.000000;0.938123
9487.000000;0.937695
9486.000000;0.936882
9485.000000;0.935987
9484.000000;0.935368
9483.000000;0.935197
9482.000000;0.935330
9481.000000;0.935471
9480.000000;0.935456
9479.000000;0.935340
9478.000000;0.935208
9477.000000;0.934988
9476.000000;0.934553
9475.000000;0.933977
9474.000000;0.933533
9473.000000;0.933368
9472.000000;0.933317
9471.000000;0.933185
9470.000000;0.933080
9469.000000;0.933249
9468.000000;0.933638
9467.000000;0.933930
9466.000000;0.933987
9465.000000;0.933954
9464.000000;0.933869
9463.000000;0.933564
9462.000000;0.933097
9461.000000;0.932921
9460.000000;0.933318
9459.000000;0.933924
9458.000000;0.934123
9457.000000;0.933718
9456.000000;0.932929
9455.000000;0.931987
9454.000000;0.931099
9453.000000;0.930622
9452.000000;0.930803
9451.000000;0.931344
9450.000000;0.931613
9449.000000;0.931330
9448.000000;0.930826
9447.000000;0.930594
9446.000000;0.930852
9445.000000;0.931515
9444.000000;0.932311
9443.000000;0.932916
9442.000000;0.933183
9441.000000;0.933292
9440.000000;0.933494
9439.000000;0.933740
9438.000000;0.933782
9437.000000;0.933529
9436.000000;0.933092
9435.000000;0.932515
9434.000000;0.931771
9433.000000;0.930978
9432.000000;0.930322
9431.000000;0.929765
9430.000000;0.929124
9429.000000;0.928457
9428.000000;0.928109
9427.000000;0.928294
9426.000000;0.928860
9425.000000;0.929493
9424.000000;0.929938
9423.000000;0.929997
9422.000000;0.929600
9421.000000;0.928970
9420.000000;0.928501
9419.000000;0.928377
9418.000000;0.928480
9417.000000;0.928699
9416.000000;0.929066
9415.000000;0.929518
9414.000000;0.929744
9413.000000;0.929443
9412.000000;0.928648
9411.000000;0.927703
9410.000000;0.927057
9409.000000;0.927047
9408.000000;0.927664
9407.000000;0.928447
9406.000000;0.928797
9405.000000;0.928504
9404.000000;0.927889
9403.000000;0.927382
9402.000000;0.927149
9401.000000;0.927126
9400.000000;0.927185
9399.000000;0.927182
9398.000000;0.927017
9397.000000;0.926791
9396.000000;0.926757
9395.000000;0.926999
9394.000000;0.927301
9393.000000;0.927434
9392.000000;0.927453
9391.000000;0.927566
9390.000000;0.927776
9389.000000;0.927828
9388.000000;0.927530
9387.000000;0.927020
9386.000000;0.926648
9385.000000;0.926586
9384.000000;0.926630
9383.000000;0.926423
9382.000000;0.925882
9381.000000;0.925284
9380.000000;0.924904
9379.000000;0.924719
9378.000000;0.924539
9377.000000;0.924304
9376.000000;0.924099
9375.000000;0.923984
9374.000000;0.923978
9373.000000;0.924123
9372.000000;0.924383
9371.000000;0.924543
9370.000000;0.924422
9369.000000;0.924146
9368.000000;0.924011
9367.000000;0.924091
9366.000000;0.924188
9365.000000;0.924156
9364.000000;0.924058
9363.000000;0.923973
9362.000000;0.923857
9361.000000;0.923680
9360.000000;0.923553
9359.000000;0.923612
9358.000000;0.923834
9357.000000;0.924046
9356.000000;0.924054
9355.000000;0.923792
9354.000000;0.923381
9353.000000;0.923040
9352.000000;0.922857
9351.000000;0.922685
9350.000000;0.922334
9349.000000;0.921825
9348.000000;0.921338
9347.000000;0.920994
9346.000000;0.920794
9345.000000;0.920709
9344.000000;0.920718
9343.000000;0.920792
9342.000000;0.920957
9341.000000;0.921281
9340.000000;0.921687
9339.000000;0.921903
9338.000000;0.921785
9337.000000;0.921564
9336.000000;0.921547
9335.000000;0.921671
9334.000000;0.921623
9333.000000;0.921350
9332.000000;0.921163
9331.000000;0.921259
9330.000000;0.921423
9329.000000;0.921320
9328.000000;0.920883
9327.000000;0.920284
9326.000000;0.919719
9325.000000;0.919354
9324.000000;0.919344
9323.000000;0.919726
9322.000000;0.920327
9321.000000;0.920857
9320.000000;0.921091
9319.000000;0.920972
9318.000000;0.920590
9317.000000;0.920130
9316.000000;0.919764
9315.000000;0.919551
9314.000000;0.919432
9313.000000;0.919321
9312.000000;0.919175
9311.000000;0.919022
9310.000000;0.918952
9309.000000;0.919019
9308.000000;0.919137
9307.000000;0.919145
9306.000000;0.918996
9305.000000;0.918780
9304.000000;0.918529
9303.000000;0.918134
9302.000000;0.917585
9301.000000;0.917127
9300.000000;0.916994
9299.000000;0.917092
9298.000000;0.917109
9297.000000;0.916906
9296.000000;0.916642
9295.000000;0.916549
9294.000000;0.916714
9293.000000;0.917039
9292.000000;0.917265
9291.000000;0.917122
9290.000000;0.916604
9289.000000;0.916066
9288.000000;0.915871
9287.000000;0.916002
9286.000000;0.916152
9285.000000;0.916147
9284.000000;0.916082
9283.000000;0.916083
9282.000000;0.916165
9281.000000;0.916349
9280.000000;0.916719
9279.000000;0.917259
9278.000000;0.917731
9277.000000;0.917823
9276.000000;0.917389
9275.000000;0.916583
9274.000000;0.915788
9273.000000;0.915337
9272.000000;0.915210
9271.000000;0.915057
9270.000000;0.914630
9269.000000;0.914103
9268.000000;0.913844
9267.000000;0.913976
9266.000000;0.914329
9265.000000;0.914735
9264.000000;0.915130
9263.000000;0.915377
9262.000000;0.915247
9261.000000;0.914692
9260.000000;0.914022
9259.000000;0.913678
9258.000000;0.913848
9257.000000;0.914303
9256.000000;0.914616
9255.000000;0.914555
9254.000000;0.914282
9253.000000;0.914117
9252.000000;0.914138
9251.000000;0.914132
9250.000000;0.913918
9249.000000;0.913547
9248.000000;0.913109
9247.000000;0.912585
9246.000000;0.912028
9245.000000;0.911658
9244.000000;0.911567
9243.000000;0.911517
9242.000000;0.911277
9241.000000;0.911018
9240.000000;0.911125
9239.000000;0.911669
9238.000000;0.912295
9237.000000;0.912596
9236.000000;0.912395
9235.000000;0.911755
9234.000000;0.910939
9233.000000;0.910327
9232.000000;0.910157
9231.000000;0.910338
9230.000000;0.910629
9229.000000;0.910913
9228.000000;0.911122
9227.000000;0.911077
9226.000000;0.910668
9225.000000;0.910123
9224.000000;0.909819
9223.000000;0.909873
9222.000000;0.910119
9221.000000;0.910413
9220.000000;0.910699
9219.000000;0.910843
9218.000000;0.910726
9217.000000;0.910501
9216.000000;0.910444
9215.000000;0.910557
9214.000000;0.910578
9213.000000;0.910404
9212.000000;0.910191
9211.000000;0.910043
9210.000000;0.909894
9209.000000;0.909772
9208.000000;0.909827
9207.000000;0.910005
9206.000000;0.909994
9205.000000;0.909662
9204.000000;0.909289
9203.000000;0.909152
9202.000000;0.909135
9201.000000;0.908948
9200.000000;0.908597
9199.000000;0.908378
9198.000000;0.908479
9197.000000;0.908751
9196.000000;0.908866
9195.000000;0.908608
9194.000000;0.908042
9193.000000;0.907450
9192.000000;0.907104
9191.000000;0.907072
9190.000000;0.907250
9189.000000;0.907536
9188.000000;0.907861
9187.000000;0.908126
9186.000000;0.908250
9185.000000;0.908276
9184.000000;0.908276
9183.000000;0.908188
9182.000000;0.907916
9181.000000;0.907582
9180.000000;0.907462
9179.000000;0.907612
9178.000000;0.907758
9177.000000;0.907643
9176.000000;0.907311
9175.000000;0.906993
9174.000000;0.906842
9173.000000;0.906859
9172.000000;0.906929
9171.000000;0.906849
9170.000000;0.906448
9169.000000;0.905801
9168.000000;0.905214
9167.000000;0.904891
9166.000000;0.904737
9165.000000;0.904535
9164.000000;0.904234
9163.000000;0.903952
9162.000000;0.903787
9161.000000;0.903749
9160.000000;0.903835
9159.000000;0.904085
9158.000000;0.904520
9157.000000;0.905046
9156.000000;0.905448
9155.000000;0.905531
9154.000000;0.905316
9153.000000;0.905017
9152.000000;0.904768
9151.000000;0.904462
9150.000000;0.903992
9149.000000;0.903546
9148.000000;0.903457
9147.000000;0.903740
9146.000000;0.904001
9145.000000;0.903877
9144.000000;0.903415
9143.000000;0.902921
9142.000000;0.902594
9141.000000;0.902414
9140.000000;0.902297
9139.000000;0.902214
9138.000000;0.902190
9137.000000;0.902251
9136.000000;0.902365
9135.000000;0.902427
9134.000000;0.902369
9133.000000;0.902280
9132.000000;0.902295
9131.000000;0.902355
9130.000000;0.902196
9129.000000;0.901688
9128.000000;0.901081
9127.000000;0.900790
9126.000000;0.900971
9125.000000;0.901368
9124.000000;0.901588
9123.000000;0.901496
9122.000000;0.901343
9121.000000;0.901482
9120.000000;0.901949
9119.000000;0.902351
9118.000000;0.902248
9117.000000;0.901625
9116.000000;0.900893
9115.000000;0.900450
9114.000000;0.900350
9113.000000;0.900418
9112.000000;0.900551
9111.000000;0.900764
9110.000000;0.901020
9109.000000;0.901152
9108.000000;0.901002
9107.000000;0.900584
9106.000000;0.900073
9105.000000;0.899654
9104.000000;0.899392
9103.000000;0.899214
9102.000000;0.899020
9101.000000;0.898807
9100.000000;0.898706
9099.000000;0.898878
9098.000000;0.899334
9097.000000;0.899836
9096.000000;0.900020
9095.000000;0.899698
9094.000000;0.899023
9093.000000;0.898354
9092.000000;0.897966
9091.000000;0.897919
9090.000000;0.898102
9089.000000;0.898293
9088.000000;0.898254
9087.000000;0.897938
9086.000000;0.897605
9085.000000;0.897569
9084.000000;0.897797
9083.000000;0.897915
9082.000000;0.897667
9081.000000;0.897234
9080.000000;0.896985
9079.000000;0.897059
9078.000000;0.897288
9077.000000;0.897433
9076.000000;0.897369
9075.000000;0.897124
9074.000000;0.896855
9073.000000;0.896714
9072.000000;0.896671
9071.000000;0.896536
9070.000000;0.896230
9069.000000;0.895907
9068.000000;0.895739
9067.000000;0.895701
9066.000000;0.895674
9065.000000;0.895640
9064.000000;0.895648
9063.000000;0.895674
9062.000000;0.895687
9061.000000;0.895752
9060.000000;0.895931
9059.000000;0.896116
9058.000000;0.896110
9057.000000;0.895851
9056.000000;0.895454
9055.000000;0.895082
9054.000000;0.894836
9053.000000;0.894726
