Criado como novo conjunto de dados;"2706_e01_daniel.spp","11882.3 Secs"
cm-1;Abs
10000.000000;0.739309
9999.000000;0.738986
9998.000000;0.738534
9997.000000;0.738161
9996.000000;0.738088
9995.000000;0.738203
9994.000000;0.738176
9993.000000;0.737800
9992.000000;0.737224
9991.000000;0.736714
9990.000000;0.736346
9989.000000;0.736006
9988.000000;0.735650
9987.000000;0.735403
9986.000000;0.735405
9985.000000;0.735640
9984.000000;0.735918
9983.000000;0.735974
9982.000000;0.735648
9981.000000;0.735071
9980.000000;0.734627
9979.000000;0.734608
9978.000000;0.734948
9977.000000;0.735359
9976.000000;0.735667
9975.000000;0.735869
9974.000000;0.735951
9973.000000;0.735900
9972.000000;0.735849
9971.000000;0.735944
9970.000000;0.736080
9969.000000;0.736035
9968.000000;0.735910
9967.000000;0.736036
9966.000000;0.736346
9965.000000;0.736235
9964.000000;0.735353
9963.000000;0.734239
9962.000000;0.733742
9961.000000;0.733979
9960.000000;0.734268
9959.000000;0.734051
9958.000000;0.733496
9957.000000;0.733147
9956.000000;0.733291
9955.000000;0.733816
9954.000000;0.734434
9953.000000;0.734856
9952.000000;0.734860
9951.000000;0.734369
9950.000000;0.733519
9949.000000;0.732634
9948.000000;0.732130
9947.000000;0.732304
9946.000000;0.733060
9945.000000;0.733859
9944.000000;0.734126
9943.000000;0.733726
9942.000000;0.732977
9941.000000;0.732222
9940.000000;0.731593
9939.000000;0.731145
9938.000000;0.731011
9937.000000;0.731297
9936.000000;0.731933
9935.000000;0.732704
9934.000000;0.733348
9933.000000;0.733611
9932.000000;0.733352
9931.000000;0.732666
9930.000000;0.731854
9929.000000;0.731215
9928.000000;0.730899
9927.000000;0.730950
9926.000000;0.731353
9925.000000;0.731980
9924.000000;0.732572
9923.000000;0.732883
9922.000000;0.732830
9921.000000;0.732480
9920.000000;0.731935
9919.000000;0.731317
9918.000000;0.730802
9917.000000;0.730561
9916.000000;0.730589
9915.000000;0.730683
9914.000000;0.730657
9913.000000;0.730580
9912.000000;0.730690
9911.000000;0.731034
9910.000000;0.731285
9909.000000;0.731057
9908.000000;0.730366
9907.000000;0.729627
9906.000000;0.729188
9905.000000;0.729012
9904.000000;0.728845
9903.000000;0.728548
9902.000000;0.728163
9901.000000;0.727790
9900.000000;0.727519
9899.000000;0.727445
9898.000000;0.727635
9897.000000;0.728065
9896.000000;0.728619
9895.000000;0.729094
9894.000000;0.729243
9893.000000;0.728953
9892.000000;0.728459
9891.000000;0.728236
9890.000000;0.728556
9889.000000;0.729205
9888.000000;0.729716
9887.000000;0.729788
9886.000000;0.729412
9885.000000;0.728762
9884.000000;0.728110
9883.000000;0.727733
9882.000000;0.727684
9881.000000;0.727683
9880.000000;0.727407
9879.000000;0.726888
9878.000000;0.726492
9877.000000;0.726510
9876.000000;0.726849
9875.000000;0.727150
9874.000000;0.727136
9873.000000;0.726822
9872.000000;0.726444
9871.000000;0.726194
9870.000000;0.726075
9869.000000;0.726043
9868.000000;0.726185
9867.000000;0.726558
9866.000000;0.726921
9865.000000;0.726907
9864.000000;0.726559
9863.000000;0.726385
9862.000000;0.726728
9861.000000;0.727330
9860.000000;0.727733
9859.000000;0.727831
9858.000000;0.727749
9857.000000;0.727417
9856.000000;0.726707
9855.000000;0.725875
9854.000000;0.725432
9853.000000;0.725509
9852.000000;0.725725
9851.000000;0.725743
9850.000000;0.725658
9849.000000;0.725700
9848.000000;0.725832
9847.000000;0.725811
9846.000000;0.725502
9845.000000;0.725005
9844.000000;0.724587
9843.000000;0.724513
9842.000000;0.724838
9841.000000;0.725292
9840.000000;0.725504
9839.000000;0.725371
9838.000000;0.725089
9837.000000;0.724850
9836.000000;0.724696
9835.000000;0.724688
9834.000000;0.724967
9833.000000;0.725532
9832.000000;0.726110
9831.000000;0.726347
9830.000000;0.726091
9829.000000;0.725438
9828.000000;0.724640
9827.000000;0.723988
9826.000000;0.723639
9825.000000;0.723485
9824.000000;0.723287
9823.000000;0.722982
9822.000000;0.722753
9821.000000;0.722777
9820.000000;0.723013
9819.000000;0.723256
9818.000000;0.723301
9817.000000;0.723060
9816.000000;0.722660
9815.000000;0.722430
9814.000000;0.722602
9813.000000;0.722991
9812.000000;0.723149
9811.000000;0.722894
9810.000000;0.722507
9809.000000;0.722329
9808.000000;0.722355
9807.000000;0.722318
9806.000000;0.722045
9805.000000;0.721577
9804.000000;0.721068
9803.000000;0.720682
9802.000000;0.720493
9801.000000;0.720395
9800.000000;0.720204
9799.000000;0.719920
9798.000000;0.719782
9797.000000;0.719976
9796.000000;0.720402
9795.000000;0.720815
9794.000000;0.721117
9793.000000;0.721387
9792.000000;0.721681
9791.000000;0.721926
9790.000000;0.721980
9789.000000;0.721761
9788.000000;0.721348
9787.000000;0.720998
9786.000000;0.720952
9785.000000;0.721168
9784.000000;0.721348
9783.000000;0.721271
9782.000000;0.721002
9781.000000;0.720684
9780.000000;0.720296
9779.000000;0.719776
9778.000000;0.719285
9777.000000;0.719126
9776.000000;0.719366
9775.000000;0.719716
9774.000000;0.719841
9773.000000;0.719716
9772.000000;0.719587
9771.000000;0.719643
9770.000000;0.719825
9769.000000;0.719951
9768.000000;0.719942
9767.000000;0.719845
9766.000000;0.719686
9765.000000;0.719426
9764.000000;0.719102
9763.000000;0.718883
9762.000000;0.718876
9761.000000;0.718933
9760.000000;0.718799
9759.000000;0.718413
9758.000000;0.717947
9757.000000;0.717586
9756.000000;0.717392
9755.000000;0.717383
9754.000000;0.717560
9753.000000;0.717813
9752.000000;0.717951
9751.000000;0.717909
9750.000000;0.717805
9749.000000;0.717762
9748.000000;0.717778
9747.000000;0.717818
9746.000000;0.717873
9745.000000;0.717861
9744.000000;0.717633
9743.000000;0.717192
9742.000000;0.716792
9741.000000;0.716693
9740.000000;0.716886
9739.000000;0.717148
9738.000000;0.717290
9737.000000;0.717258
9736.000000;0.717091
9735.000000;0.716896
9734.000000;0.716783
9733.000000;0.716726
9732.000000;0.716554
9731.000000;0.716194
9730.000000;0.715814
9729.000000;0.715640
9728.000000;0.715689
9727.000000;0.715827
9726.000000;0.715988
9725.000000;0.716190
9724.000000;0.716376
9723.000000;0.716445
9722.000000;0.716409
9721.000000;0.716373
9720.000000;0.716348
9719.000000;0.716229
9718.000000;0.715991
9717.000000;0.715761
9716.000000;0.715661
9715.000000;0.715672
9714.000000;0.715668
9713.000000;0.715529
9712.000000;0.715215
9711.000000;0.714827
9710.000000;0.714593
9709.000000;0.714668
9708.000000;0.714948
9707.000000;0.715208
9706.000000;0.715407
9705.000000;0.715680
9704.000000;0.715995
9703.000000;0.716037
9702.000000;0.715591
9701.000000;0.714904
9700.000000;0.714490
9699.000000;0.714597
9698.000000;0.715006
9697.000000;0.715303
9696.000000;0.715244
9695.000000;0.714874
9694.000000;0.714427
9693.000000;0.714144
9692.000000;0.714103
9691.000000;0.714189
9690.000000;0.714250
9689.000000;0.714257
9688.000000;0.714249
9687.000000;0.714188
9686.000000;0.713988
9685.000000;0.713691
9684.000000;0.713472
9683.000000;0.713420
9682.000000;0.713392
9681.000000;0.713207
9680.000000;0.712894
9679.000000;0.712669
9678.000000;0.712648
9677.000000;0.712706
9676.000000;0.712658
9675.000000;0.712547
9674.000000;0.712647
9673.000000;0.713130
9672.000000;0.713751
9671.000000;0.713982
9670.000000;0.713551
9669.000000;0.712791
9668.000000;0.712346
9667.000000;0.712495
9666.000000;0.712884
9665.000000;0.712953
9664.000000;0.712527
9663.000000;0.711912
9662.000000;0.711526
9661.000000;0.711566
9660.000000;0.711975
9659.000000;0.712545
9658.000000;0.713003
9657.000000;0.713113
9656.000000;0.712829
9655.000000;0.712328
9654.000000;0.711885
9653.000000;0.711687
9652.000000;0.711747
9651.000000;0.711906
9650.000000;0.711926
9649.000000;0.711652
9648.000000;0.711131
9647.000000;0.710588
9646.000000;0.710261
9645.000000;0.710271
9644.000000;0.710578
9643.000000;0.711000
9642.000000;0.711284
9641.000000;0.711268
9640.000000;0.710987
9639.000000;0.710589
9638.000000;0.710189
9637.000000;0.709877
9636.000000;0.709808
9635.000000;0.710127
9634.000000;0.710740
9633.000000;0.711288
9632.000000;0.711439
9631.000000;0.711141
9630.000000;0.710539
9629.000000;0.709785
9628.000000;0.709059
9627.000000;0.708666
9626.000000;0.708873
9625.000000;0.709593
9624.000000;0.710343
9623.000000;0.710641
9622.000000;0.710424
9621.000000;0.710034
9620.000000;0.709808
9619.000000;0.709750
9618.000000;0.709618
9617.000000;0.709261
9616.000000;0.708807
9615.000000;0.708524
9614.000000;0.708567
9613.000000;0.708890
9612.000000;0.709325
9611.000000;0.709692
9610.000000;0.709896
9609.000000;0.709991
9608.000000;0.710105
9607.000000;0.710240
9606.000000;0.710200
9605.000000;0.709819
9604.000000;0.709221
9603.000000;0.708720
9602.000000;0.708502
9601.000000;0.708523
9600.000000;0.708685
9599.000000;0.708915
9598.000000;0.709085
9597.000000;0.709041
9596.000000;0.708812
9595.000000;0.708626
9594.000000;0.708632
9593.000000;0.708728
9592.000000;0.708736
9591.000000;0.708593
9590.000000;0.708303
9589.000000;0.707850
9588.000000;0.707328
9587.000000;0.706998
9586.000000;0.707028
9585.000000;0.707248
9584.000000;0.707353
9583.000000;0.707260
9582.000000;0.707116
9581.000000;0.707012
9580.000000;0.706888
9579.000000;0.706731
9578.000000;0.706644
9577.000000;0.706693
9576.000000;0.706819
9575.000000;0.706946
9574.000000;0.707068
9573.000000;0.707174
9572.000000;0.707204
9571.000000;0.707142
9570.000000;0.707091
9569.000000;0.707184
9568.000000;0.707452
9567.000000;0.707765
9566.000000;0.707903
9565.000000;0.707729
9564.000000;0.707322
9563.000000;0.706932
9562.000000;0.706724
9561.000000;0.706619
9560.000000;0.706445
9559.000000;0.706192
9558.000000;0.705995
9557.000000;0.705904
9556.000000;0.705814
9555.000000;0.705652
9554.000000;0.705518
9553.000000;0.705574
9552.000000;0.705854
9551.000000;0.706215
9550.000000;0.706448
9549.000000;0.706416
9548.000000;0.706141
9547.000000;0.705764
9546.000000;0.705405
9545.000000;0.705086
9544.000000;0.704808
9543.000000;0.704631
9542.000000;0.704606
9541.000000;0.704667
9540.000000;0.704695
9539.000000;0.704665
9538.000000;0.704648
9537.000000;0.704672
9536.000000;0.704685
9535.000000;0.704645
9534.000000;0.704545
9533.000000;0.704364
9532.000000;0.704096
9531.000000;0.703837
9530.000000;0.703741
9529.000000;0.703846
9528.000000;0.704011
9527.000000;0.704059
9526.000000;0.703945
9525.000000;0.703767
9524.000000;0.703677
9523.000000;0.703787
9522.000000;0.704074
9521.000000;0.704356
9520.000000;0.704425
9519.000000;0.704225
9518.000000;0.703877
9517.000000;0.703535
9516.000000;0.703277
9515.000000;0.703114
9514.000000;0.703006
9513.000000;0.702874
9512.000000;0.702685
9511.000000;0.702539
9510.000000;0.702574
9509.000000;0.702780
9508.000000;0.703001
9507.000000;0.703137
9506.000000;0.703229
9505.000000;0.703310
9504.000000;0.703287
9503.000000;0.703064
9502.000000;0.702704
9501.000000;0.702365
9500.000000;0.702122
9499.000000;0.701956
9498.000000;0.701857
9497.000000;0.701850
9496.000000;0.701905
9495.000000;0.701901
9494.000000;0.701737
9493.000000;0.701452
9492.000000;0.701219
9491.000000;0.701207
9490.000000;0.701406
9489.000000;0.701619
9488.000000;0.701649
9487.000000;0.701501
9486.000000;0.701351
9485.000000;0.701290
9484.000000;0.701183
9483.000000;0.700870
9482.000000;0.700458
9481.000000;0.700286
9480.000000;0.700560
9479.000000;0.701088
9478.000000;0.701439
9477.000000;0.701373
9476.000000;0.701037
9475.000000;0.700748
9474.000000;0.700662
9473.000000;0.700673
9472.000000;0.700585
9471.000000;0.700266
9470.000000;0.699712
9469.000000;0.699083
9468.000000;0.698700
9467.000000;0.698843
9466.000000;0.699427
9465.000000;0.699983
9464.000000;0.700107
9463.000000;0.699885
9462.000000;0.699741
9461.000000;0.699881
9460.000000;0.700064
9459.000000;0.699941
9458.000000;0.699468
9457.000000;0.698895
9456.000000;0.698474
9455.000000;0.698311
9454.000000;0.698421
9453.000000;0.698763
9452.000000;0.699178
9451.000000;0.699415
9450.000000;0.699333
9449.000000;0.699039
9448.000000;0.698785
9447.000000;0.698710
9446.000000;0.698722
9445.000000;0.698649
9444.000000;0.698456
9443.000000;0.698261
9442.000000;0.698173
9441.000000;0.698182
9440.000000;0.698242
9439.000000;0.698372
9438.000000;0.698616
9437.000000;0.698933
9436.000000;0.699192
9435.000000;0.699278
9434.000000;0.699142
9433.000000;0.698786
9432.000000;0.698262
9431.000000;0.697724
9430.000000;0.697401
9429.000000;0.697448
9428.000000;0.697803
9427.000000;0.698180
9426.000000;0.698264
9425.000000;0.697927
9424.000000;0.697314
9423.000000;0.696708
9422.000000;0.696322
9421.000000;0.696219
9420.000000;0.696380
9419.000000;0.696761
9418.000000;0.697268
9417.000000;0.697735
9416.000000;0.697985
9415.000000;0.697892
9414.000000;0.697432
9413.000000;0.696741
9412.000000;0.696133
9411.000000;0.695911
9410.000000;0.696065
9409.000000;0.696258
9408.000000;0.696214
9407.000000;0.696029
9406.000000;0.695982
9405.000000;0.696114
9404.000000;0.696209
9403.000000;0.696146
9402.000000;0.696079
9401.000000;0.696174
9400.000000;0.696357
9399.000000;0.696436
9398.000000;0.696384
9397.000000;0.696347
9396.000000;0.696426
9395.000000;0.696552
9394.000000;0.696592
9393.000000;0.696507
9392.000000;0.696382
9391.000000;0.696310
9390.000000;0.696296
9389.000000;0.696258
9388.000000;0.696140
9387.000000;0.695974
9386.000000;0.695830
9385.000000;0.695699
9384.000000;0.695499
9383.000000;0.695194
9382.000000;0.694865
9381.000000;0.694659
9380.000000;0.694656
9379.000000;0.694769
9378.000000;0.694789
9377.000000;0.694573
9376.000000;0.694249
9375.000000;0.694148
9374.000000;0.694450
9373.000000;0.694923
9372.000000;0.695123
9371.000000;0.694839
9370.000000;0.694281
9369.000000;0.693817
9368.000000;0.693645
9367.000000;0.693708
9366.000000;0.693819
9365.000000;0.693806
9364.000000;0.693638
9363.000000;0.693454
9362.000000;0.693422
9361.000000;0.693527
9360.000000;0.693576
9359.000000;0.693436
9358.000000;0.693201
9357.000000;0.693076
9356.000000;0.693170
9355.000000;0.693439
9354.000000;0.693761
9353.000000;0.693979
9352.000000;0.693973
9351.000000;0.693766
9350.000000;0.693531
9349.000000;0.693396
9348.000000;0.693291
9347.000000;0.693065
9346.000000;0.692723
9345.000000;0.692452
9344.000000;0.692402
9343.000000;0.692536
9342.000000;0.692696
9341.000000;0.692768
9340.000000;0.692737
9339.000000;0.692647
9338.000000;0.692518
9337.000000;0.692318
9336.000000;0.692009
9335.000000;0.691633
9334.000000;0.691326
9333.000000;0.691224
9332.000000;0.691339
9331.000000;0.691554
9330.000000;0.691727
9329.000000;0.691758
9328.000000;0.691610
9327.000000;0.691313
9326.000000;0.690985
9325.000000;0.690787
9324.000000;0.690806
9323.000000;0.690988
9322.000000;0.691183
9321.000000;0.691267
9320.000000;0.691228
9319.000000;0.691142
9318.000000;0.691101
9317.000000;0.691132
9316.000000;0.691174
9315.000000;0.691125
9314.000000;0.690948
9313.000000;0.690748
9312.000000;0.690706
9311.000000;0.690904
9310.000000;0.691191
9309.000000;0.691319
9308.000000;0.691218
9307.000000;0.691081
9306.000000;0.691104
9305.000000;0.691203
9304.000000;0.691115
9303.000000;0.690771
9302.000000;0.690426
9301.000000;0.690360
9300.000000;0.690558
9299.000000;0.690752
9298.000000;0.690716
9297.000000;0.690434
9296.000000;0.690047
9295.000000;0.689743
9294.000000;0.689650
9293.000000;0.689700
9292.000000;0.689614
9291.000000;0.689161
9290.000000;0.688469
9289.000000;0.687988
9288.000000;0.688066
9287.000000;0.688610
9286.000000;0.689215
9285.000000;0.689545
9284.000000;0.689564
9283.000000;0.689443
9282.000000;0.689365
9281.000000;0.689413
9280.000000;0.689562
9279.000000;0.689726
9278.000000;0.689780
9277.000000;0.689612
9276.000000;0.689182
9275.000000;0.688617
9274.000000;0.688199
9273.000000;0.688171
9272.000000;0.688481
9271.000000;0.688796
9270.000000;0.688797
9269.000000;0.688455
9268.000000;0.687972
9267.000000;0.687552
9266.000000;0.687300
9265.000000;0.687275
9264.000000;0.687484
9263.000000;0.687801
9262.000000;0.688002
9261.000000;0.687961
9260.000000;0.687753
9259.000000;0.687538
9258.000000;0.687418
9257.000000;0.687407
9256.000000;0.687485
9255.000000;0.687608
9254.000000;0.687730
9253.000000;0.687842
9252.000000;0.687952
9251.000000;0.688001
9250.000000;0.687887
9249.000000;0.687621
9248.000000;0.687382
9247.000000;0.687310
9246.000000;0.687313
9245.000000;0.687182
9244.000000;0.686869
9243.000000;0.686534
9242.000000;0.686320
9241.000000;0.686214
9240.000000;0.686148
9239.000000;0.686119
9238.000000;0.686138
9237.000000;0.686140
9236.000000;0.686059
9235.000000;0.685953
9234.000000;0.685970
9233.000000;0.686175
9232.000000;0.686433
9231.000000;0.686518
9230.000000;0.686327
9229.000000;0.685990
9228.000000;0.685733
9227.000000;0.685658
9226.000000;0.685661
9225.000000;0.685593
9224.000000;0.685419
9223.000000;0.685187
9222.000000;0.684922
9221.000000;0.684633
9220.000000;0.684392
9219.000000;0.684284
9218.000000;0.684276
9217.000000;0.684263
9216.000000;0.684248
9215.000000;0.684363
9214.000000;0.684647
9213.000000;0.684927
9212.000000;0.685005
9211.000000;0.684891
9210.000000;0.684758
9209.000000;0.684690
9208.000000;0.684607
9207.000000;0.684428
9206.000000;0.684218
9205.000000;0.684133
9204.000000;0.684256
9203.000000;0.684522
9202.000000;0.684790
9201.000000;0.684964
9200.000000;0.685025
9199.000000;0.684973
9198.000000;0.684783
9197.000000;0.684480
9196.000000;0.684198
9195.000000;0.684086
9194.000000;0.684151
9193.000000;0.684259
9192.000000;0.684313
9191.000000;0.684327
9190.000000;0.684300
9189.000000;0.684140
9188.000000;0.683805
9187.000000;0.683447
9186.000000;0.683283
9185.000000;0.683346
9184.000000;0.683461
9183.000000;0.683461
9182.000000;0.683365
9181.000000;0.683316
9180.000000;0.683407
9179.000000;0.683585
9178.000000;0.683715
9177.000000;0.683699
9176.000000;0.683556
9175.000000;0.683377
9174.000000;0.683223
9173.000000;0.683092
9172.000000;0.682980
9171.000000;0.682882
9170.000000;0.682724
9169.000000;0.682400
9168.000000;0.681955
9167.000000;0.681644
9166.000000;0.681674
9165.000000;0.681924
9164.000000;0.682045
9163.000000;0.681872
9162.000000;0.681634
9161.000000;0.681687
9160.000000;0.682101
9159.000000;0.682567
9158.000000;0.682698
9157.000000;0.682394
9156.000000;0.681921
9155.000000;0.681638
9154.000000;0.681664
9153.000000;0.681822
9152.000000;0.681881
9151.000000;0.681777
9150.000000;0.681608
9149.000000;0.681479
9148.000000;0.681441
9147.000000;0.681514
9146.000000;0.681663
9145.000000;0.681768
9144.000000;0.681721
9143.000000;0.681544
9142.000000;0.681353
9141.000000;0.681202
9140.000000;0.681032
9139.000000;0.680798
9138.000000;0.680549
9137.000000;0.680370
9136.000000;0.680291
9135.000000;0.680295
9134.000000;0.680349
9133.000000;0.680408
9132.000000;0.680413
9131.000000;0.680317
9130.000000;0.680120
9129.000000;0.679884
9128.000000;0.679752
9127.000000;0.679910
9126.000000;0.680415
9125.000000;0.681060
9124.000000;0.681478
9123.000000;0.681463
9122.000000;0.681135
9121.000000;0.680770
9120.000000;0.680522
9119.000000;0.680345
9118.000000;0.680121
9117.000000;0.679797
9116.000000;0.679430
9115.000000;0.679146
9114.000000;0.679050
9113.000000;0.679128
9112.000000;0.679256
9111.000000;0.679318
9110.000000;0.679319
9109.000000;0.679343
9108.000000;0.679415
9107.000000;0.679444
9106.000000;0.679319
9105.000000;0.679037
9104.000000;0.678722
9103.000000;0.678528
9102.000000;0.678518
9101.000000;0.678643
9100.000000;0.678815
9099.000000;0.678969
9098.000000;0.679044
9097.000000;0.678978
9096.000000;0.678783
9095.000000;0.678582
9094.000000;0.678493
9093.000000;0.678465
9092.000000;0.678342
9091.000000;0.678086
9090.000000;0.677834
9089.000000;0.677681
9088.000000;0.677533
9087.000000;0.677280
9086.000000;0.677036
9085.000000;0.677041
9084.000000;0.677347
9083.000000;0.677719
9082.000000;0.677884
9081.000000;0.677802
9080.000000;0.677648
9079.000000;0.677612
9078.000000;0.677761
9077.000000;0.678016
9076.000000;0.678196
9075.000000;0.678123
9074.000000;0.677767
9073.000000;0.677298
9072.000000;0.676947
9071.000000;0.676821
9070.000000;0.676856
9069.000000;0.676924
9068.000000;0.676953
9067.000000;0.676935
9066.000000;0.676877
9065.000000;0.676773
9064.000000;0.676639
9063.000000;0.676539
9062.000000;0.676539
9061.000000;0.676607
9060.000000;0.676598
9059.000000;0.676420
9058.000000;0.676177
9057.000000;0.676090
9056.000000;0.676256
9055.000000;0.676550
9054.000000;0.676809
9053.000000;0.677006
