Criado como novo conjunto de dados;"2706_e01_daniel.spp","96487.1 Secs"
cm-1;Abs
10000.000000;0.862641
9999.000000;0.862649
9998.000000;0.862579
9997.000000;0.862182
9996.000000;0.861472
9995.000000;0.860742
9994.000000;0.860393
9993.000000;0.860646
9992.000000;0.861307
9991.000000;0.861863
9990.000000;0.861943
9989.000000;0.861642
9988.000000;0.861275
9987.000000;0.860928
9986.000000;0.860463
9985.000000;0.859933
9984.000000;0.859682
9983.000000;0.859899
9982.000000;0.860253
9981.000000;0.860167
9980.000000;0.859420
9979.000000;0.858344
9978.000000;0.857496
9977.000000;0.857248
9976.000000;0.857646
9975.000000;0.858464
9974.000000;0.859335
9973.000000;0.859892
9972.000000;0.859909
9971.000000;0.859401
9970.000000;0.858637
9969.000000;0.858056
9968.000000;0.858032
9967.000000;0.858629
9966.000000;0.859566
9965.000000;0.860419
9964.000000;0.860845
9963.000000;0.860683
9962.000000;0.860024
9961.000000;0.859232
9960.000000;0.858726
9959.000000;0.858616
9958.000000;0.858608
9957.000000;0.858373
9956.000000;0.857934
9955.000000;0.857580
9954.000000;0.857480
9953.000000;0.857546
9952.000000;0.857627
9951.000000;0.857654
9950.000000;0.857574
9949.000000;0.857322
9948.000000;0.856924
9947.000000;0.856553
9946.000000;0.856405
9945.000000;0.856511
9944.000000;0.856679
9943.000000;0.856660
9942.000000;0.856423
9941.000000;0.856271
9940.000000;0.856562
9939.000000;0.857209
9938.000000;0.857608
9937.000000;0.857269
9936.000000;0.856444
9935.000000;0.855911
9934.000000;0.856110
9933.000000;0.856731
9932.000000;0.857170
9931.000000;0.857200
9930.000000;0.857043
9929.000000;0.856946
9928.000000;0.856916
9927.000000;0.856839
9926.000000;0.856669
9925.000000;0.856444
9924.000000;0.856215
9923.000000;0.856017
9922.000000;0.855863
9921.000000;0.855738
9920.000000;0.855590
9919.000000;0.855379
9918.000000;0.855129
9917.000000;0.854930
9916.000000;0.854871
9915.000000;0.854974
9914.000000;0.855191
9913.000000;0.855469
9912.000000;0.855767
9911.000000;0.856024
9910.000000;0.856183
9909.000000;0.856248
9908.000000;0.856225
9907.000000;0.855981
9906.000000;0.855314
9905.000000;0.854253
9904.000000;0.853184
9903.000000;0.852514
9902.000000;0.852309
9901.000000;0.852340
9900.000000;0.852396
9899.000000;0.852405
9898.000000;0.852368
9897.000000;0.852402
9896.000000;0.852782
9895.000000;0.853670
9894.000000;0.854786
9893.000000;0.855553
9892.000000;0.855621
9891.000000;0.855100
9890.000000;0.854356
9889.000000;0.853794
9888.000000;0.853804
9887.000000;0.854480
9886.000000;0.855268
9885.000000;0.855264
9884.000000;0.854172
9883.000000;0.852760
9882.000000;0.852047
9881.000000;0.852208
9880.000000;0.852534
9879.000000;0.852350
9878.000000;0.851661
9877.000000;0.850942
9876.000000;0.850612
9875.000000;0.850782
9874.000000;0.851277
9873.000000;0.851764
9872.000000;0.851959
9871.000000;0.851804
9870.000000;0.851428
9869.000000;0.850989
9868.000000;0.850632
9867.000000;0.850519
9866.000000;0.850723
9865.000000;0.851094
9864.000000;0.851383
9863.000000;0.851493
9862.000000;0.851476
9861.000000;0.851318
9860.000000;0.850958
9859.000000;0.850524
9858.000000;0.850285
9857.000000;0.850274
9856.000000;0.850168
9855.000000;0.849708
9854.000000;0.849098
9853.000000;0.848768
9852.000000;0.848863
9851.000000;0.849145
9850.000000;0.849363
9849.000000;0.849501
9848.000000;0.849631
9847.000000;0.849715
9846.000000;0.849684
9845.000000;0.849616
9844.000000;0.849690
9843.000000;0.849973
9842.000000;0.850299
9841.000000;0.850419
9840.000000;0.850242
9839.000000;0.849913
9838.000000;0.849642
9837.000000;0.849477
9836.000000;0.849321
9835.000000;0.849124
9834.000000;0.848957
9833.000000;0.848860
9832.000000;0.848717
9831.000000;0.848411
9830.000000;0.848047
9829.000000;0.847883
9828.000000;0.848024
9827.000000;0.848291
9826.000000;0.848434
9825.000000;0.848371
9824.000000;0.848186
9823.000000;0.848004
9822.000000;0.847945
9821.000000;0.848106
9820.000000;0.848432
9819.000000;0.848653
9818.000000;0.848506
9817.000000;0.848077
9816.000000;0.847764
9815.000000;0.847814
9814.000000;0.847936
9813.000000;0.847547
9812.000000;0.846467
9811.000000;0.845269
9810.000000;0.844825
9809.000000;0.845466
9808.000000;0.846638
9807.000000;0.847433
9806.000000;0.847417
9805.000000;0.846882
9804.000000;0.846333
9803.000000;0.845952
9802.000000;0.845635
9801.000000;0.845380
9800.000000;0.845369
9799.000000;0.845676
9798.000000;0.846065
9797.000000;0.846169
9796.000000;0.845798
9795.000000;0.845061
9794.000000;0.844258
9793.000000;0.843713
9792.000000;0.843592
9791.000000;0.843832
9790.000000;0.844262
9789.000000;0.844792
9788.000000;0.845386
9787.000000;0.845886
9786.000000;0.846050
9785.000000;0.845862
9784.000000;0.845644
9783.000000;0.845696
9782.000000;0.845902
9781.000000;0.845850
9780.000000;0.845301
9779.000000;0.844405
9778.000000;0.843506
9777.000000;0.842891
9776.000000;0.842702
9775.000000;0.842921
9774.000000;0.843356
9773.000000;0.843743
9772.000000;0.843936
9771.000000;0.843987
9770.000000;0.844010
9769.000000;0.844030
9768.000000;0.843931
9767.000000;0.843557
9766.000000;0.842880
9765.000000;0.842140
9764.000000;0.841722
9763.000000;0.841821
9762.000000;0.842258
9761.000000;0.842709
9760.000000;0.843037
9759.000000;0.843266
9758.000000;0.843321
9757.000000;0.843023
9756.000000;0.842373
9755.000000;0.841688
9754.000000;0.841350
9753.000000;0.841536
9752.000000;0.842164
9751.000000;0.842966
9750.000000;0.843574
9749.000000;0.843719
9748.000000;0.843433
9747.000000;0.842979
9746.000000;0.842542
9745.000000;0.842115
9744.000000;0.841692
9743.000000;0.841402
9742.000000;0.841341
9741.000000;0.841424
9740.000000;0.841489
9739.000000;0.841464
9738.000000;0.841333
9737.000000;0.841086
9736.000000;0.840812
9735.000000;0.840738
9734.000000;0.841010
9733.000000;0.841473
9732.000000;0.841792
9731.000000;0.841756
9730.000000;0.841392
9729.000000;0.840893
9728.000000;0.840529
9727.000000;0.840527
9726.000000;0.840840
9725.000000;0.841100
9724.000000;0.840985
9723.000000;0.840626
9722.000000;0.840460
9721.000000;0.840691
9720.000000;0.841060
9719.000000;0.841207
9718.000000;0.841056
9717.000000;0.840787
9716.000000;0.840562
9715.000000;0.840397
9714.000000;0.840225
9713.000000;0.839967
9712.000000;0.839591
9711.000000;0.839202
9710.000000;0.839025
9709.000000;0.839207
9708.000000;0.839627
9707.000000;0.839977
9706.000000;0.840044
9705.000000;0.839839
9704.000000;0.839482
9703.000000;0.839048
9702.000000;0.838625
9701.000000;0.838439
9700.000000;0.838767
9699.000000;0.839605
9698.000000;0.840512
9697.000000;0.840911
9696.000000;0.840607
9695.000000;0.839940
9694.000000;0.839387
9693.000000;0.839097
9692.000000;0.838860
9691.000000;0.838460
9690.000000;0.837935
9689.000000;0.837503
9688.000000;0.837312
9687.000000;0.837306
9686.000000;0.837329
9685.000000;0.837331
9684.000000;0.837416
9683.000000;0.837648
9682.000000;0.837844
9681.000000;0.837718
9680.000000;0.837265
9679.000000;0.836863
9678.000000;0.836856
9677.000000;0.837132
9676.000000;0.837273
9675.000000;0.837072
9674.000000;0.836735
9673.000000;0.836566
9672.000000;0.836644
9671.000000;0.836857
9670.000000;0.837094
9669.000000;0.837280
9668.000000;0.837318
9667.000000;0.837149
9666.000000;0.836857
9665.000000;0.836632
9664.000000;0.836569
9663.000000;0.836557
9662.000000;0.836398
9661.000000;0.836025
9660.000000;0.835592
9659.000000;0.835328
9658.000000;0.835300
9657.000000;0.835373
9656.000000;0.835422
9655.000000;0.835502
9654.000000;0.835717
9653.000000;0.835990
9652.000000;0.836083
9651.000000;0.835870
9650.000000;0.835443
9649.000000;0.834942
9648.000000;0.834411
9647.000000;0.833903
9646.000000;0.833584
9645.000000;0.833567
9644.000000;0.833720
9643.000000;0.833807
9642.000000;0.833779
9641.000000;0.833792
9640.000000;0.833905
9639.000000;0.833950
9638.000000;0.833792
9637.000000;0.833576
9636.000000;0.833580
9635.000000;0.833869
9634.000000;0.834251
9633.000000;0.834558
9632.000000;0.834812
9631.000000;0.835068
9630.000000;0.835203
9629.000000;0.835007
9628.000000;0.834447
9627.000000;0.833747
9626.000000;0.833193
9625.000000;0.832911
9624.000000;0.832846
9623.000000;0.832855
9622.000000;0.832804
9621.000000;0.832646
9620.000000;0.832468
9619.000000;0.832431
9618.000000;0.832583
9617.000000;0.832785
9616.000000;0.832872
9615.000000;0.832858
9614.000000;0.832890
9613.000000;0.833036
9612.000000;0.833210
9611.000000;0.833318
9610.000000;0.833377
9609.000000;0.833422
9608.000000;0.833374
9607.000000;0.833116
9606.000000;0.832674
9605.000000;0.832218
9604.000000;0.831866
9603.000000;0.831568
9602.000000;0.831259
9601.000000;0.831061
9600.000000;0.831237
9599.000000;0.831868
9598.000000;0.832652
9597.000000;0.833116
9596.000000;0.833051
9595.000000;0.832698
9594.000000;0.832453
9593.000000;0.832437
9592.000000;0.832407
9591.000000;0.832058
9590.000000;0.831357
9589.000000;0.830591
9588.000000;0.830131
9587.000000;0.830162
9586.000000;0.830581
9585.000000;0.831111
9584.000000;0.831527
9583.000000;0.831779
9582.000000;0.831895
9581.000000;0.831841
9580.000000;0.831552
9579.000000;0.831087
9578.000000;0.830626
9577.000000;0.830262
9576.000000;0.829885
9575.000000;0.829366
9574.000000;0.828815
9573.000000;0.828525
9572.000000;0.828675
9571.000000;0.829134
9570.000000;0.829598
9569.000000;0.829841
9568.000000;0.829808
9567.000000;0.829552
9566.000000;0.829169
9565.000000;0.828786
9564.000000;0.828545
9563.000000;0.828523
9562.000000;0.828675
9561.000000;0.828885
9560.000000;0.829066
9559.000000;0.829179
9558.000000;0.829178
9557.000000;0.829019
9556.000000;0.828764
9555.000000;0.828585
9554.000000;0.828589
9553.000000;0.828648
9552.000000;0.828529
9551.000000;0.828222
9550.000000;0.828024
9549.000000;0.828238
9548.000000;0.828817
9547.000000;0.829398
9546.000000;0.829635
9545.000000;0.829429
9544.000000;0.828903
9543.000000;0.828291
9542.000000;0.827860
9541.000000;0.827799
9540.000000;0.828083
9539.000000;0.828473
9538.000000;0.828684
9537.000000;0.828583
9536.000000;0.828236
9535.000000;0.827823
9534.000000;0.827507
9533.000000;0.827296
9532.000000;0.827026
9531.000000;0.826561
9530.000000;0.826027
9529.000000;0.825748
9528.000000;0.825894
9527.000000;0.826307
9526.000000;0.826733
9525.000000;0.827125
9524.000000;0.827550
9523.000000;0.827902
9522.000000;0.827916
9521.000000;0.827502
9520.000000;0.826913
9519.000000;0.826503
9518.000000;0.826442
9517.000000;0.826696
9516.000000;0.827145
9515.000000;0.827599
9514.000000;0.827803
9513.000000;0.827611
9512.000000;0.827140
9511.000000;0.826689
9510.000000;0.826495
9509.000000;0.826601
9508.000000;0.826902
9507.000000;0.827202
9506.000000;0.827267
9505.000000;0.826965
9504.000000;0.826397
9503.000000;0.825820
9502.000000;0.825398
9501.000000;0.825108
9500.000000;0.824892
9499.000000;0.824805
9498.000000;0.824918
9497.000000;0.825148
9496.000000;0.825298
9495.000000;0.825247
9494.000000;0.825010
9493.000000;0.824612
9492.000000;0.824036
9491.000000;0.823379
9490.000000;0.822940
9489.000000;0.823007
9488.000000;0.823524
9487.000000;0.824077
9486.000000;0.824281
9485.000000;0.824134
9484.000000;0.823905
9483.000000;0.823767
9482.000000;0.823643
9481.000000;0.823421
9480.000000;0.823175
9479.000000;0.823072
9478.000000;0.823120
9477.000000;0.823162
9476.000000;0.823114
9475.000000;0.823116
9474.000000;0.823345
9473.000000;0.823736
9472.000000;0.823986
9471.000000;0.823880
9470.000000;0.823535
9469.000000;0.823245
9468.000000;0.823140
9467.000000;0.823101
9466.000000;0.823013
9465.000000;0.822962
9464.000000;0.823080
9463.000000;0.823299
9462.000000;0.823386
9461.000000;0.823228
9460.000000;0.822933
9459.000000;0.822645
9458.000000;0.822400
9457.000000;0.822215
9456.000000;0.822169
9455.000000;0.822268
9454.000000;0.822347
9453.000000;0.822237
9452.000000;0.821971
9451.000000;0.821686
9450.000000;0.821424
9449.000000;0.821176
9448.000000;0.821086
9447.000000;0.821354
9446.000000;0.821899
9445.000000;0.822308
9444.000000;0.822274
9443.000000;0.821955
9442.000000;0.821751
9441.000000;0.821804
9440.000000;0.821871
9439.000000;0.821673
9438.000000;0.821251
9437.000000;0.820901
9436.000000;0.820844
9435.000000;0.821021
9434.000000;0.821185
9433.000000;0.821158
9432.000000;0.820967
9431.000000;0.820756
9430.000000;0.820599
9429.000000;0.820466
9428.000000;0.820310
9427.000000;0.820131
9426.000000;0.819946
9425.000000;0.819804
9424.000000;0.819833
9423.000000;0.820135
9422.000000;0.820563
9421.000000;0.820739
9420.000000;0.820432
9419.000000;0.819871
9418.000000;0.819504
9417.000000;0.819486
9416.000000;0.819568
9415.000000;0.819515
9414.000000;0.819427
9413.000000;0.819538
9412.000000;0.819835
9411.000000;0.820043
9410.000000;0.819955
9409.000000;0.819643
9408.000000;0.819332
9407.000000;0.819192
9406.000000;0.819269
9405.000000;0.819482
9404.000000;0.819635
9403.000000;0.819509
9402.000000;0.819056
9401.000000;0.818511
9400.000000;0.818202
9399.000000;0.818243
9398.000000;0.818460
9397.000000;0.818636
9396.000000;0.818762
9395.000000;0.818968
9394.000000;0.819248
9393.000000;0.819401
9392.000000;0.819274
9391.000000;0.818991
9390.000000;0.818810
9389.000000;0.818799
9388.000000;0.818758
9387.000000;0.818497
9386.000000;0.818092
9385.000000;0.817808
9384.000000;0.817806
9383.000000;0.818004
9382.000000;0.818174
9381.000000;0.818099
9380.000000;0.817693
9379.000000;0.817070
9378.000000;0.816522
9377.000000;0.816336
9376.000000;0.816547
9375.000000;0.816894
9374.000000;0.817063
9373.000000;0.816959
9372.000000;0.816726
9371.000000;0.816551
9370.000000;0.816494
9369.000000;0.816512
9368.000000;0.816553
9367.000000;0.816584
9366.000000;0.816567
9365.000000;0.816460
9364.000000;0.816265
9363.000000;0.816063
9362.000000;0.815947
9361.000000;0.815915
9360.000000;0.815863
9359.000000;0.815708
9358.000000;0.815516
9357.000000;0.815463
9356.000000;0.815652
9355.000000;0.815993
9354.000000;0.816263
9353.000000;0.816240
9352.000000;0.815839
9351.000000;0.815191
9350.000000;0.814616
9349.000000;0.814405
9348.000000;0.814543
9347.000000;0.814717
9346.000000;0.814689
9345.000000;0.814598
9344.000000;0.814769
9343.000000;0.815214
9342.000000;0.815518
9341.000000;0.815277
9340.000000;0.814587
9339.000000;0.813957
9338.000000;0.813772
9337.000000;0.813931
9336.000000;0.814039
9335.000000;0.813856
9334.000000;0.813485
9333.000000;0.813161
9332.000000;0.812963
9331.000000;0.812823
9330.000000;0.812736
9329.000000;0.812816
9328.000000;0.813088
9327.000000;0.813367
9326.000000;0.813462
9325.000000;0.813442
9324.000000;0.813540
9323.000000;0.813827
9322.000000;0.814116
9321.000000;0.814247
9320.000000;0.814287
9319.000000;0.814358
9318.000000;0.814378
9317.000000;0.814128
9316.000000;0.813554
9315.000000;0.812878
9314.000000;0.812395
9313.000000;0.812234
9312.000000;0.812326
9311.000000;0.812542
9310.000000;0.812824
9309.000000;0.813155
9308.000000;0.813458
9307.000000;0.813570
9306.000000;0.813389
9305.000000;0.813052
9304.000000;0.812858
9303.000000;0.812964
9302.000000;0.813238
9301.000000;0.813436
9300.000000;0.813455
9299.000000;0.813340
9298.000000;0.813134
9297.000000;0.812840
9296.000000;0.812510
9295.000000;0.812237
9294.000000;0.812041
9293.000000;0.811855
9292.000000;0.811627
9291.000000;0.811372
9290.000000;0.811113
9289.000000;0.810868
9288.000000;0.810692
9287.000000;0.810637
9286.000000;0.810641
9285.000000;0.810568
9284.000000;0.810397
9283.000000;0.810288
9282.000000;0.810378
9281.000000;0.810595
9280.000000;0.810778
9279.000000;0.810932
9278.000000;0.811201
9277.000000;0.811579
9276.000000;0.811794
9275.000000;0.811563
9274.000000;0.810928
9273.000000;0.810229
9272.000000;0.809782
9271.000000;0.809664
9270.000000;0.809780
9269.000000;0.810016
9268.000000;0.810257
9267.000000;0.810342
9266.000000;0.810150
9265.000000;0.809752
9264.000000;0.809397
9263.000000;0.809300
9262.000000;0.809469
9261.000000;0.809746
9260.000000;0.809961
9259.000000;0.810028
9258.000000;0.809956
9257.000000;0.809810
9256.000000;0.809648
9255.000000;0.809471
9254.000000;0.809255
9253.000000;0.809069
9252.000000;0.809079
9251.000000;0.809373
9250.000000;0.809806
9249.000000;0.810091
9248.000000;0.810054
9247.000000;0.809767
9246.000000;0.809440
9245.000000;0.809211
9244.000000;0.809071
9243.000000;0.808920
9242.000000;0.808704
9241.000000;0.808485
9240.000000;0.808401
9239.000000;0.808530
9238.000000;0.808775
9237.000000;0.808912
9236.000000;0.808762
9235.000000;0.808347
9234.000000;0.807893
9233.000000;0.807672
9232.000000;0.807794
9231.000000;0.808132
9230.000000;0.808449
9229.000000;0.808584
9228.000000;0.808506
9227.000000;0.808228
9226.000000;0.807794
9225.000000;0.807342
9224.000000;0.807065
9223.000000;0.807018
9222.000000;0.807037
9221.000000;0.806947
9220.000000;0.806792
9219.000000;0.806779
9218.000000;0.807018
9217.000000;0.807392
9216.000000;0.807679
9215.000000;0.807734
9214.000000;0.807604
9213.000000;0.807494
9212.000000;0.807607
9211.000000;0.807899
9210.000000;0.808046
9209.000000;0.807720
9208.000000;0.806939
9207.000000;0.806067
9206.000000;0.805498
9205.000000;0.805388
9204.000000;0.805640
9203.000000;0.806005
9202.000000;0.806195
9201.000000;0.806047
9200.000000;0.805660
9199.000000;0.805336
9198.000000;0.805315
9197.000000;0.805585
9196.000000;0.805939
9195.000000;0.806154
9194.000000;0.806118
9193.000000;0.805872
9192.000000;0.805560
9191.000000;0.805302
9190.000000;0.805099
9189.000000;0.804892
9188.000000;0.804701
9187.000000;0.804630
9186.000000;0.804724
9185.000000;0.804918
9184.000000;0.805113
9183.000000;0.805247
9182.000000;0.805251
9181.000000;0.805049
9180.000000;0.804658
9179.000000;0.804229
9178.000000;0.803933
9177.000000;0.803808
9176.000000;0.803768
9175.000000;0.803720
9174.000000;0.803653
9173.000000;0.803620
9172.000000;0.803660
9171.000000;0.803737
9170.000000;0.803749
9169.000000;0.803650
9168.000000;0.803519
9167.000000;0.803496
9166.000000;0.803640
9165.000000;0.803868
9164.000000;0.804016
9163.000000;0.803931
9162.000000;0.803585
9161.000000;0.803186
9160.000000;0.803099
9159.000000;0.803504
9158.000000;0.804142
9157.000000;0.804538
9156.000000;0.804483
9155.000000;0.804169
9154.000000;0.803853
9153.000000;0.803580
9152.000000;0.803311
9151.000000;0.803125
9150.000000;0.803112
9149.000000;0.803165
9148.000000;0.803064
9147.000000;0.802730
9146.000000;0.802311
9145.000000;0.802008
9144.000000;0.801912
9143.000000;0.801968
9142.000000;0.802035
9141.000000;0.801995
9140.000000;0.801864
9139.000000;0.801777
9138.000000;0.801825
9137.000000;0.801960
9136.000000;0.802109
9135.000000;0.802280
9134.000000;0.802488
9133.000000;0.802650
9132.000000;0.802641
9131.000000;0.802412
9130.000000;0.801991
9129.000000;0.801424
9128.000000;0.800845
9127.000000;0.800510
9126.000000;0.800604
9125.000000;0.801002
9124.000000;0.801347
9123.000000;0.801391
9122.000000;0.801170
9121.000000;0.800878
9120.000000;0.800690
9119.000000;0.800708
9118.000000;0.800922
9117.000000;0.801186
9116.000000;0.801336
9115.000000;0.801391
9114.000000;0.801532
9113.000000;0.801813
9112.000000;0.802006
9111.000000;0.801848
9110.000000;0.801380
9109.000000;0.800916
9108.000000;0.800693
9107.000000;0.800677
9106.000000;0.800688
9105.000000;0.800626
9104.000000;0.800528
9103.000000;0.800481
9102.000000;0.800544
9101.000000;0.800719
9100.000000;0.800926
9099.000000;0.801019
9098.000000;0.800879
9097.000000;0.800517
9096.000000;0.800051
9095.000000;0.799584
9094.000000;0.799159
9093.000000;0.798835
9092.000000;0.798730
9091.000000;0.798903
9090.000000;0.799221
9089.000000;0.799443
9088.000000;0.799459
9087.000000;0.799383
9086.000000;0.799398
9085.000000;0.799537
9084.000000;0.799652
9083.000000;0.799573
9082.000000;0.799289
9081.000000;0.798986
9080.000000;0.798888
9079.000000;0.799020
9078.000000;0.799139
9077.000000;0.798996
9076.000000;0.798628
9075.000000;0.798298
9074.000000;0.798148
9073.000000;0.798062
9072.000000;0.797905
9071.000000;0.797746
9070.000000;0.797727
9069.000000;0.797806
9068.000000;0.797802
9067.000000;0.797656
9066.000000;0.797502
9065.000000;0.797482
9064.000000;0.797620
9063.000000;0.797863
9062.000000;0.798146
9061.000000;0.798360
9060.000000;0.798358
9059.000000;0.798080
9058.000000;0.797647
9057.000000;0.797279
9056.000000;0.797125
9055.000000;0.797164
9054.000000;0.797252
9053.000000;0.797257
