Criado como novo conjunto de dados;"2706_e01_daniel.spp","90546.5 Secs"
cm-1;Abs
10000.000000;0.656707
9999.000000;0.656037
9998.000000;0.655364
9997.000000;0.654700
9996.000000;0.654019
9995.000000;0.653445
9994.000000;0.653072
9993.000000;0.652785
9992.000000;0.652465
9991.000000;0.652097
9990.000000;0.651820
9989.000000;0.651917
9988.000000;0.652607
9987.000000;0.653698
9986.000000;0.654608
9985.000000;0.654907
9984.000000;0.654754
9983.000000;0.654618
9982.000000;0.654703
9981.000000;0.654865
9980.000000;0.654972
9979.000000;0.655061
9978.000000;0.655149
9977.000000;0.655154
9976.000000;0.655038
9975.000000;0.654869
9974.000000;0.654730
9973.000000;0.654705
9972.000000;0.654921
9971.000000;0.655399
9970.000000;0.655882
9969.000000;0.655994
9968.000000;0.655636
9967.000000;0.655078
9966.000000;0.654651
9965.000000;0.654461
9964.000000;0.654399
9963.000000;0.654312
9962.000000;0.654117
9961.000000;0.653834
9960.000000;0.653541
9959.000000;0.653291
9958.000000;0.653101
9957.000000;0.653024
9956.000000;0.653117
9955.000000;0.653296
9954.000000;0.653351
9953.000000;0.653196
9952.000000;0.653015
9951.000000;0.653034
9950.000000;0.653236
9949.000000;0.653382
9948.000000;0.653245
9947.000000;0.652784
9946.000000;0.652236
9945.000000;0.652019
9944.000000;0.652331
9943.000000;0.652767
9942.000000;0.652614
9941.000000;0.651701
9940.000000;0.650689
9939.000000;0.650308
9938.000000;0.650585
9937.000000;0.651052
9936.000000;0.651430
9935.000000;0.651713
9934.000000;0.651784
9933.000000;0.651422
9932.000000;0.650704
9931.000000;0.650043
9930.000000;0.649765
9929.000000;0.649912
9928.000000;0.650427
9927.000000;0.651225
9926.000000;0.651999
9925.000000;0.652247
9924.000000;0.651671
9923.000000;0.650461
9922.000000;0.649109
9921.000000;0.648071
9920.000000;0.647577
9919.000000;0.647597
9918.000000;0.647911
9917.000000;0.648312
9916.000000;0.648750
9915.000000;0.649252
9914.000000;0.649747
9913.000000;0.650102
9912.000000;0.650293
9911.000000;0.650419
9910.000000;0.650547
9909.000000;0.650596
9908.000000;0.650365
9907.000000;0.649694
9906.000000;0.648679
9905.000000;0.647731
9904.000000;0.647257
9903.000000;0.647237
9902.000000;0.647289
9901.000000;0.647177
9900.000000;0.647045
9899.000000;0.647060
9898.000000;0.647125
9897.000000;0.647116
9896.000000;0.647167
9895.000000;0.647465
9894.000000;0.647942
9893.000000;0.648353
9892.000000;0.648527
9891.000000;0.648396
9890.000000;0.647993
9889.000000;0.647575
9888.000000;0.647497
9887.000000;0.647746
9886.000000;0.647838
9885.000000;0.647438
9884.000000;0.646813
9883.000000;0.646392
9882.000000;0.646156
9881.000000;0.645852
9880.000000;0.645572
9879.000000;0.645667
9878.000000;0.646182
9877.000000;0.646805
9876.000000;0.647293
9875.000000;0.647572
9874.000000;0.647463
9873.000000;0.646780
9872.000000;0.645717
9871.000000;0.644782
9870.000000;0.644258
9869.000000;0.644016
9868.000000;0.643885
9867.000000;0.643880
9866.000000;0.644011
9865.000000;0.644155
9864.000000;0.644215
9863.000000;0.644226
9862.000000;0.644247
9861.000000;0.644324
9860.000000;0.644541
9859.000000;0.644903
9858.000000;0.645175
9857.000000;0.645063
9856.000000;0.644600
9855.000000;0.644173
9854.000000;0.644137
9853.000000;0.644504
9852.000000;0.644985
9851.000000;0.645222
9850.000000;0.645051
9849.000000;0.644687
9848.000000;0.644536
9847.000000;0.644686
9846.000000;0.644731
9845.000000;0.644304
9844.000000;0.643601
9843.000000;0.643112
9842.000000;0.643000
9841.000000;0.643054
9840.000000;0.643131
9839.000000;0.643265
9838.000000;0.643401
9837.000000;0.643396
9836.000000;0.643311
9835.000000;0.643371
9834.000000;0.643584
9833.000000;0.643656
9832.000000;0.643350
9831.000000;0.642735
9830.000000;0.642059
9829.000000;0.641526
9828.000000;0.641172
9827.000000;0.640768
9826.000000;0.639980
9825.000000;0.638821
9824.000000;0.637827
9823.000000;0.637523
9822.000000;0.637835
9821.000000;0.638300
9820.000000;0.638698
9819.000000;0.639111
9818.000000;0.639476
9817.000000;0.639547
9816.000000;0.639331
9815.000000;0.639141
9814.000000;0.639151
9813.000000;0.639265
9812.000000;0.639470
9811.000000;0.639930
9810.000000;0.640584
9809.000000;0.641027
9808.000000;0.640978
9807.000000;0.640597
9806.000000;0.640189
9805.000000;0.639840
9804.000000;0.639502
9803.000000;0.639197
9802.000000;0.638968
9801.000000;0.638834
9800.000000;0.638884
9799.000000;0.639229
9798.000000;0.639767
9797.000000;0.640151
9796.000000;0.640142
9795.000000;0.639829
9794.000000;0.639428
9793.000000;0.639040
9792.000000;0.638690
9791.000000;0.638430
9790.000000;0.638283
9789.000000;0.638169
9788.000000;0.638006
9787.000000;0.637775
9786.000000;0.637493
9785.000000;0.637226
9784.000000;0.637134
9783.000000;0.637318
9782.000000;0.637609
9781.000000;0.637662
9780.000000;0.637325
9779.000000;0.636781
9778.000000;0.636323
9777.000000;0.636131
9776.000000;0.636276
9775.000000;0.636754
9774.000000;0.637411
9773.000000;0.638000
9772.000000;0.638362
9771.000000;0.638493
9770.000000;0.638417
9769.000000;0.638167
9768.000000;0.637877
9767.000000;0.637727
9766.000000;0.637751
9765.000000;0.637819
9764.000000;0.637830
9763.000000;0.637819
9762.000000;0.637843
9761.000000;0.637881
9760.000000;0.637872
9759.000000;0.637764
9758.000000;0.637536
9757.000000;0.637229
9756.000000;0.636931
9755.000000;0.636650
9754.000000;0.636312
9753.000000;0.635956
9752.000000;0.635792
9751.000000;0.635884
9750.000000;0.635898
9749.000000;0.635417
9748.000000;0.634474
9747.000000;0.633555
9746.000000;0.633110
9745.000000;0.633213
9744.000000;0.633638
9743.000000;0.634069
9742.000000;0.634265
9741.000000;0.634234
9740.000000;0.634218
9739.000000;0.634376
9738.000000;0.634562
9737.000000;0.634576
9736.000000;0.634507
9735.000000;0.634577
9734.000000;0.634744
9733.000000;0.634747
9732.000000;0.634511
9731.000000;0.634217
9730.000000;0.633980
9729.000000;0.633749
9728.000000;0.633520
9727.000000;0.633371
9726.000000;0.633243
9725.000000;0.632966
9724.000000;0.632550
9723.000000;0.632206
9722.000000;0.632035
9721.000000;0.631934
9720.000000;0.631850
9719.000000;0.631856
9718.000000;0.631894
9717.000000;0.631730
9716.000000;0.631315
9715.000000;0.630960
9714.000000;0.630987
9713.000000;0.631350
9712.000000;0.631759
9711.000000;0.632063
9710.000000;0.632360
9709.000000;0.632805
9708.000000;0.633378
9707.000000;0.633842
9706.000000;0.633898
9705.000000;0.633463
9704.000000;0.632774
9703.000000;0.632158
9702.000000;0.631753
9701.000000;0.631540
9700.000000;0.631546
9699.000000;0.631818
9698.000000;0.632227
9697.000000;0.632515
9696.000000;0.632571
9695.000000;0.632490
9694.000000;0.632366
9693.000000;0.632188
9692.000000;0.631978
9691.000000;0.631826
9690.000000;0.631754
9689.000000;0.631663
9688.000000;0.631492
9687.000000;0.631301
9686.000000;0.631165
9685.000000;0.631071
9684.000000;0.630984
9683.000000;0.630925
9682.000000;0.630974
9681.000000;0.631184
9680.000000;0.631479
9679.000000;0.631627
9678.000000;0.631410
9677.000000;0.630872
9676.000000;0.630257
9675.000000;0.629666
9674.000000;0.628983
9673.000000;0.628252
9672.000000;0.627847
9671.000000;0.628011
9670.000000;0.628429
9669.000000;0.628570
9668.000000;0.628329
9667.000000;0.628019
9666.000000;0.627834
9665.000000;0.627677
9664.000000;0.627510
9663.000000;0.627509
9662.000000;0.627778
9661.000000;0.628179
9660.000000;0.628514
9659.000000;0.628703
9658.000000;0.628767
9657.000000;0.628795
9656.000000;0.628927
9655.000000;0.629164
9654.000000;0.629263
9653.000000;0.629030
9652.000000;0.628678
9651.000000;0.628585
9650.000000;0.628745
9649.000000;0.628743
9648.000000;0.628339
9647.000000;0.627773
9646.000000;0.627387
9645.000000;0.627198
9644.000000;0.626969
9643.000000;0.626541
9642.000000;0.625990
9641.000000;0.625558
9640.000000;0.625467
9639.000000;0.625666
9638.000000;0.625791
9637.000000;0.625544
9636.000000;0.625063
9635.000000;0.624742
9634.000000;0.624730
9633.000000;0.624844
9632.000000;0.624923
9631.000000;0.624964
9630.000000;0.624916
9629.000000;0.624623
9628.000000;0.624092
9627.000000;0.623575
9626.000000;0.623305
9625.000000;0.623334
9624.000000;0.623635
9623.000000;0.624152
9622.000000;0.624705
9621.000000;0.625077
9620.000000;0.625263
9619.000000;0.625407
9618.000000;0.625485
9617.000000;0.625308
9616.000000;0.624903
9615.000000;0.624616
9614.000000;0.624692
9613.000000;0.624972
9612.000000;0.625140
9611.000000;0.625079
9610.000000;0.624887
9609.000000;0.624686
9608.000000;0.624548
9607.000000;0.624475
9606.000000;0.624390
9605.000000;0.624235
9604.000000;0.624098
9603.000000;0.624082
9602.000000;0.624089
9601.000000;0.623940
9600.000000;0.623707
9599.000000;0.623667
9598.000000;0.623853
9597.000000;0.623956
9596.000000;0.623749
9595.000000;0.623367
9594.000000;0.623029
9593.000000;0.622725
9592.000000;0.622369
9591.000000;0.622054
9590.000000;0.621936
9589.000000;0.621984
9588.000000;0.622009
9587.000000;0.621900
9586.000000;0.621721
9585.000000;0.621630
9584.000000;0.621749
9583.000000;0.622009
9582.000000;0.622130
9581.000000;0.621909
9580.000000;0.621540
9579.000000;0.621459
9578.000000;0.621797
9577.000000;0.622187
9576.000000;0.622209
9575.000000;0.621851
9574.000000;0.621421
9573.000000;0.621203
9572.000000;0.621322
9571.000000;0.621748
9570.000000;0.622251
9569.000000;0.622473
9568.000000;0.622265
9567.000000;0.621862
9566.000000;0.621610
9565.000000;0.621570
9564.000000;0.621535
9563.000000;0.621338
9562.000000;0.621001
9561.000000;0.620642
9560.000000;0.620383
9559.000000;0.620345
9558.000000;0.620604
9557.000000;0.621114
9556.000000;0.621704
9555.000000;0.622139
9554.000000;0.622204
9553.000000;0.621816
9552.000000;0.621126
9551.000000;0.620445
9550.000000;0.619997
9549.000000;0.619761
9548.000000;0.619542
9547.000000;0.619190
9546.000000;0.618756
9545.000000;0.618474
9544.000000;0.618550
9543.000000;0.618899
9542.000000;0.619170
9541.000000;0.619101
9540.000000;0.618809
9539.000000;0.618607
9538.000000;0.618638
9537.000000;0.618835
9536.000000;0.619128
9535.000000;0.619422
9534.000000;0.619461
9533.000000;0.619022
9532.000000;0.618303
9531.000000;0.617816
9530.000000;0.617788
9529.000000;0.617928
9528.000000;0.617909
9527.000000;0.617825
9526.000000;0.617978
9525.000000;0.618401
9524.000000;0.618838
9523.000000;0.619067
9522.000000;0.619057
9521.000000;0.618867
9520.000000;0.618572
9519.000000;0.618253
9518.000000;0.617929
9517.000000;0.617531
9516.000000;0.617033
9515.000000;0.616534
9514.000000;0.616134
9513.000000;0.615823
9512.000000;0.615604
9511.000000;0.615592
9510.000000;0.615836
9509.000000;0.616121
9508.000000;0.616131
9507.000000;0.615804
9506.000000;0.615379
9505.000000;0.615093
9504.000000;0.614995
9503.000000;0.615040
9502.000000;0.615225
9501.000000;0.615542
9500.000000;0.615914
9499.000000;0.616254
9498.000000;0.616541
9497.000000;0.616766
9496.000000;0.616859
9495.000000;0.616741
9494.000000;0.616460
9493.000000;0.616193
9492.000000;0.616095
9491.000000;0.616172
9490.000000;0.616329
9489.000000;0.616470
9488.000000;0.616506
9487.000000;0.616330
9486.000000;0.615925
9485.000000;0.615489
9484.000000;0.615324
9483.000000;0.615523
9482.000000;0.615844
9481.000000;0.615955
9480.000000;0.615735
9479.000000;0.615288
9478.000000;0.614758
9477.000000;0.614274
9476.000000;0.614007
9475.000000;0.614090
9474.000000;0.614423
9473.000000;0.614676
9472.000000;0.614559
9471.000000;0.614082
9470.000000;0.613523
9469.000000;0.613198
9468.000000;0.613228
9467.000000;0.613488
9466.000000;0.613723
9465.000000;0.613742
9464.000000;0.613509
9463.000000;0.613122
9462.000000;0.612759
9461.000000;0.612617
9460.000000;0.612766
9459.000000;0.613032
9458.000000;0.613126
9457.000000;0.612972
9456.000000;0.612777
9455.000000;0.612730
9454.000000;0.612756
9453.000000;0.612678
9452.000000;0.612488
9451.000000;0.612300
9450.000000;0.612143
9449.000000;0.611964
9448.000000;0.611788
9447.000000;0.611684
9446.000000;0.611619
9445.000000;0.611488
9444.000000;0.611296
9443.000000;0.611159
9442.000000;0.611123
9441.000000;0.611108
9440.000000;0.611019
9439.000000;0.610833
9438.000000;0.610598
9437.000000;0.610442
9436.000000;0.610553
9435.000000;0.611007
9434.000000;0.611619
9433.000000;0.612086
9432.000000;0.612270
9431.000000;0.612257
9430.000000;0.612160
9429.000000;0.612008
9428.000000;0.611834
9427.000000;0.611721
9426.000000;0.611686
9425.000000;0.611616
9424.000000;0.611392
9423.000000;0.611041
9422.000000;0.610750
9421.000000;0.610702
9420.000000;0.610878
9419.000000;0.611006
9418.000000;0.610817
9417.000000;0.610369
9416.000000;0.609996
9415.000000;0.609889
9414.000000;0.609882
9413.000000;0.609743
9412.000000;0.609511
9411.000000;0.609358
9410.000000;0.609232
9409.000000;0.608912
9408.000000;0.608375
9407.000000;0.607900
9406.000000;0.607746
9405.000000;0.607899
9404.000000;0.608164
9403.000000;0.608357
9402.000000;0.608390
9401.000000;0.608288
9400.000000;0.608156
9399.000000;0.608075
9398.000000;0.608040
9397.000000;0.608070
9396.000000;0.608296
9395.000000;0.608779
9394.000000;0.609284
9393.000000;0.609437
9392.000000;0.609117
9391.000000;0.608563
9390.000000;0.608099
9389.000000;0.607905
9388.000000;0.608019
9387.000000;0.608368
9386.000000;0.608731
9385.000000;0.608845
9384.000000;0.608631
9383.000000;0.608230
9382.000000;0.607804
9381.000000;0.607418
9380.000000;0.607112
9379.000000;0.606959
9378.000000;0.606972
9377.000000;0.607058
9376.000000;0.607109
9375.000000;0.607039
9374.000000;0.606752
9373.000000;0.606229
9372.000000;0.605655
9371.000000;0.605337
9370.000000;0.605404
9369.000000;0.605689
9368.000000;0.605955
9367.000000;0.606123
9366.000000;0.606225
9365.000000;0.606257
9364.000000;0.606197
9363.000000;0.606120
9362.000000;0.606160
9361.000000;0.606358
9360.000000;0.606584
9359.000000;0.606635
9358.000000;0.606402
9357.000000;0.605984
9356.000000;0.605619
9355.000000;0.605470
9354.000000;0.605495
9353.000000;0.605558
9352.000000;0.605614
9351.000000;0.605705
9350.000000;0.605844
9349.000000;0.606001
9348.000000;0.606191
9347.000000;0.606445
9346.000000;0.606670
9345.000000;0.606681
9344.000000;0.606437
9343.000000;0.606131
9342.000000;0.605963
9341.000000;0.605907
9340.000000;0.605783
9339.000000;0.605535
9338.000000;0.605297
9337.000000;0.605179
9336.000000;0.605083
9335.000000;0.604816
9334.000000;0.604357
9333.000000;0.603889
9332.000000;0.603566
9331.000000;0.603354
9330.000000;0.603189
9329.000000;0.603188
9328.000000;0.603503
9327.000000;0.604008
9326.000000;0.604331
9325.000000;0.604256
9324.000000;0.603920
9323.000000;0.603563
9322.000000;0.603225
9321.000000;0.602856
9320.000000;0.602545
9319.000000;0.602463
9318.000000;0.602616
9317.000000;0.602811
9316.000000;0.602869
9315.000000;0.602766
9314.000000;0.602600
9313.000000;0.602497
9312.000000;0.602534
9311.000000;0.602670
9310.000000;0.602767
9309.000000;0.602731
9308.000000;0.602598
9307.000000;0.602468
9306.000000;0.602406
9305.000000;0.602425
9304.000000;0.602482
9303.000000;0.602445
9302.000000;0.602204
9301.000000;0.601866
9300.000000;0.601698
9299.000000;0.601786
9298.000000;0.601886
9297.000000;0.601725
9296.000000;0.601325
9295.000000;0.600906
9294.000000;0.600590
9293.000000;0.600373
9292.000000;0.600285
9291.000000;0.600389
9290.000000;0.600659
9289.000000;0.601004
9288.000000;0.601379
9287.000000;0.601743
9286.000000;0.601989
9285.000000;0.602045
9284.000000;0.601995
9283.000000;0.601965
9282.000000;0.601954
9281.000000;0.601891
9280.000000;0.601791
9279.000000;0.601715
9278.000000;0.601629
9277.000000;0.601467
9276.000000;0.601269
9275.000000;0.601111
9274.000000;0.600958
9273.000000;0.600739
9272.000000;0.600536
9271.000000;0.600517
9270.000000;0.600695
9269.000000;0.600911
9268.000000;0.601027
9267.000000;0.601014
9266.000000;0.600867
9265.000000;0.600579
9264.000000;0.600196
9263.000000;0.599745
9262.000000;0.599159
9261.000000;0.598402
9260.000000;0.597651
9259.000000;0.597184
9258.000000;0.597085
9257.000000;0.597181
9256.000000;0.597286
9255.000000;0.597365
9254.000000;0.597455
9253.000000;0.597553
9252.000000;0.597641
9251.000000;0.597742
9250.000000;0.597910
9249.000000;0.598204
9248.000000;0.598629
9247.000000;0.599053
9246.000000;0.599256
9245.000000;0.599136
9244.000000;0.598823
9243.000000;0.598515
9242.000000;0.598275
9241.000000;0.598079
9240.000000;0.597971
9239.000000;0.598010
9238.000000;0.598141
9237.000000;0.598232
9236.000000;0.598216
9235.000000;0.598084
9234.000000;0.597813
9233.000000;0.597437
9232.000000;0.597127
9231.000000;0.597023
9230.000000;0.597022
9229.000000;0.596889
9228.000000;0.596539
9227.000000;0.596096
9226.000000;0.595731
9225.000000;0.595572
9224.000000;0.595723
9223.000000;0.596163
9222.000000;0.596647
9221.000000;0.596856
9220.000000;0.596702
9219.000000;0.596364
9218.000000;0.596053
9217.000000;0.595856
9216.000000;0.595777
9215.000000;0.595784
9214.000000;0.595813
9213.000000;0.595856
9212.000000;0.595999
9211.000000;0.596253
9210.000000;0.596411
9209.000000;0.596239
9208.000000;0.595807
9207.000000;0.595435
9206.000000;0.595311
9205.000000;0.595329
9204.000000;0.595318
9203.000000;0.595249
9202.000000;0.595161
9201.000000;0.595038
9200.000000;0.594857
9199.000000;0.594649
9198.000000;0.594455
9197.000000;0.594261
9196.000000;0.594031
9195.000000;0.593759
9194.000000;0.593499
9193.000000;0.593344
9192.000000;0.593360
9191.000000;0.593475
9190.000000;0.593502
9189.000000;0.593340
9188.000000;0.593106
9187.000000;0.592997
9186.000000;0.593107
9185.000000;0.593441
9184.000000;0.593999
9183.000000;0.594710
9182.000000;0.595350
9181.000000;0.595708
9180.000000;0.595796
9179.000000;0.595788
9178.000000;0.595792
9177.000000;0.595821
9176.000000;0.595895
9175.000000;0.595988
9174.000000;0.595939
9173.000000;0.595591
9172.000000;0.595001
9171.000000;0.594354
9170.000000;0.593723
9169.000000;0.593086
9168.000000;0.592532
9167.000000;0.592230
9166.000000;0.592167
9165.000000;0.592123
9164.000000;0.591967
9163.000000;0.591818
9162.000000;0.591864
9161.000000;0.592148
9160.000000;0.592579
9159.000000;0.593016
9158.000000;0.593297
9157.000000;0.593324
9156.000000;0.593179
9155.000000;0.593058
9154.000000;0.593052
9153.000000;0.593071
9152.000000;0.592997
9151.000000;0.592821
9150.000000;0.592615
9149.000000;0.592458
9148.000000;0.592396
9147.000000;0.592392
9146.000000;0.592318
9145.000000;0.592089
9144.000000;0.591793
9143.000000;0.591597
9142.000000;0.591550
9141.000000;0.591549
9140.000000;0.591481
9139.000000;0.591300
9138.000000;0.591015
9137.000000;0.590704
9136.000000;0.590504
9135.000000;0.590462
9134.000000;0.590435
9133.000000;0.590258
9132.000000;0.589964
9131.000000;0.589716
9130.000000;0.589580
9129.000000;0.589524
9128.000000;0.589597
9127.000000;0.589903
9126.000000;0.590360
9125.000000;0.590696
9124.000000;0.590746
9123.000000;0.590608
9122.000000;0.590459
9121.000000;0.590348
9120.000000;0.590251
9119.000000;0.590196
9118.000000;0.590237
9117.000000;0.590361
9116.000000;0.590491
9115.000000;0.590546
9114.000000;0.590485
9113.000000;0.590328
9112.000000;0.590151
9111.000000;0.590017
9110.000000;0.589888
9109.000000;0.589665
9108.000000;0.589306
9107.000000;0.588867
9106.000000;0.588485
9105.000000;0.588319
9104.000000;0.588445
9103.000000;0.588743
9102.000000;0.588965
9101.000000;0.588994
9100.000000;0.588943
9099.000000;0.588932
9098.000000;0.588894
9097.000000;0.588757
9096.000000;0.588690
9095.000000;0.588930
9094.000000;0.589412
9093.000000;0.589786
9092.000000;0.589822
9091.000000;0.589615
9090.000000;0.589357
9089.000000;0.589106
9088.000000;0.588839
9087.000000;0.588582
9086.000000;0.588394
9085.000000;0.588293
9084.000000;0.588244
9083.000000;0.588171
9082.000000;0.587980
9081.000000;0.587668
9080.000000;0.587398
9079.000000;0.587372
9078.000000;0.587598
9077.000000;0.587862
9076.000000;0.587933
9075.000000;0.587731
9074.000000;0.587329
9073.000000;0.586912
9072.000000;0.586699
9071.000000;0.586784
9070.000000;0.587034
9069.000000;0.587208
9068.000000;0.587181
9067.000000;0.586992
9066.000000;0.586743
9065.000000;0.586550
9064.000000;0.586536
9063.000000;0.586724
9062.000000;0.586942
9061.000000;0.586953
9060.000000;0.586686
9059.000000;0.586280
9058.000000;0.585922
9057.000000;0.585739
9056.000000;0.585766
9055.000000;0.585917
9054.000000;0.585999
9053.000000;0.585903
