Criado como novo conjunto de dados;"2706_e01_daniel.spp","36543.9 Secs"
cm-1;Abs
10000.000000;0.687874
9999.000000;0.687773
9998.000000;0.687636
9997.000000;0.687364
9996.000000;0.686975
9995.000000;0.686467
9994.000000;0.685794
9993.000000;0.685043
9992.000000;0.684393
9991.000000;0.683968
9990.000000;0.683787
9989.000000;0.683852
9988.000000;0.684116
9987.000000;0.684382
9986.000000;0.684373
9985.000000;0.683943
9984.000000;0.683194
9983.000000;0.682414
9982.000000;0.681930
9981.000000;0.681861
9980.000000;0.681939
9979.000000;0.681739
9978.000000;0.681251
9977.000000;0.681016
9976.000000;0.681472
9975.000000;0.682352
9974.000000;0.683003
9973.000000;0.683182
9972.000000;0.683181
9971.000000;0.683264
9970.000000;0.683381
9969.000000;0.683460
9968.000000;0.683568
9967.000000;0.683645
9966.000000;0.683438
9965.000000;0.682862
9964.000000;0.682219
9963.000000;0.681893
9962.000000;0.681989
9961.000000;0.682365
9960.000000;0.682822
9959.000000;0.683163
9958.000000;0.683269
9957.000000;0.683214
9956.000000;0.683164
9955.000000;0.683100
9954.000000;0.682846
9953.000000;0.682419
9952.000000;0.682108
9951.000000;0.682075
9950.000000;0.682103
9949.000000;0.681899
9948.000000;0.681493
9947.000000;0.681144
9946.000000;0.680992
9945.000000;0.680950
9944.000000;0.680850
9943.000000;0.680552
9942.000000;0.679994
9941.000000;0.679267
9940.000000;0.678609
9939.000000;0.678237
9938.000000;0.678198
9937.000000;0.678415
9936.000000;0.678797
9935.000000;0.679250
9934.000000;0.679692
9933.000000;0.680085
9932.000000;0.680402
9931.000000;0.680542
9930.000000;0.680388
9929.000000;0.679981
9928.000000;0.679538
9927.000000;0.679259
9926.000000;0.679181
9925.000000;0.679221
9924.000000;0.679233
9923.000000;0.679045
9922.000000;0.678623
9921.000000;0.678193
9920.000000;0.678046
9919.000000;0.678187
9918.000000;0.678336
9917.000000;0.678319
9916.000000;0.678264
9915.000000;0.678313
9914.000000;0.678345
9913.000000;0.678167
9912.000000;0.677872
9911.000000;0.677810
9910.000000;0.678158
9909.000000;0.678620
9908.000000;0.678636
9907.000000;0.677946
9906.000000;0.676955
9905.000000;0.676435
9904.000000;0.676776
9903.000000;0.677554
9902.000000;0.677968
9901.000000;0.677636
9900.000000;0.676877
9899.000000;0.676299
9898.000000;0.676282
9897.000000;0.676801
9896.000000;0.677482
9895.000000;0.677820
9894.000000;0.677537
9893.000000;0.676803
9892.000000;0.676016
9891.000000;0.675406
9890.000000;0.675007
9889.000000;0.674906
9888.000000;0.675228
9887.000000;0.675851
9886.000000;0.676397
9885.000000;0.676600
9884.000000;0.676483
9883.000000;0.676155
9882.000000;0.675666
9881.000000;0.675149
9880.000000;0.674847
9879.000000;0.674855
9878.000000;0.675016
9877.000000;0.675159
9876.000000;0.675262
9875.000000;0.675306
9874.000000;0.675178
9873.000000;0.674897
9872.000000;0.674726
9871.000000;0.674886
9870.000000;0.675277
9869.000000;0.675590
9868.000000;0.675588
9867.000000;0.675180
9866.000000;0.674445
9865.000000;0.673673
9864.000000;0.673217
9863.000000;0.673132
9862.000000;0.673101
9861.000000;0.672897
9860.000000;0.672718
9859.000000;0.672888
9858.000000;0.673381
9857.000000;0.673874
9856.000000;0.674168
9855.000000;0.674299
9854.000000;0.674325
9853.000000;0.674253
9852.000000;0.674180
9851.000000;0.674223
9850.000000;0.674286
9849.000000;0.674100
9848.000000;0.673573
9847.000000;0.672930
9846.000000;0.672459
9845.000000;0.672267
9844.000000;0.672380
9843.000000;0.672860
9842.000000;0.673644
9841.000000;0.674330
9840.000000;0.674372
9839.000000;0.673588
9838.000000;0.672369
9837.000000;0.671332
9836.000000;0.670808
9835.000000;0.670710
9834.000000;0.670784
9833.000000;0.670852
9832.000000;0.670853
9831.000000;0.670800
9830.000000;0.670752
9829.000000;0.670762
9828.000000;0.670773
9827.000000;0.670650
9826.000000;0.670383
9825.000000;0.670174
9824.000000;0.670233
9823.000000;0.670536
9822.000000;0.670875
9821.000000;0.671091
9820.000000;0.671139
9819.000000;0.670971
9818.000000;0.670545
9817.000000;0.669970
9816.000000;0.669531
9815.000000;0.669440
9814.000000;0.669595
9813.000000;0.669655
9812.000000;0.669400
9811.000000;0.669019
9810.000000;0.668960
9809.000000;0.669416
9808.000000;0.669998
9807.000000;0.670075
9806.000000;0.669477
9805.000000;0.668671
9804.000000;0.668175
9803.000000;0.667988
9802.000000;0.667769
9801.000000;0.667407
9800.000000;0.667136
9799.000000;0.667126
9798.000000;0.667257
9797.000000;0.667332
9796.000000;0.667354
9795.000000;0.667486
9794.000000;0.667850
9793.000000;0.668386
9792.000000;0.668851
9791.000000;0.668946
9790.000000;0.668568
9789.000000;0.667935
9788.000000;0.667411
9787.000000;0.667211
9786.000000;0.667338
9785.000000;0.667708
9784.000000;0.668179
9783.000000;0.668521
9782.000000;0.668532
9781.000000;0.668195
9780.000000;0.667647
9779.000000;0.667039
9778.000000;0.666525
9777.000000;0.666287
9776.000000;0.666380
9775.000000;0.666570
9774.000000;0.666542
9773.000000;0.666258
9772.000000;0.665955
9771.000000;0.665802
9770.000000;0.665728
9769.000000;0.665612
9768.000000;0.665460
9767.000000;0.665350
9766.000000;0.665328
9765.000000;0.665380
9764.000000;0.665427
9763.000000;0.665346
9762.000000;0.665127
9761.000000;0.664954
9760.000000;0.665017
9759.000000;0.665283
9758.000000;0.665590
9757.000000;0.665884
9756.000000;0.666168
9755.000000;0.666285
9754.000000;0.666060
9753.000000;0.665611
9752.000000;0.665254
9751.000000;0.665041
9750.000000;0.664702
9749.000000;0.664155
9748.000000;0.663756
9747.000000;0.663873
9746.000000;0.664394
9745.000000;0.664869
9744.000000;0.665018
9743.000000;0.664919
9742.000000;0.664796
9741.000000;0.664776
9740.000000;0.664808
9739.000000;0.664707
9738.000000;0.664341
9737.000000;0.663829
9736.000000;0.663481
9735.000000;0.663464
9734.000000;0.663617
9733.000000;0.663653
9732.000000;0.663458
9731.000000;0.663106
9730.000000;0.662724
9729.000000;0.662433
9728.000000;0.662350
9727.000000;0.662491
9726.000000;0.662712
9725.000000;0.662830
9724.000000;0.662806
9723.000000;0.662745
9722.000000;0.662756
9721.000000;0.662859
9720.000000;0.662993
9719.000000;0.663058
9718.000000;0.662987
9717.000000;0.662785
9716.000000;0.662493
9715.000000;0.662100
9714.000000;0.661583
9713.000000;0.661020
9712.000000;0.660587
9711.000000;0.660401
9710.000000;0.660448
9709.000000;0.660677
9708.000000;0.661065
9707.000000;0.661533
9706.000000;0.661882
9705.000000;0.661903
9704.000000;0.661552
9703.000000;0.661000
9702.000000;0.660539
9701.000000;0.660429
9700.000000;0.660725
9699.000000;0.661209
9698.000000;0.661532
9697.000000;0.661494
9696.000000;0.661167
9695.000000;0.660776
9694.000000;0.660470
9693.000000;0.660244
9692.000000;0.660048
9691.000000;0.659939
9690.000000;0.660083
9689.000000;0.660537
9688.000000;0.661061
9687.000000;0.661268
9686.000000;0.661004
9685.000000;0.660504
9684.000000;0.660085
9683.000000;0.659823
9682.000000;0.659607
9681.000000;0.659374
9680.000000;0.659118
9679.000000;0.658796
9678.000000;0.658424
9677.000000;0.658213
9676.000000;0.658388
9675.000000;0.658880
9674.000000;0.659367
9673.000000;0.659646
9672.000000;0.659777
9671.000000;0.659853
9670.000000;0.659836
9669.000000;0.659676
9668.000000;0.659442
9667.000000;0.659227
9666.000000;0.659030
9665.000000;0.658777
9664.000000;0.658421
9663.000000;0.657986
9662.000000;0.657598
9661.000000;0.657456
9660.000000;0.657654
9659.000000;0.658062
9658.000000;0.658458
9657.000000;0.658737
9656.000000;0.658890
9655.000000;0.658838
9654.000000;0.658490
9653.000000;0.657963
9652.000000;0.657558
9651.000000;0.657463
9650.000000;0.657605
9649.000000;0.657786
9648.000000;0.657823
9647.000000;0.657583
9646.000000;0.657055
9645.000000;0.656442
9644.000000;0.655998
9643.000000;0.655750
9642.000000;0.655522
9641.000000;0.655273
9640.000000;0.655218
9639.000000;0.655532
9638.000000;0.656097
9637.000000;0.656635
9636.000000;0.656948
9635.000000;0.656992
9634.000000;0.656842
9633.000000;0.656673
9632.000000;0.656647
9631.000000;0.656716
9630.000000;0.656666
9629.000000;0.656408
9628.000000;0.656122
9627.000000;0.656015
9626.000000;0.656086
9625.000000;0.656210
9624.000000;0.656306
9623.000000;0.656323
9622.000000;0.656187
9621.000000;0.655930
9620.000000;0.655760
9619.000000;0.655839
9618.000000;0.656054
9617.000000;0.656151
9616.000000;0.656046
9615.000000;0.655857
9614.000000;0.655656
9613.000000;0.655383
9612.000000;0.655030
9611.000000;0.654755
9610.000000;0.654707
9609.000000;0.654817
9608.000000;0.654865
9607.000000;0.654731
9606.000000;0.654517
9605.000000;0.654390
9604.000000;0.654351
9603.000000;0.654224
9602.000000;0.653874
9601.000000;0.653405
9600.000000;0.653073
9599.000000;0.653029
9598.000000;0.653197
9597.000000;0.653412
9596.000000;0.653575
9595.000000;0.653658
9594.000000;0.653622
9593.000000;0.653435
9592.000000;0.653161
9591.000000;0.652955
9590.000000;0.652906
9589.000000;0.652946
9588.000000;0.652949
9587.000000;0.652931
9586.000000;0.653046
9585.000000;0.653355
9584.000000;0.653664
9583.000000;0.653705
9582.000000;0.653434
9581.000000;0.653052
9580.000000;0.652739
9579.000000;0.652500
9578.000000;0.652301
9577.000000;0.652201
9576.000000;0.652259
9575.000000;0.652402
9574.000000;0.652499
9573.000000;0.652496
9572.000000;0.652398
9571.000000;0.652200
9570.000000;0.651956
9569.000000;0.651826
9568.000000;0.651908
9567.000000;0.652045
9566.000000;0.651935
9565.000000;0.651499
9564.000000;0.651016
9563.000000;0.650875
9562.000000;0.651196
9561.000000;0.651733
9560.000000;0.652100
9559.000000;0.652093
9558.000000;0.651797
9557.000000;0.651431
9556.000000;0.651151
9555.000000;0.651042
9554.000000;0.651141
9553.000000;0.651335
9552.000000;0.651300
9551.000000;0.650811
9550.000000;0.650130
9549.000000;0.649841
9548.000000;0.650205
9547.000000;0.650858
9546.000000;0.651252
9545.000000;0.651199
9544.000000;0.650845
9543.000000;0.650361
9542.000000;0.649896
9541.000000;0.649652
9540.000000;0.649709
9539.000000;0.649860
9538.000000;0.649852
9537.000000;0.649746
9536.000000;0.649792
9535.000000;0.650004
9534.000000;0.650125
9533.000000;0.649991
9532.000000;0.649722
9531.000000;0.649502
9530.000000;0.649377
9529.000000;0.649291
9528.000000;0.649188
9527.000000;0.649048
9526.000000;0.648931
9525.000000;0.648954
9524.000000;0.649100
9523.000000;0.649137
9522.000000;0.648899
9521.000000;0.648561
9520.000000;0.648435
9519.000000;0.648526
9518.000000;0.648555
9517.000000;0.648412
9516.000000;0.648309
9515.000000;0.648435
9514.000000;0.648671
9513.000000;0.648771
9512.000000;0.648646
9511.000000;0.648385
9510.000000;0.648143
9509.000000;0.648045
9508.000000;0.648102
9507.000000;0.648135
9506.000000;0.647960
9505.000000;0.647654
9504.000000;0.647529
9503.000000;0.647754
9502.000000;0.648146
9501.000000;0.648392
9500.000000;0.648347
9499.000000;0.648080
9498.000000;0.647729
9497.000000;0.647407
9496.000000;0.647156
9495.000000;0.646934
9494.000000;0.646712
9493.000000;0.646580
9492.000000;0.646652
9491.000000;0.646875
9490.000000;0.647047
9489.000000;0.647041
9488.000000;0.646913
9487.000000;0.646754
9486.000000;0.646592
9485.000000;0.646464
9484.000000;0.646431
9483.000000;0.646460
9482.000000;0.646393
9481.000000;0.646138
9480.000000;0.645795
9479.000000;0.645543
9478.000000;0.645471
9477.000000;0.645550
9476.000000;0.645697
9475.000000;0.645804
9474.000000;0.645786
9473.000000;0.645659
9472.000000;0.645526
9471.000000;0.645491
9470.000000;0.645589
9469.000000;0.645765
9468.000000;0.645858
9467.000000;0.645670
9466.000000;0.645186
9465.000000;0.644655
9464.000000;0.644333
9463.000000;0.644182
9462.000000;0.643991
9461.000000;0.643745
9460.000000;0.643663
9459.000000;0.643834
9458.000000;0.644038
9457.000000;0.644018
9456.000000;0.643798
9455.000000;0.643608
9454.000000;0.643610
9453.000000;0.643780
9452.000000;0.643986
9451.000000;0.644085
9450.000000;0.644008
9449.000000;0.643822
9448.000000;0.643676
9447.000000;0.643644
9446.000000;0.643686
9445.000000;0.643739
9444.000000;0.643747
9443.000000;0.643609
9442.000000;0.643246
9441.000000;0.642775
9440.000000;0.642493
9439.000000;0.642596
9438.000000;0.642971
9437.000000;0.643329
9436.000000;0.643460
9435.000000;0.643315
9434.000000;0.642931
9433.000000;0.642386
9432.000000;0.641814
9431.000000;0.641380
9430.000000;0.641229
9429.000000;0.641426
9428.000000;0.641906
9427.000000;0.642447
9426.000000;0.642765
9425.000000;0.642688
9424.000000;0.642251
9423.000000;0.641640
9422.000000;0.641094
9421.000000;0.640828
9420.000000;0.640931
9419.000000;0.641290
9418.000000;0.641640
9417.000000;0.641776
9416.000000;0.641705
9415.000000;0.641609
9414.000000;0.641657
9413.000000;0.641855
9412.000000;0.642046
9411.000000;0.642078
9410.000000;0.641940
9409.000000;0.641728
9408.000000;0.641481
9407.000000;0.641151
9406.000000;0.640738
9405.000000;0.640379
9404.000000;0.640210
9403.000000;0.640234
9402.000000;0.640360
9401.000000;0.640508
9400.000000;0.640607
9399.000000;0.640607
9398.000000;0.640554
9397.000000;0.640567
9396.000000;0.640641
9395.000000;0.640574
9394.000000;0.640232
9393.000000;0.639786
9392.000000;0.639544
9391.000000;0.639616
9390.000000;0.639866
9389.000000;0.640132
9388.000000;0.640298
9387.000000;0.640233
9386.000000;0.639878
9385.000000;0.639395
9384.000000;0.639064
9383.000000;0.638986
9382.000000;0.639003
9381.000000;0.638917
9380.000000;0.638674
9379.000000;0.638348
9378.000000;0.638072
9377.000000;0.637999
9376.000000;0.638207
9375.000000;0.638606
9374.000000;0.639014
9373.000000;0.639295
9372.000000;0.639372
9371.000000;0.639185
9370.000000;0.638786
9369.000000;0.638414
9368.000000;0.638320
9367.000000;0.638529
9366.000000;0.638884
9365.000000;0.639255
9364.000000;0.639551
9363.000000;0.639618
9362.000000;0.639362
9361.000000;0.638933
9360.000000;0.638574
9359.000000;0.638284
9358.000000;0.637874
9357.000000;0.637364
9356.000000;0.637062
9355.000000;0.637163
9354.000000;0.637487
9353.000000;0.637740
9352.000000;0.637850
9351.000000;0.637911
9350.000000;0.637935
9349.000000;0.637818
9348.000000;0.637512
9347.000000;0.637130
9346.000000;0.636889
9345.000000;0.636957
9344.000000;0.637292
9343.000000;0.637607
9342.000000;0.637584
9341.000000;0.637159
9340.000000;0.636536
9339.000000;0.635964
9338.000000;0.635599
9337.000000;0.635518
9336.000000;0.635685
9335.000000;0.635887
9334.000000;0.635903
9333.000000;0.635780
9332.000000;0.635791
9331.000000;0.636085
9330.000000;0.636511
9329.000000;0.636822
9328.000000;0.636891
9327.000000;0.636707
9326.000000;0.636342
9325.000000;0.636005
9324.000000;0.635922
9323.000000;0.636063
9322.000000;0.636130
9321.000000;0.635918
9320.000000;0.635566
9319.000000;0.635342
9318.000000;0.635338
9317.000000;0.635457
9316.000000;0.635575
9315.000000;0.635570
9314.000000;0.635357
9313.000000;0.635014
9312.000000;0.634788
9311.000000;0.634811
9310.000000;0.634906
9309.000000;0.634831
9308.000000;0.634633
9307.000000;0.634594
9306.000000;0.634854
9305.000000;0.635230
9304.000000;0.635407
9303.000000;0.635209
9302.000000;0.634691
9301.000000;0.634080
9300.000000;0.633648
9299.000000;0.633554
9298.000000;0.633755
9297.000000;0.634071
9296.000000;0.634318
9295.000000;0.634393
9294.000000;0.634282
9293.000000;0.634048
9292.000000;0.633773
9291.000000;0.633478
9290.000000;0.633129
9289.000000;0.632746
9288.000000;0.632434
9287.000000;0.632280
9286.000000;0.632270
9285.000000;0.632355
9284.000000;0.632520
9283.000000;0.632745
9282.000000;0.632949
9281.000000;0.633043
9280.000000;0.633005
9279.000000;0.632864
9278.000000;0.632641
9277.000000;0.632370
9276.000000;0.632126
9275.000000;0.632003
9274.000000;0.632051
9273.000000;0.632245
9272.000000;0.632470
9271.000000;0.632557
9270.000000;0.632420
9269.000000;0.632179
9268.000000;0.632040
9267.000000;0.632025
9266.000000;0.631929
9265.000000;0.631615
9264.000000;0.631249
9263.000000;0.631126
9262.000000;0.631310
9261.000000;0.631584
9260.000000;0.631736
9259.000000;0.631757
9258.000000;0.631736
9257.000000;0.631663
9256.000000;0.631434
9255.000000;0.631017
9254.000000;0.630540
9253.000000;0.630210
9252.000000;0.630157
9251.000000;0.630332
9250.000000;0.630544
9249.000000;0.630595
9248.000000;0.630411
9247.000000;0.630091
9246.000000;0.629833
9245.000000;0.629789
9244.000000;0.629961
9243.000000;0.630201
9242.000000;0.630337
9241.000000;0.630314
9240.000000;0.630244
9239.000000;0.630300
9238.000000;0.630551
9237.000000;0.630862
9236.000000;0.630973
9235.000000;0.630722
9234.000000;0.630208
9233.000000;0.629711
9232.000000;0.629458
9231.000000;0.629480
9230.000000;0.629642
9229.000000;0.629778
9228.000000;0.629789
9227.000000;0.629711
9226.000000;0.629673
9225.000000;0.629747
9224.000000;0.629817
9223.000000;0.629706
9222.000000;0.629441
9221.000000;0.629257
9220.000000;0.629286
9219.000000;0.629363
9218.000000;0.629220
9217.000000;0.628807
9216.000000;0.628307
9215.000000;0.627912
9214.000000;0.627716
9213.000000;0.627745
9212.000000;0.627973
9211.000000;0.628294
9210.000000;0.628567
9209.000000;0.628685
9208.000000;0.628569
9207.000000;0.628179
9206.000000;0.627631
9205.000000;0.627209
9204.000000;0.627137
9203.000000;0.627351
9202.000000;0.627613
9201.000000;0.627804
9200.000000;0.627962
9199.000000;0.628078
9198.000000;0.628039
9197.000000;0.627813
9196.000000;0.627551
9195.000000;0.627416
9194.000000;0.627414
9193.000000;0.627412
9192.000000;0.627285
9191.000000;0.627012
9190.000000;0.626687
9189.000000;0.626450
9188.000000;0.626355
9187.000000;0.626315
9186.000000;0.626247
9185.000000;0.626232
9184.000000;0.626416
9183.000000;0.626749
9182.000000;0.626948
9181.000000;0.626788
9180.000000;0.626349
9179.000000;0.625918
9178.000000;0.625710
9177.000000;0.625733
9176.000000;0.625866
9175.000000;0.626009
9174.000000;0.626166
9173.000000;0.626398
9172.000000;0.626695
9171.000000;0.626898
9170.000000;0.626813
9169.000000;0.626418
9168.000000;0.625917
9167.000000;0.625580
9166.000000;0.625521
9165.000000;0.625641
9164.000000;0.625747
9163.000000;0.625734
9162.000000;0.625650
9161.000000;0.625592
9160.000000;0.625532
9159.000000;0.625331
9158.000000;0.624930
9157.000000;0.624472
9156.000000;0.624187
9155.000000;0.624177
9154.000000;0.624367
9153.000000;0.624593
9152.000000;0.624714
9151.000000;0.624677
9150.000000;0.624536
9149.000000;0.624381
9148.000000;0.624208
9147.000000;0.623943
9146.000000;0.623623
9145.000000;0.623449
9144.000000;0.623564
9143.000000;0.623833
9142.000000;0.623956
9141.000000;0.623774
9140.000000;0.623385
9139.000000;0.623000
9138.000000;0.622781
9137.000000;0.622791
9136.000000;0.622985
9135.000000;0.623229
9134.000000;0.623395
9133.000000;0.623460
9132.000000;0.623483
9131.000000;0.623523
9130.000000;0.623598
9129.000000;0.623670
9128.000000;0.623641
9127.000000;0.623430
9126.000000;0.623113
9125.000000;0.622889
9124.000000;0.622846
9123.000000;0.622838
9122.000000;0.622680
9121.000000;0.622393
9120.000000;0.622139
9119.000000;0.621999
9118.000000;0.621925
9117.000000;0.621877
9116.000000;0.621887
9115.000000;0.621991
9114.000000;0.622196
9113.000000;0.622461
9112.000000;0.622655
9111.000000;0.622612
9110.000000;0.622328
9109.000000;0.622028
9108.000000;0.621927
9107.000000;0.621980
9106.000000;0.621989
9105.000000;0.621897
9104.000000;0.621807
9103.000000;0.621767
9102.000000;0.621682
9101.000000;0.621474
9100.000000;0.621211
9099.000000;0.621047
9098.000000;0.621077
9097.000000;0.621244
9096.000000;0.621326
9095.000000;0.621087
9094.000000;0.620532
9093.000000;0.619961
9092.000000;0.619684
9091.000000;0.619739
9090.000000;0.619958
9089.000000;0.620212
9088.000000;0.620452
9087.000000;0.620600
9086.000000;0.620583
9085.000000;0.620442
9084.000000;0.620282
9083.000000;0.620148
9082.000000;0.620053
9081.000000;0.620048
9080.000000;0.620116
9079.000000;0.620070
9078.000000;0.619765
9077.000000;0.619341
9076.000000;0.619086
9075.000000;0.619080
9074.000000;0.619164
9073.000000;0.619222
9072.000000;0.619261
9071.000000;0.619228
9070.000000;0.619012
9069.000000;0.618687
9068.000000;0.618530
9067.000000;0.618695
9066.000000;0.619023
9065.000000;0.619286
9064.000000;0.619446
9063.000000;0.619572
9062.000000;0.619639
9061.000000;0.619556
9060.000000;0.619322
9059.000000;0.619039
9058.000000;0.618820
9057.000000;0.618731
9056.000000;0.618781
9055.000000;0.618889
9054.000000;0.618921
9053.000000;0.618826
