Criado como novo conjunto de dados;"2706_e01_daniel.spp","32043.9 Secs"
cm-1;Abs
10000.000000;0.786372
9999.000000;0.786607
9998.000000;0.786374
9997.000000;0.785852
9996.000000;0.785227
9995.000000;0.784506
9994.000000;0.783825
9993.000000;0.783387
9992.000000;0.783392
9991.000000;0.783838
9990.000000;0.784500
9989.000000;0.785027
9988.000000;0.785227
9987.000000;0.785233
9986.000000;0.785290
9985.000000;0.785367
9984.000000;0.785169
9983.000000;0.784604
9982.000000;0.784014
9981.000000;0.783773
9980.000000;0.783863
9979.000000;0.784013
9978.000000;0.784092
9977.000000;0.784106
9976.000000;0.783967
9975.000000;0.783617
9974.000000;0.783309
9973.000000;0.783386
9972.000000;0.783725
9971.000000;0.783785
9970.000000;0.783351
9969.000000;0.782895
9968.000000;0.782929
9967.000000;0.783289
9966.000000;0.783367
9965.000000;0.782902
9964.000000;0.782202
9963.000000;0.781673
9962.000000;0.781472
9961.000000;0.781632
9960.000000;0.782184
9959.000000;0.782988
9958.000000;0.783664
9957.000000;0.783851
9956.000000;0.783488
9955.000000;0.782792
9954.000000;0.782045
9953.000000;0.781446
9952.000000;0.781044
9951.000000;0.780766
9950.000000;0.780544
9949.000000;0.780433
9948.000000;0.780510
9947.000000;0.780695
9946.000000;0.780809
9945.000000;0.780794
9944.000000;0.780737
9943.000000;0.780668
9942.000000;0.780516
9941.000000;0.780314
9940.000000;0.780223
9939.000000;0.780273
9938.000000;0.780231
9937.000000;0.779875
9936.000000;0.779268
9935.000000;0.778681
9934.000000;0.778354
9933.000000;0.778411
9932.000000;0.778858
9931.000000;0.779500
9930.000000;0.779966
9929.000000;0.779969
9928.000000;0.779529
9927.000000;0.778906
9926.000000;0.778410
9925.000000;0.778300
9924.000000;0.778659
9923.000000;0.779232
9922.000000;0.779572
9921.000000;0.779497
9920.000000;0.779252
9919.000000;0.779072
9918.000000;0.778813
9917.000000;0.778267
9916.000000;0.777649
9915.000000;0.777417
9914.000000;0.777659
9913.000000;0.777974
9912.000000;0.777988
9911.000000;0.777720
9910.000000;0.777406
9909.000000;0.777205
9908.000000;0.777156
9907.000000;0.777216
9906.000000;0.777262
9905.000000;0.777211
9904.000000;0.777118
9903.000000;0.777032
9902.000000;0.776815
9901.000000;0.776335
9900.000000;0.775803
9899.000000;0.775626
9898.000000;0.775878
9897.000000;0.776212
9896.000000;0.776388
9895.000000;0.776596
9894.000000;0.777063
9893.000000;0.777578
9892.000000;0.777630
9891.000000;0.776939
9890.000000;0.775699
9889.000000;0.774418
9888.000000;0.773635
9887.000000;0.773642
9886.000000;0.774270
9885.000000;0.774998
9884.000000;0.775397
9883.000000;0.775444
9882.000000;0.775346
9881.000000;0.775216
9880.000000;0.775071
9879.000000;0.774979
9878.000000;0.774962
9877.000000;0.774827
9876.000000;0.774334
9875.000000;0.773561
9874.000000;0.772918
9873.000000;0.772722
9872.000000;0.772868
9871.000000;0.772956
9870.000000;0.772716
9869.000000;0.772278
9868.000000;0.772048
9867.000000;0.772335
9866.000000;0.773044
9865.000000;0.773752
9864.000000;0.774086
9863.000000;0.774010
9862.000000;0.773750
9861.000000;0.773519
9860.000000;0.773389
9859.000000;0.773339
9858.000000;0.773340
9857.000000;0.773375
9856.000000;0.773408
9855.000000;0.773364
9854.000000;0.773145
9853.000000;0.772729
9852.000000;0.772239
9851.000000;0.771855
9850.000000;0.771644
9849.000000;0.771539
9848.000000;0.771508
9847.000000;0.771646
9846.000000;0.772029
9845.000000;0.772545
9844.000000;0.772951
9843.000000;0.773075
9842.000000;0.772928
9841.000000;0.772619
9840.000000;0.772219
9839.000000;0.771697
9838.000000;0.771019
9837.000000;0.770299
9836.000000;0.769812
9835.000000;0.769771
9834.000000;0.770131
9833.000000;0.770675
9832.000000;0.771234
9831.000000;0.771713
9830.000000;0.771973
9829.000000;0.771876
9828.000000;0.771485
9827.000000;0.771064
9826.000000;0.770799
9825.000000;0.770652
9824.000000;0.770498
9823.000000;0.770265
9822.000000;0.769902
9821.000000;0.769404
9820.000000;0.768947
9819.000000;0.768821
9818.000000;0.769069
9817.000000;0.769328
9816.000000;0.769209
9815.000000;0.768739
9814.000000;0.768266
9813.000000;0.768023
9812.000000;0.767942
9811.000000;0.767881
9810.000000;0.767819
9809.000000;0.767801
9808.000000;0.767819
9807.000000;0.767807
9806.000000;0.767707
9805.000000;0.767492
9804.000000;0.767162
9803.000000;0.766734
9802.000000;0.766254
9801.000000;0.765822
9800.000000;0.765598
9799.000000;0.765679
9798.000000;0.765969
9797.000000;0.766268
9796.000000;0.766522
9795.000000;0.766845
9794.000000;0.767247
9793.000000;0.767482
9792.000000;0.767312
9791.000000;0.766815
9790.000000;0.766292
9789.000000;0.765928
9788.000000;0.765696
9787.000000;0.765529
9786.000000;0.765441
9785.000000;0.765468
9784.000000;0.765631
9783.000000;0.765942
9782.000000;0.766318
9781.000000;0.766509
9780.000000;0.766261
9779.000000;0.765606
9778.000000;0.764889
9777.000000;0.764442
9776.000000;0.764340
9775.000000;0.764489
9774.000000;0.764835
9773.000000;0.765342
9772.000000;0.765824
9771.000000;0.765978
9770.000000;0.765665
9769.000000;0.765083
9768.000000;0.764579
9767.000000;0.764312
9766.000000;0.764190
9765.000000;0.764109
9764.000000;0.764107
9763.000000;0.764222
9762.000000;0.764305
9761.000000;0.764127
9760.000000;0.763649
9759.000000;0.763083
9758.000000;0.762715
9757.000000;0.762728
9756.000000;0.763122
9755.000000;0.763658
9754.000000;0.763899
9753.000000;0.763524
9752.000000;0.762660
9751.000000;0.761784
9750.000000;0.761294
9749.000000;0.761271
9748.000000;0.761629
9747.000000;0.762249
9746.000000;0.762897
9745.000000;0.763245
9744.000000;0.763171
9743.000000;0.762908
9742.000000;0.762753
9741.000000;0.762723
9740.000000;0.762657
9739.000000;0.762517
9738.000000;0.762413
9737.000000;0.762379
9736.000000;0.762320
9735.000000;0.762192
9734.000000;0.762058
9733.000000;0.761967
9732.000000;0.761876
9731.000000;0.761750
9730.000000;0.761640
9729.000000;0.761657
9728.000000;0.761871
9727.000000;0.762212
9726.000000;0.762453
9725.000000;0.762370
9724.000000;0.761966
9723.000000;0.761504
9722.000000;0.761265
9721.000000;0.761337
9720.000000;0.761634
9719.000000;0.761985
9718.000000;0.762137
9717.000000;0.761867
9716.000000;0.761238
9715.000000;0.760601
9714.000000;0.760198
9713.000000;0.759886
9712.000000;0.759438
9711.000000;0.758975
9710.000000;0.758829
9709.000000;0.759060
9708.000000;0.759381
9707.000000;0.759567
9706.000000;0.759646
9705.000000;0.759653
9704.000000;0.759474
9703.000000;0.759074
9702.000000;0.758663
9701.000000;0.758484
9700.000000;0.758576
9699.000000;0.758814
9698.000000;0.759038
9697.000000;0.759028
9696.000000;0.758582
9695.000000;0.757812
9694.000000;0.757227
9693.000000;0.757286
9692.000000;0.757901
9691.000000;0.758529
9690.000000;0.758697
9689.000000;0.758312
9688.000000;0.757561
9687.000000;0.756744
9686.000000;0.756227
9685.000000;0.756278
9684.000000;0.756825
9683.000000;0.757476
9682.000000;0.757901
9681.000000;0.758103
9680.000000;0.758239
9679.000000;0.758328
9678.000000;0.758280
9677.000000;0.758099
9676.000000;0.757853
9675.000000;0.757501
9674.000000;0.756959
9673.000000;0.756384
9672.000000;0.756127
9671.000000;0.756291
9670.000000;0.756514
9669.000000;0.756404
9668.000000;0.756070
9667.000000;0.755999
9666.000000;0.756415
9665.000000;0.757002
9664.000000;0.757289
9663.000000;0.757139
9662.000000;0.756770
9661.000000;0.756437
9660.000000;0.756223
9659.000000;0.756030
9658.000000;0.755675
9657.000000;0.755051
9656.000000;0.754299
9655.000000;0.753768
9654.000000;0.753730
9653.000000;0.754162
9652.000000;0.754874
9651.000000;0.755696
9650.000000;0.756417
9649.000000;0.756677
9648.000000;0.756200
9647.000000;0.755187
9646.000000;0.754254
9645.000000;0.753860
9644.000000;0.753902
9643.000000;0.753954
9642.000000;0.753785
9641.000000;0.753507
9640.000000;0.753300
9639.000000;0.753191
9638.000000;0.753118
9637.000000;0.753088
9636.000000;0.753154
9635.000000;0.753306
9634.000000;0.753453
9633.000000;0.753530
9632.000000;0.753550
9631.000000;0.753540
9630.000000;0.753480
9629.000000;0.753338
9628.000000;0.753133
9627.000000;0.752926
9626.000000;0.752761
9625.000000;0.752625
9624.000000;0.752479
9623.000000;0.752284
9622.000000;0.752023
9621.000000;0.751726
9620.000000;0.751479
9619.000000;0.751361
9618.000000;0.751379
9617.000000;0.751487
9616.000000;0.751670
9615.000000;0.751929
9614.000000;0.752212
9613.000000;0.752411
9612.000000;0.752480
9611.000000;0.752460
9610.000000;0.752364
9609.000000;0.752109
9608.000000;0.751677
9607.000000;0.751284
9606.000000;0.751251
9605.000000;0.751637
9604.000000;0.752072
9603.000000;0.752046
9602.000000;0.751408
9601.000000;0.750526
9600.000000;0.749920
9599.000000;0.749780
9598.000000;0.749870
9597.000000;0.749878
9596.000000;0.749756
9595.000000;0.749685
9594.000000;0.749783
9593.000000;0.749949
9592.000000;0.749975
9591.000000;0.749733
9590.000000;0.749285
9589.000000;0.748862
9588.000000;0.748720
9587.000000;0.748918
9586.000000;0.749237
9585.000000;0.749415
9584.000000;0.749433
9583.000000;0.749469
9582.000000;0.749596
9581.000000;0.749694
9580.000000;0.749678
9579.000000;0.749629
9578.000000;0.749638
9577.000000;0.749666
9576.000000;0.749666
9575.000000;0.749701
9574.000000;0.749781
9573.000000;0.749691
9572.000000;0.749206
9571.000000;0.748437
9570.000000;0.747792
9569.000000;0.747558
9568.000000;0.747639
9567.000000;0.747742
9566.000000;0.747725
9565.000000;0.747711
9564.000000;0.747910
9563.000000;0.748367
9562.000000;0.748878
9561.000000;0.749135
9560.000000;0.748994
9559.000000;0.748592
9558.000000;0.748193
9557.000000;0.747964
9556.000000;0.747910
9555.000000;0.747947
9554.000000;0.747958
9553.000000;0.747828
9552.000000;0.747507
9551.000000;0.747072
9550.000000;0.746690
9549.000000;0.746540
9548.000000;0.746728
9547.000000;0.747181
9546.000000;0.747589
9545.000000;0.747595
9544.000000;0.747179
9543.000000;0.746767
9542.000000;0.746784
9541.000000;0.747147
9540.000000;0.747347
9539.000000;0.747045
9538.000000;0.746405
9537.000000;0.745826
9536.000000;0.745525
9535.000000;0.745463
9534.000000;0.745512
9533.000000;0.745551
9532.000000;0.745480
9531.000000;0.745257
9530.000000;0.744941
9529.000000;0.744610
9528.000000;0.744287
9527.000000;0.743993
9526.000000;0.743811
9525.000000;0.743824
9524.000000;0.744007
9523.000000;0.744254
9522.000000;0.744467
9521.000000;0.744580
9520.000000;0.744538
9519.000000;0.744354
9518.000000;0.744172
9517.000000;0.744157
9516.000000;0.744280
9515.000000;0.744307
9514.000000;0.744025
9513.000000;0.743460
9512.000000;0.742850
9511.000000;0.742450
9510.000000;0.742385
9509.000000;0.742602
9508.000000;0.742918
9507.000000;0.743141
9506.000000;0.743219
9505.000000;0.743263
9504.000000;0.743394
9503.000000;0.743601
9502.000000;0.743796
9501.000000;0.743948
9500.000000;0.744065
9499.000000;0.744056
9498.000000;0.743748
9497.000000;0.743111
9496.000000;0.742386
9495.000000;0.741904
9494.000000;0.741807
9493.000000;0.741997
9492.000000;0.742303
9491.000000;0.742618
9490.000000;0.742876
9489.000000;0.743018
9488.000000;0.743015
9487.000000;0.742896
9486.000000;0.742739
9485.000000;0.742639
9484.000000;0.742643
9483.000000;0.742687
9482.000000;0.742637
9481.000000;0.742473
9480.000000;0.742356
9479.000000;0.742398
9478.000000;0.742424
9477.000000;0.742134
9476.000000;0.741536
9475.000000;0.741022
9474.000000;0.740928
9473.000000;0.741134
9472.000000;0.741239
9471.000000;0.741043
9470.000000;0.740703
9469.000000;0.740483
9468.000000;0.740494
9467.000000;0.740687
9466.000000;0.740945
9465.000000;0.741150
9464.000000;0.741224
9463.000000;0.741171
9462.000000;0.741029
9461.000000;0.740804
9460.000000;0.740493
9459.000000;0.740162
9458.000000;0.739935
9457.000000;0.739862
9456.000000;0.739888
9455.000000;0.739958
9454.000000;0.740089
9453.000000;0.740279
9452.000000;0.740420
9451.000000;0.740353
9450.000000;0.740022
9449.000000;0.739533
9448.000000;0.739070
9447.000000;0.738788
9446.000000;0.738745
9445.000000;0.738889
9444.000000;0.739104
9443.000000;0.739284
9442.000000;0.739360
9441.000000;0.739276
9440.000000;0.738987
9439.000000;0.738526
9438.000000;0.738039
9437.000000;0.737699
9436.000000;0.737562
9435.000000;0.737534
9434.000000;0.737480
9433.000000;0.737327
9432.000000;0.737065
9431.000000;0.736719
9430.000000;0.736378
9429.000000;0.736192
9428.000000;0.736261
9427.000000;0.736514
9426.000000;0.736767
9425.000000;0.736894
9424.000000;0.736893
9423.000000;0.736784
9422.000000;0.736553
9421.000000;0.736258
9420.000000;0.736079
9419.000000;0.736142
9418.000000;0.736345
9417.000000;0.736478
9416.000000;0.736504
9415.000000;0.736579
9414.000000;0.736793
9413.000000;0.737032
9412.000000;0.737151
9411.000000;0.737167
9410.000000;0.737166
9409.000000;0.737132
9408.000000;0.736983
9407.000000;0.736720
9406.000000;0.736441
9405.000000;0.736180
9404.000000;0.735872
9403.000000;0.735480
9402.000000;0.735084
9401.000000;0.734835
9400.000000;0.734848
9399.000000;0.735146
9398.000000;0.735617
9397.000000;0.736041
9396.000000;0.736231
9395.000000;0.736190
9394.000000;0.736079
9393.000000;0.735999
9392.000000;0.735884
9391.000000;0.735624
9390.000000;0.735239
9389.000000;0.734869
9388.000000;0.734635
9387.000000;0.734554
9386.000000;0.734546
9385.000000;0.734476
9384.000000;0.734202
9383.000000;0.733683
9382.000000;0.733029
9381.000000;0.732421
9380.000000;0.731995
9379.000000;0.731825
9378.000000;0.731980
9377.000000;0.732481
9376.000000;0.733171
9375.000000;0.733733
9374.000000;0.733921
9373.000000;0.733769
9372.000000;0.733506
9371.000000;0.733318
9370.000000;0.733264
9369.000000;0.733376
9368.000000;0.733700
9367.000000;0.734162
9366.000000;0.734517
9365.000000;0.734512
9364.000000;0.734143
9363.000000;0.733667
9362.000000;0.733372
9361.000000;0.733335
9360.000000;0.733378
9359.000000;0.733241
9358.000000;0.732815
9357.000000;0.732261
9356.000000;0.731856
9355.000000;0.731743
9354.000000;0.731832
9353.000000;0.731989
9352.000000;0.732237
9351.000000;0.732647
9350.000000;0.733083
9349.000000;0.733184
9348.000000;0.732713
9347.000000;0.731853
9346.000000;0.731095
9345.000000;0.730832
9344.000000;0.731072
9343.000000;0.731508
9342.000000;0.731816
9341.000000;0.731884
9340.000000;0.731824
9339.000000;0.731797
9338.000000;0.731836
9337.000000;0.731813
9336.000000;0.731576
9335.000000;0.731114
9334.000000;0.730601
9333.000000;0.730286
9332.000000;0.730308
9331.000000;0.730579
9330.000000;0.730846
9329.000000;0.730911
9328.000000;0.730777
9327.000000;0.730566
9326.000000;0.730340
9325.000000;0.730100
9324.000000;0.729918
9323.000000;0.729938
9322.000000;0.730168
9321.000000;0.730367
9320.000000;0.730282
9319.000000;0.729940
9318.000000;0.729602
9317.000000;0.729416
9316.000000;0.729263
9315.000000;0.729003
9314.000000;0.728733
9313.000000;0.728694
9312.000000;0.728967
9311.000000;0.729359
9310.000000;0.729620
9309.000000;0.729661
9308.000000;0.729561
9307.000000;0.729427
9306.000000;0.729305
9305.000000;0.729178
9304.000000;0.728976
9303.000000;0.728649
9302.000000;0.728281
9301.000000;0.728094
9300.000000;0.728226
9299.000000;0.728515
9298.000000;0.728602
9297.000000;0.728319
9296.000000;0.727883
9295.000000;0.727640
9294.000000;0.727667
9293.000000;0.727722
9292.000000;0.727564
9291.000000;0.727204
9290.000000;0.726827
9289.000000;0.726576
9288.000000;0.726489
9287.000000;0.726556
9286.000000;0.726720
9285.000000;0.726834
9284.000000;0.726748
9283.000000;0.726491
9282.000000;0.726285
9281.000000;0.726295
9280.000000;0.726417
9279.000000;0.726410
9278.000000;0.726223
9277.000000;0.726064
9276.000000;0.726121
9275.000000;0.726325
9274.000000;0.726452
9273.000000;0.726383
9272.000000;0.726167
9271.000000;0.725908
9270.000000;0.725701
9269.000000;0.725648
9268.000000;0.725777
9267.000000;0.725934
9266.000000;0.725871
9265.000000;0.725506
9264.000000;0.725013
9263.000000;0.724617
9262.000000;0.724374
9261.000000;0.724184
9260.000000;0.723952
9259.000000;0.723674
9258.000000;0.723452
9257.000000;0.723463
9256.000000;0.723815
9255.000000;0.724354
9254.000000;0.724701
9253.000000;0.724584
9252.000000;0.724113
9251.000000;0.723646
9250.000000;0.723436
9249.000000;0.723464
9248.000000;0.723566
9247.000000;0.723589
9246.000000;0.723479
9245.000000;0.723308
9244.000000;0.723221
9243.000000;0.723278
9242.000000;0.723376
9241.000000;0.723397
9240.000000;0.723399
9239.000000;0.723543
9238.000000;0.723873
9237.000000;0.724262
9236.000000;0.724560
9235.000000;0.724673
9234.000000;0.724518
9233.000000;0.724081
9232.000000;0.723557
9231.000000;0.723270
9230.000000;0.723331
9229.000000;0.723471
9228.000000;0.723330
9227.000000;0.722867
9226.000000;0.722389
9225.000000;0.722215
9224.000000;0.722389
9223.000000;0.722694
9222.000000;0.722866
9221.000000;0.722782
9220.000000;0.722504
9219.000000;0.722187
9218.000000;0.721917
9217.000000;0.721662
9216.000000;0.721372
9215.000000;0.721102
9214.000000;0.720993
9213.000000;0.721129
9212.000000;0.721426
9211.000000;0.721698
9210.000000;0.721818
9209.000000;0.721810
9208.000000;0.721775
9207.000000;0.721745
9206.000000;0.721660
9205.000000;0.721485
9204.000000;0.721281
9203.000000;0.721132
9202.000000;0.721037
9201.000000;0.720935
9200.000000;0.720810
9199.000000;0.720703
9198.000000;0.720642
9197.000000;0.720624
9196.000000;0.720644
9195.000000;0.720670
9194.000000;0.720621
9193.000000;0.720441
9192.000000;0.720193
9191.000000;0.719983
9190.000000;0.719813
9189.000000;0.719590
9188.000000;0.719300
9187.000000;0.719070
9186.000000;0.719005
9185.000000;0.719058
9184.000000;0.719116
9183.000000;0.719138
9182.000000;0.719138
9181.000000;0.719102
9180.000000;0.719002
9179.000000;0.718869
9178.000000;0.718788
9177.000000;0.718821
9176.000000;0.718956
9175.000000;0.719128
9174.000000;0.719251
9173.000000;0.719260
9172.000000;0.719147
9171.000000;0.718944
9170.000000;0.718675
9169.000000;0.718376
9168.000000;0.718167
9167.000000;0.718205
9166.000000;0.718484
9165.000000;0.718735
9164.000000;0.718649
9163.000000;0.718210
9162.000000;0.717739
9161.000000;0.717580
9160.000000;0.717774
9159.000000;0.718053
9158.000000;0.718117
9157.000000;0.717911
9156.000000;0.717654
9155.000000;0.717607
9154.000000;0.717811
9153.000000;0.718051
9152.000000;0.718063
9151.000000;0.717795
9150.000000;0.717442
9149.000000;0.717251
9148.000000;0.717290
9147.000000;0.717419
9146.000000;0.717446
9145.000000;0.717313
9144.000000;0.717122
9143.000000;0.716999
9142.000000;0.716959
9141.000000;0.716888
9140.000000;0.716663
9139.000000;0.716271
9138.000000;0.715836
9137.000000;0.715555
9136.000000;0.715541
9135.000000;0.715704
9134.000000;0.715804
9133.000000;0.715691
9132.000000;0.715475
9131.000000;0.715397
9130.000000;0.715537
9129.000000;0.715718
9128.000000;0.715733
9127.000000;0.715583
9126.000000;0.715424
9125.000000;0.715342
9124.000000;0.715259
9123.000000;0.715063
9122.000000;0.714759
9121.000000;0.714480
9120.000000;0.714369
9119.000000;0.714466
9118.000000;0.714684
9117.000000;0.714874
9116.000000;0.714932
9115.000000;0.714867
9114.000000;0.714790
9113.000000;0.714815
9112.000000;0.714968
9111.000000;0.715143
9110.000000;0.715186
9109.000000;0.715019
9108.000000;0.714712
9107.000000;0.714425
9106.000000;0.714276
9105.000000;0.714262
9104.000000;0.714263
9103.000000;0.714129
9102.000000;0.713784
9101.000000;0.713322
9100.000000;0.712980
9099.000000;0.712947
9098.000000;0.713186
9097.000000;0.713454
9096.000000;0.713536
9095.000000;0.713428
9094.000000;0.713295
9093.000000;0.713279
9092.000000;0.713369
9091.000000;0.713459
9090.000000;0.713478
9089.000000;0.713425
9088.000000;0.713285
9087.000000;0.712971
9086.000000;0.712453
9085.000000;0.711911
9084.000000;0.711661
9083.000000;0.711837
9082.000000;0.712218
9081.000000;0.712453
9080.000000;0.712406
9079.000000;0.712198
9078.000000;0.711979
9077.000000;0.711789
9076.000000;0.711643
9075.000000;0.711566
9074.000000;0.711521
9073.000000;0.711419
9072.000000;0.711276
9071.000000;0.711224
9070.000000;0.711317
9069.000000;0.711419
9068.000000;0.711405
9067.000000;0.711367
9066.000000;0.711480
9065.000000;0.711738
9064.000000;0.711953
9063.000000;0.711998
9062.000000;0.711901
9061.000000;0.711704
9060.000000;0.711395
9059.000000;0.711022
9058.000000;0.710755
9057.000000;0.710712
9056.000000;0.710809
9055.000000;0.710872
9054.000000;0.710850
9053.000000;0.710812
