Criado como novo conjunto de dados;"2706_e01_daniel.spp","49684.6 Secs"
cm-1;Abs
10000.000000;1.329178
9999.000000;1.328047
9998.000000;1.326933
9997.000000;1.325789
9996.000000;1.324857
9995.000000;1.324433
9994.000000;1.324548
9993.000000;1.325277
9992.000000;1.326304
9991.000000;1.326874
9990.000000;1.326614
9989.000000;1.325981
9988.000000;1.325709
9987.000000;1.326029
9986.000000;1.326605
9985.000000;1.326964
9984.000000;1.326842
9983.000000;1.326229
9982.000000;1.325258
9981.000000;1.324061
9980.000000;1.322742
9979.000000;1.321505
9978.000000;1.320732
9977.000000;1.320738
9976.000000;1.321368
9975.000000;1.321982
9974.000000;1.322049
9973.000000;1.321796
9972.000000;1.322049
9971.000000;1.323238
9970.000000;1.324681
9969.000000;1.325183
9968.000000;1.324380
9967.000000;1.323081
9966.000000;1.322119
9965.000000;1.321354
9964.000000;1.320211
9963.000000;1.318874
9962.000000;1.318316
9961.000000;1.319159
9960.000000;1.320977
9959.000000;1.322790
9958.000000;1.323853
9957.000000;1.323922
9956.000000;1.323224
9955.000000;1.322360
9954.000000;1.321864
9953.000000;1.321640
9952.000000;1.321123
9951.000000;1.320125
9950.000000;1.319229
9949.000000;1.319173
9948.000000;1.320046
9947.000000;1.321245
9946.000000;1.322048
9945.000000;1.322131
9944.000000;1.321653
9943.000000;1.320884
9942.000000;1.319789
9941.000000;1.318153
9940.000000;1.316263
9939.000000;1.315149
9938.000000;1.315661
9937.000000;1.317344
9936.000000;1.318709
9935.000000;1.318722
9934.000000;1.317610
9933.000000;1.316251
9932.000000;1.315304
9931.000000;1.315062
9930.000000;1.315577
9929.000000;1.316608
9928.000000;1.317704
9927.000000;1.318547
9926.000000;1.318999
9925.000000;1.318917
9924.000000;1.318363
9923.000000;1.317896
9922.000000;1.318115
9921.000000;1.318799
9920.000000;1.319010
9919.000000;1.318244
9918.000000;1.316965
9917.000000;1.315854
9916.000000;1.315107
9915.000000;1.314718
9914.000000;1.314852
9913.000000;1.315545
9912.000000;1.316435
9911.000000;1.317171
9910.000000;1.317767
9909.000000;1.318231
9908.000000;1.318261
9907.000000;1.317663
9906.000000;1.316684
9905.000000;1.315618
9904.000000;1.314438
9903.000000;1.313120
9902.000000;1.311900
9901.000000;1.310890
9900.000000;1.309948
9899.000000;1.309237
9898.000000;1.309395
9897.000000;1.310655
9896.000000;1.312208
9895.000000;1.313045
9894.000000;1.313175
9893.000000;1.313362
9892.000000;1.313895
9891.000000;1.314317
9890.000000;1.314316
9889.000000;1.314224
9888.000000;1.314427
9887.000000;1.314781
9886.000000;1.314812
9885.000000;1.314276
9884.000000;1.313392
9883.000000;1.312697
9882.000000;1.312650
9881.000000;1.313206
9880.000000;1.313834
9879.000000;1.314092
9878.000000;1.314006
9877.000000;1.313741
9876.000000;1.313197
9875.000000;1.312319
9874.000000;1.311627
9873.000000;1.311908
9872.000000;1.313336
9871.000000;1.315186
9870.000000;1.316500
9869.000000;1.316878
9868.000000;1.316576
9867.000000;1.316031
9866.000000;1.315410
9865.000000;1.314561
9864.000000;1.313348
9863.000000;1.312009
9862.000000;1.311002
9861.000000;1.310442
9860.000000;1.309942
9859.000000;1.309171
9858.000000;1.308321
9857.000000;1.307792
9856.000000;1.307674
9855.000000;1.307752
9854.000000;1.307812
9853.000000;1.307654
9852.000000;1.307050
9851.000000;1.306065
9850.000000;1.305248
9849.000000;1.305136
9848.000000;1.305647
9847.000000;1.306268
9846.000000;1.306713
9845.000000;1.307055
9844.000000;1.307320
9843.000000;1.307378
9842.000000;1.307245
9841.000000;1.307121
9840.000000;1.307045
9839.000000;1.306856
9838.000000;1.306539
9837.000000;1.306312
9836.000000;1.306301
9835.000000;1.306399
9834.000000;1.306551
9833.000000;1.306908
9832.000000;1.307511
9831.000000;1.308003
9830.000000;1.307843
9829.000000;1.306778
9828.000000;1.305111
9827.000000;1.303510
9826.000000;1.302507
9825.000000;1.302076
9824.000000;1.301773
9823.000000;1.301369
9822.000000;1.301164
9821.000000;1.301504
9820.000000;1.302198
9819.000000;1.302709
9818.000000;1.302878
9817.000000;1.303085
9816.000000;1.303576
9815.000000;1.304003
9814.000000;1.303837
9813.000000;1.303081
9812.000000;1.302374
9811.000000;1.302468
9810.000000;1.303655
9809.000000;1.305492
9808.000000;1.306968
9807.000000;1.307147
9806.000000;1.305909
9805.000000;1.304050
9804.000000;1.302584
9803.000000;1.301998
9802.000000;1.302189
9801.000000;1.302934
9800.000000;1.304134
9799.000000;1.305579
9798.000000;1.306679
9797.000000;1.306672
9796.000000;1.305223
9795.000000;1.302853
9794.000000;1.300698
9793.000000;1.299726
9792.000000;1.300043
9791.000000;1.300869
9790.000000;1.301169
9789.000000;1.300448
9788.000000;1.299048
9787.000000;1.297783
9786.000000;1.297292
9785.000000;1.297648
9784.000000;1.298435
9783.000000;1.299130
9782.000000;1.299410
9781.000000;1.299202
9780.000000;1.298601
9779.000000;1.297864
9778.000000;1.297380
9777.000000;1.297497
9776.000000;1.298234
9775.000000;1.299206
9774.000000;1.299911
9773.000000;1.300132
9772.000000;1.300016
9771.000000;1.299780
9770.000000;1.299468
9769.000000;1.299048
9768.000000;1.298568
9767.000000;1.298113
9766.000000;1.297745
9765.000000;1.297604
9764.000000;1.297940
9763.000000;1.298840
9762.000000;1.299969
9761.000000;1.300780
9760.000000;1.301006
9759.000000;1.300829
9758.000000;1.300575
9757.000000;1.300443
9756.000000;1.300524
9755.000000;1.300807
9754.000000;1.301066
9753.000000;1.300936
9752.000000;1.300273
9751.000000;1.299335
9750.000000;1.298538
9749.000000;1.298136
9748.000000;1.298178
9747.000000;1.298519
9746.000000;1.298768
9745.000000;1.298495
9744.000000;1.297666
9743.000000;1.296715
9742.000000;1.296078
9741.000000;1.295864
9740.000000;1.296056
9739.000000;1.296728
9738.000000;1.297768
9737.000000;1.298596
9736.000000;1.298539
9735.000000;1.297453
9734.000000;1.295783
9733.000000;1.294133
9732.000000;1.292980
9731.000000;1.292619
9730.000000;1.293008
9729.000000;1.293655
9728.000000;1.293953
9727.000000;1.293702
9726.000000;1.293240
9725.000000;1.293139
9724.000000;1.293885
9723.000000;1.295573
9722.000000;1.297628
9721.000000;1.298998
9720.000000;1.298985
9719.000000;1.297865
9718.000000;1.296518
9717.000000;1.295636
9716.000000;1.295485
9715.000000;1.296023
9714.000000;1.296820
9713.000000;1.297097
9712.000000;1.296395
9711.000000;1.295137
9710.000000;1.294129
9709.000000;1.293645
9708.000000;1.293421
9707.000000;1.293357
9706.000000;1.293622
9705.000000;1.294116
9704.000000;1.294436
9703.000000;1.294451
9702.000000;1.294360
9701.000000;1.294147
9700.000000;1.293564
9699.000000;1.292793
9698.000000;1.292450
9697.000000;1.292698
9696.000000;1.292921
9695.000000;1.292612
9694.000000;1.292099
9693.000000;1.291998
9692.000000;1.292351
9691.000000;1.292716
9690.000000;1.292770
9689.000000;1.292434
9688.000000;1.291736
9687.000000;1.290966
9686.000000;1.290699
9685.000000;1.291249
9684.000000;1.292270
9683.000000;1.293172
9682.000000;1.293711
9681.000000;1.293887
9680.000000;1.293583
9679.000000;1.292736
9678.000000;1.291656
9677.000000;1.290757
9676.000000;1.290126
9675.000000;1.289676
9674.000000;1.289543
9673.000000;1.289868
9672.000000;1.290364
9671.000000;1.290563
9670.000000;1.290446
9669.000000;1.290354
9668.000000;1.290299
9667.000000;1.289843
9666.000000;1.288790
9665.000000;1.287612
9664.000000;1.287018
9663.000000;1.287327
9662.000000;1.288305
9661.000000;1.289316
9660.000000;1.289578
9659.000000;1.288705
9658.000000;1.287209
9657.000000;1.286205
9656.000000;1.286395
9655.000000;1.287504
9654.000000;1.288775
9653.000000;1.289712
9652.000000;1.290093
9651.000000;1.289631
9650.000000;1.288209
9649.000000;1.286457
9648.000000;1.285531
9647.000000;1.286061
9646.000000;1.287548
9645.000000;1.288982
9644.000000;1.289817
9643.000000;1.290091
9642.000000;1.289846
9641.000000;1.288957
9640.000000;1.287551
9639.000000;1.286178
9638.000000;1.285379
9637.000000;1.285289
9636.000000;1.285749
9635.000000;1.286529
9634.000000;1.287348
9633.000000;1.287908
9632.000000;1.288163
9631.000000;1.288330
9630.000000;1.288404
9629.000000;1.287888
9628.000000;1.286344
9627.000000;1.284140
9626.000000;1.282324
9625.000000;1.281745
9624.000000;1.282449
9623.000000;1.283779
9622.000000;1.284805
9621.000000;1.284840
9620.000000;1.283918
9619.000000;1.282806
9618.000000;1.282325
9617.000000;1.282649
9616.000000;1.283409
9615.000000;1.284311
9614.000000;1.285332
9613.000000;1.286354
9612.000000;1.287032
9611.000000;1.287148
9610.000000;1.286814
9609.000000;1.286202
9608.000000;1.285378
9607.000000;1.284528
9606.000000;1.284031
9605.000000;1.284039
9604.000000;1.284158
9603.000000;1.283798
9602.000000;1.282835
9601.000000;1.281824
9600.000000;1.281550
9599.000000;1.282315
9598.000000;1.283551
9597.000000;1.284224
9596.000000;1.283842
9595.000000;1.282988
9594.000000;1.282583
9593.000000;1.282739
9592.000000;1.282731
9591.000000;1.282093
9590.000000;1.281230
9589.000000;1.280777
9588.000000;1.280825
9587.000000;1.281133
9586.000000;1.281713
9585.000000;1.282708
9584.000000;1.283834
9583.000000;1.284404
9582.000000;1.283989
9581.000000;1.282845
9580.000000;1.281625
9579.000000;1.280855
9578.000000;1.280711
9577.000000;1.281060
9576.000000;1.281555
9575.000000;1.281798
9574.000000;1.281557
9573.000000;1.280945
9572.000000;1.280370
9571.000000;1.280227
9570.000000;1.280511
9569.000000;1.280799
9568.000000;1.280758
9567.000000;1.280600
9566.000000;1.280825
9565.000000;1.281537
9564.000000;1.282273
9563.000000;1.282548
9562.000000;1.282344
9561.000000;1.281972
9560.000000;1.281681
9559.000000;1.281504
9558.000000;1.281290
9557.000000;1.280838
9556.000000;1.280194
9555.000000;1.279796
9554.000000;1.280002
9553.000000;1.280431
9552.000000;1.280214
9551.000000;1.279157
9550.000000;1.278234
9549.000000;1.278532
9548.000000;1.279965
9547.000000;1.281377
9546.000000;1.281765
9545.000000;1.281044
9544.000000;1.279757
9543.000000;1.278533
9542.000000;1.277851
9541.000000;1.277899
9540.000000;1.278438
9539.000000;1.278979
9538.000000;1.279171
9537.000000;1.278962
9536.000000;1.278461
9535.000000;1.277872
9534.000000;1.277477
9533.000000;1.277417
9532.000000;1.277511
9531.000000;1.277544
9530.000000;1.277665
9529.000000;1.278184
9528.000000;1.278923
9527.000000;1.279150
9526.000000;1.278394
9525.000000;1.277077
9524.000000;1.276081
9523.000000;1.275899
9522.000000;1.276388
9521.000000;1.277153
9520.000000;1.277836
9519.000000;1.278098
9518.000000;1.277687
9517.000000;1.276685
9516.000000;1.275540
9515.000000;1.274731
9514.000000;1.274457
9513.000000;1.274654
9512.000000;1.275148
9511.000000;1.275707
9510.000000;1.276047
9509.000000;1.275988
9508.000000;1.275597
9507.000000;1.275088
9506.000000;1.274593
9505.000000;1.274154
9504.000000;1.273889
9503.000000;1.273946
9502.000000;1.274225
9501.000000;1.274355
9500.000000;1.274125
9499.000000;1.273825
9498.000000;1.273912
9497.000000;1.274389
9496.000000;1.274775
9495.000000;1.274719
9494.000000;1.274403
9493.000000;1.274187
9492.000000;1.274071
9491.000000;1.273758
9490.000000;1.273161
9489.000000;1.272592
9488.000000;1.272398
9487.000000;1.272623
9486.000000;1.273078
9485.000000;1.273551
9484.000000;1.273838
9483.000000;1.273744
9482.000000;1.273275
9481.000000;1.272746
9480.000000;1.272476
9479.000000;1.272380
9478.000000;1.272040
9477.000000;1.271231
9476.000000;1.270219
9475.000000;1.269513
9474.000000;1.269467
9473.000000;1.270151
9472.000000;1.271335
9471.000000;1.272453
9470.000000;1.272873
9469.000000;1.272478
9468.000000;1.271840
9467.000000;1.271555
9466.000000;1.271552
9465.000000;1.271377
9464.000000;1.270991
9463.000000;1.270818
9462.000000;1.271016
9461.000000;1.271212
9460.000000;1.271145
9459.000000;1.271110
9458.000000;1.271447
9457.000000;1.271926
9456.000000;1.272038
9455.000000;1.271711
9454.000000;1.271372
9453.000000;1.271382
9452.000000;1.271709
9451.000000;1.272078
9450.000000;1.272152
9449.000000;1.271606
9448.000000;1.270347
9447.000000;1.268750
9446.000000;1.267463
9445.000000;1.266929
9444.000000;1.267160
9443.000000;1.267920
9442.000000;1.268892
9441.000000;1.269677
9440.000000;1.269831
9439.000000;1.269086
9438.000000;1.267565
9437.000000;1.265881
9436.000000;1.264899
9435.000000;1.265137
9434.000000;1.266285
9433.000000;1.267484
9432.000000;1.268211
9431.000000;1.268662
9430.000000;1.269121
9429.000000;1.269342
9428.000000;1.268947
9427.000000;1.268212
9426.000000;1.267894
9425.000000;1.268296
9424.000000;1.268927
9423.000000;1.269189
9422.000000;1.269049
9421.000000;1.268892
9420.000000;1.268973
9419.000000;1.269193
9418.000000;1.269232
9417.000000;1.268783
9416.000000;1.267776
9415.000000;1.266489
9414.000000;1.265381
9413.000000;1.264812
9412.000000;1.264938
9411.000000;1.265739
9410.000000;1.266942
9409.000000;1.267999
9408.000000;1.268422
9407.000000;1.268166
9406.000000;1.267524
9405.000000;1.266725
9404.000000;1.265863
9403.000000;1.265157
9402.000000;1.264921
9401.000000;1.265209
9400.000000;1.265731
9399.000000;1.266213
9398.000000;1.266626
9397.000000;1.266963
9396.000000;1.267016
9395.000000;1.266508
9394.000000;1.265373
9393.000000;1.263876
9392.000000;1.262557
9391.000000;1.261984
9390.000000;1.262315
9389.000000;1.263054
9388.000000;1.263432
9387.000000;1.263132
9386.000000;1.262566
9385.000000;1.262384
9384.000000;1.262822
9383.000000;1.263497
9382.000000;1.263759
9381.000000;1.263291
9380.000000;1.262518
9379.000000;1.262282
9378.000000;1.262959
9377.000000;1.263996
9376.000000;1.264495
9375.000000;1.264141
9374.000000;1.263315
9373.000000;1.262481
9372.000000;1.261901
9371.000000;1.261802
9370.000000;1.262308
9369.000000;1.263124
9368.000000;1.263674
9367.000000;1.263684
9366.000000;1.263320
9365.000000;1.262752
9364.000000;1.262013
9363.000000;1.261340
9362.000000;1.261171
9361.000000;1.261584
9360.000000;1.262137
9359.000000;1.262425
9358.000000;1.262420
9357.000000;1.262097
9356.000000;1.261286
9355.000000;1.260212
9354.000000;1.259646
9353.000000;1.260032
9352.000000;1.260800
9351.000000;1.261071
9350.000000;1.260770
9349.000000;1.260511
9348.000000;1.260595
9347.000000;1.260769
9346.000000;1.260887
9345.000000;1.261152
9344.000000;1.261575
9343.000000;1.261723
9342.000000;1.261261
9341.000000;1.260378
9340.000000;1.259506
9339.000000;1.258885
9338.000000;1.258553
9337.000000;1.258516
9336.000000;1.258723
9335.000000;1.259047
9334.000000;1.259403
9333.000000;1.259709
9332.000000;1.259706
9331.000000;1.259123
9330.000000;1.258190
9329.000000;1.257652
9328.000000;1.257989
9327.000000;1.258790
9326.000000;1.259171
9325.000000;1.258739
9324.000000;1.257887
9323.000000;1.257220
9322.000000;1.257015
9321.000000;1.257237
9320.000000;1.257715
9319.000000;1.258149
9318.000000;1.258178
9317.000000;1.257705
9316.000000;1.257114
9315.000000;1.256968
9314.000000;1.257450
9313.000000;1.258206
9312.000000;1.258707
9311.000000;1.258705
9310.000000;1.258352
9309.000000;1.257997
9308.000000;1.257901
9307.000000;1.258085
9306.000000;1.258372
9305.000000;1.258567
9304.000000;1.258577
9303.000000;1.258389
9302.000000;1.258020
9301.000000;1.257551
9300.000000;1.257131
9299.000000;1.256852
9298.000000;1.256625
9297.000000;1.256293
9296.000000;1.255807
9295.000000;1.255211
9294.000000;1.254515
9293.000000;1.253780
9292.000000;1.253299
9291.000000;1.253429
9290.000000;1.254147
9289.000000;1.254950
9288.000000;1.255330
9287.000000;1.255231
9286.000000;1.254978
9285.000000;1.254874
9284.000000;1.254963
9283.000000;1.255073
9282.000000;1.254985
9281.000000;1.254674
9280.000000;1.254444
9279.000000;1.254666
9278.000000;1.255285
9277.000000;1.255739
9276.000000;1.255495
9275.000000;1.254543
9274.000000;1.253278
9273.000000;1.252147
9272.000000;1.251528
9271.000000;1.251643
9270.000000;1.252286
9269.000000;1.252836
9268.000000;1.252862
9267.000000;1.252616
9266.000000;1.252612
9265.000000;1.252877
9264.000000;1.253013
9263.000000;1.252870
9262.000000;1.252702
9261.000000;1.252624
9260.000000;1.252421
9259.000000;1.252031
9258.000000;1.251807
9257.000000;1.252025
9256.000000;1.252368
9255.000000;1.252235
9254.000000;1.251455
9253.000000;1.250510
9252.000000;1.250094
9251.000000;1.250541
9250.000000;1.251585
9249.000000;1.252521
9248.000000;1.252701
9247.000000;1.252067
9246.000000;1.251192
9245.000000;1.250762
9244.000000;1.251026
9243.000000;1.251715
9242.000000;1.252352
9241.000000;1.252599
9240.000000;1.252407
9239.000000;1.251937
9238.000000;1.251393
9237.000000;1.250919
9236.000000;1.250622
9235.000000;1.250549
9234.000000;1.250576
9233.000000;1.250410
9232.000000;1.249866
9231.000000;1.249129
9230.000000;1.248624
9229.000000;1.248637
9228.000000;1.249122
9227.000000;1.249775
9226.000000;1.250180
9225.000000;1.250021
9224.000000;1.249346
9223.000000;1.248583
9222.000000;1.248126
9221.000000;1.247964
9220.000000;1.247867
9219.000000;1.247835
9218.000000;1.248097
9217.000000;1.248686
9216.000000;1.249266
9215.000000;1.249485
9214.000000;1.249354
9213.000000;1.249216
9212.000000;1.249427
9211.000000;1.250049
9210.000000;1.250683
9209.000000;1.250678
9208.000000;1.249705
9207.000000;1.248190
9206.000000;1.247000
9205.000000;1.246672
9204.000000;1.247041
9203.000000;1.247495
9202.000000;1.247449
9201.000000;1.246691
9200.000000;1.245560
9199.000000;1.244787
9198.000000;1.244868
9197.000000;1.245543
9196.000000;1.246074
9195.000000;1.246045
9194.000000;1.245683
9193.000000;1.245412
9192.000000;1.245402
9191.000000;1.245606
9190.000000;1.245911
9189.000000;1.246136
9188.000000;1.246114
9187.000000;1.245901
9186.000000;1.245716
9185.000000;1.245640
9184.000000;1.245609
9183.000000;1.245717
9182.000000;1.246182
9181.000000;1.246881
9180.000000;1.247269
9179.000000;1.247004
9178.000000;1.246379
9177.000000;1.245902
9176.000000;1.245652
9175.000000;1.245316
9174.000000;1.244684
9173.000000;1.243857
9172.000000;1.243072
9171.000000;1.242577
9170.000000;1.242591
9169.000000;1.243154
9168.000000;1.244009
9167.000000;1.244735
9166.000000;1.245022
9165.000000;1.244799
9164.000000;1.244237
9163.000000;1.243674
9162.000000;1.243396
9161.000000;1.243348
9160.000000;1.243217
9159.000000;1.242875
9158.000000;1.242581
9157.000000;1.242612
9156.000000;1.242903
9155.000000;1.243239
9154.000000;1.243589
9153.000000;1.243990
9152.000000;1.244241
9151.000000;1.244035
9150.000000;1.243391
9149.000000;1.242690
9148.000000;1.242242
9147.000000;1.241995
9146.000000;1.241712
9145.000000;1.241284
9144.000000;1.240820
9143.000000;1.240531
9142.000000;1.240539
9141.000000;1.240751
9140.000000;1.240927
9139.000000;1.240953
9138.000000;1.240994
9137.000000;1.241271
9136.000000;1.241756
9135.000000;1.242206
9134.000000;1.242460
9133.000000;1.242499
9132.000000;1.242245
9131.000000;1.241543
9130.000000;1.240470
9129.000000;1.239524
9128.000000;1.239287
9127.000000;1.239863
9126.000000;1.240731
9125.000000;1.241195
9124.000000;1.240969
9123.000000;1.240327
9122.000000;1.239748
9121.000000;1.239503
9120.000000;1.239577
9119.000000;1.239824
9118.000000;1.240092
9117.000000;1.240217
9116.000000;1.240079
9115.000000;1.239709
9114.000000;1.239289
9113.000000;1.239015
9112.000000;1.238955
9111.000000;1.239034
9110.000000;1.239103
9109.000000;1.239060
9108.000000;1.238958
9107.000000;1.238975
9106.000000;1.239177
9105.000000;1.239364
9104.000000;1.239255
9103.000000;1.238816
9102.000000;1.238302
9101.000000;1.237948
9100.000000;1.237731
9099.000000;1.237462
9098.000000;1.237018
9097.000000;1.236438
9096.000000;1.235881
9095.000000;1.235530
9094.000000;1.235486
9093.000000;1.235727
9092.000000;1.236169
9091.000000;1.236727
9090.000000;1.237269
9089.000000;1.237632
9088.000000;1.237796
9087.000000;1.237975
9086.000000;1.238344
9085.000000;1.238717
9084.000000;1.238717
9083.000000;1.238252
9082.000000;1.237608
9081.000000;1.237039
9080.000000;1.236511
9079.000000;1.235946
9078.000000;1.235501
9077.000000;1.235444
9076.000000;1.235867
9075.000000;1.236600
9074.000000;1.237309
9073.000000;1.237591
9072.000000;1.237189
9071.000000;1.236260
9070.000000;1.235353
9069.000000;1.234973
9068.000000;1.235202
9067.000000;1.235782
9066.000000;1.236418
9065.000000;1.236904
9064.000000;1.237086
9063.000000;1.236873
9062.000000;1.236303
9061.000000;1.235520
9060.000000;1.234696
9059.000000;1.233995
9058.000000;1.233537
9057.000000;1.233323
9056.000000;1.233252
9055.000000;1.233263
9054.000000;1.233389
9053.000000;1.233628
