Criado como novo conjunto de dados;"2706_e01_daniel.spp","62285.0 Secs"
cm-1;Abs
10000.000000;0.703981
9999.000000;0.704426
9998.000000;0.704802
9997.000000;0.704694
9996.000000;0.704116
9995.000000;0.703583
9994.000000;0.703386
9993.000000;0.703230
9992.000000;0.702632
9991.000000;0.701680
9990.000000;0.700970
9989.000000;0.700871
9988.000000;0.701091
9987.000000;0.701107
9986.000000;0.700764
9985.000000;0.700331
9984.000000;0.700111
9983.000000;0.700149
9982.000000;0.700266
9981.000000;0.700255
9980.000000;0.700090
9979.000000;0.699966
9978.000000;0.700033
9977.000000;0.700153
9976.000000;0.700109
9975.000000;0.700039
9974.000000;0.700349
9973.000000;0.701115
9972.000000;0.701871
9971.000000;0.702212
9970.000000;0.702308
9969.000000;0.702524
9968.000000;0.702745
9967.000000;0.702511
9966.000000;0.701722
9965.000000;0.700829
9964.000000;0.700239
9963.000000;0.699843
9962.000000;0.699287
9961.000000;0.698471
9960.000000;0.697622
9959.000000;0.697009
9958.000000;0.696738
9957.000000;0.696787
9956.000000;0.697093
9955.000000;0.697571
9954.000000;0.698064
9953.000000;0.698342
9952.000000;0.698250
9951.000000;0.697880
9950.000000;0.697530
9949.000000;0.697398
9948.000000;0.697390
9947.000000;0.697294
9946.000000;0.697100
9945.000000;0.697042
9944.000000;0.697327
9943.000000;0.697872
9942.000000;0.698292
9941.000000;0.698155
9940.000000;0.697384
9939.000000;0.696461
9938.000000;0.696090
9937.000000;0.696483
9936.000000;0.697075
9935.000000;0.697065
9934.000000;0.696239
9933.000000;0.695105
9932.000000;0.694290
9931.000000;0.693974
9930.000000;0.693891
9929.000000;0.693721
9928.000000;0.693399
9927.000000;0.693142
9926.000000;0.693227
9925.000000;0.693703
9924.000000;0.694354
9923.000000;0.694952
9922.000000;0.695425
9921.000000;0.695720
9920.000000;0.695639
9919.000000;0.695033
9918.000000;0.694140
9917.000000;0.693490
9916.000000;0.693438
9915.000000;0.693908
9914.000000;0.694573
9913.000000;0.695121
9912.000000;0.695347
9911.000000;0.695212
9910.000000;0.694918
9909.000000;0.694774
9908.000000;0.694881
9907.000000;0.695054
9906.000000;0.695101
9905.000000;0.695019
9904.000000;0.694834
9903.000000;0.694449
9902.000000;0.693843
9901.000000;0.693281
9900.000000;0.693087
9899.000000;0.693259
9898.000000;0.693525
9897.000000;0.693743
9896.000000;0.694021
9895.000000;0.694381
9894.000000;0.694557
9893.000000;0.694269
9892.000000;0.693579
9891.000000;0.692811
9890.000000;0.692212
9889.000000;0.691823
9888.000000;0.691585
9887.000000;0.691420
9886.000000;0.691232
9885.000000;0.690998
9884.000000;0.690834
9883.000000;0.690850
9882.000000;0.690933
9881.000000;0.690870
9880.000000;0.690710
9879.000000;0.690773
9878.000000;0.691193
9877.000000;0.691644
9876.000000;0.691737
9875.000000;0.691532
9874.000000;0.691405
9873.000000;0.691461
9872.000000;0.691363
9871.000000;0.690777
9870.000000;0.689793
9869.000000;0.688848
9868.000000;0.688357
9867.000000;0.688465
9866.000000;0.688976
9865.000000;0.689463
9864.000000;0.689565
9863.000000;0.689293
9862.000000;0.688954
9861.000000;0.688772
9860.000000;0.688718
9859.000000;0.688735
9858.000000;0.688910
9857.000000;0.689267
9856.000000;0.689567
9855.000000;0.689512
9854.000000;0.689071
9853.000000;0.688471
9852.000000;0.687943
9851.000000;0.687643
9850.000000;0.687683
9849.000000;0.687991
9848.000000;0.688209
9847.000000;0.688011
9846.000000;0.687582
9845.000000;0.687508
9844.000000;0.688053
9843.000000;0.688719
9842.000000;0.688730
9841.000000;0.687878
9840.000000;0.686708
9839.000000;0.685889
9838.000000;0.685600
9837.000000;0.685597
9836.000000;0.685679
9835.000000;0.685904
9834.000000;0.686362
9833.000000;0.686901
9832.000000;0.687187
9831.000000;0.687029
9830.000000;0.686574
9829.000000;0.686151
9828.000000;0.685947
9827.000000;0.685828
9826.000000;0.685501
9825.000000;0.684879
9824.000000;0.684263
9823.000000;0.684069
9822.000000;0.684398
9821.000000;0.684976
9820.000000;0.685527
9819.000000;0.686032
9818.000000;0.686502
9817.000000;0.686698
9816.000000;0.686333
9815.000000;0.685498
9814.000000;0.684629
9813.000000;0.684031
9812.000000;0.683689
9811.000000;0.683580
9810.000000;0.683847
9809.000000;0.684474
9808.000000;0.685069
9807.000000;0.685246
9806.000000;0.685093
9805.000000;0.684987
9804.000000;0.685043
9803.000000;0.685017
9802.000000;0.684775
9801.000000;0.684541
9800.000000;0.684587
9799.000000;0.684865
9798.000000;0.685085
9797.000000;0.685027
9796.000000;0.684683
9795.000000;0.684218
9794.000000;0.683890
9793.000000;0.683908
9792.000000;0.684219
9791.000000;0.684489
9790.000000;0.684426
9789.000000;0.684117
9788.000000;0.683931
9787.000000;0.684073
9786.000000;0.684325
9785.000000;0.684279
9784.000000;0.683758
9783.000000;0.682975
9782.000000;0.682327
9781.000000;0.682097
9780.000000;0.682292
9779.000000;0.682626
9778.000000;0.682681
9777.000000;0.682213
9776.000000;0.681429
9775.000000;0.680847
9774.000000;0.680787
9773.000000;0.681009
9772.000000;0.680992
9771.000000;0.680568
9770.000000;0.680146
9769.000000;0.680230
9768.000000;0.680807
9767.000000;0.681322
9766.000000;0.681230
9765.000000;0.680512
9764.000000;0.679627
9763.000000;0.679049
9762.000000;0.678875
9761.000000;0.678880
9760.000000;0.678841
9759.000000;0.678765
9758.000000;0.678786
9757.000000;0.678964
9756.000000;0.679235
9755.000000;0.679518
9754.000000;0.679758
9753.000000;0.679887
9752.000000;0.679860
9751.000000;0.679758
9750.000000;0.679751
9749.000000;0.679901
9748.000000;0.680062
9747.000000;0.680021
9746.000000;0.679735
9745.000000;0.679376
9744.000000;0.679180
9743.000000;0.679267
9742.000000;0.679562
9741.000000;0.679873
9740.000000;0.680027
9739.000000;0.679945
9738.000000;0.679621
9737.000000;0.679103
9736.000000;0.678550
9735.000000;0.678187
9734.000000;0.678113
9733.000000;0.678164
9732.000000;0.678094
9731.000000;0.677845
9730.000000;0.677548
9729.000000;0.677300
9728.000000;0.677127
9727.000000;0.677103
9726.000000;0.677315
9725.000000;0.677648
9724.000000;0.677794
9723.000000;0.677598
9722.000000;0.677254
9721.000000;0.677043
9720.000000;0.676985
9719.000000;0.676890
9718.000000;0.676656
9717.000000;0.676362
9716.000000;0.676119
9715.000000;0.675933
9714.000000;0.675734
9713.000000;0.675465
9712.000000;0.675182
9711.000000;0.675062
9710.000000;0.675222
9709.000000;0.675541
9708.000000;0.675767
9707.000000;0.675873
9706.000000;0.676092
9705.000000;0.676481
9704.000000;0.676638
9703.000000;0.676100
9702.000000;0.674986
9701.000000;0.674002
9700.000000;0.673775
9699.000000;0.674334
9698.000000;0.675219
9697.000000;0.675922
9696.000000;0.676160
9695.000000;0.675906
9694.000000;0.675328
9693.000000;0.674683
9692.000000;0.674192
9691.000000;0.673939
9690.000000;0.673871
9689.000000;0.673861
9688.000000;0.673815
9687.000000;0.673763
9686.000000;0.673812
9685.000000;0.673961
9684.000000;0.674009
9683.000000;0.673754
9682.000000;0.673280
9681.000000;0.672948
9680.000000;0.673011
9679.000000;0.673314
9678.000000;0.673430
9677.000000;0.673097
9676.000000;0.672469
9675.000000;0.671913
9674.000000;0.671644
9673.000000;0.671579
9672.000000;0.671548
9671.000000;0.671540
9670.000000;0.671668
9669.000000;0.671939
9668.000000;0.672188
9667.000000;0.672276
9666.000000;0.672256
9665.000000;0.672250
9664.000000;0.672238
9663.000000;0.672073
9662.000000;0.671724
9661.000000;0.671391
9660.000000;0.671326
9659.000000;0.671538
9658.000000;0.671722
9657.000000;0.671543
9656.000000;0.670997
9655.000000;0.670437
9654.000000;0.670211
9653.000000;0.670332
9652.000000;0.670563
9651.000000;0.670711
9650.000000;0.670698
9649.000000;0.670459
9648.000000;0.669983
9647.000000;0.669500
9646.000000;0.669364
9645.000000;0.669644
9644.000000;0.669978
9643.000000;0.669976
9642.000000;0.669651
9641.000000;0.669321
9640.000000;0.669234
9639.000000;0.669423
9638.000000;0.669822
9637.000000;0.670302
9636.000000;0.670621
9635.000000;0.670526
9634.000000;0.669966
9633.000000;0.669148
9632.000000;0.668375
9631.000000;0.667908
9630.000000;0.667875
9629.000000;0.668185
9628.000000;0.668539
9627.000000;0.668684
9626.000000;0.668644
9625.000000;0.668634
9624.000000;0.668751
9623.000000;0.668874
9622.000000;0.668833
9621.000000;0.668533
9620.000000;0.667941
9619.000000;0.667113
9618.000000;0.666301
9617.000000;0.665856
9616.000000;0.665918
9615.000000;0.666270
9614.000000;0.666586
9613.000000;0.666775
9612.000000;0.666994
9611.000000;0.667374
9610.000000;0.667818
9609.000000;0.668097
9608.000000;0.668061
9607.000000;0.667749
9606.000000;0.667323
9605.000000;0.666960
9604.000000;0.666792
9603.000000;0.666826
9602.000000;0.666861
9601.000000;0.666575
9600.000000;0.665856
9599.000000;0.665053
9598.000000;0.664748
9597.000000;0.665182
9596.000000;0.666003
9595.000000;0.666646
9594.000000;0.666885
9593.000000;0.666911
9592.000000;0.666957
9591.000000;0.667037
9590.000000;0.667040
9589.000000;0.666922
9588.000000;0.666723
9587.000000;0.666478
9586.000000;0.666165
9585.000000;0.665734
9584.000000;0.665174
9583.000000;0.664566
9582.000000;0.664051
9581.000000;0.663696
9580.000000;0.663447
9579.000000;0.663250
9578.000000;0.663162
9577.000000;0.663284
9576.000000;0.663612
9575.000000;0.664042
9574.000000;0.664509
9573.000000;0.665005
9572.000000;0.665454
9571.000000;0.665696
9570.000000;0.665614
9569.000000;0.665254
9568.000000;0.664788
9567.000000;0.664419
9566.000000;0.664286
9565.000000;0.664381
9564.000000;0.664516
9563.000000;0.664460
9562.000000;0.664138
9561.000000;0.663639
9560.000000;0.663048
9559.000000;0.662364
9558.000000;0.661641
9557.000000;0.661100
9556.000000;0.660985
9555.000000;0.661277
9554.000000;0.661673
9553.000000;0.661867
9552.000000;0.661821
9551.000000;0.661734
9550.000000;0.661771
9549.000000;0.661906
9548.000000;0.662016
9547.000000;0.662029
9546.000000;0.661941
9545.000000;0.661754
9544.000000;0.661510
9543.000000;0.661345
9542.000000;0.661387
9541.000000;0.661552
9540.000000;0.661543
9539.000000;0.661159
9538.000000;0.660559
9537.000000;0.660134
9536.000000;0.660143
9535.000000;0.660503
9534.000000;0.660904
9533.000000;0.661084
9532.000000;0.661033
9531.000000;0.660966
9530.000000;0.661057
9529.000000;0.661202
9528.000000;0.661128
9527.000000;0.660785
9526.000000;0.660516
9525.000000;0.660687
9524.000000;0.661222
9523.000000;0.661641
9522.000000;0.661573
9521.000000;0.661084
9520.000000;0.660494
9519.000000;0.660009
9518.000000;0.659628
9517.000000;0.659299
9516.000000;0.659029
9515.000000;0.658859
9514.000000;0.658816
9513.000000;0.658928
9512.000000;0.659221
9511.000000;0.659654
9510.000000;0.660060
9509.000000;0.660217
9508.000000;0.660044
9507.000000;0.659716
9506.000000;0.659512
9505.000000;0.659506
9504.000000;0.659484
9503.000000;0.659227
9502.000000;0.658802
9501.000000;0.658473
9500.000000;0.658380
9499.000000;0.658427
9498.000000;0.658477
9497.000000;0.658522
9496.000000;0.658610
9495.000000;0.658716
9494.000000;0.658733
9493.000000;0.658588
9492.000000;0.658315
9491.000000;0.658068
9490.000000;0.658018
9489.000000;0.658169
9488.000000;0.658257
9487.000000;0.657982
9486.000000;0.657367
9485.000000;0.656793
9484.000000;0.656599
9483.000000;0.656737
9482.000000;0.656921
9481.000000;0.657014
9480.000000;0.657093
9479.000000;0.657171
9478.000000;0.657059
9477.000000;0.656619
9476.000000;0.656020
9475.000000;0.655620
9474.000000;0.655623
9473.000000;0.655908
9472.000000;0.656176
9471.000000;0.656193
9470.000000;0.655935
9469.000000;0.655585
9468.000000;0.655356
9467.000000;0.655279
9466.000000;0.655175
9465.000000;0.654895
9464.000000;0.654533
9463.000000;0.654302
9462.000000;0.654251
9461.000000;0.654262
9460.000000;0.654325
9459.000000;0.654607
9458.000000;0.655159
9457.000000;0.655701
9456.000000;0.655857
9455.000000;0.655574
9454.000000;0.655187
9453.000000;0.655062
9452.000000;0.655258
9451.000000;0.655521
9450.000000;0.655527
9449.000000;0.655168
9448.000000;0.654638
9447.000000;0.654224
9446.000000;0.654006
9445.000000;0.653837
9444.000000;0.653643
9443.000000;0.653605
9442.000000;0.653883
9441.000000;0.654294
9440.000000;0.654468
9439.000000;0.654316
9438.000000;0.654130
9437.000000;0.654176
9436.000000;0.654343
9435.000000;0.654280
9434.000000;0.653790
9433.000000;0.653026
9432.000000;0.652368
9431.000000;0.652119
9430.000000;0.652271
9429.000000;0.652526
9428.000000;0.652606
9427.000000;0.652515
9426.000000;0.652413
9425.000000;0.652314
9424.000000;0.652074
9423.000000;0.651661
9422.000000;0.651253
9421.000000;0.651027
9420.000000;0.650997
9419.000000;0.651083
9418.000000;0.651207
9417.000000;0.651275
9416.000000;0.651244
9415.000000;0.651231
9414.000000;0.651388
9413.000000;0.651628
9412.000000;0.651679
9411.000000;0.651509
9410.000000;0.651453
9409.000000;0.651768
9408.000000;0.652255
9407.000000;0.652517
9406.000000;0.652451
9405.000000;0.652269
9404.000000;0.652128
9403.000000;0.651957
9402.000000;0.651630
9401.000000;0.651119
9400.000000;0.650504
9399.000000;0.649962
9398.000000;0.649697
9397.000000;0.649768
9396.000000;0.649993
9395.000000;0.650161
9394.000000;0.650262
9393.000000;0.650389
9392.000000;0.650481
9391.000000;0.650380
9390.000000;0.650105
9389.000000;0.649873
9388.000000;0.649808
9387.000000;0.649774
9386.000000;0.649578
9385.000000;0.649204
9384.000000;0.648799
9383.000000;0.648531
9382.000000;0.648501
9381.000000;0.648718
9380.000000;0.649089
9379.000000;0.649477
9378.000000;0.649778
9377.000000;0.649932
9376.000000;0.649893
9375.000000;0.649666
9374.000000;0.649347
9373.000000;0.649026
9372.000000;0.648673
9371.000000;0.648216
9370.000000;0.647720
9369.000000;0.647384
9368.000000;0.647316
9367.000000;0.647399
9366.000000;0.647425
9365.000000;0.647314
9364.000000;0.647176
9363.000000;0.647185
9362.000000;0.647395
9361.000000;0.647665
9360.000000;0.647776
9359.000000;0.647666
9358.000000;0.647502
9357.000000;0.647474
9356.000000;0.647549
9355.000000;0.647527
9354.000000;0.647299
9353.000000;0.646977
9352.000000;0.646768
9351.000000;0.646794
9350.000000;0.647010
9349.000000;0.647212
9348.000000;0.647156
9347.000000;0.646764
9346.000000;0.646237
9345.000000;0.645871
9344.000000;0.645757
9343.000000;0.645757
9342.000000;0.645763
9341.000000;0.645851
9340.000000;0.646119
9339.000000;0.646452
9338.000000;0.646549
9337.000000;0.646199
9336.000000;0.645497
9335.000000;0.644800
9334.000000;0.644435
9333.000000;0.644415
9332.000000;0.644454
9331.000000;0.644284
9330.000000;0.643957
9329.000000;0.643784
9328.000000;0.644013
9327.000000;0.644625
9326.000000;0.645385
9325.000000;0.646000
9324.000000;0.646266
9323.000000;0.646156
9322.000000;0.645825
9321.000000;0.645462
9320.000000;0.645139
9319.000000;0.644844
9318.000000;0.644602
9317.000000;0.644452
9316.000000;0.644320
9315.000000;0.644046
9314.000000;0.643616
9313.000000;0.643281
9312.000000;0.643356
9311.000000;0.643881
9310.000000;0.644520
9309.000000;0.644822
9308.000000;0.644615
9307.000000;0.644149
9306.000000;0.643821
9305.000000;0.643736
9304.000000;0.643614
9303.000000;0.643197
9302.000000;0.642652
9301.000000;0.642418
9300.000000;0.642682
9299.000000;0.643149
9298.000000;0.643379
9297.000000;0.643248
9296.000000;0.643005
9295.000000;0.642952
9294.000000;0.643139
9293.000000;0.643319
9292.000000;0.643177
9291.000000;0.642634
9290.000000;0.641957
9289.000000;0.641529
9288.000000;0.641482
9287.000000;0.641606
9286.000000;0.641622
9285.000000;0.641479
9284.000000;0.641331
9283.000000;0.641325
9282.000000;0.641459
9281.000000;0.641625
9280.000000;0.641682
9279.000000;0.641516
9278.000000;0.641120
9277.000000;0.640653
9276.000000;0.640352
9275.000000;0.640315
9274.000000;0.640394
9273.000000;0.640332
9272.000000;0.640045
9271.000000;0.639692
9270.000000;0.639468
9269.000000;0.639372
9268.000000;0.639273
9267.000000;0.639148
9266.000000;0.639152
9265.000000;0.639405
9264.000000;0.639802
9263.000000;0.640110
9262.000000;0.640188
9261.000000;0.640066
9260.000000;0.639848
9259.000000;0.639609
9258.000000;0.639380
9257.000000;0.639164
9256.000000;0.638968
9255.000000;0.638829
9254.000000;0.638769
9253.000000;0.638718
9252.000000;0.638570
9251.000000;0.638393
9250.000000;0.638448
9249.000000;0.638868
9248.000000;0.639363
9247.000000;0.639424
9246.000000;0.638860
9245.000000;0.638014
9244.000000;0.637409
9243.000000;0.637265
9242.000000;0.637397
9241.000000;0.637499
9240.000000;0.637451
9239.000000;0.637416
9238.000000;0.637655
9237.000000;0.638227
9236.000000;0.638862
9235.000000;0.639180
9234.000000;0.639021
9233.000000;0.638542
9232.000000;0.637998
9231.000000;0.637544
9230.000000;0.637229
9229.000000;0.637047
9228.000000;0.636930
9227.000000;0.636770
9226.000000;0.636540
9225.000000;0.636341
9224.000000;0.636281
9223.000000;0.636333
9222.000000;0.636367
9221.000000;0.636313
9220.000000;0.636212
9219.000000;0.636118
9218.000000;0.636006
9217.000000;0.635809
9216.000000;0.635547
9215.000000;0.635366
9214.000000;0.635407
9213.000000;0.635638
9212.000000;0.635858
9211.000000;0.635906
9210.000000;0.635811
9209.000000;0.635709
9208.000000;0.635630
9207.000000;0.635461
9206.000000;0.635120
9205.000000;0.634703
9204.000000;0.634430
9203.000000;0.634448
9202.000000;0.634679
9201.000000;0.634865
9200.000000;0.634793
9199.000000;0.634512
9198.000000;0.634287
9197.000000;0.634302
9196.000000;0.634470
9195.000000;0.634594
9194.000000;0.634620
9193.000000;0.634619
9192.000000;0.634559
9191.000000;0.634291
9190.000000;0.633806
9189.000000;0.633346
9188.000000;0.633153
9187.000000;0.633205
9186.000000;0.633278
9185.000000;0.633218
9184.000000;0.633048
9183.000000;0.632869
9182.000000;0.632756
9181.000000;0.632752
9180.000000;0.632864
9179.000000;0.633032
9178.000000;0.633136
9177.000000;0.633089
9176.000000;0.632925
9175.000000;0.632778
9174.000000;0.632773
9173.000000;0.632903
9172.000000;0.633022
9171.000000;0.632942
9170.000000;0.632566
9169.000000;0.631955
9168.000000;0.631308
9167.000000;0.630870
9166.000000;0.630791
9165.000000;0.631007
9164.000000;0.631289
9163.000000;0.631435
9162.000000;0.631430
9161.000000;0.631407
9160.000000;0.631490
9159.000000;0.631699
9158.000000;0.631944
9157.000000;0.632040
9156.000000;0.631828
9155.000000;0.631375
9154.000000;0.631007
9153.000000;0.630988
9152.000000;0.631184
9151.000000;0.631194
9150.000000;0.630848
9149.000000;0.630416
9148.000000;0.630227
9147.000000;0.630223
9146.000000;0.630050
9145.000000;0.629523
9144.000000;0.628849
9143.000000;0.628379
9142.000000;0.628270
9141.000000;0.628421
9140.000000;0.628654
9139.000000;0.628891
9138.000000;0.629193
9137.000000;0.629667
9136.000000;0.630282
9135.000000;0.630797
9134.000000;0.630931
9133.000000;0.630672
9132.000000;0.630355
9131.000000;0.630326
9130.000000;0.630563
9129.000000;0.630676
9128.000000;0.630341
9127.000000;0.629666
9126.000000;0.629071
9125.000000;0.628873
9124.000000;0.629038
9123.000000;0.629307
9122.000000;0.629457
9121.000000;0.629423
9120.000000;0.629281
9119.000000;0.629164
9118.000000;0.629144
9117.000000;0.629154
9116.000000;0.629047
9115.000000;0.628771
9114.000000;0.628430
9113.000000;0.628152
9112.000000;0.627961
9111.000000;0.627820
9110.000000;0.627733
9109.000000;0.627699
9108.000000;0.627640
9107.000000;0.627486
9106.000000;0.627316
9105.000000;0.627263
9104.000000;0.627299
9103.000000;0.627232
9102.000000;0.626960
9101.000000;0.626618
9100.000000;0.626383
9099.000000;0.626264
9098.000000;0.626166
9097.000000;0.626081
9096.000000;0.626057
9095.000000;0.626022
9094.000000;0.625823
9093.000000;0.625457
9092.000000;0.625154
9091.000000;0.625141
9090.000000;0.625391
9089.000000;0.625695
9088.000000;0.625918
9087.000000;0.626068
9086.000000;0.626164
9085.000000;0.626146
9084.000000;0.625991
9083.000000;0.625788
9082.000000;0.625622
9081.000000;0.625448
9080.000000;0.625167
9079.000000;0.624812
9078.000000;0.624540
9077.000000;0.624446
9076.000000;0.624464
9075.000000;0.624497
9074.000000;0.624544
9073.000000;0.624647
9072.000000;0.624771
9071.000000;0.624818
9070.000000;0.624728
9069.000000;0.624533
9068.000000;0.624334
9067.000000;0.624247
9066.000000;0.624319
9065.000000;0.624463
9064.000000;0.624495
9063.000000;0.624315
9062.000000;0.624014
9061.000000;0.623783
9060.000000;0.623738
9059.000000;0.623833
9058.000000;0.623916
9057.000000;0.623844
9056.000000;0.623602
9055.000000;0.623329
9054.000000;0.623198
9053.000000;0.623218
