Criado como novo conjunto de dados;"2706_e01_daniel.spp","57245.0 Secs"
cm-1;Abs
10000.000000;0.815595
9999.000000;0.815570
9998.000000;0.815482
9997.000000;0.815400
9996.000000;0.815384
9995.000000;0.815160
9994.000000;0.814242
9993.000000;0.812695
9992.000000;0.811426
9991.000000;0.811297
9990.000000;0.812160
9989.000000;0.813139
9988.000000;0.813662
9987.000000;0.813793
9986.000000;0.813697
9985.000000;0.813330
9984.000000;0.812725
9983.000000;0.812112
9982.000000;0.811611
9981.000000;0.811105
9980.000000;0.810541
9979.000000;0.810095
9978.000000;0.809935
9977.000000;0.810057
9976.000000;0.810415
9975.000000;0.810974
9974.000000;0.811511
9973.000000;0.811623
9972.000000;0.811129
9971.000000;0.810317
9970.000000;0.809669
9969.000000;0.809433
9968.000000;0.809537
9967.000000;0.809760
9966.000000;0.809902
9965.000000;0.809887
9964.000000;0.809809
9963.000000;0.809797
9962.000000;0.809843
9961.000000;0.809870
9960.000000;0.809967
9959.000000;0.810321
9958.000000;0.810853
9957.000000;0.811143
9956.000000;0.810902
9955.000000;0.810355
9954.000000;0.809949
9953.000000;0.809804
9952.000000;0.809678
9951.000000;0.809396
9950.000000;0.809063
9949.000000;0.808811
9948.000000;0.808582
9947.000000;0.808285
9946.000000;0.807989
9945.000000;0.807786
9944.000000;0.807561
9943.000000;0.807132
9942.000000;0.806620
9941.000000;0.806449
9940.000000;0.806870
9939.000000;0.807601
9938.000000;0.808082
9937.000000;0.808024
9936.000000;0.807563
9935.000000;0.806948
9934.000000;0.806283
9933.000000;0.805628
9932.000000;0.805167
9931.000000;0.805120
9930.000000;0.805520
9929.000000;0.806173
9928.000000;0.806836
9927.000000;0.807429
9926.000000;0.808011
9925.000000;0.808572
9924.000000;0.808852
9923.000000;0.808509
9922.000000;0.807536
9921.000000;0.806438
9920.000000;0.805807
9919.000000;0.805748
9918.000000;0.805867
9917.000000;0.805805
9916.000000;0.805607
9915.000000;0.805509
9914.000000;0.805601
9913.000000;0.805807
9912.000000;0.806060
9911.000000;0.806317
9910.000000;0.806498
9909.000000;0.806547
9908.000000;0.806499
9907.000000;0.806393
9906.000000;0.806189
9905.000000;0.805848
9904.000000;0.805430
9903.000000;0.805005
9902.000000;0.804555
9901.000000;0.804053
9900.000000;0.803610
9899.000000;0.803402
9898.000000;0.803457
9897.000000;0.803635
9896.000000;0.803814
9895.000000;0.804009
9894.000000;0.804297
9893.000000;0.804643
9892.000000;0.804823
9891.000000;0.804556
9890.000000;0.803768
9889.000000;0.802734
9888.000000;0.801876
9887.000000;0.801431
9886.000000;0.801355
9885.000000;0.801475
9884.000000;0.801595
9883.000000;0.801491
9882.000000;0.801065
9881.000000;0.800580
9880.000000;0.800526
9879.000000;0.801107
9878.000000;0.801955
9877.000000;0.802482
9876.000000;0.802400
9875.000000;0.801821
9874.000000;0.801031
9873.000000;0.800349
9872.000000;0.800056
9871.000000;0.800195
9870.000000;0.800470
9869.000000;0.800570
9868.000000;0.800559
9867.000000;0.800759
9866.000000;0.801274
9865.000000;0.801798
9864.000000;0.801950
9863.000000;0.801664
9862.000000;0.801159
9861.000000;0.800672
9860.000000;0.800338
9859.000000;0.800246
9858.000000;0.800458
9857.000000;0.800891
9856.000000;0.801226
9855.000000;0.801092
9854.000000;0.800470
9853.000000;0.799844
9852.000000;0.799783
9851.000000;0.800316
9850.000000;0.800846
9849.000000;0.800768
9848.000000;0.800070
9847.000000;0.799243
9846.000000;0.798703
9845.000000;0.798475
9844.000000;0.798369
9843.000000;0.798292
9842.000000;0.798329
9841.000000;0.798569
9840.000000;0.798917
9839.000000;0.799092
9838.000000;0.798877
9837.000000;0.798382
9836.000000;0.798005
9835.000000;0.798115
9834.000000;0.798776
9833.000000;0.799706
9832.000000;0.800407
9831.000000;0.800408
9830.000000;0.799591
9829.000000;0.798340
9828.000000;0.797221
9827.000000;0.796495
9826.000000;0.796079
9825.000000;0.795944
9824.000000;0.796240
9823.000000;0.796893
9822.000000;0.797401
9821.000000;0.797327
9820.000000;0.796852
9819.000000;0.796546
9818.000000;0.796666
9817.000000;0.796925
9816.000000;0.796932
9815.000000;0.796634
9814.000000;0.796290
9813.000000;0.796189
9812.000000;0.796434
9811.000000;0.796884
9810.000000;0.797261
9809.000000;0.797375
9808.000000;0.797230
9807.000000;0.796893
9806.000000;0.796377
9805.000000;0.795750
9804.000000;0.795191
9803.000000;0.794775
9802.000000;0.794304
9801.000000;0.793624
9800.000000;0.793014
9799.000000;0.792967
9798.000000;0.793538
9797.000000;0.794154
9796.000000;0.794191
9795.000000;0.793615
9794.000000;0.792944
9793.000000;0.792689
9792.000000;0.792915
9791.000000;0.793269
9790.000000;0.793347
9789.000000;0.793067
9788.000000;0.792725
9787.000000;0.792687
9786.000000;0.793040
9785.000000;0.793592
9784.000000;0.794134
9783.000000;0.794594
9782.000000;0.794946
9781.000000;0.795089
9780.000000;0.794895
9779.000000;0.794348
9778.000000;0.793642
9777.000000;0.793128
9776.000000;0.793067
9775.000000;0.793340
9774.000000;0.793476
9773.000000;0.793120
9772.000000;0.792422
9771.000000;0.791833
9770.000000;0.791567
9769.000000;0.791465
9768.000000;0.791354
9767.000000;0.791292
9766.000000;0.791358
9765.000000;0.791432
9764.000000;0.791350
9763.000000;0.791148
9762.000000;0.790976
9761.000000;0.790850
9760.000000;0.790689
9759.000000;0.790551
9758.000000;0.790640
9757.000000;0.790997
9756.000000;0.791335
9755.000000;0.791325
9754.000000;0.790994
9753.000000;0.790740
9752.000000;0.790919
9751.000000;0.791500
9750.000000;0.792150
9749.000000;0.792561
9748.000000;0.792614
9747.000000;0.792315
9746.000000;0.791736
9745.000000;0.791081
9744.000000;0.790658
9743.000000;0.790629
9742.000000;0.790823
9741.000000;0.790868
9740.000000;0.790536
9739.000000;0.789910
9738.000000;0.789245
9737.000000;0.788739
9736.000000;0.788421
9735.000000;0.788191
9734.000000;0.787940
9733.000000;0.787664
9732.000000;0.787475
9731.000000;0.787479
9730.000000;0.787654
9729.000000;0.787890
9728.000000;0.788118
9727.000000;0.788353
9726.000000;0.788602
9725.000000;0.788777
9724.000000;0.788742
9723.000000;0.788451
9722.000000;0.788051
9721.000000;0.787812
9720.000000;0.787910
9719.000000;0.788251
9718.000000;0.788536
9717.000000;0.788527
9716.000000;0.788247
9715.000000;0.787957
9714.000000;0.787942
9713.000000;0.788316
9712.000000;0.788921
9711.000000;0.789431
9710.000000;0.789596
9709.000000;0.789424
9708.000000;0.789101
9707.000000;0.788792
9706.000000;0.788570
9705.000000;0.788474
9704.000000;0.788464
9703.000000;0.788314
9702.000000;0.787771
9701.000000;0.786907
9700.000000;0.786167
9699.000000;0.785929
9698.000000;0.786095
9697.000000;0.786252
9696.000000;0.786129
9695.000000;0.785759
9694.000000;0.785248
9693.000000;0.784616
9692.000000;0.783922
9691.000000;0.783380
9690.000000;0.783218
9689.000000;0.783430
9688.000000;0.783772
9687.000000;0.783994
9686.000000;0.784047
9685.000000;0.784049
9684.000000;0.784094
9683.000000;0.784174
9682.000000;0.784277
9681.000000;0.784450
9680.000000;0.784683
9679.000000;0.784841
9678.000000;0.784816
9677.000000;0.784701
9676.000000;0.784636
9675.000000;0.784535
9674.000000;0.784189
9673.000000;0.783676
9672.000000;0.783426
9671.000000;0.783730
9670.000000;0.784345
9669.000000;0.784766
9668.000000;0.784790
9667.000000;0.784631
9666.000000;0.784521
9665.000000;0.784420
9664.000000;0.784165
9663.000000;0.783773
9662.000000;0.783480
9661.000000;0.783472
9660.000000;0.783662
9659.000000;0.783794
9658.000000;0.783781
9657.000000;0.783845
9656.000000;0.784178
9655.000000;0.784548
9654.000000;0.784457
9653.000000;0.783750
9652.000000;0.782850
9651.000000;0.782280
9650.000000;0.782147
9649.000000;0.782223
9648.000000;0.782307
9647.000000;0.782314
9646.000000;0.782160
9645.000000;0.781837
9644.000000;0.781541
9643.000000;0.781525
9642.000000;0.781820
9641.000000;0.782236
9640.000000;0.782578
9639.000000;0.782715
9638.000000;0.782541
9637.000000;0.782096
9636.000000;0.781661
9635.000000;0.781542
9634.000000;0.781731
9633.000000;0.781973
9632.000000;0.782116
9631.000000;0.782173
9630.000000;0.782095
9629.000000;0.781769
9628.000000;0.781291
9627.000000;0.780969
9626.000000;0.780957
9625.000000;0.781089
9624.000000;0.781201
9623.000000;0.781366
9622.000000;0.781645
9621.000000;0.781821
9620.000000;0.781630
9619.000000;0.781158
9618.000000;0.780747
9617.000000;0.780558
9616.000000;0.780415
9615.000000;0.780120
9614.000000;0.779726
9613.000000;0.779413
9612.000000;0.779227
9611.000000;0.779059
9610.000000;0.778845
9609.000000;0.778668
9608.000000;0.778638
9607.000000;0.778735
9606.000000;0.778840
9605.000000;0.778879
9604.000000;0.778873
9603.000000;0.778845
9602.000000;0.778787
9601.000000;0.778761
9600.000000;0.778931
9599.000000;0.779347
9598.000000;0.779795
9597.000000;0.779977
9596.000000;0.779856
9595.000000;0.779671
9594.000000;0.779607
9593.000000;0.779588
9592.000000;0.779440
9591.000000;0.779124
9590.000000;0.778763
9589.000000;0.778552
9588.000000;0.778653
9587.000000;0.779069
9586.000000;0.779540
9585.000000;0.779700
9584.000000;0.779427
9583.000000;0.778928
9582.000000;0.778414
9581.000000;0.777848
9580.000000;0.777150
9579.000000;0.776512
9578.000000;0.776275
9577.000000;0.776512
9576.000000;0.776929
9575.000000;0.777210
9574.000000;0.777296
9573.000000;0.777274
9572.000000;0.777142
9571.000000;0.776833
9570.000000;0.776409
9569.000000;0.776116
9568.000000;0.776211
9567.000000;0.776735
9566.000000;0.777421
9565.000000;0.777848
9564.000000;0.777769
9563.000000;0.777356
9562.000000;0.777052
9561.000000;0.777118
9560.000000;0.777356
9559.000000;0.777376
9558.000000;0.777076
9557.000000;0.776760
9556.000000;0.776736
9555.000000;0.776917
9554.000000;0.776910
9553.000000;0.776436
9552.000000;0.775583
9551.000000;0.774705
9550.000000;0.774162
9549.000000;0.774150
9548.000000;0.774607
9547.000000;0.775198
9546.000000;0.775496
9545.000000;0.775303
9544.000000;0.774798
9543.000000;0.774334
9542.000000;0.774109
9541.000000;0.774077
9540.000000;0.774102
9539.000000;0.774083
9538.000000;0.773970
9537.000000;0.773754
9536.000000;0.773511
9535.000000;0.773364
9534.000000;0.773366
9533.000000;0.773452
9532.000000;0.773529
9531.000000;0.773543
9530.000000;0.773459
9529.000000;0.773248
9528.000000;0.772964
9527.000000;0.772736
9526.000000;0.772634
9525.000000;0.772576
9524.000000;0.772453
9523.000000;0.772299
9522.000000;0.772250
9521.000000;0.772338
9520.000000;0.772448
9519.000000;0.772476
9518.000000;0.772441
9517.000000;0.772425
9516.000000;0.772483
9515.000000;0.772671
9514.000000;0.773025
9513.000000;0.773426
9512.000000;0.773576
9511.000000;0.773271
9510.000000;0.772699
9509.000000;0.772320
9508.000000;0.772386
9507.000000;0.772686
9506.000000;0.772802
9505.000000;0.772553
9504.000000;0.772093
9503.000000;0.771687
9502.000000;0.771526
9501.000000;0.771693
9500.000000;0.772119
9499.000000;0.772529
9498.000000;0.772579
9497.000000;0.772174
9496.000000;0.771589
9495.000000;0.771190
9494.000000;0.771068
9493.000000;0.771018
9492.000000;0.770825
9491.000000;0.770485
9490.000000;0.770158
9489.000000;0.769988
9488.000000;0.769992
9487.000000;0.770069
9486.000000;0.770097
9485.000000;0.770045
9484.000000;0.769997
9483.000000;0.770023
9482.000000;0.770059
9481.000000;0.769966
9480.000000;0.769714
9479.000000;0.769419
9478.000000;0.769173
9477.000000;0.768949
9476.000000;0.768746
9475.000000;0.768719
9474.000000;0.769019
9473.000000;0.769515
9472.000000;0.769831
9471.000000;0.769708
9470.000000;0.769248
9469.000000;0.768740
9468.000000;0.768346
9467.000000;0.768044
9466.000000;0.767802
9465.000000;0.767673
9464.000000;0.767709
9463.000000;0.767873
9462.000000;0.768048
9461.000000;0.768088
9460.000000;0.767868
9459.000000;0.767422
9458.000000;0.767031
9457.000000;0.767030
9456.000000;0.767429
9455.000000;0.767817
9454.000000;0.767774
9453.000000;0.767319
9452.000000;0.766830
9451.000000;0.766568
9450.000000;0.766442
9449.000000;0.766267
9448.000000;0.766067
9447.000000;0.766010
9446.000000;0.766153
9445.000000;0.766379
9444.000000;0.766577
9443.000000;0.766757
9442.000000;0.766974
9441.000000;0.767199
9440.000000;0.767318
9439.000000;0.767206
9438.000000;0.766826
9437.000000;0.766271
9436.000000;0.765735
9435.000000;0.765426
9434.000000;0.765449
9433.000000;0.765726
9432.000000;0.766026
9431.000000;0.766090
9430.000000;0.765831
9429.000000;0.765441
9428.000000;0.765250
9427.000000;0.765388
9426.000000;0.765610
9425.000000;0.765546
9424.000000;0.765120
9423.000000;0.764647
9422.000000;0.764474
9421.000000;0.764614
9420.000000;0.764825
9419.000000;0.764968
9418.000000;0.765145
9417.000000;0.765427
9416.000000;0.765616
9415.000000;0.765399
9414.000000;0.764718
9413.000000;0.763882
9412.000000;0.763311
9411.000000;0.763240
9410.000000;0.763645
9409.000000;0.764301
9408.000000;0.764869
9407.000000;0.765038
9406.000000;0.764715
9405.000000;0.764075
9404.000000;0.763390
9403.000000;0.762849
9402.000000;0.762570
9401.000000;0.762637
9400.000000;0.763012
9399.000000;0.763460
9398.000000;0.763719
9397.000000;0.763761
9396.000000;0.763768
9395.000000;0.763845
9394.000000;0.763877
9393.000000;0.763708
9392.000000;0.763353
9391.000000;0.762971
9390.000000;0.762726
9389.000000;0.762743
9388.000000;0.763062
9387.000000;0.763543
9386.000000;0.763870
9385.000000;0.763808
9384.000000;0.763438
9383.000000;0.763043
9382.000000;0.762765
9381.000000;0.762490
9380.000000;0.762093
9379.000000;0.761668
9378.000000;0.761439
9377.000000;0.761510
9376.000000;0.761770
9375.000000;0.762013
9374.000000;0.762086
9373.000000;0.761955
9372.000000;0.761709
9371.000000;0.761512
9370.000000;0.761490
9369.000000;0.761607
9368.000000;0.761672
9367.000000;0.761524
9366.000000;0.761205
9365.000000;0.760924
9364.000000;0.760840
9363.000000;0.760891
9362.000000;0.760862
9361.000000;0.760631
9360.000000;0.760319
9359.000000;0.760175
9358.000000;0.760315
9357.000000;0.760618
9356.000000;0.760869
9355.000000;0.760970
9354.000000;0.760959
9353.000000;0.760869
9352.000000;0.760664
9351.000000;0.760335
9350.000000;0.759967
9349.000000;0.759655
9348.000000;0.759402
9347.000000;0.759175
9346.000000;0.759037
9345.000000;0.759107
9344.000000;0.759391
9343.000000;0.759701
9342.000000;0.759811
9341.000000;0.759626
9340.000000;0.759224
9339.000000;0.758796
9338.000000;0.758551
9337.000000;0.758584
9336.000000;0.758756
9335.000000;0.758775
9334.000000;0.758455
9333.000000;0.757879
9332.000000;0.757291
9331.000000;0.756881
9330.000000;0.756723
9329.000000;0.756829
9328.000000;0.757143
9327.000000;0.757501
9326.000000;0.757698
9325.000000;0.757652
9324.000000;0.757469
9323.000000;0.757337
9322.000000;0.757351
9321.000000;0.757440
9320.000000;0.757451
9319.000000;0.757341
9318.000000;0.757272
9317.000000;0.757449
9316.000000;0.757830
9315.000000;0.758070
9314.000000;0.757875
9313.000000;0.757379
9312.000000;0.757043
9311.000000;0.757167
9310.000000;0.757583
9309.000000;0.757871
9308.000000;0.757812
9307.000000;0.757551
9306.000000;0.757354
9305.000000;0.757277
9304.000000;0.757147
9303.000000;0.756835
9302.000000;0.756467
9301.000000;0.756286
9300.000000;0.756342
9299.000000;0.756445
9298.000000;0.756452
9297.000000;0.756449
9296.000000;0.756567
9295.000000;0.756702
9294.000000;0.756590
9293.000000;0.756125
9292.000000;0.755497
9291.000000;0.754987
9290.000000;0.754723
9289.000000;0.754647
9288.000000;0.754641
9287.000000;0.754662
9286.000000;0.754774
9285.000000;0.755039
9284.000000;0.755363
9283.000000;0.755505
9282.000000;0.755331
9281.000000;0.754984
9280.000000;0.754707
9279.000000;0.754546
9278.000000;0.754375
9277.000000;0.754194
9276.000000;0.754199
9275.000000;0.754511
9274.000000;0.754945
9273.000000;0.755160
9272.000000;0.754970
9271.000000;0.754468
9270.000000;0.753925
9269.000000;0.753600
9268.000000;0.753568
9267.000000;0.753652
9266.000000;0.753600
9265.000000;0.753384
9264.000000;0.753264
9263.000000;0.753471
9262.000000;0.753893
9261.000000;0.754164
9260.000000;0.754051
9259.000000;0.753670
9258.000000;0.753323
9257.000000;0.753172
9256.000000;0.753142
9255.000000;0.753084
9254.000000;0.752993
9253.000000;0.752982
9252.000000;0.753072
9251.000000;0.753094
9250.000000;0.752878
9249.000000;0.752478
9248.000000;0.752139
9247.000000;0.752051
9246.000000;0.752211
9245.000000;0.752463
9244.000000;0.752584
9243.000000;0.752381
9242.000000;0.751869
9241.000000;0.751346
9240.000000;0.751147
9239.000000;0.751268
9238.000000;0.751380
9237.000000;0.751238
9236.000000;0.750935
9235.000000;0.750696
9234.000000;0.750603
9233.000000;0.750635
9232.000000;0.750817
9231.000000;0.751139
9230.000000;0.751427
9229.000000;0.751489
9228.000000;0.751355
9227.000000;0.751235
9226.000000;0.751254
9225.000000;0.751377
9224.000000;0.751545
9223.000000;0.751702
9222.000000;0.751696
9221.000000;0.751328
9220.000000;0.750614
9219.000000;0.749857
9218.000000;0.749369
9217.000000;0.749203
9216.000000;0.749198
9215.000000;0.749235
9214.000000;0.749330
9213.000000;0.749527
9212.000000;0.749782
9211.000000;0.749989
9210.000000;0.750059
9209.000000;0.749952
9208.000000;0.749674
9207.000000;0.749286
9206.000000;0.748941
9205.000000;0.748839
9204.000000;0.749067
9203.000000;0.749439
9202.000000;0.749597
9201.000000;0.749341
9200.000000;0.748859
9199.000000;0.748538
9198.000000;0.748550
9197.000000;0.748679
9196.000000;0.748590
9195.000000;0.748205
9194.000000;0.747768
9193.000000;0.747569
9192.000000;0.747647
9191.000000;0.747786
9190.000000;0.747764
9189.000000;0.747560
9188.000000;0.747338
9187.000000;0.747263
9186.000000;0.747369
9185.000000;0.747573
9184.000000;0.747753
9183.000000;0.747793
9182.000000;0.747623
9181.000000;0.747261
9180.000000;0.746817
9179.000000;0.746446
9178.000000;0.746302
9177.000000;0.746496
9176.000000;0.747013
9175.000000;0.747630
9174.000000;0.748005
9173.000000;0.747936
9172.000000;0.747528
9171.000000;0.747046
9170.000000;0.746663
9169.000000;0.746406
9168.000000;0.746290
9167.000000;0.746349
9166.000000;0.746509
9165.000000;0.746546
9164.000000;0.746290
9163.000000;0.745848
9162.000000;0.745520
9161.000000;0.745475
9160.000000;0.745556
9159.000000;0.745453
9158.000000;0.745036
9157.000000;0.744496
9156.000000;0.744155
9155.000000;0.744177
9154.000000;0.744487
9153.000000;0.744904
9152.000000;0.745288
9151.000000;0.745540
9150.000000;0.745563
9149.000000;0.745301
9148.000000;0.744836
9147.000000;0.744392
9146.000000;0.744196
9145.000000;0.744323
9144.000000;0.744639
9143.000000;0.744902
9142.000000;0.744932
9141.000000;0.744708
9140.000000;0.744319
9139.000000;0.743864
9138.000000;0.743425
9137.000000;0.743123
9136.000000;0.743072
9135.000000;0.743265
9134.000000;0.743518
9133.000000;0.743614
9132.000000;0.743484
9131.000000;0.743231
9130.000000;0.742995
9129.000000;0.742861
9128.000000;0.742870
9127.000000;0.743044
9126.000000;0.743340
9125.000000;0.743607
9124.000000;0.743659
9123.000000;0.743435
9122.000000;0.743078
9121.000000;0.742836
9120.000000;0.742852
9119.000000;0.743061
9118.000000;0.743255
9117.000000;0.743232
9116.000000;0.742888
9115.000000;0.742261
9114.000000;0.741554
9113.000000;0.741080
9112.000000;0.741062
9111.000000;0.741431
9110.000000;0.741886
9109.000000;0.742173
9108.000000;0.742278
9107.000000;0.742296
9106.000000;0.742241
9105.000000;0.742037
9104.000000;0.741680
9103.000000;0.741267
9102.000000;0.740885
9101.000000;0.740562
9100.000000;0.740348
9099.000000;0.740340
9098.000000;0.740567
9097.000000;0.740874
9096.000000;0.741023
9095.000000;0.740913
9094.000000;0.740657
9093.000000;0.740449
9092.000000;0.740388
9091.000000;0.740449
9090.000000;0.740570
9089.000000;0.740711
9088.000000;0.740840
9087.000000;0.740926
9086.000000;0.740948
9085.000000;0.740896
9084.000000;0.740733
9083.000000;0.740407
9082.000000;0.739927
9081.000000;0.739392
9080.000000;0.738904
9079.000000;0.738498
9078.000000;0.738180
9077.000000;0.738024
9076.000000;0.738138
9075.000000;0.738523
9074.000000;0.739011
9073.000000;0.739371
9072.000000;0.739457
9071.000000;0.739291
9070.000000;0.739027
9069.000000;0.738851
9068.000000;0.738849
9067.000000;0.738971
9066.000000;0.739114
9065.000000;0.739224
9064.000000;0.739295
9063.000000;0.739312
9062.000000;0.739270
9061.000000;0.739225
9060.000000;0.739212
9059.000000;0.739149
9058.000000;0.738927
9057.000000;0.738618
9056.000000;0.738462
9055.000000;0.738568
9054.000000;0.738757
9053.000000;0.738775
