Criado como novo conjunto de dados;"2706_e01_daniel.spp","66245.8 Secs"
cm-1;Abs
10000.000000;0.710239
9999.000000;0.710420
9998.000000;0.710581
9997.000000;0.710786
9996.000000;0.710747
9995.000000;0.710279
9994.000000;0.709545
9993.000000;0.708723
9992.000000;0.707997
9991.000000;0.707402
9990.000000;0.706944
9989.000000;0.706743
9988.000000;0.706915
9987.000000;0.707302
9986.000000;0.707544
9985.000000;0.707471
9984.000000;0.707260
9983.000000;0.707170
9982.000000;0.707269
9981.000000;0.707459
9980.000000;0.707599
9979.000000;0.707532
9978.000000;0.707166
9977.000000;0.706604
9976.000000;0.706077
9975.000000;0.705729
9974.000000;0.705591
9973.000000;0.705718
9972.000000;0.706141
9971.000000;0.706670
9970.000000;0.706991
9969.000000;0.706990
9968.000000;0.706761
9967.000000;0.706307
9966.000000;0.705567
9965.000000;0.704804
9964.000000;0.704570
9963.000000;0.705076
9962.000000;0.705861
9961.000000;0.706301
9960.000000;0.706239
9959.000000;0.705886
9958.000000;0.705363
9957.000000;0.704687
9956.000000;0.704059
9955.000000;0.703805
9954.000000;0.704015
9953.000000;0.704466
9952.000000;0.704920
9951.000000;0.705290
9950.000000;0.705520
9949.000000;0.705501
9948.000000;0.705181
9947.000000;0.704645
9946.000000;0.704003
9945.000000;0.703288
9944.000000;0.702501
9943.000000;0.701750
9942.000000;0.701273
9941.000000;0.701268
9940.000000;0.701670
9939.000000;0.702136
9938.000000;0.702343
9937.000000;0.702256
9936.000000;0.702041
9935.000000;0.701786
9934.000000;0.701499
9933.000000;0.701282
9932.000000;0.701280
9931.000000;0.701389
9930.000000;0.701272
9929.000000;0.700807
9928.000000;0.700337
9927.000000;0.700270
9926.000000;0.700577
9925.000000;0.700885
9924.000000;0.701005
9923.000000;0.701159
9922.000000;0.701601
9921.000000;0.702196
9920.000000;0.702518
9919.000000;0.702333
9918.000000;0.701869
9917.000000;0.701531
9916.000000;0.701428
9915.000000;0.701318
9914.000000;0.701025
9913.000000;0.700706
9912.000000;0.700618
9911.000000;0.700732
9910.000000;0.700773
9909.000000;0.700538
9908.000000;0.700033
9907.000000;0.699398
9906.000000;0.698875
9905.000000;0.698762
9904.000000;0.699110
9903.000000;0.699482
9902.000000;0.699294
9901.000000;0.698467
9900.000000;0.697536
9899.000000;0.697068
9898.000000;0.697146
9897.000000;0.697462
9896.000000;0.697667
9895.000000;0.697551
9894.000000;0.697126
9893.000000;0.696667
9892.000000;0.696516
9891.000000;0.696709
9890.000000;0.696922
9889.000000;0.696880
9888.000000;0.696655
9887.000000;0.696461
9886.000000;0.696332
9885.000000;0.696162
9884.000000;0.695911
9883.000000;0.695631
9882.000000;0.695376
9881.000000;0.695218
9880.000000;0.695239
9879.000000;0.695401
9878.000000;0.695504
9877.000000;0.695393
9876.000000;0.695092
9875.000000;0.694650
9874.000000;0.694025
9873.000000;0.693293
9872.000000;0.692820
9871.000000;0.692984
9870.000000;0.693741
9869.000000;0.694651
9868.000000;0.695315
9867.000000;0.695647
9866.000000;0.695754
9865.000000;0.695766
9864.000000;0.695818
9863.000000;0.696009
9862.000000;0.696262
9861.000000;0.696341
9860.000000;0.696131
9859.000000;0.695782
9858.000000;0.695454
9857.000000;0.695029
9856.000000;0.694257
9855.000000;0.693226
9854.000000;0.692472
9853.000000;0.692481
9852.000000;0.693183
9851.000000;0.694017
9850.000000;0.694449
9849.000000;0.694322
9848.000000;0.693796
9847.000000;0.693186
9846.000000;0.692855
9845.000000;0.693016
9844.000000;0.693496
9843.000000;0.693846
9842.000000;0.693806
9841.000000;0.693567
9840.000000;0.693456
9839.000000;0.693532
9838.000000;0.693617
9837.000000;0.693576
9836.000000;0.693400
9835.000000;0.693109
9834.000000;0.692773
9833.000000;0.692543
9832.000000;0.692485
9831.000000;0.692443
9830.000000;0.692244
9829.000000;0.691965
9828.000000;0.691812
9827.000000;0.691799
9826.000000;0.691779
9825.000000;0.691730
9824.000000;0.691755
9823.000000;0.691815
9822.000000;0.691730
9821.000000;0.691454
9820.000000;0.691112
9819.000000;0.690694
9818.000000;0.690017
9817.000000;0.689117
9816.000000;0.688445
9815.000000;0.688461
9814.000000;0.689134
9813.000000;0.689987
9812.000000;0.690562
9811.000000;0.690718
9810.000000;0.690571
9809.000000;0.690320
9808.000000;0.690157
9807.000000;0.690191
9806.000000;0.690359
9805.000000;0.690438
9804.000000;0.690216
9803.000000;0.689745
9802.000000;0.689391
9801.000000;0.689503
9800.000000;0.689985
9799.000000;0.690292
9798.000000;0.689946
9797.000000;0.689007
9796.000000;0.687965
9795.000000;0.687286
9794.000000;0.687179
9793.000000;0.687619
9792.000000;0.688375
9791.000000;0.689015
9790.000000;0.689129
9789.000000;0.688646
9788.000000;0.687856
9787.000000;0.687144
9786.000000;0.686804
9785.000000;0.687009
9784.000000;0.687705
9783.000000;0.688491
9782.000000;0.688807
9781.000000;0.688386
9780.000000;0.687448
9779.000000;0.686437
9778.000000;0.685684
9777.000000;0.685330
9776.000000;0.685402
9775.000000;0.685829
9774.000000;0.686379
9773.000000;0.686717
9772.000000;0.686603
9771.000000;0.686108
9770.000000;0.685607
9769.000000;0.685444
9768.000000;0.685572
9767.000000;0.685631
9766.000000;0.685436
9765.000000;0.685251
9764.000000;0.685443
9763.000000;0.685999
9762.000000;0.686507
9761.000000;0.686545
9760.000000;0.685980
9759.000000;0.685027
9758.000000;0.684172
9757.000000;0.683903
9756.000000;0.684305
9755.000000;0.684949
9754.000000;0.685342
9753.000000;0.685392
9752.000000;0.685291
9751.000000;0.685108
9750.000000;0.684791
9749.000000;0.684442
9748.000000;0.684249
9747.000000;0.684134
9746.000000;0.683792
9745.000000;0.683156
9744.000000;0.682577
9743.000000;0.682442
9742.000000;0.682787
9741.000000;0.683337
9740.000000;0.683753
9739.000000;0.683803
9738.000000;0.683472
9737.000000;0.682987
9736.000000;0.682622
9735.000000;0.682439
9734.000000;0.682315
9733.000000;0.682159
9732.000000;0.681983
9731.000000;0.681811
9730.000000;0.681717
9729.000000;0.681887
9728.000000;0.682383
9727.000000;0.682894
9726.000000;0.682985
9725.000000;0.682607
9724.000000;0.682111
9723.000000;0.681743
9722.000000;0.681418
9721.000000;0.681051
9720.000000;0.680793
9719.000000;0.680809
9718.000000;0.681047
9717.000000;0.681362
9716.000000;0.681688
9715.000000;0.681923
9714.000000;0.681874
9713.000000;0.681488
9712.000000;0.681052
9711.000000;0.680940
9710.000000;0.681214
9709.000000;0.681558
9708.000000;0.681594
9707.000000;0.681223
9706.000000;0.680691
9705.000000;0.680333
9704.000000;0.680230
9703.000000;0.680167
9702.000000;0.679997
9701.000000;0.679909
9700.000000;0.680174
9699.000000;0.680711
9698.000000;0.681129
9697.000000;0.681168
9696.000000;0.680843
9695.000000;0.680224
9694.000000;0.679366
9693.000000;0.678506
9692.000000;0.678019
9691.000000;0.678035
9690.000000;0.678322
9689.000000;0.678610
9688.000000;0.678830
9687.000000;0.678943
9686.000000;0.678819
9685.000000;0.678451
9684.000000;0.678056
9683.000000;0.677803
9682.000000;0.677599
9681.000000;0.677312
9680.000000;0.677021
9679.000000;0.676903
9678.000000;0.676998
9677.000000;0.677244
9676.000000;0.677573
9675.000000;0.677859
9674.000000;0.677918
9673.000000;0.677723
9672.000000;0.677470
9671.000000;0.677283
9670.000000;0.677036
9669.000000;0.676620
9668.000000;0.676214
9667.000000;0.676048
9666.000000;0.676015
9665.000000;0.675801
9664.000000;0.675343
9663.000000;0.674928
9662.000000;0.674836
9661.000000;0.675086
9660.000000;0.675529
9659.000000;0.676019
9658.000000;0.676420
9657.000000;0.676578
9656.000000;0.676372
9655.000000;0.675788
9654.000000;0.674980
9653.000000;0.674298
9652.000000;0.674150
9651.000000;0.674652
9650.000000;0.675417
9649.000000;0.675842
9648.000000;0.675668
9647.000000;0.675173
9646.000000;0.674778
9645.000000;0.674565
9644.000000;0.674320
9643.000000;0.673952
9642.000000;0.673700
9641.000000;0.673847
9640.000000;0.674317
9639.000000;0.674720
9638.000000;0.674781
9637.000000;0.674614
9636.000000;0.674494
9635.000000;0.674477
9634.000000;0.674380
9633.000000;0.674067
9632.000000;0.673604
9631.000000;0.673136
9630.000000;0.672743
9629.000000;0.672444
9628.000000;0.672253
9627.000000;0.672197
9626.000000;0.672320
9625.000000;0.672646
9624.000000;0.673072
9623.000000;0.673358
9622.000000;0.673339
9621.000000;0.673150
9620.000000;0.673081
9619.000000;0.673214
9618.000000;0.673327
9617.000000;0.673201
9616.000000;0.672893
9615.000000;0.672643
9614.000000;0.672611
9613.000000;0.672769
9612.000000;0.672983
9611.000000;0.673117
9610.000000;0.673097
9609.000000;0.672920
9608.000000;0.672590
9607.000000;0.672108
9606.000000;0.671565
9605.000000;0.671202
9604.000000;0.671214
9603.000000;0.671505
9602.000000;0.671769
9601.000000;0.671815
9600.000000;0.671697
9599.000000;0.671489
9598.000000;0.671140
9597.000000;0.670631
9596.000000;0.670157
9595.000000;0.669993
9594.000000;0.670212
9593.000000;0.670596
9592.000000;0.670807
9591.000000;0.670638
9590.000000;0.670166
9589.000000;0.669722
9588.000000;0.669641
9587.000000;0.669974
9586.000000;0.670467
9585.000000;0.670838
9584.000000;0.671012
9583.000000;0.671056
9582.000000;0.670968
9581.000000;0.670646
9580.000000;0.670062
9579.000000;0.669382
9578.000000;0.668858
9577.000000;0.668618
9576.000000;0.668604
9575.000000;0.668720
9574.000000;0.668954
9573.000000;0.669281
9572.000000;0.669508
9571.000000;0.669388
9570.000000;0.668946
9569.000000;0.668545
9568.000000;0.668496
9567.000000;0.668722
9566.000000;0.668908
9565.000000;0.668904
9564.000000;0.668808
9563.000000;0.668736
9562.000000;0.668661
9561.000000;0.668499
9560.000000;0.668190
9559.000000;0.667711
9558.000000;0.667129
9557.000000;0.666647
9556.000000;0.666470
9555.000000;0.666588
9554.000000;0.666803
9553.000000;0.666947
9552.000000;0.667019
9551.000000;0.667083
9550.000000;0.667159
9549.000000;0.667233
9548.000000;0.667313
9547.000000;0.667439
9546.000000;0.667635
9545.000000;0.667847
9544.000000;0.667914
9543.000000;0.667694
9542.000000;0.667255
9541.000000;0.666844
9540.000000;0.666597
9539.000000;0.666422
9538.000000;0.666237
9537.000000;0.666151
9536.000000;0.666261
9535.000000;0.666402
9534.000000;0.666337
9533.000000;0.666109
9532.000000;0.665958
9531.000000;0.665944
9530.000000;0.665875
9529.000000;0.665628
9528.000000;0.665328
9527.000000;0.665162
9526.000000;0.665202
9525.000000;0.665396
9524.000000;0.665579
9523.000000;0.665504
9522.000000;0.665061
9521.000000;0.664483
9520.000000;0.664144
9519.000000;0.664119
9518.000000;0.664119
9517.000000;0.663876
9516.000000;0.663434
9515.000000;0.663031
9514.000000;0.662867
9513.000000;0.663007
9512.000000;0.663348
9511.000000;0.663620
9510.000000;0.663585
9509.000000;0.663307
9508.000000;0.663072
9507.000000;0.663040
9506.000000;0.663129
9505.000000;0.663246
9504.000000;0.663399
9503.000000;0.663545
9502.000000;0.663539
9501.000000;0.663350
9500.000000;0.663148
9499.000000;0.663040
9498.000000;0.662911
9497.000000;0.662609
9496.000000;0.662168
9495.000000;0.661722
9494.000000;0.661325
9493.000000;0.660991
9492.000000;0.660779
9491.000000;0.660738
9490.000000;0.660829
9489.000000;0.660998
9488.000000;0.661232
9487.000000;0.661462
9486.000000;0.661550
9485.000000;0.661458
9484.000000;0.661334
9483.000000;0.661308
9482.000000;0.661306
9481.000000;0.661171
9480.000000;0.660879
9479.000000;0.660524
9478.000000;0.660166
9477.000000;0.659811
9476.000000;0.659513
9475.000000;0.659389
9474.000000;0.659526
9473.000000;0.659906
9472.000000;0.660382
9471.000000;0.660706
9470.000000;0.660662
9469.000000;0.660268
9468.000000;0.659807
9467.000000;0.659593
9466.000000;0.659708
9465.000000;0.659985
9464.000000;0.660182
9463.000000;0.660150
9462.000000;0.659889
9461.000000;0.659519
9460.000000;0.659171
9459.000000;0.658907
9458.000000;0.658723
9457.000000;0.658619
9456.000000;0.658579
9455.000000;0.658535
9454.000000;0.658435
9453.000000;0.658342
9452.000000;0.658359
9451.000000;0.658446
9450.000000;0.658421
9449.000000;0.658199
9448.000000;0.657900
9447.000000;0.657696
9446.000000;0.657625
9445.000000;0.657626
9444.000000;0.657658
9443.000000;0.657704
9442.000000;0.657745
9441.000000;0.657791
9440.000000;0.657896
9439.000000;0.658053
9438.000000;0.658131
9437.000000;0.657960
9436.000000;0.657494
9435.000000;0.656873
9434.000000;0.656356
9433.000000;0.656159
9432.000000;0.656298
9431.000000;0.656559
9430.000000;0.656697
9429.000000;0.656688
9428.000000;0.656702
9427.000000;0.656828
9426.000000;0.656912
9425.000000;0.656737
9424.000000;0.656301
9423.000000;0.655838
9422.000000;0.655605
9421.000000;0.655679
9420.000000;0.655941
9419.000000;0.656197
9418.000000;0.656332
9417.000000;0.656346
9416.000000;0.656280
9415.000000;0.656144
9414.000000;0.655951
9413.000000;0.655772
9412.000000;0.655688
9411.000000;0.655705
9410.000000;0.655746
9409.000000;0.655730
9408.000000;0.655600
9407.000000;0.655313
9406.000000;0.654885
9405.000000;0.654426
9404.000000;0.654076
9403.000000;0.653913
9402.000000;0.653948
9401.000000;0.654162
9400.000000;0.654476
9399.000000;0.654718
9398.000000;0.654722
9397.000000;0.654449
9396.000000;0.653989
9395.000000;0.653484
9394.000000;0.653091
9393.000000;0.652952
9392.000000;0.653083
9391.000000;0.653331
9390.000000;0.653513
9389.000000;0.653566
9388.000000;0.653506
9387.000000;0.653327
9386.000000;0.653055
9385.000000;0.652820
9384.000000;0.652720
9383.000000;0.652684
9382.000000;0.652566
9381.000000;0.652373
9380.000000;0.652221
9379.000000;0.652122
9378.000000;0.651973
9377.000000;0.651754
9376.000000;0.651565
9375.000000;0.651471
9374.000000;0.651451
9373.000000;0.651532
9372.000000;0.651807
9371.000000;0.652255
9370.000000;0.652661
9369.000000;0.652795
9368.000000;0.652589
9367.000000;0.652108
9366.000000;0.651473
9365.000000;0.650856
9364.000000;0.650447
9363.000000;0.650323
9362.000000;0.650394
9361.000000;0.650497
9360.000000;0.650508
9359.000000;0.650402
9358.000000;0.650264
9357.000000;0.650235
9356.000000;0.650365
9355.000000;0.650500
9354.000000;0.650427
9353.000000;0.650111
9352.000000;0.649736
9351.000000;0.649519
9350.000000;0.649566
9349.000000;0.649859
9348.000000;0.650248
9347.000000;0.650473
9346.000000;0.650340
9345.000000;0.649927
9344.000000;0.649505
9343.000000;0.649261
9342.000000;0.649187
9341.000000;0.649216
9340.000000;0.649326
9339.000000;0.649474
9338.000000;0.649552
9337.000000;0.649481
9336.000000;0.649285
9335.000000;0.649044
9334.000000;0.648849
9333.000000;0.648781
9332.000000;0.648844
9331.000000;0.648937
9330.000000;0.648962
9329.000000;0.648942
9328.000000;0.648931
9327.000000;0.648864
9326.000000;0.648643
9325.000000;0.648351
9324.000000;0.648214
9323.000000;0.648310
9322.000000;0.648483
9321.000000;0.648560
9320.000000;0.648520
9319.000000;0.648402
9318.000000;0.648206
9317.000000;0.647956
9316.000000;0.647715
9315.000000;0.647486
9314.000000;0.647209
9313.000000;0.646914
9312.000000;0.646778
9311.000000;0.646935
9310.000000;0.647329
9309.000000;0.647797
9308.000000;0.648196
9307.000000;0.648411
9306.000000;0.648362
9305.000000;0.648073
9304.000000;0.647673
9303.000000;0.647251
9302.000000;0.646793
9301.000000;0.646289
9300.000000;0.645812
9299.000000;0.645442
9298.000000;0.645206
9297.000000;0.645132
9296.000000;0.645258
9295.000000;0.645520
9294.000000;0.645725
9293.000000;0.645704
9292.000000;0.645442
9291.000000;0.645037
9290.000000;0.644606
9289.000000;0.644287
9288.000000;0.644199
9287.000000;0.644311
9286.000000;0.644431
9285.000000;0.644403
9284.000000;0.644273
9283.000000;0.644186
9282.000000;0.644182
9281.000000;0.644175
9280.000000;0.644125
9279.000000;0.644097
9278.000000;0.644151
9277.000000;0.644232
9276.000000;0.644228
9275.000000;0.644132
9274.000000;0.644089
9273.000000;0.644212
9272.000000;0.644366
9271.000000;0.644233
9270.000000;0.643675
9269.000000;0.642941
9268.000000;0.642426
9267.000000;0.642255
9266.000000;0.642240
9265.000000;0.642208
9264.000000;0.642218
9263.000000;0.642401
9262.000000;0.642717
9261.000000;0.642971
9260.000000;0.643005
9259.000000;0.642824
9258.000000;0.642551
9257.000000;0.642330
9256.000000;0.642233
9255.000000;0.642245
9254.000000;0.642308
9253.000000;0.642378
9252.000000;0.642407
9251.000000;0.642323
9250.000000;0.642092
9249.000000;0.641779
9248.000000;0.641525
9247.000000;0.641444
9246.000000;0.641562
9245.000000;0.641771
9244.000000;0.641838
9243.000000;0.641552
9242.000000;0.640972
9241.000000;0.640440
9240.000000;0.640262
9239.000000;0.640426
9238.000000;0.640714
9237.000000;0.640978
9236.000000;0.641180
9235.000000;0.641251
9234.000000;0.641139
9233.000000;0.640957
9232.000000;0.640880
9231.000000;0.640876
9230.000000;0.640728
9229.000000;0.640351
9228.000000;0.639903
9227.000000;0.639555
9226.000000;0.639330
9225.000000;0.639232
9224.000000;0.639354
9223.000000;0.639722
9222.000000;0.640149
9221.000000;0.640381
9220.000000;0.640332
9219.000000;0.640105
9218.000000;0.639843
9217.000000;0.639641
9216.000000;0.639532
9215.000000;0.639477
9214.000000;0.639390
9213.000000;0.639223
9212.000000;0.638996
9211.000000;0.638745
9210.000000;0.638477
9209.000000;0.638216
9208.000000;0.638026
9207.000000;0.637965
9206.000000;0.638052
9205.000000;0.638259
9204.000000;0.638497
9203.000000;0.638610
9202.000000;0.638472
9201.000000;0.638114
9200.000000;0.637706
9199.000000;0.637414
9198.000000;0.637297
9197.000000;0.637329
9196.000000;0.637437
9195.000000;0.637533
9194.000000;0.637592
9193.000000;0.637658
9192.000000;0.637735
9191.000000;0.637712
9190.000000;0.637504
9189.000000;0.637225
9188.000000;0.637067
9187.000000;0.637032
9186.000000;0.636937
9185.000000;0.636682
9184.000000;0.636374
9183.000000;0.636153
9182.000000;0.636048
9181.000000;0.636057
9180.000000;0.636203
9179.000000;0.636434
9178.000000;0.636568
9177.000000;0.636452
9176.000000;0.636140
9175.000000;0.635828
9174.000000;0.635679
9173.000000;0.635728
9172.000000;0.635892
9171.000000;0.636003
9170.000000;0.635903
9169.000000;0.635575
9168.000000;0.635179
9167.000000;0.634919
9166.000000;0.634878
9165.000000;0.634983
9164.000000;0.635089
9163.000000;0.635096
9162.000000;0.635000
9161.000000;0.634856
9160.000000;0.634693
9159.000000;0.634503
9158.000000;0.634308
9157.000000;0.634172
9156.000000;0.634105
9155.000000;0.634023
9154.000000;0.633876
9153.000000;0.633733
9152.000000;0.633679
9151.000000;0.633660
9150.000000;0.633563
9149.000000;0.633371
9148.000000;0.633159
9147.000000;0.632976
9146.000000;0.632861
9145.000000;0.632911
9144.000000;0.633189
9143.000000;0.633556
9142.000000;0.633753
9141.000000;0.633654
9140.000000;0.633354
9139.000000;0.633022
9138.000000;0.632766
9137.000000;0.632641
9136.000000;0.632644
9135.000000;0.632699
9134.000000;0.632740
9133.000000;0.632795
9132.000000;0.632906
9131.000000;0.632985
9130.000000;0.632888
9129.000000;0.632603
9128.000000;0.632253
9127.000000;0.631931
9126.000000;0.631660
9125.000000;0.631467
9124.000000;0.631360
9123.000000;0.631266
9122.000000;0.631159
9121.000000;0.631184
9120.000000;0.631478
9119.000000;0.631898
9118.000000;0.632122
9117.000000;0.632042
9116.000000;0.631822
9115.000000;0.631583
9114.000000;0.631263
9113.000000;0.630845
9112.000000;0.630480
9111.000000;0.630278
9110.000000;0.630188
9109.000000;0.630168
9108.000000;0.630274
9107.000000;0.630452
9106.000000;0.630453
9105.000000;0.630116
9104.000000;0.629606
9103.000000;0.629210
9102.000000;0.629025
9101.000000;0.628986
9100.000000;0.629041
9099.000000;0.629171
9098.000000;0.629296
9097.000000;0.629337
9096.000000;0.629310
9095.000000;0.629249
9094.000000;0.629133
9093.000000;0.628985
9092.000000;0.628940
9091.000000;0.629076
9090.000000;0.629238
9089.000000;0.629185
9088.000000;0.628880
9087.000000;0.628508
9086.000000;0.628253
9085.000000;0.628162
9084.000000;0.628189
9083.000000;0.628256
9082.000000;0.628304
9081.000000;0.628348
9080.000000;0.628471
9079.000000;0.628670
9078.000000;0.628770
9077.000000;0.628580
9076.000000;0.628127
9075.000000;0.627648
9074.000000;0.627365
9073.000000;0.627315
9072.000000;0.627381
9071.000000;0.627381
9070.000000;0.627162
9069.000000;0.626705
9068.000000;0.626179
9067.000000;0.625852
9066.000000;0.625901
9065.000000;0.626296
9064.000000;0.626826
9063.000000;0.627231
9062.000000;0.627351
9061.000000;0.627190
9060.000000;0.626853
9059.000000;0.626440
9058.000000;0.626051
9057.000000;0.625826
9056.000000;0.625857
9055.000000;0.626048
9054.000000;0.626169
9053.000000;0.626103
