Criado como novo conjunto de dados;"2706_e01_daniel.spp","83166.4 Secs"
cm-1;Abs
10000.000000;0.791047
9999.000000;0.791422
9998.000000;0.791524
9997.000000;0.791316
9996.000000;0.790879
9995.000000;0.790140
9994.000000;0.789161
9993.000000;0.788361
9992.000000;0.787998
9991.000000;0.787730
9990.000000;0.787197
9989.000000;0.786744
9988.000000;0.786943
9987.000000;0.787632
9986.000000;0.788133
9985.000000;0.788285
9984.000000;0.788549
9983.000000;0.789122
9982.000000;0.789674
9981.000000;0.789993
9980.000000;0.790192
9979.000000;0.790228
9978.000000;0.789866
9977.000000;0.789220
9976.000000;0.788667
9975.000000;0.788145
9974.000000;0.787234
9973.000000;0.786068
9972.000000;0.785445
9971.000000;0.785751
9970.000000;0.786392
9969.000000;0.786657
9968.000000;0.786661
9967.000000;0.787030
9966.000000;0.788015
9965.000000;0.789257
9964.000000;0.790172
9963.000000;0.790373
9962.000000;0.789931
9961.000000;0.789338
9960.000000;0.788980
9959.000000;0.788629
9958.000000;0.787770
9957.000000;0.786395
9956.000000;0.785081
9955.000000;0.784273
9954.000000;0.783977
9953.000000;0.784162
9952.000000;0.784872
9951.000000;0.785791
9950.000000;0.786197
9949.000000;0.785677
9948.000000;0.784575
9947.000000;0.783551
9946.000000;0.783022
9945.000000;0.783084
9944.000000;0.783514
9943.000000;0.783751
9942.000000;0.783290
9941.000000;0.782254
9940.000000;0.781277
9939.000000;0.780767
9938.000000;0.780638
9937.000000;0.780755
9936.000000;0.781120
9935.000000;0.781513
9934.000000;0.781488
9933.000000;0.780949
9932.000000;0.780300
9931.000000;0.779861
9930.000000;0.779536
9929.000000;0.779227
9928.000000;0.779169
9927.000000;0.779610
9926.000000;0.780474
9925.000000;0.781507
9924.000000;0.782444
9923.000000;0.782958
9922.000000;0.782794
9921.000000;0.782120
9920.000000;0.781385
9919.000000;0.780762
9918.000000;0.780077
9917.000000;0.779324
9916.000000;0.778830
9915.000000;0.778782
9914.000000;0.779054
9913.000000;0.779590
9912.000000;0.780510
9911.000000;0.781648
9910.000000;0.782463
9909.000000;0.782649
9908.000000;0.782451
9907.000000;0.782138
9906.000000;0.781583
9905.000000;0.780664
9904.000000;0.779672
9903.000000;0.778954
9902.000000;0.778421
9901.000000;0.777769
9900.000000;0.777003
9899.000000;0.776493
9898.000000;0.776616
9897.000000;0.777495
9896.000000;0.778885
9895.000000;0.780182
9894.000000;0.780737
9893.000000;0.780386
9892.000000;0.779596
9891.000000;0.778976
9890.000000;0.778728
9889.000000;0.778575
9888.000000;0.778080
9887.000000;0.777091
9886.000000;0.776013
9885.000000;0.775567
9884.000000;0.776033
9883.000000;0.776830
9882.000000;0.777127
9881.000000;0.776778
9880.000000;0.776336
9879.000000;0.776225
9878.000000;0.776350
9877.000000;0.776493
9876.000000;0.776634
9875.000000;0.776738
9874.000000;0.776625
9873.000000;0.776207
9872.000000;0.775623
9871.000000;0.775086
9870.000000;0.774826
9869.000000;0.775105
9868.000000;0.775938
9867.000000;0.776797
9866.000000;0.777031
9865.000000;0.776612
9864.000000;0.776092
9863.000000;0.775784
9862.000000;0.775406
9861.000000;0.774653
9860.000000;0.773714
9859.000000;0.773058
9858.000000;0.772956
9857.000000;0.773354
9856.000000;0.773947
9855.000000;0.774299
9854.000000;0.774128
9853.000000;0.773582
9852.000000;0.773108
9851.000000;0.773032
9850.000000;0.773385
9849.000000;0.774004
9848.000000;0.774584
9847.000000;0.774819
9846.000000;0.774748
9845.000000;0.774795
9844.000000;0.775156
9843.000000;0.775368
9842.000000;0.774859
9841.000000;0.773783
9840.000000;0.772852
9839.000000;0.772501
9838.000000;0.772648
9837.000000;0.773094
9836.000000;0.773666
9835.000000;0.774088
9834.000000;0.774221
9833.000000;0.774308
9832.000000;0.774510
9831.000000;0.774421
9830.000000;0.773661
9829.000000;0.772723
9828.000000;0.772466
9827.000000;0.772861
9826.000000;0.773035
9825.000000;0.772618
9824.000000;0.772206
9823.000000;0.772268
9822.000000;0.772412
9821.000000;0.772085
9820.000000;0.771360
9819.000000;0.770652
9818.000000;0.770137
9817.000000;0.769804
9816.000000;0.769682
9815.000000;0.769705
9814.000000;0.769705
9813.000000;0.769732
9812.000000;0.770035
9811.000000;0.770576
9810.000000;0.770955
9809.000000;0.770941
9808.000000;0.770647
9807.000000;0.770088
9806.000000;0.769087
9805.000000;0.767822
9804.000000;0.766920
9803.000000;0.766744
9802.000000;0.766999
9801.000000;0.767251
9800.000000;0.767425
9799.000000;0.767577
9798.000000;0.767624
9797.000000;0.767576
9796.000000;0.767662
9795.000000;0.767964
9794.000000;0.768256
9793.000000;0.768387
9792.000000;0.768457
9791.000000;0.768459
9790.000000;0.768150
9789.000000;0.767502
9788.000000;0.766871
9787.000000;0.766483
9786.000000;0.766200
9785.000000;0.765987
9784.000000;0.766133
9783.000000;0.766692
9782.000000;0.767142
9781.000000;0.767021
9780.000000;0.766603
9779.000000;0.766534
9778.000000;0.767023
9777.000000;0.767743
9776.000000;0.768366
9775.000000;0.768843
9774.000000;0.769210
9773.000000;0.769366
9772.000000;0.769101
9771.000000;0.768297
9770.000000;0.767160
9769.000000;0.766219
9768.000000;0.765909
9767.000000;0.766150
9766.000000;0.766485
9765.000000;0.766579
9764.000000;0.766390
9763.000000;0.765985
9762.000000;0.765511
9761.000000;0.765239
9760.000000;0.765253
9759.000000;0.765200
9758.000000;0.764773
9757.000000;0.764339
9756.000000;0.764526
9755.000000;0.765233
9754.000000;0.765643
9753.000000;0.765327
9752.000000;0.764718
9751.000000;0.764327
9750.000000;0.764122
9749.000000;0.763955
9748.000000;0.763994
9747.000000;0.764340
9746.000000;0.764650
9745.000000;0.764561
9744.000000;0.764182
9743.000000;0.763840
9742.000000;0.763637
9741.000000;0.763512
9740.000000;0.763441
9739.000000;0.763291
9738.000000;0.762791
9737.000000;0.761942
9736.000000;0.761203
9735.000000;0.761004
9734.000000;0.761294
9733.000000;0.761773
9732.000000;0.762269
9731.000000;0.762647
9730.000000;0.762668
9729.000000;0.762245
9728.000000;0.761694
9727.000000;0.761442
9726.000000;0.761609
9725.000000;0.762008
9724.000000;0.762397
9723.000000;0.762608
9722.000000;0.762593
9721.000000;0.762461
9720.000000;0.762326
9719.000000;0.762117
9718.000000;0.761729
9717.000000;0.761318
9716.000000;0.761118
9715.000000;0.761015
9714.000000;0.760703
9713.000000;0.760272
9712.000000;0.760176
9711.000000;0.760525
9710.000000;0.760883
9709.000000;0.760902
9708.000000;0.760671
9707.000000;0.760299
9706.000000;0.759697
9705.000000;0.759034
9704.000000;0.758844
9703.000000;0.759280
9702.000000;0.759706
9701.000000;0.759485
9700.000000;0.758827
9699.000000;0.758391
9698.000000;0.758330
9697.000000;0.758228
9696.000000;0.757809
9695.000000;0.757235
9694.000000;0.756785
9693.000000;0.756638
9692.000000;0.756928
9691.000000;0.757651
9690.000000;0.758492
9689.000000;0.759006
9688.000000;0.759029
9687.000000;0.758766
9686.000000;0.758490
9685.000000;0.758297
9684.000000;0.758103
9683.000000;0.757764
9682.000000;0.757228
9681.000000;0.756667
9680.000000;0.756367
9679.000000;0.756422
9678.000000;0.756614
9677.000000;0.756658
9676.000000;0.756486
9675.000000;0.756219
9674.000000;0.755988
9673.000000;0.755835
9672.000000;0.755705
9671.000000;0.755516
9670.000000;0.755299
9669.000000;0.755239
9668.000000;0.755406
9667.000000;0.755520
9666.000000;0.755203
9665.000000;0.754468
9664.000000;0.753739
9663.000000;0.753402
9662.000000;0.753525
9661.000000;0.753966
9660.000000;0.754492
9659.000000;0.754787
9658.000000;0.754676
9657.000000;0.754390
9656.000000;0.754358
9655.000000;0.754703
9654.000000;0.755176
9653.000000;0.755597
9652.000000;0.756016
9651.000000;0.756400
9650.000000;0.756540
9649.000000;0.756405
9648.000000;0.756297
9647.000000;0.756436
9646.000000;0.756653
9645.000000;0.756634
9644.000000;0.756272
9643.000000;0.755621
9642.000000;0.754733
9641.000000;0.753691
9640.000000;0.752718
9639.000000;0.752094
9638.000000;0.751998
9637.000000;0.752379
9636.000000;0.752892
9635.000000;0.753077
9634.000000;0.752827
9633.000000;0.752592
9632.000000;0.752871
9631.000000;0.753579
9630.000000;0.754161
9629.000000;0.754209
9628.000000;0.753695
9627.000000;0.752730
9626.000000;0.751547
9625.000000;0.750654
9624.000000;0.750517
9623.000000;0.751005
9622.000000;0.751519
9621.000000;0.751694
9620.000000;0.751623
9619.000000;0.751432
9618.000000;0.751110
9617.000000;0.750856
9616.000000;0.751064
9615.000000;0.751758
9614.000000;0.752451
9613.000000;0.752740
9612.000000;0.752687
9611.000000;0.752450
9610.000000;0.751971
9609.000000;0.751241
9608.000000;0.750514
9607.000000;0.749992
9606.000000;0.749573
9605.000000;0.749146
9604.000000;0.748840
9603.000000;0.748780
9602.000000;0.748836
9601.000000;0.748832
9600.000000;0.748803
9599.000000;0.748898
9598.000000;0.749226
9597.000000;0.749865
9596.000000;0.750735
9595.000000;0.751417
9594.000000;0.751431
9593.000000;0.750823
9592.000000;0.750140
9591.000000;0.749705
9590.000000;0.749307
9589.000000;0.748719
9588.000000;0.748099
9587.000000;0.747651
9586.000000;0.747285
9585.000000;0.746926
9584.000000;0.746818
9583.000000;0.747196
9582.000000;0.747901
9581.000000;0.748595
9580.000000;0.749135
9579.000000;0.749470
9578.000000;0.749442
9577.000000;0.749002
9576.000000;0.748437
9575.000000;0.748077
9574.000000;0.747917
9573.000000;0.747747
9572.000000;0.747507
9571.000000;0.747286
9570.000000;0.747128
9569.000000;0.747027
9568.000000;0.746976
9567.000000;0.746878
9566.000000;0.746584
9565.000000;0.746184
9564.000000;0.746045
9563.000000;0.746351
9562.000000;0.746852
9561.000000;0.747234
9560.000000;0.747505
9559.000000;0.747757
9558.000000;0.747813
9557.000000;0.747454
9556.000000;0.746837
9555.000000;0.746348
9554.000000;0.746098
9553.000000;0.745822
9552.000000;0.745267
9551.000000;0.744488
9550.000000;0.743788
9549.000000;0.743518
9548.000000;0.743856
9547.000000;0.744652
9546.000000;0.745510
9545.000000;0.746103
9544.000000;0.746341
9543.000000;0.746227
9542.000000;0.745762
9541.000000;0.745104
9540.000000;0.744595
9539.000000;0.744437
9538.000000;0.744484
9537.000000;0.744480
9536.000000;0.744340
9535.000000;0.744067
9534.000000;0.743626
9533.000000;0.743094
9532.000000;0.742740
9531.000000;0.742725
9530.000000;0.742863
9529.000000;0.742902
9528.000000;0.742899
9527.000000;0.743078
9526.000000;0.743417
9525.000000;0.743646
9524.000000;0.743606
9523.000000;0.743341
9522.000000;0.742865
9521.000000;0.742125
9520.000000;0.741235
9519.000000;0.740507
9518.000000;0.740138
9517.000000;0.740026
9516.000000;0.740011
9515.000000;0.740132
9514.000000;0.740511
9513.000000;0.741047
9512.000000;0.741427
9511.000000;0.741482
9510.000000;0.741412
9509.000000;0.741535
9508.000000;0.741892
9507.000000;0.742224
9506.000000;0.742314
9505.000000;0.742204
9504.000000;0.742016
9503.000000;0.741743
9502.000000;0.741330
9501.000000;0.740824
9500.000000;0.740318
9499.000000;0.739848
9498.000000;0.739459
9497.000000;0.739285
9496.000000;0.739388
9495.000000;0.739592
9494.000000;0.739657
9493.000000;0.739561
9492.000000;0.739463
9491.000000;0.739454
9490.000000;0.739510
9489.000000;0.739619
9488.000000;0.739755
9487.000000;0.739811
9486.000000;0.739767
9485.000000;0.739828
9484.000000;0.740159
9483.000000;0.740529
9482.000000;0.740493
9481.000000;0.739921
9480.000000;0.739116
9479.000000;0.738421
9478.000000;0.737991
9477.000000;0.737924
9476.000000;0.738283
9475.000000;0.738906
9474.000000;0.739429
9473.000000;0.739643
9472.000000;0.739622
9471.000000;0.739483
9470.000000;0.739230
9469.000000;0.738886
9468.000000;0.738539
9467.000000;0.738171
9466.000000;0.737641
9465.000000;0.736933
9464.000000;0.736241
9463.000000;0.735722
9462.000000;0.735359
9461.000000;0.735123
9460.000000;0.735057
9459.000000;0.735107
9458.000000;0.735071
9457.000000;0.734859
9456.000000;0.734655
9455.000000;0.734727
9454.000000;0.735181
9453.000000;0.735941
9452.000000;0.736801
9451.000000;0.737428
9450.000000;0.737532
9449.000000;0.737154
9448.000000;0.736652
9447.000000;0.736302
9446.000000;0.736047
9445.000000;0.735733
9444.000000;0.735406
9443.000000;0.735243
9442.000000;0.735274
9441.000000;0.735350
9440.000000;0.735324
9439.000000;0.735154
9438.000000;0.734850
9437.000000;0.734440
9436.000000;0.733996
9435.000000;0.733643
9434.000000;0.733503
9433.000000;0.733616
9432.000000;0.733910
9431.000000;0.734263
9430.000000;0.734581
9429.000000;0.734810
9428.000000;0.734875
9427.000000;0.734704
9426.000000;0.734334
9425.000000;0.733893
9424.000000;0.733463
9423.000000;0.733057
9422.000000;0.732756
9421.000000;0.732729
9420.000000;0.733008
9419.000000;0.733373
9418.000000;0.733530
9417.000000;0.733335
9416.000000;0.732813
9415.000000;0.732162
9414.000000;0.731778
9413.000000;0.732000
9412.000000;0.732670
9411.000000;0.733161
9410.000000;0.733032
9409.000000;0.732482
9408.000000;0.731978
9407.000000;0.731672
9406.000000;0.731422
9405.000000;0.731173
9404.000000;0.730995
9403.000000;0.730915
9402.000000;0.730958
9401.000000;0.731229
9400.000000;0.731674
9399.000000;0.731932
9398.000000;0.731724
9397.000000;0.731277
9396.000000;0.731053
9395.000000;0.731161
9394.000000;0.731332
9393.000000;0.731365
9392.000000;0.731299
9391.000000;0.731212
9390.000000;0.731127
9389.000000;0.731040
9388.000000;0.730814
9387.000000;0.730212
9386.000000;0.729324
9385.000000;0.728736
9384.000000;0.728910
9383.000000;0.729538
9382.000000;0.729901
9381.000000;0.729733
9380.000000;0.729338
9379.000000;0.729005
9378.000000;0.728808
9377.000000;0.728886
9376.000000;0.729355
9375.000000;0.729904
9374.000000;0.730001
9373.000000;0.729594
9372.000000;0.729184
9371.000000;0.729113
9370.000000;0.729246
9369.000000;0.729419
9368.000000;0.729689
9367.000000;0.729956
9366.000000;0.729848
9365.000000;0.729260
9364.000000;0.728642
9363.000000;0.728449
9362.000000;0.728596
9361.000000;0.728692
9360.000000;0.728561
9359.000000;0.728308
9358.000000;0.728077
9357.000000;0.728007
9356.000000;0.728222
9355.000000;0.728633
9354.000000;0.728880
9353.000000;0.728662
9352.000000;0.728051
9351.000000;0.727358
9350.000000;0.726801
9349.000000;0.726436
9348.000000;0.726256
9347.000000;0.726243
9346.000000;0.726350
9345.000000;0.726522
9344.000000;0.726693
9343.000000;0.726775
9342.000000;0.726744
9341.000000;0.726698
9340.000000;0.726740
9339.000000;0.726838
9338.000000;0.726913
9337.000000;0.726993
9336.000000;0.727113
9335.000000;0.727143
9334.000000;0.726906
9333.000000;0.726419
9332.000000;0.725863
9331.000000;0.725411
9330.000000;0.725224
9329.000000;0.725444
9328.000000;0.725936
9327.000000;0.726216
9326.000000;0.725960
9325.000000;0.725450
9324.000000;0.725183
9323.000000;0.725181
9322.000000;0.725109
9321.000000;0.724942
9320.000000;0.725011
9319.000000;0.725389
9318.000000;0.725730
9317.000000;0.725793
9316.000000;0.725682
9315.000000;0.725482
9314.000000;0.725097
9313.000000;0.724598
9312.000000;0.724284
9311.000000;0.724210
9310.000000;0.724050
9309.000000;0.723648
9308.000000;0.723342
9307.000000;0.723483
9306.000000;0.723919
9305.000000;0.724205
9304.000000;0.724097
9303.000000;0.723643
9302.000000;0.723009
9301.000000;0.722447
9300.000000;0.722224
9299.000000;0.722334
9298.000000;0.722434
9297.000000;0.722243
9296.000000;0.721868
9295.000000;0.721582
9294.000000;0.721429
9293.000000;0.721215
9292.000000;0.720808
9291.000000;0.720302
9290.000000;0.719935
9289.000000;0.719886
9288.000000;0.720073
9287.000000;0.720170
9286.000000;0.719963
9285.000000;0.719661
9284.000000;0.719670
9283.000000;0.720067
9282.000000;0.720513
9281.000000;0.720707
9280.000000;0.720678
9279.000000;0.720615
9278.000000;0.720613
9277.000000;0.720666
9276.000000;0.720725
9275.000000;0.720697
9274.000000;0.720559
9273.000000;0.720457
9272.000000;0.720522
9271.000000;0.720620
9270.000000;0.720520
9269.000000;0.720269
9268.000000;0.720138
9267.000000;0.720218
9266.000000;0.720384
9265.000000;0.720600
9264.000000;0.720916
9263.000000;0.721134
9262.000000;0.720888
9261.000000;0.720180
9260.000000;0.719494
9259.000000;0.719211
9258.000000;0.719238
9257.000000;0.719313
9256.000000;0.719360
9255.000000;0.719344
9254.000000;0.719128
9253.000000;0.718720
9252.000000;0.718413
9251.000000;0.718413
9250.000000;0.718501
9249.000000;0.718314
9248.000000;0.717844
9247.000000;0.717442
9246.000000;0.717392
9245.000000;0.717626
9244.000000;0.717802
9243.000000;0.717608
9242.000000;0.717065
9241.000000;0.716561
9240.000000;0.716471
9239.000000;0.716760
9238.000000;0.717062
9237.000000;0.717121
9236.000000;0.716944
9235.000000;0.716577
9234.000000;0.716029
9233.000000;0.715463
9232.000000;0.715192
9231.000000;0.715367
9230.000000;0.715838
9229.000000;0.716389
9228.000000;0.716901
9227.000000;0.717260
9226.000000;0.717339
9225.000000;0.717170
9224.000000;0.716901
9223.000000;0.716549
9222.000000;0.716002
9221.000000;0.715309
9220.000000;0.714725
9219.000000;0.714398
9218.000000;0.714247
9217.000000;0.714210
9216.000000;0.714376
9215.000000;0.714782
9214.000000;0.715296
9213.000000;0.715780
9212.000000;0.716149
9211.000000;0.716245
9210.000000;0.715911
9209.000000;0.715272
9208.000000;0.714721
9207.000000;0.714520
9206.000000;0.714595
9205.000000;0.714728
9204.000000;0.714685
9203.000000;0.714203
9202.000000;0.713198
9201.000000;0.712068
9200.000000;0.711440
9199.000000;0.711471
9198.000000;0.711693
9197.000000;0.711653
9196.000000;0.711407
9195.000000;0.711246
9194.000000;0.711283
9193.000000;0.711486
9192.000000;0.711823
9191.000000;0.712157
9190.000000;0.712260
9189.000000;0.712146
9188.000000;0.712157
9187.000000;0.712518
9186.000000;0.713041
9185.000000;0.713441
9184.000000;0.713694
9183.000000;0.713876
9182.000000;0.713910
9181.000000;0.713733
9180.000000;0.713497
9179.000000;0.713354
9178.000000;0.713173
9177.000000;0.712745
9176.000000;0.712122
9175.000000;0.711549
9174.000000;0.711159
9173.000000;0.710926
9172.000000;0.710810
9171.000000;0.710776
9170.000000;0.710748
9169.000000;0.710705
9168.000000;0.710737
9167.000000;0.710900
9166.000000;0.711092
9165.000000;0.711147
9164.000000;0.710980
9163.000000;0.710586
9162.000000;0.710075
9161.000000;0.709738
9160.000000;0.709846
9159.000000;0.710304
9158.000000;0.710675
9157.000000;0.710689
9156.000000;0.710515
9155.000000;0.710439
9154.000000;0.710493
9153.000000;0.710540
9152.000000;0.710511
9151.000000;0.710386
9150.000000;0.710152
9149.000000;0.709915
9148.000000;0.709883
9147.000000;0.710047
9146.000000;0.710120
9145.000000;0.709943
9144.000000;0.709759
9143.000000;0.709844
9142.000000;0.710038
9141.000000;0.709937
9140.000000;0.709416
9139.000000;0.708749
9138.000000;0.708260
9137.000000;0.708055
9136.000000;0.708042
9135.000000;0.708039
9134.000000;0.707910
9133.000000;0.707709
9132.000000;0.707648
9131.000000;0.707823
9130.000000;0.708053
9129.000000;0.708093
9128.000000;0.707910
9127.000000;0.707672
9126.000000;0.707541
9125.000000;0.707568
9124.000000;0.707670
9123.000000;0.707631
9122.000000;0.707257
9121.000000;0.706620
9120.000000;0.706000
9119.000000;0.705536
9118.000000;0.705092
9117.000000;0.704558
9116.000000;0.704094
9115.000000;0.703941
9114.000000;0.704124
9113.000000;0.704494
9112.000000;0.704918
9111.000000;0.705301
9110.000000;0.705550
9109.000000;0.705688
9108.000000;0.705880
9107.000000;0.706224
9106.000000;0.706587
9105.000000;0.706760
9104.000000;0.706670
9103.000000;0.706379
9102.000000;0.706003
9101.000000;0.705716
9100.000000;0.705659
9099.000000;0.705737
9098.000000;0.705660
9097.000000;0.705325
9096.000000;0.704993
9095.000000;0.704970
9094.000000;0.705230
9093.000000;0.705509
9092.000000;0.705612
9091.000000;0.705513
9090.000000;0.705270
9089.000000;0.705012
9088.000000;0.704888
9087.000000;0.704890
9086.000000;0.704824
9085.000000;0.704564
9084.000000;0.704225
9083.000000;0.703968
9082.000000;0.703782
9081.000000;0.703598
9080.000000;0.703451
9079.000000;0.703365
9078.000000;0.703218
9077.000000;0.702910
9076.000000;0.702562
9075.000000;0.702384
9074.000000;0.702418
9073.000000;0.702544
9072.000000;0.702665
9071.000000;0.702721
9070.000000;0.702616
9069.000000;0.702322
9068.000000;0.701982
9067.000000;0.701776
9066.000000;0.701713
9065.000000;0.701665
9064.000000;0.701548
9063.000000;0.701359
9062.000000;0.701122
9061.000000;0.700902
9060.000000;0.700806
9059.000000;0.700858
9058.000000;0.700958
9057.000000;0.701030
9056.000000;0.701100
9055.000000;0.701175
9054.000000;0.701198
9053.000000;0.701206
