Criado como novo conjunto de dados;"2706_e01_daniel.spp","33663.8 Secs"
cm-1;Abs
10000.000000;0.640506
9999.000000;0.640417
9998.000000;0.640231
9997.000000;0.640104
9996.000000;0.640076
9995.000000;0.639844
9994.000000;0.639210
9993.000000;0.638477
9992.000000;0.638193
9991.000000;0.638452
9990.000000;0.638785
9989.000000;0.638747
9988.000000;0.638373
9987.000000;0.637982
9986.000000;0.637765
9985.000000;0.637695
9984.000000;0.637675
9983.000000;0.637653
9982.000000;0.637632
9981.000000;0.637617
9980.000000;0.637528
9979.000000;0.637223
9978.000000;0.636681
9977.000000;0.636112
9976.000000;0.635771
9975.000000;0.635717
9974.000000;0.635852
9973.000000;0.636092
9972.000000;0.636371
9971.000000;0.636562
9970.000000;0.636597
9969.000000;0.636636
9968.000000;0.636919
9967.000000;0.637444
9966.000000;0.637919
9965.000000;0.638044
9964.000000;0.637749
9963.000000;0.637190
9962.000000;0.636652
9961.000000;0.636388
9960.000000;0.636428
9959.000000;0.636530
9958.000000;0.636453
9957.000000;0.636213
9956.000000;0.635989
9955.000000;0.635851
9954.000000;0.635735
9953.000000;0.635624
9952.000000;0.635592
9951.000000;0.635718
9950.000000;0.636022
9949.000000;0.636376
9948.000000;0.636435
9947.000000;0.635841
9946.000000;0.634692
9945.000000;0.633643
9944.000000;0.633288
9943.000000;0.633542
9942.000000;0.633867
9941.000000;0.633983
9940.000000;0.634060
9939.000000;0.634270
9938.000000;0.634487
9937.000000;0.634501
9936.000000;0.634300
9935.000000;0.634028
9934.000000;0.633811
9933.000000;0.633649
9932.000000;0.633383
9931.000000;0.632810
9930.000000;0.631994
9929.000000;0.631361
9928.000000;0.631290
9927.000000;0.631629
9926.000000;0.631870
9925.000000;0.631786
9924.000000;0.631642
9923.000000;0.631741
9922.000000;0.632002
9921.000000;0.632129
9920.000000;0.632019
9919.000000;0.631858
9918.000000;0.631877
9917.000000;0.632099
9916.000000;0.632299
9915.000000;0.632223
9914.000000;0.631903
9913.000000;0.631674
9912.000000;0.631805
9911.000000;0.632173
9910.000000;0.632404
9909.000000;0.632283
9908.000000;0.631875
9907.000000;0.631310
9906.000000;0.630684
9905.000000;0.630162
9904.000000;0.629976
9903.000000;0.630217
9902.000000;0.630724
9901.000000;0.631198
9900.000000;0.631348
9899.000000;0.631007
9898.000000;0.630257
9897.000000;0.629440
9896.000000;0.628925
9895.000000;0.628810
9894.000000;0.628921
9893.000000;0.629037
9892.000000;0.629034
9891.000000;0.628892
9890.000000;0.628723
9889.000000;0.628762
9888.000000;0.629133
9887.000000;0.629644
9886.000000;0.629941
9885.000000;0.629860
9884.000000;0.629528
9883.000000;0.629133
9882.000000;0.628780
9881.000000;0.628527
9880.000000;0.628431
9879.000000;0.628498
9878.000000;0.628668
9877.000000;0.628846
9876.000000;0.628901
9875.000000;0.628700
9874.000000;0.628249
9873.000000;0.627739
9872.000000;0.627333
9871.000000;0.626988
9870.000000;0.626622
9869.000000;0.626370
9868.000000;0.626498
9867.000000;0.627077
9866.000000;0.627879
9865.000000;0.628554
9864.000000;0.628807
9863.000000;0.628495
9862.000000;0.627721
9861.000000;0.626853
9860.000000;0.626298
9859.000000;0.626240
9858.000000;0.626630
9857.000000;0.627284
9856.000000;0.627881
9855.000000;0.628028
9854.000000;0.627568
9853.000000;0.626793
9852.000000;0.626146
9851.000000;0.625761
9850.000000;0.625466
9849.000000;0.625168
9848.000000;0.624998
9847.000000;0.625076
9846.000000;0.625346
9845.000000;0.625702
9844.000000;0.626111
9843.000000;0.626535
9842.000000;0.626832
9841.000000;0.626792
9840.000000;0.626300
9839.000000;0.625496
9838.000000;0.624798
9837.000000;0.624613
9836.000000;0.624913
9835.000000;0.625224
9834.000000;0.625146
9833.000000;0.624749
9832.000000;0.624314
9831.000000;0.623898
9830.000000;0.623428
9829.000000;0.623041
9828.000000;0.622979
9827.000000;0.623167
9826.000000;0.623260
9825.000000;0.623153
9824.000000;0.623131
9823.000000;0.623426
9822.000000;0.623894
9821.000000;0.624226
9820.000000;0.624281
9819.000000;0.624083
9818.000000;0.623693
9817.000000;0.623217
9816.000000;0.622842
9815.000000;0.622711
9814.000000;0.622801
9813.000000;0.622956
9812.000000;0.623002
9811.000000;0.622867
9810.000000;0.622676
9809.000000;0.622712
9808.000000;0.623097
9807.000000;0.623533
9806.000000;0.623511
9805.000000;0.622849
9804.000000;0.621911
9803.000000;0.621271
9802.000000;0.621235
9801.000000;0.621718
9800.000000;0.622414
9799.000000;0.623014
9798.000000;0.623338
9797.000000;0.623340
9796.000000;0.623038
9795.000000;0.622497
9794.000000;0.621913
9793.000000;0.621593
9792.000000;0.621695
9791.000000;0.622031
9790.000000;0.622241
9789.000000;0.622168
9788.000000;0.621954
9787.000000;0.621818
9786.000000;0.621841
9785.000000;0.621933
9784.000000;0.621876
9783.000000;0.621482
9782.000000;0.620833
9781.000000;0.620316
9780.000000;0.620263
9779.000000;0.620576
9778.000000;0.620865
9777.000000;0.620921
9776.000000;0.620894
9775.000000;0.621012
9774.000000;0.621306
9773.000000;0.621651
9772.000000;0.621882
9771.000000;0.621863
9770.000000;0.621580
9769.000000;0.621237
9768.000000;0.621102
9767.000000;0.621189
9766.000000;0.621229
9765.000000;0.621007
9764.000000;0.620618
9763.000000;0.620303
9762.000000;0.620133
9761.000000;0.619943
9760.000000;0.619559
9759.000000;0.619030
9758.000000;0.618624
9757.000000;0.618587
9756.000000;0.618866
9755.000000;0.619150
9754.000000;0.619215
9753.000000;0.619167
9752.000000;0.619238
9751.000000;0.619434
9750.000000;0.619520
9749.000000;0.619349
9748.000000;0.619042
9747.000000;0.618825
9746.000000;0.618805
9745.000000;0.618952
9744.000000;0.619197
9743.000000;0.619493
9742.000000;0.619785
9741.000000;0.619945
9740.000000;0.619770
9739.000000;0.619129
9738.000000;0.618176
9737.000000;0.617341
9736.000000;0.617020
9735.000000;0.617269
9734.000000;0.617831
9733.000000;0.618382
9732.000000;0.618715
9731.000000;0.618806
9730.000000;0.618782
9729.000000;0.618785
9728.000000;0.618798
9727.000000;0.618681
9726.000000;0.618409
9725.000000;0.618134
9724.000000;0.617915
9723.000000;0.617590
9722.000000;0.617071
9721.000000;0.616626
9720.000000;0.616627
9719.000000;0.617090
9718.000000;0.617662
9717.000000;0.618014
9716.000000;0.618059
9715.000000;0.617828
9714.000000;0.617389
9713.000000;0.616905
9712.000000;0.616583
9711.000000;0.616477
9710.000000;0.616446
9709.000000;0.616329
9708.000000;0.616107
9707.000000;0.615908
9706.000000;0.615906
9705.000000;0.616165
9704.000000;0.616457
9703.000000;0.616349
9702.000000;0.615661
9701.000000;0.614797
9700.000000;0.614399
9699.000000;0.614674
9698.000000;0.615204
9697.000000;0.615447
9696.000000;0.615269
9695.000000;0.614944
9694.000000;0.614799
9693.000000;0.614926
9692.000000;0.615159
9691.000000;0.615253
9690.000000;0.615126
9689.000000;0.614916
9688.000000;0.614758
9687.000000;0.614578
9686.000000;0.614224
9685.000000;0.613765
9684.000000;0.613517
9683.000000;0.613710
9682.000000;0.614231
9681.000000;0.614702
9680.000000;0.614784
9679.000000;0.614431
9678.000000;0.613943
9677.000000;0.613732
9676.000000;0.613948
9675.000000;0.614330
9674.000000;0.614488
9673.000000;0.614284
9672.000000;0.613866
9671.000000;0.613423
9670.000000;0.613052
9669.000000;0.612829
9668.000000;0.612832
9667.000000;0.613053
9666.000000;0.613348
9665.000000;0.613518
9664.000000;0.613412
9663.000000;0.613014
9662.000000;0.612493
9661.000000;0.612111
9660.000000;0.612009
9659.000000;0.612128
9658.000000;0.612358
9657.000000;0.612666
9656.000000;0.612977
9655.000000;0.613090
9654.000000;0.612871
9653.000000;0.612463
9652.000000;0.612144
9651.000000;0.612004
9650.000000;0.611900
9649.000000;0.611694
9648.000000;0.611407
9647.000000;0.611188
9646.000000;0.611212
9645.000000;0.611546
9644.000000;0.611978
9643.000000;0.612096
9642.000000;0.611696
9641.000000;0.611045
9640.000000;0.610591
9639.000000;0.610495
9638.000000;0.610616
9637.000000;0.610828
9636.000000;0.611106
9635.000000;0.611335
9634.000000;0.611339
9633.000000;0.611144
9632.000000;0.610980
9631.000000;0.610956
9630.000000;0.610928
9629.000000;0.610780
9628.000000;0.610625
9627.000000;0.610626
9626.000000;0.610755
9625.000000;0.610874
9624.000000;0.610947
9623.000000;0.611044
9622.000000;0.611177
9621.000000;0.611255
9620.000000;0.611178
9619.000000;0.610921
9618.000000;0.610555
9617.000000;0.610201
9616.000000;0.609947
9615.000000;0.609776
9614.000000;0.609605
9613.000000;0.609388
9612.000000;0.609159
9611.000000;0.608980
9610.000000;0.608874
9609.000000;0.608808
9608.000000;0.608731
9607.000000;0.608626
9606.000000;0.608568
9605.000000;0.608653
9604.000000;0.608850
9603.000000;0.608991
9602.000000;0.608967
9601.000000;0.608862
9600.000000;0.608810
9599.000000;0.608799
9598.000000;0.608722
9597.000000;0.608579
9596.000000;0.608492
9595.000000;0.608529
9594.000000;0.608622
9593.000000;0.608659
9592.000000;0.608601
9591.000000;0.608479
9590.000000;0.608344
9589.000000;0.608223
9588.000000;0.608126
9587.000000;0.608096
9586.000000;0.608210
9585.000000;0.608459
9584.000000;0.608655
9583.000000;0.608591
9582.000000;0.608326
9581.000000;0.608163
9580.000000;0.608247
9579.000000;0.608333
9578.000000;0.608094
9577.000000;0.607545
9576.000000;0.607029
9575.000000;0.606844
9574.000000;0.607022
9573.000000;0.607385
9572.000000;0.607672
9571.000000;0.607669
9570.000000;0.607373
9569.000000;0.607020
9568.000000;0.606833
9567.000000;0.606803
9566.000000;0.606770
9565.000000;0.606663
9564.000000;0.606526
9563.000000;0.606400
9562.000000;0.606312
9561.000000;0.606322
9560.000000;0.606434
9559.000000;0.606525
9558.000000;0.606503
9557.000000;0.606474
9556.000000;0.606598
9555.000000;0.606818
9554.000000;0.606900
9553.000000;0.606709
9552.000000;0.606310
9551.000000;0.605849
9550.000000;0.605468
9549.000000;0.605314
9548.000000;0.605418
9547.000000;0.605604
9546.000000;0.605649
9545.000000;0.605547
9544.000000;0.605460
9543.000000;0.605450
9542.000000;0.605425
9541.000000;0.605334
9540.000000;0.605216
9539.000000;0.605059
9538.000000;0.604808
9537.000000;0.604554
9536.000000;0.604505
9535.000000;0.604687
9534.000000;0.604829
9533.000000;0.604672
9532.000000;0.604271
9531.000000;0.603898
9530.000000;0.603705
9529.000000;0.603610
9528.000000;0.603457
9527.000000;0.603213
9526.000000;0.602987
9525.000000;0.602887
9524.000000;0.602861
9523.000000;0.602745
9522.000000;0.602482
9521.000000;0.602251
9520.000000;0.602277
9519.000000;0.602542
9518.000000;0.602781
9517.000000;0.602769
9516.000000;0.602528
9515.000000;0.602241
9514.000000;0.602060
9513.000000;0.602026
9512.000000;0.602114
9511.000000;0.602298
9510.000000;0.602570
9509.000000;0.602898
9508.000000;0.603192
9507.000000;0.603347
9506.000000;0.603342
9505.000000;0.603251
9504.000000;0.603142
9503.000000;0.603024
9502.000000;0.602933
9501.000000;0.602934
9500.000000;0.602978
9499.000000;0.602862
9498.000000;0.602445
9497.000000;0.601864
9496.000000;0.601420
9495.000000;0.601296
9494.000000;0.601449
9493.000000;0.601676
9492.000000;0.601729
9491.000000;0.601452
9490.000000;0.600958
9489.000000;0.600625
9488.000000;0.600743
9487.000000;0.601190
9486.000000;0.601553
9485.000000;0.601570
9484.000000;0.601344
9483.000000;0.601152
9482.000000;0.601147
9481.000000;0.601242
9480.000000;0.601200
9479.000000;0.600850
9478.000000;0.600278
9477.000000;0.599786
9476.000000;0.599578
9475.000000;0.599575
9474.000000;0.599599
9473.000000;0.599653
9472.000000;0.599865
9471.000000;0.600219
9470.000000;0.600508
9469.000000;0.600590
9468.000000;0.600528
9467.000000;0.600450
9466.000000;0.600365
9465.000000;0.600185
9464.000000;0.599889
9463.000000;0.599600
9462.000000;0.599505
9461.000000;0.599663
9460.000000;0.599915
9459.000000;0.600047
9458.000000;0.600056
9457.000000;0.600117
9456.000000;0.600256
9455.000000;0.600210
9454.000000;0.599765
9453.000000;0.599103
9452.000000;0.598640
9451.000000;0.598579
9450.000000;0.598790
9449.000000;0.599058
9448.000000;0.599290
9447.000000;0.599458
9446.000000;0.599512
9445.000000;0.599403
9444.000000;0.599137
9443.000000;0.598802
9442.000000;0.598556
9441.000000;0.598516
9440.000000;0.598578
9439.000000;0.598467
9438.000000;0.598065
9437.000000;0.597589
9436.000000;0.597307
9435.000000;0.597213
9434.000000;0.597145
9433.000000;0.597113
9432.000000;0.597257
9431.000000;0.597526
9430.000000;0.597668
9429.000000;0.597575
9428.000000;0.597406
9427.000000;0.597326
9426.000000;0.597292
9425.000000;0.597194
9424.000000;0.597019
9423.000000;0.596822
9422.000000;0.596661
9421.000000;0.596626
9420.000000;0.596786
9419.000000;0.597031
9418.000000;0.597105
9417.000000;0.596881
9416.000000;0.596503
9415.000000;0.596192
9414.000000;0.596001
9413.000000;0.595870
9412.000000;0.595809
9411.000000;0.595884
9410.000000;0.596049
9409.000000;0.596141
9408.000000;0.596065
9407.000000;0.595941
9406.000000;0.595981
9405.000000;0.596220
9404.000000;0.596418
9403.000000;0.596295
9402.000000;0.595871
9401.000000;0.595493
9400.000000;0.595460
9399.000000;0.595695
9398.000000;0.595861
9397.000000;0.595727
9396.000000;0.595342
9395.000000;0.594903
9394.000000;0.594597
9393.000000;0.594539
9392.000000;0.594724
9391.000000;0.594984
9390.000000;0.595095
9389.000000;0.594977
9388.000000;0.594731
9387.000000;0.594470
9386.000000;0.594220
9385.000000;0.593991
9384.000000;0.593851
9383.000000;0.593846
9382.000000;0.593901
9381.000000;0.593864
9380.000000;0.593666
9379.000000;0.593401
9378.000000;0.593247
9377.000000;0.593303
9376.000000;0.593534
9375.000000;0.593842
9374.000000;0.594126
9373.000000;0.594245
9372.000000;0.594036
9371.000000;0.593519
9370.000000;0.593061
9369.000000;0.593115
9368.000000;0.593718
9367.000000;0.594383
9366.000000;0.594608
9365.000000;0.594381
9364.000000;0.594066
9363.000000;0.593915
9362.000000;0.593895
9361.000000;0.593875
9360.000000;0.593759
9359.000000;0.593459
9358.000000;0.592935
9357.000000;0.592332
9356.000000;0.591917
9355.000000;0.591814
9354.000000;0.591902
9353.000000;0.592007
9352.000000;0.592083
9351.000000;0.592160
9350.000000;0.592218
9349.000000;0.592202
9348.000000;0.592118
9347.000000;0.592056
9346.000000;0.592102
9345.000000;0.592261
9344.000000;0.592421
9343.000000;0.592432
9342.000000;0.592230
9341.000000;0.591903
9340.000000;0.591621
9339.000000;0.591516
9338.000000;0.591604
9337.000000;0.591776
9336.000000;0.591843
9335.000000;0.591676
9334.000000;0.591338
9333.000000;0.591042
9332.000000;0.590922
9331.000000;0.590926
9330.000000;0.590962
9329.000000;0.591025
9328.000000;0.591129
9327.000000;0.591194
9326.000000;0.591144
9325.000000;0.591022
9324.000000;0.590903
9323.000000;0.590735
9322.000000;0.590416
9321.000000;0.589980
9320.000000;0.589602
9319.000000;0.589433
9318.000000;0.589518
9317.000000;0.589830
9316.000000;0.590250
9315.000000;0.590553
9314.000000;0.590554
9313.000000;0.590299
9312.000000;0.590020
9311.000000;0.589876
9310.000000;0.589828
9309.000000;0.589774
9308.000000;0.589711
9307.000000;0.589727
9306.000000;0.589876
9305.000000;0.590081
9304.000000;0.590162
9303.000000;0.589983
9302.000000;0.589599
9301.000000;0.589206
9300.000000;0.588920
9299.000000;0.588688
9298.000000;0.588463
9297.000000;0.588341
9296.000000;0.588405
9295.000000;0.588540
9294.000000;0.588553
9293.000000;0.588438
9292.000000;0.588362
9291.000000;0.588426
9290.000000;0.588564
9289.000000;0.588661
9288.000000;0.588654
9287.000000;0.588509
9286.000000;0.588244
9285.000000;0.587966
9284.000000;0.587780
9283.000000;0.587671
9282.000000;0.587580
9281.000000;0.587570
9280.000000;0.587776
9279.000000;0.588155
9278.000000;0.588456
9277.000000;0.588470
9276.000000;0.588230
9275.000000;0.587926
9274.000000;0.587717
9273.000000;0.587644
9272.000000;0.587646
9271.000000;0.587609
9270.000000;0.587473
9269.000000;0.587294
9268.000000;0.587147
9267.000000;0.586988
9266.000000;0.586707
9265.000000;0.586343
9264.000000;0.586109
9263.000000;0.586175
9262.000000;0.586479
9261.000000;0.586805
9260.000000;0.586980
9259.000000;0.586944
9258.000000;0.586730
9257.000000;0.586415
9256.000000;0.586091
9255.000000;0.585836
9254.000000;0.585702
9253.000000;0.585700
9252.000000;0.585764
9251.000000;0.585790
9250.000000;0.585754
9249.000000;0.585746
9248.000000;0.585818
9247.000000;0.585863
9246.000000;0.585766
9245.000000;0.585612
9244.000000;0.585597
9243.000000;0.585727
9242.000000;0.585752
9241.000000;0.585491
9240.000000;0.585081
9239.000000;0.584838
9238.000000;0.584925
9237.000000;0.585225
9236.000000;0.585488
9235.000000;0.585534
9234.000000;0.585345
9233.000000;0.585039
9232.000000;0.584765
9231.000000;0.584621
9230.000000;0.584636
9229.000000;0.584788
9228.000000;0.584980
9227.000000;0.585059
9226.000000;0.584934
9225.000000;0.584678
9224.000000;0.584458
9223.000000;0.584351
9222.000000;0.584303
9221.000000;0.584233
9220.000000;0.584102
9219.000000;0.583891
9218.000000;0.583606
9217.000000;0.583343
9216.000000;0.583252
9215.000000;0.583383
9214.000000;0.583635
9213.000000;0.583882
9212.000000;0.584071
9211.000000;0.584152
9210.000000;0.584019
9209.000000;0.583648
9208.000000;0.583217
9207.000000;0.582983
9206.000000;0.583011
9205.000000;0.583126
9204.000000;0.583151
9203.000000;0.583091
9202.000000;0.583043
9201.000000;0.583021
9200.000000;0.582979
9199.000000;0.582955
9198.000000;0.583051
9197.000000;0.583233
9196.000000;0.583283
9195.000000;0.583050
9194.000000;0.582672
9193.000000;0.582419
9192.000000;0.582359
9191.000000;0.582310
9190.000000;0.582113
9189.000000;0.581841
9188.000000;0.581676
9187.000000;0.581681
9186.000000;0.581768
9185.000000;0.581824
9184.000000;0.581806
9183.000000;0.581731
9182.000000;0.581645
9181.000000;0.581579
9180.000000;0.581511
9179.000000;0.581410
9178.000000;0.581315
9177.000000;0.581323
9176.000000;0.581476
9175.000000;0.581695
9174.000000;0.581880
9173.000000;0.582009
9172.000000;0.582102
9171.000000;0.582117
9170.000000;0.581961
9169.000000;0.581596
9168.000000;0.581135
9167.000000;0.580802
9166.000000;0.580788
9165.000000;0.581060
9164.000000;0.581341
9163.000000;0.581348
9162.000000;0.581089
9161.000000;0.580824
9160.000000;0.580722
9159.000000;0.580675
9158.000000;0.580506
9157.000000;0.580246
9156.000000;0.580094
9155.000000;0.580162
9154.000000;0.580358
9153.000000;0.580507
9152.000000;0.580502
9151.000000;0.580349
9150.000000;0.580147
9149.000000;0.580009
9148.000000;0.579964
9147.000000;0.579944
9146.000000;0.579889
9145.000000;0.579814
9144.000000;0.579731
9143.000000;0.579573
9142.000000;0.579273
9141.000000;0.578884
9140.000000;0.578555
9139.000000;0.578408
9138.000000;0.578480
9137.000000;0.578730
9136.000000;0.579049
9135.000000;0.579287
9134.000000;0.579349
9133.000000;0.579271
9132.000000;0.579162
9131.000000;0.579097
9130.000000;0.579067
9129.000000;0.579012
9128.000000;0.578874
9127.000000;0.578646
9126.000000;0.578394
9125.000000;0.578192
9124.000000;0.578039
9123.000000;0.577881
9122.000000;0.577714
9121.000000;0.577587
9120.000000;0.577495
9119.000000;0.577376
9118.000000;0.577244
9117.000000;0.577218
9116.000000;0.577351
9115.000000;0.577527
9114.000000;0.577616
9113.000000;0.577621
9112.000000;0.577596
9111.000000;0.577506
9110.000000;0.577299
9109.000000;0.577047
9108.000000;0.576906
9107.000000;0.576953
9106.000000;0.577151
9105.000000;0.577425
9104.000000;0.577662
9103.000000;0.577699
9102.000000;0.577436
9101.000000;0.576977
9100.000000;0.576575
9099.000000;0.576408
9098.000000;0.576476
9097.000000;0.576680
9096.000000;0.576919
9095.000000;0.577106
9094.000000;0.577178
9093.000000;0.577129
9092.000000;0.576999
9091.000000;0.576831
9090.000000;0.576651
9089.000000;0.576484
9088.000000;0.576362
9087.000000;0.576306
9086.000000;0.576337
9085.000000;0.576442
9084.000000;0.576548
9083.000000;0.576562
9082.000000;0.576467
9081.000000;0.576328
9080.000000;0.576176
9079.000000;0.575969
9078.000000;0.575701
9077.000000;0.575467
9076.000000;0.575358
9075.000000;0.575347
9074.000000;0.575350
9073.000000;0.575319
9072.000000;0.575232
9071.000000;0.575068
9070.000000;0.574859
9069.000000;0.574714
9068.000000;0.574693
9067.000000;0.574710
9066.000000;0.574650
9065.000000;0.574533
9064.000000;0.574468
9063.000000;0.574478
9062.000000;0.574485
9061.000000;0.574446
9060.000000;0.574405
9059.000000;0.574404
9058.000000;0.574412
9057.000000;0.574364
9056.000000;0.574231
9055.000000;0.574064
9054.000000;0.573972
9053.000000;0.574045
