Criado como novo conjunto de dados;"2706_e01_daniel.spp","88026.4 Secs"
cm-1;Abs
10000.000000;0.665828
9999.000000;0.664729
9998.000000;0.663633
9997.000000;0.662540
9996.000000;0.661449
9995.000000;0.660361
9994.000000;0.659275
9993.000000;0.658194
9992.000000;0.657111
9991.000000;0.656039
9990.000000;0.654952
9989.000000;0.653986
9988.000000;0.653476
9987.000000;0.653613
9986.000000;0.654226
9985.000000;0.654831
9984.000000;0.654989
9983.000000;0.654628
9982.000000;0.654046
9981.000000;0.653632
9980.000000;0.653616
9979.000000;0.653974
9978.000000;0.654449
9977.000000;0.654669
9976.000000;0.654357
9975.000000;0.653535
9974.000000;0.652560
9973.000000;0.651913
9972.000000;0.651896
9971.000000;0.652466
9970.000000;0.653316
9969.000000;0.654059
9968.000000;0.654398
9967.000000;0.654216
9966.000000;0.653632
9965.000000;0.652953
9964.000000;0.652488
9963.000000;0.652324
9962.000000;0.652297
9961.000000;0.652187
9960.000000;0.651892
9959.000000;0.651435
9958.000000;0.650918
9957.000000;0.650543
9956.000000;0.650554
9955.000000;0.650997
9954.000000;0.651576
9953.000000;0.651912
9952.000000;0.651943
9951.000000;0.651941
9950.000000;0.652131
9949.000000;0.652447
9948.000000;0.652698
9947.000000;0.652810
9946.000000;0.652763
9945.000000;0.652443
9944.000000;0.651710
9943.000000;0.650621
9942.000000;0.649458
9941.000000;0.648575
9940.000000;0.648252
9939.000000;0.648600
9938.000000;0.649436
9937.000000;0.650285
9936.000000;0.650678
9935.000000;0.650525
9934.000000;0.650124
9933.000000;0.649803
9932.000000;0.649641
9931.000000;0.649516
9930.000000;0.649315
9929.000000;0.649036
9928.000000;0.648793
9927.000000;0.648749
9926.000000;0.648976
9925.000000;0.649324
9924.000000;0.649533
9923.000000;0.649535
9922.000000;0.649540
9921.000000;0.649715
9920.000000;0.649880
9919.000000;0.649686
9918.000000;0.649062
9917.000000;0.648337
9916.000000;0.647860
9915.000000;0.647672
9914.000000;0.647628
9913.000000;0.647707
9912.000000;0.648000
9911.000000;0.648421
9910.000000;0.648603
9909.000000;0.648218
9908.000000;0.647333
9907.000000;0.646382
9906.000000;0.645796
9905.000000;0.645723
9904.000000;0.646030
9903.000000;0.646466
9902.000000;0.646812
9901.000000;0.646947
9900.000000;0.646857
9899.000000;0.646594
9898.000000;0.646247
9897.000000;0.645974
9896.000000;0.646010
9895.000000;0.646507
9894.000000;0.647307
9893.000000;0.647967
9892.000000;0.648104
9891.000000;0.647722
9890.000000;0.647161
9889.000000;0.646727
9888.000000;0.646429
9887.000000;0.646053
9886.000000;0.645466
9885.000000;0.644823
9884.000000;0.644469
9883.000000;0.644572
9882.000000;0.644881
9881.000000;0.644923
9880.000000;0.644466
9879.000000;0.643724
9878.000000;0.643083
9877.000000;0.642759
9876.000000;0.642762
9875.000000;0.643045
9874.000000;0.643535
9873.000000;0.644105
9872.000000;0.644661
9871.000000;0.645199
9870.000000;0.645644
9869.000000;0.645725
9868.000000;0.645208
9867.000000;0.644244
9866.000000;0.643293
9865.000000;0.642701
9864.000000;0.642502
9863.000000;0.642624
9862.000000;0.643063
9861.000000;0.643736
9860.000000;0.644364
9859.000000;0.644628
9858.000000;0.644405
9857.000000;0.643787
9856.000000;0.642969
9855.000000;0.642195
9854.000000;0.641684
9853.000000;0.641476
9852.000000;0.641404
9851.000000;0.641299
9850.000000;0.641204
9849.000000;0.641288
9848.000000;0.641608
9847.000000;0.641997
9846.000000;0.642210
9845.000000;0.642126
9844.000000;0.641867
9843.000000;0.641685
9842.000000;0.641669
9841.000000;0.641545
9840.000000;0.640901
9839.000000;0.639710
9838.000000;0.638549
9837.000000;0.638185
9836.000000;0.638945
9835.000000;0.640494
9834.000000;0.642138
9833.000000;0.643261
9832.000000;0.643573
9831.000000;0.643111
9830.000000;0.642136
9829.000000;0.641019
9828.000000;0.640141
9827.000000;0.639771
9826.000000;0.639943
9825.000000;0.640442
9824.000000;0.640967
9823.000000;0.641312
9822.000000;0.641399
9821.000000;0.641217
9820.000000;0.640831
9819.000000;0.640394
9818.000000;0.640020
9817.000000;0.639673
9816.000000;0.639289
9815.000000;0.638944
9814.000000;0.638719
9813.000000;0.638464
9812.000000;0.637953
9811.000000;0.637333
9810.000000;0.637126
9809.000000;0.637632
9808.000000;0.638517
9807.000000;0.639187
9806.000000;0.639414
9805.000000;0.639402
9804.000000;0.639346
9803.000000;0.639182
9802.000000;0.638761
9801.000000;0.638094
9800.000000;0.637380
9799.000000;0.636870
9798.000000;0.636721
9797.000000;0.636891
9796.000000;0.637198
9795.000000;0.637502
9794.000000;0.637780
9793.000000;0.638004
9792.000000;0.638069
9791.000000;0.637908
9790.000000;0.637562
9789.000000;0.637094
9788.000000;0.636526
9787.000000;0.635941
9786.000000;0.635517
9785.000000;0.635347
9784.000000;0.635358
9783.000000;0.635490
9782.000000;0.635836
9781.000000;0.636425
9780.000000;0.637011
9779.000000;0.637290
9778.000000;0.637214
9777.000000;0.636909
9776.000000;0.636359
9775.000000;0.635460
9774.000000;0.634366
9773.000000;0.633523
9772.000000;0.633275
9771.000000;0.633614
9770.000000;0.634335
9769.000000;0.635241
9768.000000;0.636102
9767.000000;0.636606
9766.000000;0.636523
9765.000000;0.635917
9764.000000;0.635115
9763.000000;0.634470
9762.000000;0.634137
9761.000000;0.634032
9760.000000;0.634021
9759.000000;0.634137
9758.000000;0.634547
9757.000000;0.635195
9756.000000;0.635611
9755.000000;0.635299
9754.000000;0.634331
9753.000000;0.633350
9752.000000;0.632919
9751.000000;0.633016
9750.000000;0.633248
9749.000000;0.633383
9748.000000;0.633509
9747.000000;0.633756
9746.000000;0.634017
9745.000000;0.634033
9744.000000;0.633695
9743.000000;0.633220
9742.000000;0.632990
9741.000000;0.633226
9740.000000;0.633804
9739.000000;0.634389
9738.000000;0.634699
9737.000000;0.634628
9736.000000;0.634211
9735.000000;0.633589
9734.000000;0.632968
9733.000000;0.632514
9732.000000;0.632262
9731.000000;0.632187
9730.000000;0.632306
9729.000000;0.632641
9728.000000;0.633065
9727.000000;0.633308
9726.000000;0.633144
9725.000000;0.632580
9724.000000;0.631885
9723.000000;0.631451
9722.000000;0.631547
9721.000000;0.632078
9720.000000;0.632600
9719.000000;0.632656
9718.000000;0.632125
9717.000000;0.631220
9716.000000;0.630253
9715.000000;0.629500
9714.000000;0.629176
9713.000000;0.629368
9712.000000;0.629950
9711.000000;0.630664
9710.000000;0.631292
9709.000000;0.631710
9708.000000;0.631834
9707.000000;0.631659
9706.000000;0.631302
9705.000000;0.630907
9704.000000;0.630518
9703.000000;0.630157
9702.000000;0.629939
9701.000000;0.629950
9700.000000;0.630060
9699.000000;0.630040
9698.000000;0.629875
9697.000000;0.629772
9696.000000;0.629830
9695.000000;0.629888
9694.000000;0.629784
9693.000000;0.629577
9692.000000;0.629437
9691.000000;0.629462
9690.000000;0.629682
9689.000000;0.630100
9688.000000;0.630573
9687.000000;0.630758
9686.000000;0.630368
9685.000000;0.629483
9684.000000;0.628506
9683.000000;0.627831
9682.000000;0.627607
9681.000000;0.627767
9680.000000;0.628167
9679.000000;0.628659
9678.000000;0.629092
9677.000000;0.629312
9676.000000;0.629207
9675.000000;0.628774
9674.000000;0.628151
9673.000000;0.627532
9672.000000;0.627060
9671.000000;0.626797
9670.000000;0.626754
9669.000000;0.626873
9668.000000;0.627017
9667.000000;0.627064
9666.000000;0.627019
9665.000000;0.626972
9664.000000;0.626967
9663.000000;0.626959
9662.000000;0.626883
9661.000000;0.626709
9660.000000;0.626466
9659.000000;0.626299
9658.000000;0.626452
9657.000000;0.627034
9656.000000;0.627807
9655.000000;0.628321
9654.000000;0.628323
9653.000000;0.627912
9652.000000;0.627310
9651.000000;0.626639
9650.000000;0.625962
9649.000000;0.625388
9648.000000;0.625026
9647.000000;0.624892
9646.000000;0.624938
9645.000000;0.625107
9644.000000;0.625331
9643.000000;0.625558
9642.000000;0.625822
9641.000000;0.626199
9640.000000;0.626618
9639.000000;0.626850
9638.000000;0.626758
9637.000000;0.626475
9636.000000;0.626205
9635.000000;0.625957
9634.000000;0.625607
9633.000000;0.625172
9632.000000;0.624876
9631.000000;0.624915
9630.000000;0.625257
9629.000000;0.625692
9628.000000;0.625985
9627.000000;0.625970
9626.000000;0.625590
9625.000000;0.624915
9624.000000;0.624103
9623.000000;0.623321
9622.000000;0.622691
9621.000000;0.622294
9620.000000;0.622169
9619.000000;0.622266
9618.000000;0.622426
9617.000000;0.622468
9616.000000;0.622324
9615.000000;0.622101
9614.000000;0.621988
9613.000000;0.622089
9612.000000;0.622317
9611.000000;0.622484
9610.000000;0.622486
9609.000000;0.622363
9608.000000;0.622217
9607.000000;0.622118
9606.000000;0.622116
9605.000000;0.622261
9604.000000;0.622539
9603.000000;0.622823
9602.000000;0.622949
9601.000000;0.622866
9600.000000;0.622641
9599.000000;0.622333
9598.000000;0.621914
9597.000000;0.621391
9596.000000;0.620965
9595.000000;0.620967
9594.000000;0.621573
9593.000000;0.622593
9592.000000;0.623562
9591.000000;0.624038
9590.000000;0.623827
9589.000000;0.623003
9588.000000;0.621833
9587.000000;0.620691
9586.000000;0.619951
9585.000000;0.619820
9584.000000;0.620234
9583.000000;0.620906
9582.000000;0.621494
9581.000000;0.621767
9580.000000;0.621693
9579.000000;0.621392
9578.000000;0.620992
9577.000000;0.620526
9576.000000;0.620008
9575.000000;0.619557
9574.000000;0.619368
9573.000000;0.619524
9572.000000;0.619921
9571.000000;0.620372
9570.000000;0.620716
9569.000000;0.620845
9568.000000;0.620734
9567.000000;0.620507
9566.000000;0.620365
9565.000000;0.620385
9564.000000;0.620452
9563.000000;0.620405
9562.000000;0.620158
9561.000000;0.619645
9560.000000;0.618815
9559.000000;0.617813
9558.000000;0.617041
9557.000000;0.616892
9556.000000;0.617407
9555.000000;0.618264
9554.000000;0.619032
9553.000000;0.619375
9552.000000;0.619163
9551.000000;0.618579
9550.000000;0.618066
9549.000000;0.617989
9548.000000;0.618345
9547.000000;0.618863
9546.000000;0.619333
9545.000000;0.619688
9544.000000;0.619841
9543.000000;0.619679
9542.000000;0.619241
9541.000000;0.618750
9540.000000;0.618393
9539.000000;0.618168
9538.000000;0.617975
9537.000000;0.617741
9536.000000;0.617448
9535.000000;0.617123
9534.000000;0.616852
9533.000000;0.616711
9532.000000;0.616688
9531.000000;0.616747
9530.000000;0.616934
9529.000000;0.617286
9528.000000;0.617654
9527.000000;0.617776
9526.000000;0.617569
9525.000000;0.617228
9524.000000;0.616973
9523.000000;0.616813
9522.000000;0.616639
9521.000000;0.616426
9520.000000;0.616265
9519.000000;0.616234
9518.000000;0.616302
9517.000000;0.616324
9516.000000;0.616141
9515.000000;0.615753
9514.000000;0.615380
9513.000000;0.615236
9512.000000;0.615258
9511.000000;0.615174
9510.000000;0.614878
9509.000000;0.614592
9508.000000;0.614593
9507.000000;0.614900
9506.000000;0.615318
9505.000000;0.615651
9504.000000;0.615766
9503.000000;0.615555
9502.000000;0.615021
9501.000000;0.614388
9500.000000;0.613990
9499.000000;0.614000
9498.000000;0.614316
9497.000000;0.614711
9496.000000;0.615047
9495.000000;0.615304
9494.000000;0.615454
9493.000000;0.615372
9492.000000;0.614932
9491.000000;0.614211
9490.000000;0.613550
9489.000000;0.613295
9488.000000;0.613480
9487.000000;0.613823
9486.000000;0.614043
9485.000000;0.614080
9484.000000;0.613998
9483.000000;0.613800
9482.000000;0.613448
9481.000000;0.613004
9480.000000;0.612619
9479.000000;0.612387
9478.000000;0.612277
9477.000000;0.612223
9476.000000;0.612227
9475.000000;0.612348
9474.000000;0.612599
9473.000000;0.612893
9472.000000;0.613094
9471.000000;0.613145
9470.000000;0.613120
9469.000000;0.613117
9468.000000;0.613092
9467.000000;0.612861
9466.000000;0.612304
9465.000000;0.611543
9464.000000;0.610868
9463.000000;0.610514
9462.000000;0.610534
9461.000000;0.610846
9460.000000;0.611339
9459.000000;0.611895
9458.000000;0.612345
9457.000000;0.612484
9456.000000;0.612216
9455.000000;0.611702
9454.000000;0.611305
9453.000000;0.611323
9452.000000;0.611744
9451.000000;0.612285
9450.000000;0.612638
9449.000000;0.612687
9448.000000;0.612500
9447.000000;0.612208
9446.000000;0.611897
9445.000000;0.611563
9444.000000;0.611154
9443.000000;0.610659
9442.000000;0.610187
9441.000000;0.609934
9440.000000;0.610043
9439.000000;0.610475
9438.000000;0.611000
9437.000000;0.611324
9436.000000;0.611285
9435.000000;0.610958
9434.000000;0.610560
9433.000000;0.610233
9432.000000;0.609954
9431.000000;0.609669
9430.000000;0.609453
9429.000000;0.609463
9428.000000;0.609724
9427.000000;0.610031
9426.000000;0.610086
9425.000000;0.609745
9424.000000;0.609144
9423.000000;0.608590
9422.000000;0.608307
9421.000000;0.608284
9420.000000;0.608384
9419.000000;0.608556
9418.000000;0.608850
9417.000000;0.609208
9416.000000;0.609401
9415.000000;0.609258
9414.000000;0.608873
9413.000000;0.608487
9412.000000;0.608245
9411.000000;0.608148
9410.000000;0.608173
9409.000000;0.608317
9408.000000;0.608537
9407.000000;0.608751
9406.000000;0.608896
9405.000000;0.608910
9404.000000;0.608696
9403.000000;0.608221
9402.000000;0.607628
9401.000000;0.607148
9400.000000;0.606895
9399.000000;0.606824
9398.000000;0.606859
9397.000000;0.606996
9396.000000;0.607264
9395.000000;0.607677
9394.000000;0.608176
9393.000000;0.608563
9392.000000;0.608543
9391.000000;0.607991
9390.000000;0.607171
9389.000000;0.606536
9388.000000;0.606264
9387.000000;0.606143
9386.000000;0.605929
9385.000000;0.605684
9384.000000;0.605640
9383.000000;0.605874
9382.000000;0.606226
9381.000000;0.606487
9380.000000;0.606536
9379.000000;0.606323
9378.000000;0.605859
9377.000000;0.605265
9376.000000;0.604738
9375.000000;0.604427
9374.000000;0.604351
9373.000000;0.604474
9372.000000;0.604794
9371.000000;0.605301
9370.000000;0.605845
9369.000000;0.606148
9368.000000;0.606034
9367.000000;0.605628
9366.000000;0.605245
9365.000000;0.605090
9364.000000;0.605116
9363.000000;0.605183
9362.000000;0.605229
9361.000000;0.605232
9360.000000;0.605105
9359.000000;0.604749
9358.000000;0.604194
9357.000000;0.603645
9356.000000;0.603376
9355.000000;0.603577
9354.000000;0.604200
9353.000000;0.604900
9352.000000;0.605245
9351.000000;0.605108
9350.000000;0.604760
9349.000000;0.604500
9348.000000;0.604287
9347.000000;0.603880
9346.000000;0.603252
9345.000000;0.602682
9344.000000;0.602435
9343.000000;0.602528
9342.000000;0.602818
9341.000000;0.603172
9340.000000;0.603478
9339.000000;0.603642
9338.000000;0.603658
9337.000000;0.603619
9336.000000;0.603592
9335.000000;0.603497
9334.000000;0.603181
9333.000000;0.602568
9332.000000;0.601764
9331.000000;0.601034
9330.000000;0.600663
9329.000000;0.600772
9328.000000;0.601254
9327.000000;0.601915
9326.000000;0.602660
9325.000000;0.603468
9324.000000;0.604244
9323.000000;0.604768
9322.000000;0.604810
9321.000000;0.604251
9320.000000;0.603164
9319.000000;0.601854
9318.000000;0.600773
9317.000000;0.600253
9316.000000;0.600305
9315.000000;0.600733
9314.000000;0.601361
9313.000000;0.602058
9312.000000;0.602617
9311.000000;0.602816
9310.000000;0.602633
9309.000000;0.602243
9308.000000;0.601808
9307.000000;0.601409
9306.000000;0.601170
9305.000000;0.601246
9304.000000;0.601611
9303.000000;0.602009
9302.000000;0.602208
9301.000000;0.602192
9300.000000;0.602043
9299.000000;0.601779
9298.000000;0.601392
9297.000000;0.600933
9296.000000;0.600458
9295.000000;0.599967
9294.000000;0.599472
9293.000000;0.599060
9292.000000;0.598814
9291.000000;0.598739
9290.000000;0.598829
9289.000000;0.599088
9288.000000;0.599440
9287.000000;0.599730
9286.000000;0.599910
9285.000000;0.600115
9284.000000;0.600415
9283.000000;0.600601
9282.000000;0.600397
9281.000000;0.599852
9280.000000;0.599335
9279.000000;0.599112
9278.000000;0.599054
9277.000000;0.598842
9276.000000;0.598359
9275.000000;0.597823
9274.000000;0.597557
9273.000000;0.597708
9272.000000;0.598154
9271.000000;0.598636
9270.000000;0.598940
9269.000000;0.598979
9268.000000;0.598763
9267.000000;0.598337
9266.000000;0.597784
9265.000000;0.597250
9264.000000;0.596950
9263.000000;0.597084
9262.000000;0.597686
9261.000000;0.598501
9260.000000;0.599081
9259.000000;0.599097
9258.000000;0.598574
9257.000000;0.597811
9256.000000;0.597101
9255.000000;0.596596
9254.000000;0.596373
9253.000000;0.596473
9252.000000;0.596821
9251.000000;0.597216
9250.000000;0.597450
9249.000000;0.597434
9248.000000;0.597204
9247.000000;0.596886
9246.000000;0.596651
9245.000000;0.596641
9244.000000;0.596862
9243.000000;0.597166
9242.000000;0.597368
9241.000000;0.597347
9240.000000;0.597083
9239.000000;0.596656
9238.000000;0.596223
9237.000000;0.595940
9236.000000;0.595846
9235.000000;0.595860
9234.000000;0.595879
9233.000000;0.595846
9232.000000;0.595746
9231.000000;0.595613
9230.000000;0.595511
9229.000000;0.595478
9228.000000;0.595480
9227.000000;0.595496
9226.000000;0.595575
9225.000000;0.595721
9224.000000;0.595788
9223.000000;0.595627
9222.000000;0.595345
9221.000000;0.595227
9220.000000;0.595379
9219.000000;0.595589
9218.000000;0.595600
9217.000000;0.595364
9216.000000;0.594986
9215.000000;0.594575
9214.000000;0.594265
9213.000000;0.594200
9212.000000;0.594367
9211.000000;0.594523
9210.000000;0.594455
9209.000000;0.594217
9208.000000;0.594000
9207.000000;0.593849
9206.000000;0.593667
9205.000000;0.593427
9204.000000;0.593212
9203.000000;0.593056
9202.000000;0.592933
9201.000000;0.592904
9200.000000;0.593107
9199.000000;0.593538
9198.000000;0.593971
9197.000000;0.594146
9196.000000;0.593982
9195.000000;0.593565
9194.000000;0.593047
9193.000000;0.592598
9192.000000;0.592357
9191.000000;0.592353
9190.000000;0.592492
9189.000000;0.592670
9188.000000;0.592853
9187.000000;0.593030
9186.000000;0.593166
9185.000000;0.593246
9184.000000;0.593318
9183.000000;0.593392
9182.000000;0.593366
9181.000000;0.593126
9180.000000;0.592733
9179.000000;0.592407
9178.000000;0.592305
9177.000000;0.592380
9176.000000;0.592482
9175.000000;0.592519
9174.000000;0.592483
9173.000000;0.592384
9172.000000;0.592236
9171.000000;0.592085
9170.000000;0.591969
9169.000000;0.591861
9168.000000;0.591705
9167.000000;0.591516
9166.000000;0.591368
9165.000000;0.591277
9164.000000;0.591186
9163.000000;0.591097
9162.000000;0.591126
9161.000000;0.591355
9160.000000;0.591664
9159.000000;0.591813
9158.000000;0.591674
9157.000000;0.591316
9156.000000;0.590889
9155.000000;0.590497
9154.000000;0.590214
9153.000000;0.590125
9152.000000;0.590305
9151.000000;0.590739
9150.000000;0.591284
9149.000000;0.591702
9148.000000;0.591757
9147.000000;0.591351
9146.000000;0.590628
9145.000000;0.589906
9144.000000;0.589463
9143.000000;0.589362
9142.000000;0.589467
9141.000000;0.589624
9140.000000;0.589799
9139.000000;0.590030
9138.000000;0.590265
9137.000000;0.590329
9136.000000;0.590100
9135.000000;0.589677
9134.000000;0.589289
9133.000000;0.589073
9132.000000;0.588998
9131.000000;0.588980
9130.000000;0.588979
9129.000000;0.588969
9128.000000;0.588920
9127.000000;0.588840
9126.000000;0.588754
9125.000000;0.588614
9124.000000;0.588371
9123.000000;0.588149
9122.000000;0.588208
9121.000000;0.588642
9120.000000;0.589219
9119.000000;0.589594
9118.000000;0.589589
9117.000000;0.589197
9116.000000;0.588519
9115.000000;0.587836
9114.000000;0.587593
9113.000000;0.588022
9112.000000;0.588816
9111.000000;0.589351
9110.000000;0.589258
9109.000000;0.588631
9108.000000;0.587775
9107.000000;0.586963
9106.000000;0.586417
9105.000000;0.586266
9104.000000;0.586421
9103.000000;0.586636
9102.000000;0.586759
9101.000000;0.586829
9100.000000;0.586914
9099.000000;0.586997
9098.000000;0.587059
9097.000000;0.587120
9096.000000;0.587172
9095.000000;0.587183
9094.000000;0.587203
9093.000000;0.587317
9092.000000;0.587447
9091.000000;0.587360
9090.000000;0.586954
9089.000000;0.586390
9088.000000;0.585896
9087.000000;0.585587
9086.000000;0.585537
9085.000000;0.585819
9084.000000;0.586317
9083.000000;0.586672
9082.000000;0.586585
9081.000000;0.586130
9080.000000;0.585626
9079.000000;0.585286
9078.000000;0.585113
9077.000000;0.585064
9076.000000;0.585128
9075.000000;0.585268
9074.000000;0.585404
9073.000000;0.585477
9072.000000;0.585454
9071.000000;0.585299
9070.000000;0.585050
9069.000000;0.584875
9068.000000;0.584957
9067.000000;0.585302
9066.000000;0.585737
9065.000000;0.586055
9064.000000;0.586123
9063.000000;0.585896
9062.000000;0.585439
9061.000000;0.584941
9060.000000;0.584600
9059.000000;0.584473
9058.000000;0.584474
9057.000000;0.584506
9056.000000;0.584540
9055.000000;0.584569
9054.000000;0.584554
9053.000000;0.584440
