Criado como novo conjunto de dados;"2706_e01_daniel.spp","27543.1 Secs"
cm-1;Abs
10000.000000;0.780345
9999.000000;0.779852
9998.000000;0.779360
9997.000000;0.778869
9996.000000;0.778378
9995.000000;0.777888
9994.000000;0.777399
9993.000000;0.776907
9992.000000;0.776423
9991.000000;0.775928
9990.000000;0.775456
9989.000000;0.774893
9988.000000;0.774279
9987.000000;0.773902
9986.000000;0.774011
9985.000000;0.774696
9984.000000;0.775574
9983.000000;0.775930
9982.000000;0.775375
9981.000000;0.774310
9980.000000;0.773497
9979.000000;0.773334
9978.000000;0.773706
9977.000000;0.774286
9976.000000;0.774703
9975.000000;0.774649
9974.000000;0.774178
9973.000000;0.773753
9972.000000;0.773698
9971.000000;0.773795
9970.000000;0.773775
9969.000000;0.773878
9968.000000;0.774445
9967.000000;0.775142
9966.000000;0.775213
9965.000000;0.774459
9964.000000;0.773449
9963.000000;0.772734
9962.000000;0.772339
9961.000000;0.772089
9960.000000;0.771926
9959.000000;0.771796
9958.000000;0.771642
9957.000000;0.771632
9956.000000;0.772018
9955.000000;0.772664
9954.000000;0.773092
9953.000000;0.773095
9952.000000;0.772969
9951.000000;0.773013
9950.000000;0.773176
9949.000000;0.773327
9948.000000;0.773515
9947.000000;0.773770
9946.000000;0.773913
9945.000000;0.773784
9944.000000;0.773451
9943.000000;0.773036
9942.000000;0.772552
9941.000000;0.772065
9940.000000;0.771799
9939.000000;0.771889
9938.000000;0.772147
9937.000000;0.772197
9936.000000;0.771804
9935.000000;0.771059
9934.000000;0.770344
9933.000000;0.770082
9932.000000;0.770322
9931.000000;0.770579
9930.000000;0.770318
9929.000000;0.769640
9928.000000;0.769217
9927.000000;0.769481
9926.000000;0.770137
9925.000000;0.770566
9924.000000;0.770528
9923.000000;0.770274
9922.000000;0.770139
9921.000000;0.770237
9920.000000;0.770490
9919.000000;0.770761
9918.000000;0.770875
9917.000000;0.770638
9916.000000;0.769958
9915.000000;0.769033
9914.000000;0.768324
9913.000000;0.768204
9912.000000;0.768599
9911.000000;0.769103
9910.000000;0.769458
9909.000000;0.769736
9908.000000;0.770029
9907.000000;0.770216
9906.000000;0.770193
9905.000000;0.770107
9904.000000;0.770131
9903.000000;0.770178
9902.000000;0.770013
9901.000000;0.769555
9900.000000;0.768882
9899.000000;0.768115
9898.000000;0.767485
9897.000000;0.767307
9896.000000;0.767618
9895.000000;0.767979
9894.000000;0.767885
9893.000000;0.767312
9892.000000;0.766652
9891.000000;0.766224
9890.000000;0.766086
9889.000000;0.766186
9888.000000;0.766428
9887.000000;0.766636
9886.000000;0.766658
9885.000000;0.766491
9884.000000;0.766198
9883.000000;0.765860
9882.000000;0.765701
9881.000000;0.766004
9880.000000;0.766682
9879.000000;0.767181
9878.000000;0.767090
9877.000000;0.766600
9876.000000;0.766112
9875.000000;0.765656
9874.000000;0.765093
9873.000000;0.764654
9872.000000;0.764783
9871.000000;0.765487
9870.000000;0.766265
9869.000000;0.766665
9868.000000;0.766620
9867.000000;0.766294
9866.000000;0.765940
9865.000000;0.765862
9864.000000;0.766182
9863.000000;0.766585
9862.000000;0.766629
9861.000000;0.766284
9860.000000;0.765893
9859.000000;0.765672
9858.000000;0.765578
9857.000000;0.765578
9856.000000;0.765655
9855.000000;0.765525
9854.000000;0.764824
9853.000000;0.763666
9852.000000;0.762649
9851.000000;0.762164
9850.000000;0.762022
9849.000000;0.761899
9848.000000;0.761865
9847.000000;0.762238
9846.000000;0.763085
9845.000000;0.764072
9844.000000;0.764741
9843.000000;0.764884
9842.000000;0.764682
9841.000000;0.764510
9840.000000;0.764522
9839.000000;0.764492
9838.000000;0.764165
9837.000000;0.763666
9836.000000;0.763379
9835.000000;0.763471
9834.000000;0.763729
9833.000000;0.763834
9832.000000;0.763624
9831.000000;0.763162
9830.000000;0.762699
9829.000000;0.762483
9828.000000;0.762441
9827.000000;0.762173
9826.000000;0.761494
9825.000000;0.760805
9824.000000;0.760644
9823.000000;0.760989
9822.000000;0.761355
9821.000000;0.761501
9820.000000;0.761611
9819.000000;0.761793
9818.000000;0.761798
9817.000000;0.761402
9816.000000;0.760745
9815.000000;0.760166
9814.000000;0.759897
9813.000000;0.760015
9812.000000;0.760464
9811.000000;0.761002
9810.000000;0.761313
9809.000000;0.761266
9808.000000;0.760926
9807.000000;0.760330
9806.000000;0.759482
9805.000000;0.758598
9804.000000;0.758074
9803.000000;0.758070
9802.000000;0.758312
9801.000000;0.758448
9800.000000;0.758455
9799.000000;0.758598
9798.000000;0.759058
9797.000000;0.759709
9796.000000;0.760184
9795.000000;0.760160
9794.000000;0.759674
9793.000000;0.759157
9792.000000;0.759048
9791.000000;0.759358
9790.000000;0.759683
9789.000000;0.759644
9788.000000;0.759209
9787.000000;0.758621
9786.000000;0.758148
9785.000000;0.757905
9784.000000;0.757795
9783.000000;0.757620
9782.000000;0.757331
9781.000000;0.757126
9780.000000;0.757193
9779.000000;0.757425
9778.000000;0.757544
9777.000000;0.757456
9776.000000;0.757307
9775.000000;0.757242
9774.000000;0.757273
9773.000000;0.757360
9772.000000;0.757410
9771.000000;0.757211
9770.000000;0.756622
9769.000000;0.755880
9768.000000;0.755493
9767.000000;0.755726
9766.000000;0.756322
9765.000000;0.756824
9764.000000;0.757062
9763.000000;0.757220
9762.000000;0.757443
9761.000000;0.757533
9760.000000;0.757122
9759.000000;0.756144
9758.000000;0.755030
9757.000000;0.754303
9756.000000;0.754045
9755.000000;0.753933
9754.000000;0.753779
9753.000000;0.753787
9752.000000;0.754155
9751.000000;0.754661
9750.000000;0.754895
9749.000000;0.754741
9748.000000;0.754428
9747.000000;0.754182
9746.000000;0.754044
9745.000000;0.753958
9744.000000;0.753841
9743.000000;0.753619
9742.000000;0.753371
9741.000000;0.753386
9740.000000;0.753859
9739.000000;0.754547
9738.000000;0.754929
9737.000000;0.754724
9736.000000;0.754147
9735.000000;0.753633
9734.000000;0.753438
9733.000000;0.753530
9732.000000;0.753745
9731.000000;0.753973
9730.000000;0.754200
9729.000000;0.754386
9728.000000;0.754356
9727.000000;0.753965
9726.000000;0.753379
9725.000000;0.753017
9724.000000;0.753101
9723.000000;0.753412
9722.000000;0.753612
9721.000000;0.753641
9720.000000;0.753626
9719.000000;0.753554
9718.000000;0.753301
9717.000000;0.752929
9716.000000;0.752689
9715.000000;0.752708
9714.000000;0.752820
9713.000000;0.752783
9712.000000;0.752573
9711.000000;0.752412
9710.000000;0.752528
9709.000000;0.752873
9708.000000;0.753081
9707.000000;0.752804
9706.000000;0.752095
9705.000000;0.751382
9704.000000;0.751042
9703.000000;0.751109
9702.000000;0.751390
9701.000000;0.751689
9700.000000;0.751847
9699.000000;0.751794
9698.000000;0.751650
9697.000000;0.751641
9696.000000;0.751803
9695.000000;0.751921
9694.000000;0.751831
9693.000000;0.751618
9692.000000;0.751442
9691.000000;0.751365
9690.000000;0.751449
9689.000000;0.751754
9688.000000;0.752086
9687.000000;0.751998
9686.000000;0.751284
9685.000000;0.750311
9684.000000;0.749653
9683.000000;0.749528
9682.000000;0.749744
9681.000000;0.750017
9680.000000;0.750129
9679.000000;0.749964
9678.000000;0.749609
9677.000000;0.749317
9676.000000;0.749223
9675.000000;0.749228
9674.000000;0.749252
9673.000000;0.749397
9672.000000;0.749663
9671.000000;0.749776
9670.000000;0.749571
9669.000000;0.749335
9668.000000;0.749468
9667.000000;0.749903
9666.000000;0.750169
9665.000000;0.749925
9664.000000;0.749226
9663.000000;0.748358
9662.000000;0.747660
9661.000000;0.747404
9660.000000;0.747566
9659.000000;0.747787
9658.000000;0.747766
9657.000000;0.747625
9656.000000;0.747673
9655.000000;0.747939
9654.000000;0.748172
9653.000000;0.748241
9652.000000;0.748266
9651.000000;0.748348
9650.000000;0.748412
9649.000000;0.748304
9648.000000;0.747929
9647.000000;0.747327
9646.000000;0.746719
9645.000000;0.746380
9644.000000;0.746342
9643.000000;0.746363
9642.000000;0.746310
9641.000000;0.746383
9640.000000;0.746765
9639.000000;0.747266
9638.000000;0.747537
9637.000000;0.747497
9636.000000;0.747283
9635.000000;0.746945
9634.000000;0.746483
9633.000000;0.746055
9632.000000;0.745841
9631.000000;0.745750
9630.000000;0.745543
9629.000000;0.745205
9628.000000;0.744945
9627.000000;0.744896
9626.000000;0.745040
9625.000000;0.745355
9624.000000;0.745734
9623.000000;0.745849
9622.000000;0.745428
9621.000000;0.744702
9620.000000;0.744269
9619.000000;0.744437
9618.000000;0.744911
9617.000000;0.745183
9616.000000;0.745064
9615.000000;0.744790
9614.000000;0.744711
9613.000000;0.744945
9612.000000;0.745254
9611.000000;0.745283
9610.000000;0.744955
9609.000000;0.744529
9608.000000;0.744236
9607.000000;0.744038
9606.000000;0.743853
9605.000000;0.743769
9604.000000;0.743824
9603.000000;0.743805
9602.000000;0.743561
9601.000000;0.743343
9600.000000;0.743486
9599.000000;0.743904
9598.000000;0.744237
9597.000000;0.744430
9596.000000;0.744729
9595.000000;0.745109
9594.000000;0.745108
9593.000000;0.744420
9592.000000;0.743355
9591.000000;0.742540
9590.000000;0.742317
9589.000000;0.742561
9588.000000;0.742927
9587.000000;0.743164
9586.000000;0.743249
9585.000000;0.743299
9584.000000;0.743335
9583.000000;0.743204
9582.000000;0.742796
9581.000000;0.742267
9580.000000;0.741889
9579.000000;0.741742
9578.000000;0.741713
9577.000000;0.741780
9576.000000;0.742087
9575.000000;0.742715
9574.000000;0.743476
9573.000000;0.743987
9572.000000;0.743924
9571.000000;0.743253
9570.000000;0.742291
9569.000000;0.741485
9568.000000;0.741039
9567.000000;0.740844
9566.000000;0.740765
9565.000000;0.740844
9564.000000;0.741115
9563.000000;0.741402
9562.000000;0.741510
9561.000000;0.741493
9560.000000;0.741552
9559.000000;0.741738
9558.000000;0.741910
9557.000000;0.741920
9556.000000;0.741697
9555.000000;0.741259
9554.000000;0.740800
9553.000000;0.740605
9552.000000;0.740734
9551.000000;0.740903
9550.000000;0.740858
9549.000000;0.740712
9548.000000;0.740712
9547.000000;0.740841
9546.000000;0.740925
9545.000000;0.740996
9544.000000;0.741219
9543.000000;0.741522
9542.000000;0.741607
9541.000000;0.741330
9540.000000;0.740845
9539.000000;0.740349
9538.000000;0.739924
9537.000000;0.739638
9536.000000;0.739548
9535.000000;0.739567
9534.000000;0.739482
9533.000000;0.739162
9532.000000;0.738653
9531.000000;0.738105
9530.000000;0.737746
9529.000000;0.737815
9528.000000;0.738339
9527.000000;0.739005
9526.000000;0.739437
9525.000000;0.739562
9524.000000;0.739554
9523.000000;0.739481
9522.000000;0.739245
9521.000000;0.738798
9520.000000;0.738217
9519.000000;0.737566
9518.000000;0.736916
9517.000000;0.736466
9516.000000;0.736416
9515.000000;0.736677
9514.000000;0.736938
9513.000000;0.737061
9512.000000;0.737211
9511.000000;0.737535
9510.000000;0.737894
9509.000000;0.738013
9508.000000;0.737802
9507.000000;0.737444
9506.000000;0.737204
9505.000000;0.737189
9504.000000;0.737252
9503.000000;0.737161
9502.000000;0.736888
9501.000000;0.736677
9500.000000;0.736732
9499.000000;0.736938
9498.000000;0.737000
9497.000000;0.736815
9496.000000;0.736569
9495.000000;0.736489
9494.000000;0.736603
9493.000000;0.736731
9492.000000;0.736653
9491.000000;0.736355
9490.000000;0.736119
9489.000000;0.736252
9488.000000;0.736658
9487.000000;0.736855
9486.000000;0.736541
9485.000000;0.735977
9484.000000;0.735614
9483.000000;0.735517
9482.000000;0.735411
9481.000000;0.735175
9480.000000;0.734995
9479.000000;0.735020
9478.000000;0.735143
9477.000000;0.735178
9476.000000;0.735098
9475.000000;0.735019
9474.000000;0.735034
9473.000000;0.735122
9472.000000;0.735161
9471.000000;0.735069
9470.000000;0.734939
9469.000000;0.734946
9468.000000;0.735061
9467.000000;0.735009
9466.000000;0.734601
9465.000000;0.733984
9464.000000;0.733443
9463.000000;0.733107
9462.000000;0.732995
9461.000000;0.733156
9460.000000;0.733540
9459.000000;0.733885
9458.000000;0.733965
9457.000000;0.733886
9456.000000;0.733901
9455.000000;0.734031
9454.000000;0.734073
9453.000000;0.733907
9452.000000;0.733576
9451.000000;0.733154
9450.000000;0.732766
9449.000000;0.732666
9448.000000;0.732985
9447.000000;0.733431
9446.000000;0.733519
9445.000000;0.733130
9444.000000;0.732625
9443.000000;0.732370
9442.000000;0.732394
9441.000000;0.732528
9440.000000;0.732637
9439.000000;0.732629
9438.000000;0.732425
9437.000000;0.732056
9436.000000;0.731672
9435.000000;0.731418
9434.000000;0.731354
9433.000000;0.731494
9432.000000;0.731794
9431.000000;0.732080
9430.000000;0.732137
9429.000000;0.731893
9428.000000;0.731458
9427.000000;0.730977
9426.000000;0.730558
9425.000000;0.730285
9424.000000;0.730192
9423.000000;0.730234
9422.000000;0.730372
9421.000000;0.730624
9420.000000;0.730965
9419.000000;0.731237
9418.000000;0.731314
9417.000000;0.731253
9416.000000;0.731132
9415.000000;0.730843
9414.000000;0.730270
9413.000000;0.729613
9412.000000;0.729267
9411.000000;0.729365
9410.000000;0.729641
9409.000000;0.729791
9408.000000;0.729785
9407.000000;0.729766
9406.000000;0.729807
9405.000000;0.729841
9404.000000;0.729753
9403.000000;0.729465
9402.000000;0.729047
9401.000000;0.728725
9400.000000;0.728697
9399.000000;0.728918
9398.000000;0.729153
9397.000000;0.729220
9396.000000;0.729081
9395.000000;0.728753
9394.000000;0.728293
9393.000000;0.727888
9392.000000;0.727773
9391.000000;0.727999
9390.000000;0.728368
9389.000000;0.728640
9388.000000;0.728727
9387.000000;0.728683
9386.000000;0.728595
9385.000000;0.728529
9384.000000;0.728502
9383.000000;0.728451
9382.000000;0.728272
9381.000000;0.727919
9380.000000;0.727439
9379.000000;0.726972
9378.000000;0.726716
9377.000000;0.726824
9376.000000;0.727234
9375.000000;0.727644
9374.000000;0.727777
9373.000000;0.727666
9372.000000;0.727583
9371.000000;0.727724
9370.000000;0.728015
9369.000000;0.728231
9368.000000;0.728213
9367.000000;0.727959
9366.000000;0.727587
9365.000000;0.727230
9364.000000;0.726959
9363.000000;0.726812
9362.000000;0.726838
9361.000000;0.727020
9360.000000;0.727165
9359.000000;0.727013
9358.000000;0.726539
9357.000000;0.726018
9356.000000;0.725732
9355.000000;0.725704
9354.000000;0.725796
9353.000000;0.725919
9352.000000;0.726027
9351.000000;0.726008
9350.000000;0.725779
9349.000000;0.725451
9348.000000;0.725277
9347.000000;0.725422
9346.000000;0.725832
9345.000000;0.726252
9344.000000;0.726370
9343.000000;0.726062
9342.000000;0.725588
9341.000000;0.725409
9340.000000;0.725703
9339.000000;0.726179
9338.000000;0.726460
9337.000000;0.726489
9336.000000;0.726389
9335.000000;0.726129
9334.000000;0.725595
9333.000000;0.724902
9332.000000;0.724369
9331.000000;0.724174
9330.000000;0.724235
9329.000000;0.724404
9328.000000;0.724606
9327.000000;0.724774
9326.000000;0.724850
9325.000000;0.724878
9324.000000;0.724962
9323.000000;0.725092
9322.000000;0.725154
9321.000000;0.725098
9320.000000;0.724973
9319.000000;0.724792
9318.000000;0.724501
9317.000000;0.724129
9316.000000;0.723820
9315.000000;0.723669
9314.000000;0.723644
9313.000000;0.723715
9312.000000;0.723929
9311.000000;0.724288
9310.000000;0.724601
9309.000000;0.724605
9308.000000;0.724228
9307.000000;0.723688
9306.000000;0.723290
9305.000000;0.723146
9304.000000;0.723106
9303.000000;0.722993
9302.000000;0.722826
9301.000000;0.722742
9300.000000;0.722736
9299.000000;0.722620
9298.000000;0.722283
9297.000000;0.721874
9296.000000;0.721653
9295.000000;0.721721
9294.000000;0.721956
9293.000000;0.722142
9292.000000;0.722116
9291.000000;0.721877
9290.000000;0.721609
9289.000000;0.721500
9288.000000;0.721514
9287.000000;0.721436
9286.000000;0.721200
9285.000000;0.721016
9284.000000;0.721089
9283.000000;0.721329
9282.000000;0.721479
9281.000000;0.721424
9280.000000;0.721261
9279.000000;0.721111
9278.000000;0.721018
9277.000000;0.720958
9276.000000;0.720852
9275.000000;0.720604
9274.000000;0.720235
9273.000000;0.719945
9272.000000;0.719960
9271.000000;0.720304
9270.000000;0.720768
9269.000000;0.721065
9268.000000;0.721017
9267.000000;0.720682
9266.000000;0.720335
9265.000000;0.720210
9264.000000;0.720256
9263.000000;0.720212
9262.000000;0.719972
9261.000000;0.719700
9260.000000;0.719562
9259.000000;0.719501
9258.000000;0.719385
9257.000000;0.719201
9256.000000;0.719010
9255.000000;0.718842
9254.000000;0.718761
9253.000000;0.718879
9252.000000;0.719166
9251.000000;0.719391
9250.000000;0.719378
9249.000000;0.719217
9248.000000;0.719097
9247.000000;0.719053
9246.000000;0.719016
9245.000000;0.718974
9244.000000;0.718916
9243.000000;0.718724
9242.000000;0.718314
9241.000000;0.717797
9240.000000;0.717380
9239.000000;0.717166
9238.000000;0.717174
9237.000000;0.717420
9236.000000;0.717837
9235.000000;0.718219
9234.000000;0.718408
9233.000000;0.718443
9232.000000;0.718394
9231.000000;0.718212
9230.000000;0.717903
9229.000000;0.717684
9228.000000;0.717723
9227.000000;0.717826
9226.000000;0.717664
9225.000000;0.717233
9224.000000;0.716835
9223.000000;0.716634
9222.000000;0.716497
9221.000000;0.716278
9220.000000;0.716005
9219.000000;0.715749
9218.000000;0.715516
9217.000000;0.715341
9216.000000;0.715314
9215.000000;0.715454
9214.000000;0.715681
9213.000000;0.715953
9212.000000;0.716269
9211.000000;0.716526
9210.000000;0.716518
9209.000000;0.716149
9208.000000;0.715578
9207.000000;0.715096
9206.000000;0.714934
9205.000000;0.715159
9204.000000;0.715623
9203.000000;0.716014
9202.000000;0.716094
9201.000000;0.715906
9200.000000;0.715685
9199.000000;0.715565
9198.000000;0.715495
9197.000000;0.715429
9196.000000;0.715447
9195.000000;0.715612
9194.000000;0.715809
9193.000000;0.715808
9192.000000;0.715476
9191.000000;0.714908
9190.000000;0.714393
9189.000000;0.714214
9188.000000;0.714438
9187.000000;0.714862
9186.000000;0.715213
9185.000000;0.715369
9184.000000;0.715377
9183.000000;0.715327
9182.000000;0.715256
9181.000000;0.715161
9180.000000;0.715018
9179.000000;0.714806
9178.000000;0.714562
9177.000000;0.714364
9176.000000;0.714245
9175.000000;0.714174
9174.000000;0.714135
9173.000000;0.714150
9172.000000;0.714170
9171.000000;0.714059
9170.000000;0.713759
9169.000000;0.713409
9168.000000;0.713213
9167.000000;0.713226
9166.000000;0.713360
9165.000000;0.713512
9164.000000;0.713628
9163.000000;0.713700
9162.000000;0.713780
9161.000000;0.713914
9160.000000;0.714021
9159.000000;0.713919
9158.000000;0.713543
9157.000000;0.713051
9156.000000;0.712624
9155.000000;0.712311
9154.000000;0.712124
9153.000000;0.712148
9152.000000;0.712384
9151.000000;0.712619
9150.000000;0.712630
9149.000000;0.712457
9148.000000;0.712333
9147.000000;0.712379
9146.000000;0.712529
9145.000000;0.712690
9144.000000;0.712805
9143.000000;0.712803
9142.000000;0.712607
9141.000000;0.712217
9140.000000;0.711697
9139.000000;0.711146
9138.000000;0.710736
9137.000000;0.710673
9136.000000;0.710953
9135.000000;0.711261
9134.000000;0.711280
9133.000000;0.711060
9132.000000;0.710925
9131.000000;0.711042
9130.000000;0.711258
9129.000000;0.711358
9128.000000;0.711306
9127.000000;0.711215
9126.000000;0.711194
9125.000000;0.711260
9124.000000;0.711339
9123.000000;0.711333
9122.000000;0.711259
9121.000000;0.711256
9120.000000;0.711368
9119.000000;0.711416
9118.000000;0.711199
9117.000000;0.710766
9116.000000;0.710345
9115.000000;0.710047
9114.000000;0.709794
9113.000000;0.709501
9112.000000;0.709197
9111.000000;0.708965
9110.000000;0.708896
9109.000000;0.709081
9108.000000;0.709510
9107.000000;0.709961
9106.000000;0.710133
9105.000000;0.709903
9104.000000;0.709378
9103.000000;0.708731
9102.000000;0.708104
9101.000000;0.707649
9100.000000;0.707471
9099.000000;0.707502
9098.000000;0.707560
9097.000000;0.707567
9096.000000;0.707612
9095.000000;0.707787
9094.000000;0.708074
9093.000000;0.708402
9092.000000;0.708708
9091.000000;0.708908
9090.000000;0.708948
9089.000000;0.708896
9088.000000;0.708895
9087.000000;0.708970
9086.000000;0.708997
9085.000000;0.708877
9084.000000;0.708662
9083.000000;0.708448
9082.000000;0.708254
9081.000000;0.708048
9080.000000;0.707845
9079.000000;0.707705
9078.000000;0.707680
9077.000000;0.707779
9076.000000;0.707937
9075.000000;0.708017
9074.000000;0.707901
9073.000000;0.707607
9072.000000;0.707281
9071.000000;0.707045
9070.000000;0.706907
9069.000000;0.706821
9068.000000;0.706773
9067.000000;0.706764
9066.000000;0.706759
9065.000000;0.706703
9064.000000;0.706578
9063.000000;0.706448
9062.000000;0.706423
9061.000000;0.706578
9060.000000;0.706850
9059.000000;0.707055
9058.000000;0.707044
9057.000000;0.706846
9056.000000;0.706632
9055.000000;0.706549
9054.000000;0.706618
9053.000000;0.706761
