Criado como novo conjunto de dados;"2706_e01_daniel.spp","66425.2 Secs"
cm-1;Abs
10000.000000;0.798796
9999.000000;0.799242
9998.000000;0.799696
9997.000000;0.800136
9996.000000;0.800603
9995.000000;0.801017
9994.000000;0.801587
9993.000000;0.802649
9992.000000;0.803665
9991.000000;0.804116
9990.000000;0.803642
9989.000000;0.802507
9988.000000;0.801397
9987.000000;0.800879
9986.000000;0.800977
9985.000000;0.801338
9984.000000;0.801629
9983.000000;0.801709
9982.000000;0.801543
9981.000000;0.801183
9980.000000;0.800795
9979.000000;0.800564
9978.000000;0.800524
9977.000000;0.800552
9976.000000;0.800534
9975.000000;0.800489
9974.000000;0.800492
9973.000000;0.800485
9972.000000;0.800226
9971.000000;0.799465
9970.000000;0.798240
9969.000000;0.796968
9968.000000;0.796172
9967.000000;0.796123
9966.000000;0.796685
9965.000000;0.797437
9964.000000;0.797866
9963.000000;0.797608
9962.000000;0.796736
9961.000000;0.795826
9960.000000;0.795549
9959.000000;0.796092
9958.000000;0.797031
9957.000000;0.797774
9956.000000;0.798060
9955.000000;0.798014
9954.000000;0.797868
9953.000000;0.797727
9952.000000;0.797571
9951.000000;0.797398
9950.000000;0.797321
9949.000000;0.797444
9948.000000;0.797619
9947.000000;0.797456
9946.000000;0.796711
9945.000000;0.795617
9944.000000;0.794660
9943.000000;0.794082
9942.000000;0.793784
9941.000000;0.793690
9940.000000;0.793961
9939.000000;0.794767
9938.000000;0.795980
9937.000000;0.797153
9936.000000;0.797715
9935.000000;0.797266
9934.000000;0.795923
9933.000000;0.794404
9932.000000;0.793536
9931.000000;0.793534
9930.000000;0.793872
9929.000000;0.793939
9928.000000;0.793693
9927.000000;0.793575
9926.000000;0.793941
9925.000000;0.794724
9924.000000;0.795539
9923.000000;0.795975
9922.000000;0.795819
9921.000000;0.795144
9920.000000;0.794244
9919.000000;0.793481
9918.000000;0.793127
9917.000000;0.793201
9916.000000;0.793335
9915.000000;0.792974
9914.000000;0.791979
9913.000000;0.790975
9912.000000;0.790799
9911.000000;0.791532
9910.000000;0.792361
9909.000000;0.792493
9908.000000;0.791964
9907.000000;0.791390
9906.000000;0.791223
9905.000000;0.791490
9904.000000;0.792006
9903.000000;0.792482
9902.000000;0.792566
9901.000000;0.792143
9900.000000;0.791624
9899.000000;0.791632
9898.000000;0.792290
9897.000000;0.793025
9896.000000;0.793161
9895.000000;0.792604
9894.000000;0.791854
9893.000000;0.791444
9892.000000;0.791494
9891.000000;0.791736
9890.000000;0.791885
9889.000000;0.791902
9888.000000;0.791914
9887.000000;0.791900
9886.000000;0.791622
9885.000000;0.790947
9884.000000;0.790135
9883.000000;0.789647
9882.000000;0.789648
9881.000000;0.789818
9880.000000;0.789721
9879.000000;0.789259
9878.000000;0.788682
9877.000000;0.788210
9876.000000;0.787819
9875.000000;0.787433
9874.000000;0.787178
9873.000000;0.787275
9872.000000;0.787714
9871.000000;0.788210
9870.000000;0.788537
9869.000000;0.788754
9868.000000;0.788948
9867.000000;0.788948
9866.000000;0.788530
9865.000000;0.787840
9864.000000;0.787333
9863.000000;0.787235
9862.000000;0.787318
9861.000000;0.787299
9860.000000;0.787237
9859.000000;0.787360
9858.000000;0.787646
9857.000000;0.787815
9856.000000;0.787665
9855.000000;0.787281
9854.000000;0.786885
9853.000000;0.786617
9852.000000;0.786489
9851.000000;0.786481
9850.000000;0.786624
9849.000000;0.786935
9848.000000;0.787288
9847.000000;0.787417
9846.000000;0.787184
9845.000000;0.786803
9844.000000;0.786624
9843.000000;0.786675
9842.000000;0.786589
9841.000000;0.786102
9840.000000;0.785455
9839.000000;0.785104
9838.000000;0.785114
9837.000000;0.785066
9836.000000;0.784607
9835.000000;0.783934
9834.000000;0.783620
9833.000000;0.783974
9832.000000;0.784699
9831.000000;0.785179
9830.000000;0.785080
9829.000000;0.784617
9828.000000;0.784220
9827.000000;0.784069
9826.000000;0.784024
9825.000000;0.783923
9824.000000;0.783781
9823.000000;0.783671
9822.000000;0.783608
9821.000000;0.783583
9820.000000;0.783593
9819.000000;0.783535
9818.000000;0.783219
9817.000000;0.782653
9816.000000;0.782237
9815.000000;0.782449
9814.000000;0.783253
9813.000000;0.783963
9812.000000;0.783873
9811.000000;0.783026
9810.000000;0.782237
9809.000000;0.782244
9808.000000;0.782915
9807.000000;0.783423
9806.000000;0.783194
9805.000000;0.782498
9804.000000;0.782024
9803.000000;0.782092
9802.000000;0.782498
9801.000000;0.782933
9800.000000;0.783259
9799.000000;0.783373
9798.000000;0.783173
9797.000000;0.782750
9796.000000;0.782355
9795.000000;0.782061
9794.000000;0.781662
9793.000000;0.781071
9792.000000;0.780598
9791.000000;0.780601
9790.000000;0.781001
9789.000000;0.781358
9788.000000;0.781366
9787.000000;0.781076
9786.000000;0.780660
9785.000000;0.780210
9784.000000;0.779806
9783.000000;0.779608
9782.000000;0.779736
9781.000000;0.780084
9780.000000;0.780340
9779.000000;0.780237
9778.000000;0.779822
9777.000000;0.779432
9776.000000;0.779329
9775.000000;0.779385
9774.000000;0.779250
9773.000000;0.778847
9772.000000;0.778516
9771.000000;0.778555
9770.000000;0.778786
9769.000000;0.778795
9768.000000;0.778504
9767.000000;0.778247
9766.000000;0.778279
9765.000000;0.778454
9764.000000;0.778492
9763.000000;0.778392
9762.000000;0.778400
9761.000000;0.778621
9760.000000;0.778841
9759.000000;0.778766
9758.000000;0.778345
9757.000000;0.777771
9756.000000;0.777250
9755.000000;0.776846
9754.000000;0.776565
9753.000000;0.776455
9752.000000;0.776539
9751.000000;0.776689
9750.000000;0.776703
9749.000000;0.776531
9748.000000;0.776379
9747.000000;0.776519
9746.000000;0.776970
9745.000000;0.777412
9744.000000;0.777432
9743.000000;0.776922
9742.000000;0.776229
9741.000000;0.775834
9740.000000;0.775848
9739.000000;0.775913
9738.000000;0.775659
9737.000000;0.775147
9736.000000;0.774742
9735.000000;0.774657
9734.000000;0.774805
9733.000000;0.775051
9732.000000;0.775363
9731.000000;0.775660
9730.000000;0.775749
9729.000000;0.775552
9728.000000;0.775257
9727.000000;0.775090
9726.000000;0.775006
9725.000000;0.774738
9724.000000;0.774116
9723.000000;0.773293
9722.000000;0.772685
9721.000000;0.772703
9720.000000;0.773409
9719.000000;0.774376
9718.000000;0.774988
9717.000000;0.774979
9716.000000;0.774617
9715.000000;0.774323
9714.000000;0.774255
9713.000000;0.774312
9712.000000;0.774371
9711.000000;0.774339
9710.000000;0.774122
9709.000000;0.773744
9708.000000;0.773446
9707.000000;0.773460
9706.000000;0.773671
9705.000000;0.773688
9704.000000;0.773279
9703.000000;0.772623
9702.000000;0.772082
9701.000000;0.771841
9700.000000;0.771820
9699.000000;0.771831
9698.000000;0.771738
9697.000000;0.771531
9696.000000;0.771334
9695.000000;0.771329
9694.000000;0.771598
9693.000000;0.772029
9692.000000;0.772397
9691.000000;0.772540
9690.000000;0.772447
9689.000000;0.772174
9688.000000;0.771764
9687.000000;0.771291
9686.000000;0.770906
9685.000000;0.770750
9684.000000;0.770803
9683.000000;0.770888
9682.000000;0.770873
9681.000000;0.770774
9680.000000;0.770623
9679.000000;0.770380
9678.000000;0.770103
9677.000000;0.770062
9676.000000;0.770451
9675.000000;0.771002
9674.000000;0.771179
9673.000000;0.770845
9672.000000;0.770515
9671.000000;0.770762
9670.000000;0.771522
9669.000000;0.772165
9668.000000;0.772173
9667.000000;0.771574
9666.000000;0.770717
9665.000000;0.769846
9664.000000;0.769001
9663.000000;0.768239
9662.000000;0.767749
9661.000000;0.767674
9660.000000;0.767884
9659.000000;0.768050
9658.000000;0.768000
9657.000000;0.767876
9656.000000;0.767878
9655.000000;0.767952
9654.000000;0.767917
9653.000000;0.767825
9652.000000;0.767925
9651.000000;0.768241
9650.000000;0.768424
9649.000000;0.768160
9648.000000;0.767566
9647.000000;0.767037
9646.000000;0.766841
9645.000000;0.766981
9644.000000;0.767316
9643.000000;0.767651
9642.000000;0.767773
9641.000000;0.767611
9640.000000;0.767342
9639.000000;0.767206
9638.000000;0.767211
9637.000000;0.767161
9636.000000;0.766933
9635.000000;0.766642
9634.000000;0.766514
9633.000000;0.766687
9632.000000;0.767109
9631.000000;0.767540
9630.000000;0.767670
9629.000000;0.767377
9628.000000;0.766856
9627.000000;0.766448
9626.000000;0.766326
9625.000000;0.766426
9624.000000;0.766633
9623.000000;0.766915
9622.000000;0.767232
9621.000000;0.767433
9620.000000;0.767321
9619.000000;0.766846
9618.000000;0.766220
9617.000000;0.765770
9616.000000;0.765641
9615.000000;0.765662
9614.000000;0.765579
9613.000000;0.765375
9612.000000;0.765217
9611.000000;0.765112
9610.000000;0.764852
9609.000000;0.764405
9608.000000;0.764107
9607.000000;0.764262
9606.000000;0.764698
9605.000000;0.764961
9604.000000;0.764860
9603.000000;0.764579
9602.000000;0.764300
9601.000000;0.764013
9600.000000;0.763715
9599.000000;0.763541
9598.000000;0.763574
9597.000000;0.763702
9596.000000;0.763768
9595.000000;0.763748
9594.000000;0.763714
9593.000000;0.763741
9592.000000;0.763877
9591.000000;0.764074
9590.000000;0.764113
9589.000000;0.763753
9588.000000;0.763044
9587.000000;0.762347
9586.000000;0.761962
9585.000000;0.761834
9584.000000;0.761717
9583.000000;0.761480
9582.000000;0.761164
9581.000000;0.760844
9580.000000;0.760609
9579.000000;0.760580
9578.000000;0.760817
9577.000000;0.761214
9576.000000;0.761597
9575.000000;0.761885
9574.000000;0.762068
9573.000000;0.762092
9572.000000;0.761897
9571.000000;0.761546
9570.000000;0.761179
9569.000000;0.760867
9568.000000;0.760601
9567.000000;0.760395
9566.000000;0.760259
9565.000000;0.760117
9564.000000;0.759896
9563.000000;0.759705
9562.000000;0.759759
9561.000000;0.760075
9560.000000;0.760400
9559.000000;0.760524
9558.000000;0.760544
9557.000000;0.760663
9556.000000;0.760843
9555.000000;0.760823
9554.000000;0.760466
9553.000000;0.759912
9552.000000;0.759365
9551.000000;0.758882
9550.000000;0.758466
9549.000000;0.758238
9548.000000;0.758376
9547.000000;0.758880
9546.000000;0.759483
9545.000000;0.759850
9544.000000;0.759808
9543.000000;0.759407
9542.000000;0.758845
9541.000000;0.758403
9540.000000;0.758339
9539.000000;0.758699
9538.000000;0.759185
9537.000000;0.759342
9536.000000;0.758999
9535.000000;0.758469
9534.000000;0.758207
9533.000000;0.758321
9532.000000;0.758534
9531.000000;0.758605
9530.000000;0.758581
9529.000000;0.758568
9528.000000;0.758466
9527.000000;0.758127
9526.000000;0.757658
9525.000000;0.757358
9524.000000;0.757344
9523.000000;0.757459
9522.000000;0.757541
9521.000000;0.757603
9520.000000;0.757643
9519.000000;0.757482
9518.000000;0.756959
9517.000000;0.756217
9516.000000;0.755657
9515.000000;0.755625
9514.000000;0.756199
9513.000000;0.757200
9512.000000;0.758278
9511.000000;0.759021
9510.000000;0.759152
9509.000000;0.758685
9508.000000;0.757875
9507.000000;0.757007
9506.000000;0.756280
9505.000000;0.755814
9504.000000;0.755623
9503.000000;0.755586
9502.000000;0.755536
9501.000000;0.755409
9500.000000;0.755242
9499.000000;0.755033
9498.000000;0.754731
9497.000000;0.754404
9496.000000;0.754283
9495.000000;0.754522
9494.000000;0.754952
9493.000000;0.755168
9492.000000;0.754898
9491.000000;0.754253
9490.000000;0.753609
9489.000000;0.753286
9488.000000;0.753339
9487.000000;0.753598
9486.000000;0.753854
9485.000000;0.754008
9484.000000;0.754079
9483.000000;0.754145
9482.000000;0.754258
9481.000000;0.754369
9480.000000;0.754337
9479.000000;0.754055
9478.000000;0.753593
9477.000000;0.753166
9476.000000;0.752927
9475.000000;0.752835
9474.000000;0.752747
9473.000000;0.752566
9472.000000;0.752273
9471.000000;0.751907
9470.000000;0.751596
9469.000000;0.751505
9468.000000;0.751646
9467.000000;0.751807
9466.000000;0.751770
9465.000000;0.751573
9464.000000;0.751415
9463.000000;0.751355
9462.000000;0.751281
9461.000000;0.751167
9460.000000;0.751181
9459.000000;0.751450
9458.000000;0.751839
9457.000000;0.752054
9456.000000;0.751922
9455.000000;0.751522
9454.000000;0.751115
9453.000000;0.750972
9452.000000;0.751183
9451.000000;0.751556
9450.000000;0.751766
9449.000000;0.751632
9448.000000;0.751230
9447.000000;0.750747
9446.000000;0.750328
9445.000000;0.750068
9444.000000;0.749994
9443.000000;0.749999
9442.000000;0.749917
9441.000000;0.749777
9440.000000;0.749842
9439.000000;0.750264
9438.000000;0.750773
9437.000000;0.750886
9436.000000;0.750416
9435.000000;0.749652
9434.000000;0.749055
9433.000000;0.748874
9432.000000;0.749061
9431.000000;0.749386
9430.000000;0.749575
9429.000000;0.749445
9428.000000;0.749011
9427.000000;0.748473
9426.000000;0.748058
9425.000000;0.747865
9424.000000;0.747839
9423.000000;0.747856
9422.000000;0.747829
9421.000000;0.747790
9420.000000;0.747863
9419.000000;0.748095
9418.000000;0.748294
9417.000000;0.748156
9416.000000;0.747633
9415.000000;0.747118
9414.000000;0.747105
9413.000000;0.747656
9412.000000;0.748319
9411.000000;0.748639
9410.000000;0.748622
9409.000000;0.748574
9408.000000;0.748596
9407.000000;0.748467
9406.000000;0.748048
9405.000000;0.747556
9404.000000;0.747293
9403.000000;0.747248
9402.000000;0.747191
9401.000000;0.747072
9400.000000;0.747082
9399.000000;0.747284
9398.000000;0.747402
9397.000000;0.747144
9396.000000;0.746600
9395.000000;0.746140
9394.000000;0.745930
9393.000000;0.745738
9392.000000;0.745277
9391.000000;0.744632
9390.000000;0.744226
9389.000000;0.744347
9388.000000;0.744831
9387.000000;0.745264
9386.000000;0.745425
9385.000000;0.745410
9384.000000;0.745353
9383.000000;0.745214
9382.000000;0.744946
9381.000000;0.744705
9380.000000;0.744708
9379.000000;0.744900
9378.000000;0.744975
9377.000000;0.744734
9376.000000;0.744308
9375.000000;0.743963
9374.000000;0.743815
9373.000000;0.743798
9372.000000;0.743815
9371.000000;0.743839
9370.000000;0.743905
9369.000000;0.744068
9368.000000;0.744325
9367.000000;0.744577
9366.000000;0.744711
9365.000000;0.744727
9364.000000;0.744705
9363.000000;0.744638
9362.000000;0.744407
9361.000000;0.743971
9360.000000;0.743459
9359.000000;0.743003
9358.000000;0.742586
9357.000000;0.742177
9356.000000;0.741925
9355.000000;0.742036
9354.000000;0.742476
9353.000000;0.742921
9352.000000;0.743074
9351.000000;0.742951
9350.000000;0.742807
9349.000000;0.742835
9348.000000;0.742994
9347.000000;0.743117
9346.000000;0.743105
9345.000000;0.742995
9344.000000;0.742858
9343.000000;0.742710
9342.000000;0.742508
9341.000000;0.742196
9340.000000;0.741718
9339.000000;0.741087
9338.000000;0.740480
9337.000000;0.740193
9336.000000;0.740375
9335.000000;0.740846
9334.000000;0.741271
9333.000000;0.741493
9332.000000;0.741578
9331.000000;0.741579
9330.000000;0.741439
9329.000000;0.741171
9328.000000;0.740921
9327.000000;0.740783
9326.000000;0.740681
9325.000000;0.740566
9324.000000;0.740562
9323.000000;0.740767
9322.000000;0.741005
9321.000000;0.740956
9320.000000;0.740513
9319.000000;0.739866
9318.000000;0.739238
9317.000000;0.738705
9316.000000;0.738296
9315.000000;0.738118
9314.000000;0.738295
9313.000000;0.738805
9312.000000;0.739403
9311.000000;0.739740
9310.000000;0.739629
9309.000000;0.739233
9308.000000;0.738959
9307.000000;0.739080
9306.000000;0.739471
9305.000000;0.739766
9304.000000;0.739720
9303.000000;0.739378
9302.000000;0.738962
9301.000000;0.738685
9300.000000;0.738656
9299.000000;0.738814
9298.000000;0.738949
9297.000000;0.738875
9296.000000;0.738612
9295.000000;0.738350
9294.000000;0.738238
9293.000000;0.738250
9292.000000;0.738260
9291.000000;0.738169
9290.000000;0.737958
9289.000000;0.737691
9288.000000;0.737476
9287.000000;0.737367
9286.000000;0.737299
9285.000000;0.737176
9284.000000;0.737007
9283.000000;0.736879
9282.000000;0.736798
9281.000000;0.736671
9280.000000;0.736455
9279.000000;0.736237
9278.000000;0.736125
9277.000000;0.736131
9276.000000;0.736218
9275.000000;0.736376
9274.000000;0.736574
9273.000000;0.736689
9272.000000;0.736583
9271.000000;0.736249
9270.000000;0.735832
9269.000000;0.735504
9268.000000;0.735340
9267.000000;0.735330
9266.000000;0.735438
9265.000000;0.735645
9264.000000;0.735930
9263.000000;0.736231
9262.000000;0.736443
9261.000000;0.736476
9260.000000;0.736304
9259.000000;0.735954
9258.000000;0.735450
9257.000000;0.734852
9256.000000;0.734316
9255.000000;0.734055
9254.000000;0.734147
9253.000000;0.734417
9252.000000;0.734588
9251.000000;0.734564
9250.000000;0.734496
9249.000000;0.734553
9248.000000;0.734690
9247.000000;0.734723
9246.000000;0.734580
9245.000000;0.734388
9244.000000;0.734288
9243.000000;0.734271
9242.000000;0.734217
9241.000000;0.734056
9240.000000;0.733807
9239.000000;0.733521
9238.000000;0.733270
9237.000000;0.733149
9236.000000;0.733200
9235.000000;0.733287
9234.000000;0.733145
9233.000000;0.732639
9232.000000;0.731946
9231.000000;0.731440
9230.000000;0.731365
9229.000000;0.731634
9228.000000;0.731918
9227.000000;0.731941
9226.000000;0.731701
9225.000000;0.731427
9224.000000;0.731337
9223.000000;0.731474
9222.000000;0.731763
9221.000000;0.732136
9220.000000;0.732517
9219.000000;0.732737
9218.000000;0.732623
9217.000000;0.732216
9216.000000;0.731792
9215.000000;0.731612
9214.000000;0.731717
9213.000000;0.731994
9212.000000;0.732330
9211.000000;0.732603
9210.000000;0.732615
9209.000000;0.732183
9208.000000;0.731345
9207.000000;0.730411
9206.000000;0.729764
9205.000000;0.729590
9204.000000;0.729769
9203.000000;0.729997
9202.000000;0.730046
9201.000000;0.729922
9200.000000;0.729791
9199.000000;0.729755
9198.000000;0.729799
9197.000000;0.729886
9196.000000;0.729983
9195.000000;0.729953
9194.000000;0.729597
9193.000000;0.728921
9192.000000;0.728264
9191.000000;0.727987
9190.000000;0.728098
9189.000000;0.728298
9188.000000;0.728382
9187.000000;0.728432
9186.000000;0.728628
9185.000000;0.729015
9184.000000;0.729474
9183.000000;0.729823
9182.000000;0.729889
9181.000000;0.729608
9180.000000;0.729113
9179.000000;0.728653
9178.000000;0.728384
9177.000000;0.728281
9176.000000;0.728259
9175.000000;0.728280
9174.000000;0.728325
9173.000000;0.728371
9172.000000;0.728448
9171.000000;0.728580
9170.000000;0.728637
9169.000000;0.728373
9168.000000;0.727746
9167.000000;0.727089
9166.000000;0.726793
9165.000000;0.726874
9164.000000;0.726985
9163.000000;0.726871
9162.000000;0.726641
9161.000000;0.726564
9160.000000;0.726709
9159.000000;0.726900
9158.000000;0.726938
9157.000000;0.726789
9156.000000;0.726576
9155.000000;0.726458
9154.000000;0.726511
9153.000000;0.726662
9152.000000;0.726734
9151.000000;0.726611
9150.000000;0.726352
9149.000000;0.726129
9148.000000;0.726030
9147.000000;0.725973
9146.000000;0.725824
9145.000000;0.725572
9144.000000;0.725328
9143.000000;0.725178
9142.000000;0.725078
9141.000000;0.724943
9140.000000;0.724778
9139.000000;0.724668
9138.000000;0.724630
9137.000000;0.724567
9136.000000;0.724395
9135.000000;0.724199
9134.000000;0.724165
9133.000000;0.724369
9132.000000;0.724683
9131.000000;0.724903
9130.000000;0.724923
9129.000000;0.724750
9128.000000;0.724405
9127.000000;0.723906
9126.000000;0.723358
9125.000000;0.722966
9124.000000;0.722886
9123.000000;0.723076
9122.000000;0.723337
9121.000000;0.723507
9120.000000;0.723578
9119.000000;0.723607
9118.000000;0.723575
9117.000000;0.723381
9116.000000;0.723005
9115.000000;0.722614
9114.000000;0.722430
9113.000000;0.722472
9112.000000;0.722517
9111.000000;0.722352
9110.000000;0.722031
9109.000000;0.721822
9108.000000;0.721887
9107.000000;0.722112
9106.000000;0.722238
9105.000000;0.722115
9104.000000;0.721807
9103.000000;0.721526
9102.000000;0.721482
9101.000000;0.721728
9100.000000;0.722074
9099.000000;0.722222
9098.000000;0.722047
9097.000000;0.721715
9096.000000;0.721480
9095.000000;0.721414
9094.000000;0.721398
9093.000000;0.721320
9092.000000;0.721190
9091.000000;0.721083
9090.000000;0.721052
9089.000000;0.721110
9088.000000;0.721199
9087.000000;0.721204
9086.000000;0.721060
9085.000000;0.720839
9084.000000;0.720652
9083.000000;0.720501
9082.000000;0.720335
9081.000000;0.720215
9080.000000;0.720251
9079.000000;0.720373
9078.000000;0.720332
9077.000000;0.720003
9076.000000;0.719552
9075.000000;0.719200
9074.000000;0.718951
9073.000000;0.718694
9072.000000;0.718463
9071.000000;0.718433
9070.000000;0.718674
9069.000000;0.719066
9068.000000;0.719455
9067.000000;0.719788
9066.000000;0.720048
9065.000000;0.720167
9064.000000;0.720044
9063.000000;0.719665
9062.000000;0.719172
9061.000000;0.718802
9060.000000;0.718696
9059.000000;0.718734
9058.000000;0.718631
9057.000000;0.718250
9056.000000;0.717770
9055.000000;0.717472
9054.000000;0.717422
9053.000000;0.717478
