Criado como novo conjunto de dados;"2706_e01_daniel.spp","99727.2 Secs"
cm-1;Abs
10000.000000;0.861675
9999.000000;0.861526
9998.000000;0.861412
9997.000000;0.861222
9996.000000;0.861421
9995.000000;0.862089
9994.000000;0.862718
9993.000000;0.863022
9992.000000;0.863009
9991.000000;0.863090
9990.000000;0.863564
9989.000000;0.864293
9988.000000;0.864888
9987.000000;0.865128
9986.000000;0.864984
9985.000000;0.864393
9984.000000;0.863345
9983.000000;0.862204
9982.000000;0.861566
9981.000000;0.861631
9980.000000;0.861931
9979.000000;0.861868
9978.000000;0.861351
9977.000000;0.860736
9976.000000;0.860311
9975.000000;0.860112
9974.000000;0.860134
9973.000000;0.860409
9972.000000;0.860855
9971.000000;0.861282
9970.000000;0.861640
9969.000000;0.862077
9968.000000;0.862644
9967.000000;0.863110
9966.000000;0.863225
9965.000000;0.863044
9964.000000;0.862832
9963.000000;0.862721
9962.000000;0.862591
9961.000000;0.862292
9960.000000;0.861834
9959.000000;0.861310
9958.000000;0.860753
9957.000000;0.860114
9956.000000;0.859371
9955.000000;0.858624
9954.000000;0.858083
9953.000000;0.857982
9952.000000;0.858425
9951.000000;0.859276
9950.000000;0.860206
9949.000000;0.860922
9948.000000;0.861376
9947.000000;0.861727
9946.000000;0.862081
9945.000000;0.862315
9944.000000;0.862196
9943.000000;0.861655
9942.000000;0.860897
9941.000000;0.860244
9940.000000;0.859925
9939.000000;0.860012
9938.000000;0.860438
9937.000000;0.860994
9936.000000;0.861372
9935.000000;0.861344
9934.000000;0.860931
9933.000000;0.860350
9932.000000;0.859770
9931.000000;0.859232
9930.000000;0.858768
9929.000000;0.858437
9928.000000;0.858239
9927.000000;0.858098
9926.000000;0.858025
9925.000000;0.858157
9924.000000;0.858553
9923.000000;0.859032
9922.000000;0.859339
9921.000000;0.859400
9920.000000;0.859284
9919.000000;0.858993
9918.000000;0.858449
9917.000000;0.857716
9916.000000;0.857082
9915.000000;0.856844
9914.000000;0.857059
9913.000000;0.857539
9912.000000;0.858007
9911.000000;0.858281
9910.000000;0.858375
9909.000000;0.858420
9908.000000;0.858442
9907.000000;0.858245
9906.000000;0.857633
9905.000000;0.856708
9904.000000;0.855834
9903.000000;0.855275
9902.000000;0.854993
9901.000000;0.854812
9900.000000;0.854678
9899.000000;0.854706
9898.000000;0.855058
9897.000000;0.855779
9896.000000;0.856647
9895.000000;0.857197
9894.000000;0.857081
9893.000000;0.856438
9892.000000;0.855773
9891.000000;0.855412
9890.000000;0.855258
9889.000000;0.855138
9888.000000;0.855134
9887.000000;0.855368
9886.000000;0.855656
9885.000000;0.855667
9884.000000;0.855362
9883.000000;0.855025
9882.000000;0.854866
9881.000000;0.854807
9880.000000;0.854679
9879.000000;0.854410
9878.000000;0.853988
9877.000000;0.853430
9876.000000;0.852896
9875.000000;0.852697
9874.000000;0.853041
9873.000000;0.853781
9872.000000;0.854478
9871.000000;0.854697
9870.000000;0.854311
9869.000000;0.853560
9868.000000;0.852836
9867.000000;0.852338
9866.000000;0.852023
9865.000000;0.851917
9864.000000;0.852289
9863.000000;0.853283
9862.000000;0.854450
9861.000000;0.854991
9860.000000;0.854569
9859.000000;0.853641
9858.000000;0.852908
9857.000000;0.852660
9856.000000;0.852788
9855.000000;0.853096
9854.000000;0.853340
9853.000000;0.853195
9852.000000;0.852566
9851.000000;0.851909
9850.000000;0.851903
9849.000000;0.852695
9848.000000;0.853670
9847.000000;0.854031
9846.000000;0.853483
9845.000000;0.852366
9844.000000;0.851310
9843.000000;0.850842
9842.000000;0.851096
9841.000000;0.851706
9840.000000;0.852099
9839.000000;0.852054
9838.000000;0.851909
9837.000000;0.852130
9836.000000;0.852739
9835.000000;0.853301
9834.000000;0.853374
9833.000000;0.852832
9832.000000;0.851822
9831.000000;0.850617
9830.000000;0.849542
9829.000000;0.848859
9828.000000;0.848617
9827.000000;0.848707
9826.000000;0.849091
9825.000000;0.849840
9824.000000;0.850827
9823.000000;0.851555
9822.000000;0.851507
9821.000000;0.850699
9820.000000;0.849757
9819.000000;0.849383
9818.000000;0.849769
9817.000000;0.850500
9816.000000;0.850964
9815.000000;0.850859
9814.000000;0.850399
9813.000000;0.850048
9812.000000;0.850036
9811.000000;0.850150
9810.000000;0.850016
9809.000000;0.849538
9808.000000;0.848984
9807.000000;0.848674
9806.000000;0.848723
9805.000000;0.849058
9804.000000;0.849503
9803.000000;0.849803
9802.000000;0.849715
9801.000000;0.849249
9800.000000;0.848761
9799.000000;0.848656
9798.000000;0.848989
9797.000000;0.849423
9796.000000;0.849580
9795.000000;0.849394
9794.000000;0.849130
9793.000000;0.849080
9792.000000;0.849278
9791.000000;0.849478
9790.000000;0.849411
9789.000000;0.849035
9788.000000;0.848474
9787.000000;0.847817
9786.000000;0.847114
9785.000000;0.846580
9784.000000;0.846540
9783.000000;0.847053
9782.000000;0.847703
9781.000000;0.847941
9780.000000;0.847589
9779.000000;0.846906
9778.000000;0.846263
9777.000000;0.845918
9776.000000;0.845985
9775.000000;0.846405
9774.000000;0.846901
9773.000000;0.847153
9772.000000;0.847077
9771.000000;0.846872
9770.000000;0.846792
9769.000000;0.846925
9768.000000;0.847157
9767.000000;0.847256
9766.000000;0.847044
9765.000000;0.846624
9764.000000;0.846359
9763.000000;0.846441
9762.000000;0.846590
9761.000000;0.846427
9760.000000;0.846076
9759.000000;0.846061
9758.000000;0.846522
9757.000000;0.846931
9756.000000;0.846778
9755.000000;0.846239
9754.000000;0.845887
9753.000000;0.845918
9752.000000;0.846034
9751.000000;0.845969
9750.000000;0.845791
9749.000000;0.845672
9748.000000;0.845649
9747.000000;0.845696
9746.000000;0.845786
9745.000000;0.845793
9744.000000;0.845530
9743.000000;0.845018
9742.000000;0.844594
9741.000000;0.844578
9740.000000;0.844900
9739.000000;0.845178
9738.000000;0.845136
9737.000000;0.844841
9736.000000;0.844530
9735.000000;0.844338
9734.000000;0.844250
9733.000000;0.844238
9732.000000;0.844319
9731.000000;0.844490
9730.000000;0.844683
9729.000000;0.844852
9728.000000;0.845023
9727.000000;0.845186
9726.000000;0.845181
9725.000000;0.844834
9724.000000;0.844198
9723.000000;0.843551
9722.000000;0.843111
9721.000000;0.842863
9720.000000;0.842681
9719.000000;0.842483
9718.000000;0.842181
9717.000000;0.841657
9716.000000;0.840965
9715.000000;0.840463
9714.000000;0.840519
9713.000000;0.841102
9712.000000;0.841796
9711.000000;0.842236
9710.000000;0.842383
9709.000000;0.842356
9708.000000;0.842190
9707.000000;0.841925
9706.000000;0.841773
9705.000000;0.841963
9704.000000;0.842406
9703.000000;0.842653
9702.000000;0.842301
9701.000000;0.841402
9700.000000;0.840441
9699.000000;0.839933
9698.000000;0.840057
9697.000000;0.840596
9696.000000;0.841150
9695.000000;0.841410
9694.000000;0.841330
9693.000000;0.841119
9692.000000;0.841042
9691.000000;0.841185
9690.000000;0.841402
9689.000000;0.841492
9688.000000;0.841405
9687.000000;0.841236
9686.000000;0.841061
9685.000000;0.840890
9684.000000;0.840786
9683.000000;0.840870
9682.000000;0.841129
9681.000000;0.841313
9680.000000;0.841175
9679.000000;0.840769
9678.000000;0.840398
9677.000000;0.840265
9676.000000;0.840302
9675.000000;0.840353
9674.000000;0.840385
9673.000000;0.840450
9672.000000;0.840514
9671.000000;0.840445
9670.000000;0.840156
9669.000000;0.839703
9668.000000;0.839216
9667.000000;0.838768
9666.000000;0.838344
9665.000000;0.837923
9664.000000;0.837597
9663.000000;0.837549
9662.000000;0.837879
9661.000000;0.838455
9660.000000;0.838989
9659.000000;0.839286
9658.000000;0.839374
9657.000000;0.839391
9656.000000;0.839419
9655.000000;0.839459
9654.000000;0.839514
9653.000000;0.839607
9652.000000;0.839740
9651.000000;0.839839
9650.000000;0.839748
9649.000000;0.839301
9648.000000;0.838485
9647.000000;0.837588
9646.000000;0.837039
9645.000000;0.837025
9644.000000;0.837297
9643.000000;0.837468
9642.000000;0.837424
9641.000000;0.837302
9640.000000;0.837156
9639.000000;0.836905
9638.000000;0.836657
9637.000000;0.836791
9636.000000;0.837482
9635.000000;0.838308
9634.000000;0.838604
9633.000000;0.838184
9632.000000;0.837488
9631.000000;0.837015
9630.000000;0.836872
9629.000000;0.836901
9628.000000;0.836992
9627.000000;0.837072
9626.000000;0.836985
9625.000000;0.836623
9624.000000;0.836138
9623.000000;0.835821
9622.000000;0.835761
9621.000000;0.835753
9620.000000;0.835543
9619.000000;0.835105
9618.000000;0.834643
9617.000000;0.834418
9616.000000;0.834558
9615.000000;0.834964
9614.000000;0.835387
9613.000000;0.835655
9612.000000;0.835814
9611.000000;0.835996
9610.000000;0.836182
9609.000000;0.836191
9608.000000;0.835926
9607.000000;0.835539
9606.000000;0.835322
9605.000000;0.835458
9604.000000;0.835876
9603.000000;0.836315
9602.000000;0.836539
9601.000000;0.836567
9600.000000;0.836655
9599.000000;0.836976
9598.000000;0.837330
9597.000000;0.837279
9596.000000;0.836611
9595.000000;0.835581
9594.000000;0.834699
9593.000000;0.834311
9592.000000;0.834401
9591.000000;0.834675
9590.000000;0.834804
9589.000000;0.834652
9588.000000;0.834319
9587.000000;0.833957
9586.000000;0.833622
9585.000000;0.833367
9584.000000;0.833375
9583.000000;0.833786
9582.000000;0.834376
9581.000000;0.834630
9580.000000;0.834271
9579.000000;0.833578
9578.000000;0.833066
9577.000000;0.832979
9576.000000;0.833234
9575.000000;0.833689
9574.000000;0.834215
9573.000000;0.834576
9572.000000;0.834491
9571.000000;0.833969
9570.000000;0.833416
9569.000000;0.833299
9568.000000;0.833709
9567.000000;0.834301
9566.000000;0.834608
9565.000000;0.834382
9564.000000;0.833693
9563.000000;0.832807
9562.000000;0.832006
9561.000000;0.831453
9560.000000;0.831162
9559.000000;0.831037
9558.000000;0.831009
9557.000000;0.831141
9556.000000;0.831567
9555.000000;0.832233
9554.000000;0.832765
9553.000000;0.832747
9552.000000;0.832176
9551.000000;0.831516
9550.000000;0.831223
9549.000000;0.831307
9548.000000;0.831457
9547.000000;0.831471
9546.000000;0.831437
9545.000000;0.831513
9544.000000;0.831704
9543.000000;0.831873
9542.000000;0.831879
9541.000000;0.831663
9540.000000;0.831287
9539.000000;0.830913
9538.000000;0.830665
9537.000000;0.830495
9536.000000;0.830241
9535.000000;0.829823
9534.000000;0.829352
9533.000000;0.829016
9532.000000;0.828927
9531.000000;0.829053
9530.000000;0.829224
9529.000000;0.829231
9528.000000;0.829002
9527.000000;0.828733
9526.000000;0.828735
9525.000000;0.829106
9524.000000;0.829612
9523.000000;0.829948
9522.000000;0.830038
9521.000000;0.830012
9520.000000;0.829953
9519.000000;0.829804
9518.000000;0.829539
9517.000000;0.829316
9516.000000;0.829329
9515.000000;0.829522
9514.000000;0.829577
9513.000000;0.829246
9512.000000;0.828653
9511.000000;0.828159
9510.000000;0.827958
9509.000000;0.827906
9508.000000;0.827781
9507.000000;0.827586
9506.000000;0.827475
9505.000000;0.827473
9504.000000;0.827436
9503.000000;0.827309
9502.000000;0.827260
9501.000000;0.827473
9500.000000;0.827896
9499.000000;0.828279
9498.000000;0.828432
9497.000000;0.828361
9496.000000;0.828189
9495.000000;0.828027
9494.000000;0.827935
9493.000000;0.827923
9492.000000;0.827923
9491.000000;0.827827
9490.000000;0.827606
9489.000000;0.827400
9488.000000;0.827422
9487.000000;0.827728
9486.000000;0.828139
9485.000000;0.828423
9484.000000;0.828524
9483.000000;0.828555
9482.000000;0.828562
9481.000000;0.828413
9480.000000;0.827949
9479.000000;0.827204
9478.000000;0.826411
9477.000000;0.825825
9476.000000;0.825595
9475.000000;0.825735
9474.000000;0.826132
9473.000000;0.826571
9472.000000;0.826853
9471.000000;0.826903
9470.000000;0.826781
9469.000000;0.826588
9468.000000;0.826434
9467.000000;0.826420
9466.000000;0.826568
9465.000000;0.826746
9464.000000;0.826741
9463.000000;0.826497
9462.000000;0.826192
9461.000000;0.826042
9460.000000;0.826042
9459.000000;0.825969
9458.000000;0.825645
9457.000000;0.825137
9456.000000;0.824671
9455.000000;0.824411
9454.000000;0.824357
9453.000000;0.824436
9452.000000;0.824594
9451.000000;0.824763
9450.000000;0.824832
9449.000000;0.824722
9448.000000;0.824496
9447.000000;0.824307
9446.000000;0.824250
9445.000000;0.824325
9444.000000;0.824530
9443.000000;0.824866
9442.000000;0.825228
9441.000000;0.825420
9440.000000;0.825370
9439.000000;0.825206
9438.000000;0.825034
9437.000000;0.824756
9436.000000;0.824247
9435.000000;0.823643
9434.000000;0.823262
9433.000000;0.823264
9432.000000;0.823524
9431.000000;0.823808
9430.000000;0.823937
9429.000000;0.823766
9428.000000;0.823237
9427.000000;0.822534
9426.000000;0.822028
9425.000000;0.821954
9424.000000;0.822204
9423.000000;0.822495
9422.000000;0.822662
9421.000000;0.822727
9420.000000;0.822765
9419.000000;0.822807
9418.000000;0.822796
9417.000000;0.822607
9416.000000;0.822163
9415.000000;0.821609
9414.000000;0.821273
9413.000000;0.821370
9412.000000;0.821780
9411.000000;0.822172
9410.000000;0.822299
9409.000000;0.822124
9408.000000;0.821797
9407.000000;0.821571
9406.000000;0.821632
9405.000000;0.821870
9404.000000;0.821897
9403.000000;0.821464
9402.000000;0.820796
9401.000000;0.820374
9400.000000;0.820427
9399.000000;0.820792
9398.000000;0.821202
9397.000000;0.821517
9396.000000;0.821672
9395.000000;0.821618
9394.000000;0.821426
9393.000000;0.821278
9392.000000;0.821271
9391.000000;0.821323
9390.000000;0.821326
9389.000000;0.821289
9388.000000;0.821221
9387.000000;0.821028
9386.000000;0.820663
9385.000000;0.820300
9384.000000;0.820202
9383.000000;0.820408
9382.000000;0.820660
9381.000000;0.820660
9380.000000;0.820356
9379.000000;0.819989
9378.000000;0.819876
9377.000000;0.820108
9376.000000;0.820443
9375.000000;0.820534
9374.000000;0.820313
9373.000000;0.820049
9372.000000;0.819987
9371.000000;0.820051
9370.000000;0.819997
9369.000000;0.819760
9368.000000;0.819482
9367.000000;0.819276
9366.000000;0.819142
9365.000000;0.819093
9364.000000;0.819184
9363.000000;0.819351
9362.000000;0.819408
9361.000000;0.819262
9360.000000;0.819013
9359.000000;0.818758
9358.000000;0.818445
9357.000000;0.818032
9356.000000;0.817670
9355.000000;0.817570
9354.000000;0.817718
9353.000000;0.817874
9352.000000;0.817858
9351.000000;0.817722
9350.000000;0.817635
9349.000000;0.817690
9348.000000;0.817838
9347.000000;0.817936
9346.000000;0.817839
9345.000000;0.817515
9344.000000;0.817114
9343.000000;0.816860
9342.000000;0.816863
9341.000000;0.817075
9340.000000;0.817404
9339.000000;0.817813
9338.000000;0.818246
9337.000000;0.818546
9336.000000;0.818526
9335.000000;0.818133
9334.000000;0.817514
9333.000000;0.816949
9332.000000;0.816694
9331.000000;0.816818
9330.000000;0.817127
9329.000000;0.817303
9328.000000;0.817184
9327.000000;0.816896
9326.000000;0.816684
9325.000000;0.816647
9324.000000;0.816683
9323.000000;0.816685
9322.000000;0.816672
9321.000000;0.816723
9320.000000;0.816838
9319.000000;0.816916
9318.000000;0.816851
9317.000000;0.816599
9316.000000;0.816199
9315.000000;0.815788
9314.000000;0.815578
9313.000000;0.815744
9312.000000;0.816247
9311.000000;0.816778
9310.000000;0.816940
9309.000000;0.816567
9308.000000;0.815882
9307.000000;0.815318
9306.000000;0.815138
9305.000000;0.815231
9304.000000;0.815296
9303.000000;0.815189
9302.000000;0.815048
9301.000000;0.815075
9300.000000;0.815286
9299.000000;0.815520
9298.000000;0.815639
9297.000000;0.815635
9296.000000;0.815544
9295.000000;0.815364
9294.000000;0.815098
9293.000000;0.814822
9292.000000;0.814626
9291.000000;0.814514
9290.000000;0.814429
9289.000000;0.814370
9288.000000;0.814399
9287.000000;0.814491
9286.000000;0.814481
9285.000000;0.814257
9284.000000;0.813964
9283.000000;0.813905
9282.000000;0.814186
9281.000000;0.814580
9280.000000;0.814799
9279.000000;0.814825
9278.000000;0.814836
9277.000000;0.814872
9276.000000;0.814741
9275.000000;0.814315
9274.000000;0.813753
9273.000000;0.813342
9272.000000;0.813174
9271.000000;0.813122
9270.000000;0.813065
9269.000000;0.813029
9268.000000;0.813081
9267.000000;0.813202
9266.000000;0.813324
9265.000000;0.813406
9264.000000;0.813444
9263.000000;0.813431
9262.000000;0.813364
9261.000000;0.813249
9260.000000;0.813085
9259.000000;0.812856
9258.000000;0.812571
9257.000000;0.812288
9256.000000;0.812067
9255.000000;0.811938
9254.000000;0.811892
9253.000000;0.811883
9252.000000;0.811826
9251.000000;0.811673
9250.000000;0.811499
9249.000000;0.811444
9248.000000;0.811519
9247.000000;0.811545
9246.000000;0.811346
9245.000000;0.810960
9244.000000;0.810611
9243.000000;0.810485
9242.000000;0.810597
9241.000000;0.810838
9240.000000;0.811074
9239.000000;0.811216
9238.000000;0.811251
9237.000000;0.811228
9236.000000;0.811186
9235.000000;0.811093
9234.000000;0.810897
9233.000000;0.810599
9232.000000;0.810251
9231.000000;0.809921
9230.000000;0.809708
9229.000000;0.809712
9228.000000;0.809926
9227.000000;0.810184
9226.000000;0.810306
9225.000000;0.810280
9224.000000;0.810201
9223.000000;0.810084
9222.000000;0.809882
9221.000000;0.809669
9220.000000;0.809638
9219.000000;0.809839
9218.000000;0.810062
9217.000000;0.810095
9216.000000;0.810000
9215.000000;0.810001
9214.000000;0.810181
9213.000000;0.810418
9212.000000;0.810603
9211.000000;0.810758
9210.000000;0.810900
9209.000000;0.810918
9208.000000;0.810676
9207.000000;0.810207
9206.000000;0.809736
9205.000000;0.809494
9204.000000;0.809520
9203.000000;0.809631
9202.000000;0.809568
9201.000000;0.809201
9200.000000;0.808642
9199.000000;0.808182
9198.000000;0.808080
9197.000000;0.808356
9196.000000;0.808756
9195.000000;0.808940
9194.000000;0.808765
9193.000000;0.808384
9192.000000;0.808077
9191.000000;0.807990
9190.000000;0.808052
9189.000000;0.808089
9188.000000;0.807961
9187.000000;0.807639
9186.000000;0.807250
9185.000000;0.807035
9184.000000;0.807160
9183.000000;0.807536
9182.000000;0.807901
9181.000000;0.808115
9180.000000;0.808248
9179.000000;0.808357
9178.000000;0.808340
9177.000000;0.808115
9176.000000;0.807840
9175.000000;0.807757
9174.000000;0.807852
9173.000000;0.807842
9172.000000;0.807541
9171.000000;0.807110
9170.000000;0.806843
9169.000000;0.806786
9168.000000;0.806697
9167.000000;0.806377
9166.000000;0.805935
9165.000000;0.805656
9164.000000;0.805658
9163.000000;0.805793
9162.000000;0.805887
9161.000000;0.805955
9160.000000;0.806084
9159.000000;0.806200
9158.000000;0.806124
9157.000000;0.805862
9156.000000;0.805673
9155.000000;0.805758
9154.000000;0.806013
9153.000000;0.806184
9152.000000;0.806176
9151.000000;0.806079
9150.000000;0.805977
9149.000000;0.805873
9148.000000;0.805794
9147.000000;0.805813
9146.000000;0.805952
9145.000000;0.806123
9144.000000;0.806221
9143.000000;0.806193
9142.000000;0.806031
9141.000000;0.805757
9140.000000;0.805446
9139.000000;0.805187
9138.000000;0.805011
9137.000000;0.804901
9136.000000;0.804878
9135.000000;0.805004
9134.000000;0.805283
9133.000000;0.805586
9132.000000;0.805728
9131.000000;0.805587
9130.000000;0.805187
9129.000000;0.804712
9128.000000;0.804415
9127.000000;0.804438
9126.000000;0.804685
9125.000000;0.804895
9124.000000;0.804876
9123.000000;0.804653
9122.000000;0.804405
9121.000000;0.804301
9120.000000;0.804377
9119.000000;0.804529
9118.000000;0.804597
9117.000000;0.804475
9116.000000;0.804188
9115.000000;0.803847
9114.000000;0.803570
9113.000000;0.803425
9112.000000;0.803410
9111.000000;0.803452
9110.000000;0.803446
9109.000000;0.803375
9108.000000;0.803330
9107.000000;0.803368
9106.000000;0.803390
9105.000000;0.803239
9104.000000;0.802914
9103.000000;0.802599
9102.000000;0.802452
9101.000000;0.802453
9100.000000;0.802490
9099.000000;0.802516
9098.000000;0.802584
9097.000000;0.802736
9096.000000;0.802914
9095.000000;0.802978
9094.000000;0.802825
9093.000000;0.802490
9092.000000;0.802123
9091.000000;0.801864
9090.000000;0.801753
9089.000000;0.801767
9088.000000;0.801884
9087.000000;0.802070
9086.000000;0.802238
9085.000000;0.802304
9084.000000;0.802256
9083.000000;0.802131
9082.000000;0.801949
9081.000000;0.801702
9080.000000;0.801403
9079.000000;0.801103
9078.000000;0.800890
9077.000000;0.800863
9076.000000;0.801030
9075.000000;0.801208
9074.000000;0.801136
9073.000000;0.800770
9072.000000;0.800374
9071.000000;0.800205
9070.000000;0.800218
9069.000000;0.800229
9068.000000;0.800254
9067.000000;0.800488
9066.000000;0.800937
9065.000000;0.801328
9064.000000;0.801400
9063.000000;0.801147
9062.000000;0.800727
9061.000000;0.800300
9060.000000;0.800016
9059.000000;0.799967
9058.000000;0.800069
9057.000000;0.800093
9056.000000;0.799911
9055.000000;0.799620
9054.000000;0.799373
9053.000000;0.799227
