Criado como novo conjunto de dados;"2706_e01_daniel.spp","5402.0 Secs"
cm-1;Abs
10000.000000;0.792460
9999.000000;0.792274
9998.000000;0.791877
9997.000000;0.791494
9996.000000;0.791348
9995.000000;0.791313
9994.000000;0.791161
9993.000000;0.790813
9992.000000;0.790395
9991.000000;0.789949
9990.000000;0.789415
9989.000000;0.788895
9988.000000;0.788746
9987.000000;0.789198
9986.000000;0.789964
9985.000000;0.790413
9984.000000;0.790173
9983.000000;0.789429
9982.000000;0.788606
9981.000000;0.787938
9980.000000;0.787444
9979.000000;0.787175
9978.000000;0.787271
9977.000000;0.787749
9976.000000;0.788414
9975.000000;0.789000
9974.000000;0.789342
9973.000000;0.789372
9972.000000;0.789123
9971.000000;0.788772
9970.000000;0.788563
9969.000000;0.788566
9968.000000;0.788628
9967.000000;0.788664
9966.000000;0.788864
9965.000000;0.789409
9964.000000;0.790071
9963.000000;0.790358
9962.000000;0.790109
9961.000000;0.789679
9960.000000;0.789426
9959.000000;0.789250
9958.000000;0.788859
9957.000000;0.788313
9956.000000;0.788003
9955.000000;0.788093
9954.000000;0.788281
9953.000000;0.788236
9952.000000;0.788063
9951.000000;0.788120
9950.000000;0.788468
9949.000000;0.788730
9948.000000;0.788557
9947.000000;0.788066
9946.000000;0.787703
9945.000000;0.787763
9944.000000;0.788179
9943.000000;0.788691
9942.000000;0.789070
9941.000000;0.789185
9940.000000;0.789023
9939.000000;0.788720
9938.000000;0.788481
9937.000000;0.788369
9936.000000;0.788248
9935.000000;0.787986
9934.000000;0.787633
9933.000000;0.787359
9932.000000;0.787294
9931.000000;0.787477
9930.000000;0.787834
9929.000000;0.788116
9928.000000;0.788012
9927.000000;0.787505
9926.000000;0.787002
9925.000000;0.786927
9924.000000;0.787248
9923.000000;0.787600
9922.000000;0.787788
9921.000000;0.787925
9920.000000;0.788102
9919.000000;0.788204
9918.000000;0.788122
9917.000000;0.787906
9916.000000;0.787621
9915.000000;0.787282
9914.000000;0.787032
9913.000000;0.787141
9912.000000;0.787660
9911.000000;0.788261
9910.000000;0.788587
9909.000000;0.788606
9908.000000;0.788457
9907.000000;0.788130
9906.000000;0.787551
9905.000000;0.786865
9904.000000;0.786366
9903.000000;0.786179
9902.000000;0.786253
9901.000000;0.786612
9900.000000;0.787341
9899.000000;0.788267
9898.000000;0.788911
9897.000000;0.788887
9896.000000;0.788259
9895.000000;0.787424
9894.000000;0.786753
9893.000000;0.786402
9892.000000;0.786335
9891.000000;0.786428
9890.000000;0.786633
9889.000000;0.787038
9888.000000;0.787693
9887.000000;0.788346
9886.000000;0.788531
9885.000000;0.788042
9884.000000;0.787233
9883.000000;0.786730
9882.000000;0.786845
9881.000000;0.787361
9880.000000;0.787807
9879.000000;0.787872
9878.000000;0.787577
9877.000000;0.787169
9876.000000;0.786885
9875.000000;0.786754
9874.000000;0.786601
9873.000000;0.786256
9872.000000;0.785779
9871.000000;0.785455
9870.000000;0.785542
9869.000000;0.786017
9868.000000;0.786545
9867.000000;0.786723
9866.000000;0.786412
9865.000000;0.785880
9864.000000;0.785585
9863.000000;0.785772
9862.000000;0.786272
9861.000000;0.786690
9860.000000;0.786738
9859.000000;0.786379
9858.000000;0.785761
9857.000000;0.785115
9856.000000;0.784682
9855.000000;0.784580
9854.000000;0.784678
9853.000000;0.784709
9852.000000;0.784575
9851.000000;0.784462
9850.000000;0.784571
9849.000000;0.784866
9848.000000;0.785184
9847.000000;0.785483
9846.000000;0.785775
9845.000000;0.785882
9844.000000;0.785525
9843.000000;0.784717
9842.000000;0.783857
9841.000000;0.783297
9840.000000;0.783030
9839.000000;0.782924
9838.000000;0.783067
9837.000000;0.783597
9836.000000;0.784333
9835.000000;0.784870
9834.000000;0.785076
9833.000000;0.785214
9832.000000;0.785520
9831.000000;0.785880
9830.000000;0.786031
9829.000000;0.785908
9828.000000;0.785646
9827.000000;0.785394
9826.000000;0.785251
9825.000000;0.785266
9824.000000;0.785302
9823.000000;0.785032
9822.000000;0.784294
9821.000000;0.783464
9820.000000;0.783235
9819.000000;0.783924
9818.000000;0.785099
9817.000000;0.785978
9816.000000;0.786170
9815.000000;0.785901
9814.000000;0.785571
9813.000000;0.785271
9812.000000;0.784841
9811.000000;0.784292
9810.000000;0.783955
9809.000000;0.784106
9808.000000;0.784592
9807.000000;0.784961
9806.000000;0.784954
9805.000000;0.784720
9804.000000;0.784550
9803.000000;0.784523
9802.000000;0.784472
9801.000000;0.784217
9800.000000;0.783777
9799.000000;0.783397
9798.000000;0.783365
9797.000000;0.783714
9796.000000;0.784109
9795.000000;0.784153
9794.000000;0.783842
9793.000000;0.783595
9792.000000;0.783753
9791.000000;0.784177
9790.000000;0.784441
9789.000000;0.784336
9788.000000;0.784034
9787.000000;0.783801
9786.000000;0.783701
9785.000000;0.783638
9784.000000;0.783546
9783.000000;0.783460
9782.000000;0.783411
9781.000000;0.783360
9780.000000;0.783276
9779.000000;0.783242
9778.000000;0.783390
9777.000000;0.783661
9776.000000;0.783741
9775.000000;0.783412
9774.000000;0.782927
9773.000000;0.782824
9772.000000;0.783279
9771.000000;0.783830
9770.000000;0.783900
9769.000000;0.783475
9768.000000;0.783076
9767.000000;0.783130
9766.000000;0.783572
9765.000000;0.784075
9764.000000;0.784427
9763.000000;0.784564
9762.000000;0.784400
9761.000000;0.783867
9760.000000;0.783137
9759.000000;0.782645
9758.000000;0.782737
9757.000000;0.783281
9756.000000;0.783724
9755.000000;0.783629
9754.000000;0.783100
9753.000000;0.782600
9752.000000;0.782405
9751.000000;0.782384
9750.000000;0.782316
9749.000000;0.782230
9748.000000;0.782283
9747.000000;0.782437
9746.000000;0.782484
9745.000000;0.782378
9744.000000;0.782373
9743.000000;0.782759
9742.000000;0.783515
9741.000000;0.784297
9740.000000;0.784723
9739.000000;0.784677
9738.000000;0.784352
9737.000000;0.784036
9736.000000;0.783877
9735.000000;0.783860
9734.000000;0.783954
9733.000000;0.784165
9732.000000;0.784434
9731.000000;0.784589
9730.000000;0.784511
9729.000000;0.784276
9728.000000;0.784041
9727.000000;0.783871
9726.000000;0.783751
9725.000000;0.783706
9724.000000;0.783769
9723.000000;0.783881
9722.000000;0.783949
9721.000000;0.783987
9720.000000;0.784053
9719.000000;0.784057
9718.000000;0.783810
9717.000000;0.783294
9716.000000;0.782748
9715.000000;0.782383
9714.000000;0.782118
9713.000000;0.781722
9712.000000;0.781194
9711.000000;0.780884
9710.000000;0.781193
9709.000000;0.782124
9708.000000;0.783154
9707.000000;0.783608
9706.000000;0.783220
9705.000000;0.782345
9704.000000;0.781558
9703.000000;0.781122
9702.000000;0.780894
9701.000000;0.780686
9700.000000;0.780521
9699.000000;0.780479
9698.000000;0.780462
9697.000000;0.780267
9696.000000;0.779889
9695.000000;0.779638
9694.000000;0.779919
9693.000000;0.780865
9692.000000;0.782132
9691.000000;0.783070
9690.000000;0.783192
9689.000000;0.782557
9688.000000;0.781695
9687.000000;0.781145
9686.000000;0.781112
9685.000000;0.781502
9684.000000;0.782104
9683.000000;0.782651
9682.000000;0.782863
9681.000000;0.782624
9680.000000;0.782115
9679.000000;0.781629
9678.000000;0.781249
9677.000000;0.780847
9676.000000;0.780388
9675.000000;0.780092
9674.000000;0.780192
9673.000000;0.780624
9672.000000;0.781085
9671.000000;0.781348
9670.000000;0.781446
9669.000000;0.781561
9668.000000;0.781812
9667.000000;0.782153
9666.000000;0.782393
9665.000000;0.782315
9664.000000;0.781866
9663.000000;0.781293
9662.000000;0.780973
9661.000000;0.781038
9660.000000;0.781223
9659.000000;0.781191
9658.000000;0.780975
9657.000000;0.780946
9656.000000;0.781339
9655.000000;0.781936
9654.000000;0.782313
9653.000000;0.782307
9652.000000;0.782131
9651.000000;0.782070
9650.000000;0.782195
9649.000000;0.782360
9648.000000;0.782374
9647.000000;0.782130
9646.000000;0.781680
9645.000000;0.781227
9644.000000;0.780981
9643.000000;0.780957
9642.000000;0.780942
9641.000000;0.780750
9640.000000;0.780469
9639.000000;0.780394
9638.000000;0.780689
9637.000000;0.781199
9636.000000;0.781612
9635.000000;0.781751
9634.000000;0.781662
9633.000000;0.781477
9632.000000;0.781277
9631.000000;0.781099
9630.000000;0.780969
9629.000000;0.780859
9628.000000;0.780668
9627.000000;0.780344
9626.000000;0.780001
9625.000000;0.779839
9624.000000;0.779936
9623.000000;0.780196
9622.000000;0.780496
9621.000000;0.780791
9620.000000;0.781018
9619.000000;0.781031
9618.000000;0.780747
9617.000000;0.780327
9616.000000;0.780065
9615.000000;0.780077
9614.000000;0.780236
9613.000000;0.780411
9612.000000;0.780652
9611.000000;0.781028
9610.000000;0.781406
9609.000000;0.781551
9608.000000;0.781419
9607.000000;0.781200
9606.000000;0.781040
9605.000000;0.780860
9604.000000;0.780536
9603.000000;0.780153
9602.000000;0.779927
9601.000000;0.779918
9600.000000;0.779963
9599.000000;0.779938
9598.000000;0.779945
9597.000000;0.780140
9596.000000;0.780460
9595.000000;0.780657
9594.000000;0.780579
9593.000000;0.780328
9592.000000;0.780103
9591.000000;0.779990
9590.000000;0.779955
9589.000000;0.779962
9588.000000;0.780010
9587.000000;0.780085
9586.000000;0.780151
9585.000000;0.780196
9584.000000;0.780239
9583.000000;0.780271
9582.000000;0.780240
9581.000000;0.780110
9580.000000;0.779928
9579.000000;0.779766
9578.000000;0.779639
9577.000000;0.779497
9576.000000;0.779330
9575.000000;0.779234
9574.000000;0.779313
9573.000000;0.779525
9572.000000;0.779696
9571.000000;0.779720
9570.000000;0.779711
9569.000000;0.779872
9568.000000;0.780243
9567.000000;0.780642
9566.000000;0.780859
9565.000000;0.780831
9564.000000;0.780620
9563.000000;0.780325
9562.000000;0.780058
9561.000000;0.779895
9560.000000;0.779795
9559.000000;0.779638
9558.000000;0.779414
9557.000000;0.779317
9556.000000;0.779529
9555.000000;0.779948
9554.000000;0.780240
9553.000000;0.780152
9552.000000;0.779716
9551.000000;0.779167
9550.000000;0.778770
9549.000000;0.778698
9548.000000;0.778946
9547.000000;0.779310
9546.000000;0.779552
9545.000000;0.779631
9544.000000;0.779677
9543.000000;0.779754
9542.000000;0.779757
9541.000000;0.779622
9540.000000;0.779497
9539.000000;0.779578
9538.000000;0.779852
9537.000000;0.780120
9536.000000;0.780239
9535.000000;0.780210
9534.000000;0.780077
9533.000000;0.779860
9532.000000;0.779630
9531.000000;0.779503
9530.000000;0.779493
9529.000000;0.779447
9528.000000;0.779200
9527.000000;0.778798
9526.000000;0.778506
9525.000000;0.778574
9524.000000;0.778995
9523.000000;0.779498
9522.000000;0.779782
9521.000000;0.779783
9520.000000;0.779664
9519.000000;0.779553
9518.000000;0.779380
9517.000000;0.779050
9516.000000;0.778693
9515.000000;0.778579
9514.000000;0.778757
9513.000000;0.778945
9512.000000;0.778877
9511.000000;0.778647
9510.000000;0.778613
9509.000000;0.778985
9508.000000;0.779615
9507.000000;0.780129
9506.000000;0.780203
9505.000000;0.779755
9504.000000;0.778994
9503.000000;0.778297
9502.000000;0.777984
9501.000000;0.778147
9500.000000;0.778682
9499.000000;0.779404
9498.000000;0.780068
9497.000000;0.780357
9496.000000;0.780024
9495.000000;0.779114
9494.000000;0.777982
9493.000000;0.777045
9492.000000;0.776542
9491.000000;0.776510
9490.000000;0.776889
9489.000000;0.777565
9488.000000;0.778343
9487.000000;0.778973
9486.000000;0.779269
9485.000000;0.779232
9484.000000;0.779062
9483.000000;0.778977
9482.000000;0.778995
9481.000000;0.778927
9480.000000;0.778630
9479.000000;0.778212
9478.000000;0.777915
9477.000000;0.777846
9476.000000;0.777920
9475.000000;0.778034
9474.000000;0.778146
9473.000000;0.778190
9472.000000;0.778069
9471.000000;0.777791
9470.000000;0.777479
9469.000000;0.777199
9468.000000;0.776917
9467.000000;0.776688
9466.000000;0.776730
9465.000000;0.777170
9464.000000;0.777806
9463.000000;0.778282
9462.000000;0.778428
9461.000000;0.778317
9460.000000;0.778052
9459.000000;0.777696
9458.000000;0.777376
9457.000000;0.777270
9456.000000;0.777387
9455.000000;0.777509
9454.000000;0.777421
9453.000000;0.777140
9452.000000;0.776887
9451.000000;0.776871
9450.000000;0.777131
9449.000000;0.777512
9448.000000;0.777765
9447.000000;0.777722
9446.000000;0.777422
9445.000000;0.777050
9444.000000;0.776760
9443.000000;0.776610
9442.000000;0.776659
9441.000000;0.777008
9440.000000;0.777686
9439.000000;0.778524
9438.000000;0.779216
9437.000000;0.779496
9436.000000;0.779282
9435.000000;0.778687
9434.000000;0.777967
9433.000000;0.777420
9432.000000;0.777247
9431.000000;0.777420
9430.000000;0.777683
9429.000000;0.777738
9428.000000;0.777527
9427.000000;0.777308
9426.000000;0.777387
9425.000000;0.777748
9424.000000;0.778026
9423.000000;0.777869
9422.000000;0.777285
9421.000000;0.776593
9420.000000;0.776123
9419.000000;0.776023
9418.000000;0.776228
9417.000000;0.776511
9416.000000;0.776609
9415.000000;0.776464
9414.000000;0.776310
9413.000000;0.776451
9412.000000;0.776956
9411.000000;0.777642
9410.000000;0.778282
9409.000000;0.778705
9408.000000;0.778779
9407.000000;0.778481
9406.000000;0.777985
9405.000000;0.777534
9404.000000;0.777201
9403.000000;0.776920
9402.000000;0.776714
9401.000000;0.776705
9400.000000;0.776870
9399.000000;0.777001
9398.000000;0.776980
9397.000000;0.776920
9396.000000;0.776928
9395.000000;0.776917
9394.000000;0.776787
9393.000000;0.776638
9392.000000;0.776651
9391.000000;0.776847
9390.000000;0.777143
9389.000000;0.777512
9388.000000;0.777935
9387.000000;0.778239
9386.000000;0.778208
9385.000000;0.777846
9384.000000;0.777384
9383.000000;0.777015
9382.000000;0.776749
9381.000000;0.776527
9380.000000;0.776339
9379.000000;0.776215
9378.000000;0.776183
9377.000000;0.776275
9376.000000;0.776492
9375.000000;0.776729
9374.000000;0.776814
9373.000000;0.776658
9372.000000;0.776338
9371.000000;0.776022
9370.000000;0.775848
9369.000000;0.775858
9368.000000;0.775998
9367.000000;0.776174
9366.000000;0.776355
9365.000000;0.776568
9364.000000;0.776772
9363.000000;0.776789
9362.000000;0.776483
9361.000000;0.775987
9360.000000;0.775639
9359.000000;0.775652
9358.000000;0.775923
9357.000000;0.776173
9356.000000;0.776221
9355.000000;0.776085
9354.000000;0.775904
9353.000000;0.775828
9352.000000;0.775938
9351.000000;0.776206
9350.000000;0.776507
9349.000000;0.776684
9348.000000;0.776640
9347.000000;0.776401
9346.000000;0.776109
9345.000000;0.775931
9344.000000;0.775931
9343.000000;0.776012
9342.000000;0.776005
9341.000000;0.775811
9340.000000;0.775483
9339.000000;0.775210
9338.000000;0.775192
9337.000000;0.775435
9336.000000;0.775677
9335.000000;0.775629
9334.000000;0.775333
9333.000000;0.775179
9332.000000;0.775454
9331.000000;0.775970
9330.000000;0.776275
9329.000000;0.776149
9328.000000;0.775744
9327.000000;0.775314
9326.000000;0.775012
9325.000000;0.774942
9324.000000;0.775183
9323.000000;0.775634
9322.000000;0.775997
9321.000000;0.776055
9320.000000;0.775875
9319.000000;0.775687
9318.000000;0.775620
9317.000000;0.775661
9316.000000;0.775766
9315.000000;0.775896
9314.000000;0.775990
9313.000000;0.776001
9312.000000;0.775958
9311.000000;0.775918
9310.000000;0.775871
9309.000000;0.775761
9308.000000;0.775576
9307.000000;0.775374
9306.000000;0.775220
9305.000000;0.775143
9304.000000;0.775142
9303.000000;0.775182
9302.000000;0.775212
9301.000000;0.775203
9300.000000;0.775164
9299.000000;0.775087
9298.000000;0.774935
9297.000000;0.774705
9296.000000;0.774489
9295.000000;0.774397
9294.000000;0.774453
9293.000000;0.774593
9292.000000;0.774749
9291.000000;0.774882
9290.000000;0.774970
9289.000000;0.775021
9288.000000;0.775079
9287.000000;0.775161
9286.000000;0.775211
9285.000000;0.775180
9284.000000;0.775117
9283.000000;0.775094
9282.000000;0.775057
9281.000000;0.774873
9280.000000;0.774546
9279.000000;0.774283
9278.000000;0.774279
9277.000000;0.774487
9276.000000;0.774681
9275.000000;0.774684
9274.000000;0.774480
9273.000000;0.774162
9272.000000;0.773861
9271.000000;0.773700
9270.000000;0.773714
9269.000000;0.773805
9268.000000;0.773845
9267.000000;0.773829
9266.000000;0.773853
9265.000000;0.773937
9264.000000;0.773956
9263.000000;0.773813
9262.000000;0.773588
9261.000000;0.773456
9260.000000;0.773485
9259.000000;0.773616
9258.000000;0.773779
9257.000000;0.773943
9256.000000;0.774071
9255.000000;0.774104
9254.000000;0.774036
9253.000000;0.773927
9252.000000;0.773841
9251.000000;0.773816
9250.000000;0.773899
9249.000000;0.774101
9248.000000;0.774315
9247.000000;0.774357
9246.000000;0.774179
9245.000000;0.773932
9244.000000;0.773776
9243.000000;0.773702
9242.000000;0.773628
9241.000000;0.773579
9240.000000;0.773636
9239.000000;0.773767
9238.000000;0.773855
9237.000000;0.773892
9236.000000;0.773968
9235.000000;0.774053
9234.000000;0.773951
9233.000000;0.773571
9232.000000;0.773126
9231.000000;0.772956
9230.000000;0.773192
9229.000000;0.773689
9228.000000;0.774196
9227.000000;0.774497
9226.000000;0.774471
9225.000000;0.774145
9224.000000;0.773726
9223.000000;0.773454
9222.000000;0.773400
9221.000000;0.773448
9220.000000;0.773465
9219.000000;0.773427
9218.000000;0.773373
9217.000000;0.773321
9216.000000;0.773283
9215.000000;0.773306
9214.000000;0.773414
9213.000000;0.773536
9212.000000;0.773552
9211.000000;0.773415
9210.000000;0.773216
9209.000000;0.773111
9208.000000;0.773184
9207.000000;0.773373
9206.000000;0.773530
9205.000000;0.773567
9204.000000;0.773533
9203.000000;0.773535
9202.000000;0.773599
9201.000000;0.773639
9200.000000;0.773580
9199.000000;0.773444
9198.000000;0.773286
9197.000000;0.773096
9196.000000;0.772824
9195.000000;0.772500
9194.000000;0.772254
9193.000000;0.772186
9192.000000;0.772256
9191.000000;0.772344
9190.000000;0.772405
9189.000000;0.772523
9188.000000;0.772773
9187.000000;0.773093
9186.000000;0.773310
9185.000000;0.773330
9184.000000;0.773232
9183.000000;0.773163
9182.000000;0.773167
9181.000000;0.773171
9180.000000;0.773133
9179.000000;0.773124
9178.000000;0.773223
9177.000000;0.773365
9176.000000;0.773383
9175.000000;0.773188
9174.000000;0.772869
9173.000000;0.772602
9172.000000;0.772488
9171.000000;0.772517
9170.000000;0.772626
9169.000000;0.772747
9168.000000;0.772817
9167.000000;0.772799
9166.000000;0.772705
9165.000000;0.772593
9164.000000;0.772534
9163.000000;0.772573
9162.000000;0.772713
9161.000000;0.772888
9160.000000;0.772993
9159.000000;0.772960
9158.000000;0.772812
9157.000000;0.772623
9156.000000;0.772445
9155.000000;0.772301
9154.000000;0.772224
9153.000000;0.772236
9152.000000;0.772303
9151.000000;0.772366
9150.000000;0.772441
9149.000000;0.772599
9148.000000;0.772819
9147.000000;0.772933
9146.000000;0.772812
9145.000000;0.772530
9144.000000;0.772295
9143.000000;0.772229
9142.000000;0.772292
9141.000000;0.772390
9140.000000;0.772454
9139.000000;0.772420
9138.000000;0.772256
9137.000000;0.772050
9136.000000;0.771987
9135.000000;0.772165
9134.000000;0.772466
9133.000000;0.772645
9132.000000;0.772529
9131.000000;0.772129
9130.000000;0.771609
9129.000000;0.771193
9128.000000;0.771042
9127.000000;0.771164
9126.000000;0.771430
9125.000000;0.771700
9124.000000;0.771915
9123.000000;0.772086
9122.000000;0.772218
9121.000000;0.772283
9120.000000;0.772258
9119.000000;0.772162
9118.000000;0.772054
9117.000000;0.771991
9116.000000;0.771976
9115.000000;0.771937
9114.000000;0.771819
9113.000000;0.771671
9112.000000;0.771593
9111.000000;0.771585
9110.000000;0.771525
9109.000000;0.771334
9108.000000;0.771100
9107.000000;0.770971
9106.000000;0.770966
9105.000000;0.770971
9104.000000;0.770889
9103.000000;0.770717
9102.000000;0.770516
9101.000000;0.770366
9100.000000;0.770353
9099.000000;0.770534
9098.000000;0.770886
9097.000000;0.771324
9096.000000;0.771741
9095.000000;0.772009
9094.000000;0.771983
9093.000000;0.771617
9092.000000;0.771102
9091.000000;0.770778
9090.000000;0.770874
9089.000000;0.771324
9088.000000;0.771844
9087.000000;0.772145
9086.000000;0.772095
9085.000000;0.771770
9084.000000;0.771384
9083.000000;0.771130
9082.000000;0.771031
9081.000000;0.770953
9080.000000;0.770774
9079.000000;0.770515
9078.000000;0.770301
9077.000000;0.770247
9076.000000;0.770374
9075.000000;0.770606
9074.000000;0.770821
9073.000000;0.770934
9072.000000;0.770964
9071.000000;0.770976
9070.000000;0.770979
9069.000000;0.770934
9068.000000;0.770844
9067.000000;0.770781
9066.000000;0.770777
9065.000000;0.770772
9064.000000;0.770695
9063.000000;0.770563
9062.000000;0.770440
9061.000000;0.770362
9060.000000;0.770336
9059.000000;0.770372
9058.000000;0.770454
9057.000000;0.770532
9056.000000;0.770580
9055.000000;0.770639
9054.000000;0.770747
9053.000000;0.770853
