Criado como novo conjunto de dados;"2706_e01_daniel.spp","107107.4 Secs"
cm-1;Abs
10000.000000;0.862337
9999.000000;0.863125
9998.000000;0.863906
9997.000000;0.864711
9996.000000;0.865347
9995.000000;0.865493
9994.000000;0.865168
9993.000000;0.864599
9992.000000;0.864040
9991.000000;0.863646
9990.000000;0.863445
9989.000000;0.863422
9988.000000;0.863562
9987.000000;0.863846
9986.000000;0.864205
9985.000000;0.864485
9984.000000;0.864529
9983.000000;0.864335
9982.000000;0.864075
9981.000000;0.863897
9980.000000;0.863740
9979.000000;0.863438
9978.000000;0.862979
9977.000000;0.862535
9976.000000;0.862248
9975.000000;0.862073
9974.000000;0.861885
9973.000000;0.861623
9972.000000;0.861283
9971.000000;0.860875
9970.000000;0.860475
9969.000000;0.860276
9968.000000;0.860466
9967.000000;0.861022
9966.000000;0.861657
9965.000000;0.862008
9964.000000;0.861888
9963.000000;0.861416
9962.000000;0.860919
9961.000000;0.860676
9960.000000;0.860720
9959.000000;0.860878
9958.000000;0.860998
9957.000000;0.861064
9956.000000;0.861112
9955.000000;0.861122
9954.000000;0.861054
9953.000000;0.860929
9952.000000;0.860797
9951.000000;0.860671
9950.000000;0.860537
9949.000000;0.860414
9948.000000;0.860342
9947.000000;0.860331
9946.000000;0.860371
9945.000000;0.860453
9944.000000;0.860516
9943.000000;0.860440
9942.000000;0.860205
9941.000000;0.860030
9940.000000;0.860199
9939.000000;0.860698
9938.000000;0.861120
9937.000000;0.861035
9936.000000;0.860411
9935.000000;0.859630
9934.000000;0.859149
9933.000000;0.859188
9932.000000;0.859654
9931.000000;0.860213
9930.000000;0.860467
9929.000000;0.860204
9928.000000;0.859571
9927.000000;0.858949
9926.000000;0.858647
9925.000000;0.858712
9924.000000;0.859025
9923.000000;0.859467
9922.000000;0.859969
9921.000000;0.860447
9920.000000;0.860760
9919.000000;0.860743
9918.000000;0.860318
9917.000000;0.859612
9916.000000;0.858961
9915.000000;0.858670
9914.000000;0.858701
9913.000000;0.858657
9912.000000;0.858202
9911.000000;0.857469
9910.000000;0.856947
9909.000000;0.856934
9908.000000;0.857239
9907.000000;0.857468
9906.000000;0.857522
9905.000000;0.857652
9904.000000;0.858046
9903.000000;0.858497
9902.000000;0.858610
9901.000000;0.858239
9900.000000;0.857609
9899.000000;0.857009
9898.000000;0.856540
9897.000000;0.856208
9896.000000;0.856106
9895.000000;0.856329
9894.000000;0.856736
9893.000000;0.856978
9892.000000;0.856833
9891.000000;0.856414
9890.000000;0.856040
9889.000000;0.855987
9888.000000;0.856388
9887.000000;0.857171
9886.000000;0.857974
9885.000000;0.858256
9884.000000;0.857754
9883.000000;0.856821
9882.000000;0.856148
9881.000000;0.856120
9880.000000;0.856501
9879.000000;0.856736
9878.000000;0.856431
9877.000000;0.855578
9876.000000;0.854499
9875.000000;0.853662
9874.000000;0.853393
9873.000000;0.853645
9872.000000;0.854090
9871.000000;0.854500
9870.000000;0.854938
9869.000000;0.855512
9868.000000;0.856060
9867.000000;0.856252
9866.000000;0.855957
9865.000000;0.855379
9864.000000;0.854822
9863.000000;0.854457
9862.000000;0.854319
9861.000000;0.854410
9860.000000;0.854703
9859.000000;0.855099
9858.000000;0.855433
9857.000000;0.855534
9856.000000;0.855305
9855.000000;0.854790
9854.000000;0.854143
9853.000000;0.853528
9852.000000;0.853035
9851.000000;0.852726
9850.000000;0.852654
9849.000000;0.852776
9848.000000;0.852914
9847.000000;0.852931
9846.000000;0.852943
9845.000000;0.853207
9844.000000;0.853741
9843.000000;0.854206
9842.000000;0.854255
9841.000000;0.853930
9840.000000;0.853569
9839.000000;0.853393
9838.000000;0.853317
9837.000000;0.853152
9836.000000;0.852906
9835.000000;0.852802
9834.000000;0.853033
9833.000000;0.853489
9832.000000;0.853739
9831.000000;0.853361
9830.000000;0.852414
9829.000000;0.851502
9828.000000;0.851234
9827.000000;0.851592
9826.000000;0.851967
9825.000000;0.851848
9824.000000;0.851307
9823.000000;0.850731
9822.000000;0.850313
9821.000000;0.850018
9820.000000;0.849924
9819.000000;0.850248
9818.000000;0.850980
9817.000000;0.851734
9816.000000;0.852099
9815.000000;0.851991
9814.000000;0.851557
9813.000000;0.850897
9812.000000;0.850060
9811.000000;0.849217
9810.000000;0.848624
9809.000000;0.848414
9808.000000;0.848545
9807.000000;0.848917
9806.000000;0.849417
9805.000000;0.849848
9804.000000;0.849986
9803.000000;0.849781
9802.000000;0.849407
9801.000000;0.849102
9800.000000;0.849039
9799.000000;0.849301
9798.000000;0.849797
9797.000000;0.850167
9796.000000;0.849977
9795.000000;0.849176
9794.000000;0.848264
9793.000000;0.847820
9792.000000;0.847924
9791.000000;0.848183
9790.000000;0.848278
9789.000000;0.848271
9788.000000;0.848348
9787.000000;0.848447
9786.000000;0.848346
9785.000000;0.848016
9784.000000;0.847721
9783.000000;0.847713
9782.000000;0.847928
9781.000000;0.848064
9780.000000;0.847923
9779.000000;0.847602
9778.000000;0.847361
9777.000000;0.847364
9776.000000;0.847598
9775.000000;0.847953
9774.000000;0.848303
9773.000000;0.848514
9772.000000;0.848489
9771.000000;0.848271
9770.000000;0.848031
9769.000000;0.847895
9768.000000;0.847797
9767.000000;0.847587
9766.000000;0.847273
9765.000000;0.847048
9764.000000;0.847074
9763.000000;0.847279
9762.000000;0.847441
9761.000000;0.847439
9760.000000;0.847351
9759.000000;0.847295
9758.000000;0.847245
9757.000000;0.847054
9756.000000;0.846659
9755.000000;0.846238
9754.000000;0.846090
9753.000000;0.846359
9752.000000;0.846857
9751.000000;0.847211
9750.000000;0.847179
9749.000000;0.846843
9748.000000;0.846504
9747.000000;0.846404
9746.000000;0.846542
9745.000000;0.846743
9744.000000;0.846851
9743.000000;0.846846
9742.000000;0.846779
9741.000000;0.846627
9740.000000;0.846262
9739.000000;0.845605
9738.000000;0.844824
9737.000000;0.844350
9736.000000;0.844607
9735.000000;0.845607
9734.000000;0.846813
9733.000000;0.847486
9732.000000;0.847302
9731.000000;0.846599
9730.000000;0.845987
9729.000000;0.845736
9728.000000;0.845604
9727.000000;0.845245
9726.000000;0.844652
9725.000000;0.844139
9724.000000;0.843960
9723.000000;0.844085
9722.000000;0.844311
9721.000000;0.844498
9720.000000;0.844633
9719.000000;0.844735
9718.000000;0.844774
9717.000000;0.844658
9716.000000;0.844285
9715.000000;0.843646
9714.000000;0.842919
9713.000000;0.842417
9712.000000;0.842354
9711.000000;0.842668
9710.000000;0.843146
9709.000000;0.843687
9708.000000;0.844302
9707.000000;0.844855
9706.000000;0.845004
9705.000000;0.844538
9704.000000;0.843697
9703.000000;0.842968
9702.000000;0.842611
9701.000000;0.842515
9700.000000;0.842515
9699.000000;0.842644
9698.000000;0.842999
9697.000000;0.843497
9696.000000;0.843883
9695.000000;0.843947
9694.000000;0.843654
9693.000000;0.843134
9692.000000;0.842602
9691.000000;0.842222
9690.000000;0.841990
9689.000000;0.841798
9688.000000;0.841646
9687.000000;0.841686
9686.000000;0.841983
9685.000000;0.842338
9684.000000;0.842498
9683.000000;0.842492
9682.000000;0.842598
9681.000000;0.842972
9680.000000;0.843422
9679.000000;0.843582
9678.000000;0.843241
9677.000000;0.842500
9676.000000;0.841689
9675.000000;0.841141
9674.000000;0.840973
9673.000000;0.841027
9672.000000;0.841062
9671.000000;0.840976
9670.000000;0.840840
9669.000000;0.840761
9668.000000;0.840794
9667.000000;0.840946
9666.000000;0.841162
9665.000000;0.841346
9664.000000;0.841465
9663.000000;0.841591
9662.000000;0.841725
9661.000000;0.841668
9660.000000;0.841227
9659.000000;0.840545
9658.000000;0.840009
9657.000000;0.839804
9656.000000;0.839753
9655.000000;0.839672
9654.000000;0.839667
9653.000000;0.839914
9652.000000;0.840316
9651.000000;0.840580
9650.000000;0.840578
9649.000000;0.840424
9648.000000;0.840230
9647.000000;0.839976
9646.000000;0.839657
9645.000000;0.839366
9644.000000;0.839157
9643.000000;0.838937
9642.000000;0.838605
9641.000000;0.838222
9640.000000;0.837948
9639.000000;0.837847
9638.000000;0.837869
9637.000000;0.837996
9636.000000;0.838272
9635.000000;0.838636
9634.000000;0.838847
9633.000000;0.838696
9632.000000;0.838268
9631.000000;0.837867
9630.000000;0.837649
9629.000000;0.837459
9628.000000;0.837101
9627.000000;0.836645
9626.000000;0.836376
9625.000000;0.836488
9624.000000;0.836956
9623.000000;0.837647
9622.000000;0.838384
9621.000000;0.838925
9620.000000;0.839053
9619.000000;0.838784
9618.000000;0.838369
9617.000000;0.838055
9616.000000;0.837898
9615.000000;0.837817
9614.000000;0.837699
9613.000000;0.837423
9612.000000;0.836924
9611.000000;0.836327
9610.000000;0.835909
9609.000000;0.835820
9608.000000;0.835919
9607.000000;0.835995
9606.000000;0.836063
9605.000000;0.836320
9604.000000;0.836839
9603.000000;0.837427
9602.000000;0.837778
9601.000000;0.837712
9600.000000;0.837299
9599.000000;0.836819
9598.000000;0.836551
9597.000000;0.836508
9596.000000;0.836432
9595.000000;0.836112
9594.000000;0.835655
9593.000000;0.835311
9592.000000;0.835111
9591.000000;0.834868
9590.000000;0.834516
9589.000000;0.834269
9588.000000;0.834332
9587.000000;0.834616
9586.000000;0.834853
9585.000000;0.834919
9584.000000;0.834900
9583.000000;0.834887
9582.000000;0.834841
9581.000000;0.834712
9580.000000;0.834575
9579.000000;0.834569
9578.000000;0.834718
9577.000000;0.834888
9576.000000;0.834933
9575.000000;0.834853
9574.000000;0.834755
9573.000000;0.834698
9572.000000;0.834629
9571.000000;0.834455
9570.000000;0.834142
9569.000000;0.833737
9568.000000;0.833366
9567.000000;0.833231
9566.000000;0.833481
9565.000000;0.834004
9564.000000;0.834435
9563.000000;0.834505
9562.000000;0.834338
9561.000000;0.834274
9560.000000;0.834405
9559.000000;0.834432
9558.000000;0.834069
9557.000000;0.833450
9556.000000;0.833018
9555.000000;0.833020
9554.000000;0.833260
9553.000000;0.833368
9552.000000;0.833255
9551.000000;0.833181
9550.000000;0.833414
9549.000000;0.833889
9548.000000;0.834270
9547.000000;0.834276
9546.000000;0.833888
9545.000000;0.833270
9544.000000;0.832660
9543.000000;0.832341
9542.000000;0.832540
9541.000000;0.833174
9540.000000;0.833754
9539.000000;0.833738
9538.000000;0.833086
9537.000000;0.832343
9536.000000;0.832103
9535.000000;0.832423
9534.000000;0.832808
9533.000000;0.832754
9532.000000;0.832257
9531.000000;0.831767
9530.000000;0.831685
9529.000000;0.831964
9528.000000;0.832236
9527.000000;0.832273
9526.000000;0.832200
9525.000000;0.832212
9524.000000;0.832218
9523.000000;0.831965
9522.000000;0.831453
9521.000000;0.831004
9520.000000;0.830842
9519.000000;0.830780
9518.000000;0.830495
9517.000000;0.829986
9516.000000;0.829566
9515.000000;0.829404
9514.000000;0.829306
9513.000000;0.829028
9512.000000;0.828656
9511.000000;0.828535
9510.000000;0.828889
9509.000000;0.829579
9508.000000;0.830229
9507.000000;0.830495
9506.000000;0.830303
9505.000000;0.829899
9504.000000;0.829637
9503.000000;0.829629
9502.000000;0.829638
9501.000000;0.829420
9500.000000;0.829119
9499.000000;0.829121
9498.000000;0.829505
9497.000000;0.829882
9496.000000;0.829884
9495.000000;0.829625
9494.000000;0.829455
9493.000000;0.829415
9492.000000;0.829231
9491.000000;0.828816
9490.000000;0.828464
9489.000000;0.828463
9488.000000;0.828737
9487.000000;0.828993
9486.000000;0.829065
9485.000000;0.828962
9484.000000;0.828720
9483.000000;0.828388
9482.000000;0.828088
9481.000000;0.827895
9480.000000;0.827704
9479.000000;0.827348
9478.000000;0.826886
9477.000000;0.826644
9476.000000;0.826896
9475.000000;0.827548
9474.000000;0.828164
9473.000000;0.828323
9472.000000;0.827984
9471.000000;0.827511
9470.000000;0.827301
9469.000000;0.827400
9468.000000;0.827531
9467.000000;0.827508
9466.000000;0.827451
9465.000000;0.827502
9464.000000;0.827505
9463.000000;0.827175
9462.000000;0.826536
9461.000000;0.825980
9460.000000;0.825872
9459.000000;0.826244
9458.000000;0.826884
9457.000000;0.827548
9456.000000;0.828048
9455.000000;0.828292
9454.000000;0.828338
9453.000000;0.828324
9452.000000;0.828274
9451.000000;0.828057
9450.000000;0.827602
9449.000000;0.827064
9448.000000;0.826689
9447.000000;0.826557
9446.000000;0.826560
9445.000000;0.826568
9444.000000;0.826540
9443.000000;0.826509
9442.000000;0.826538
9441.000000;0.826668
9440.000000;0.826802
9439.000000;0.826701
9438.000000;0.826195
9437.000000;0.825420
9436.000000;0.824752
9435.000000;0.824462
9434.000000;0.824508
9433.000000;0.824679
9432.000000;0.824859
9431.000000;0.825046
9430.000000;0.825189
9429.000000;0.825158
9428.000000;0.824912
9427.000000;0.824616
9426.000000;0.824501
9425.000000;0.824627
9424.000000;0.824848
9423.000000;0.824996
9422.000000;0.825026
9421.000000;0.824985
9420.000000;0.824908
9419.000000;0.824808
9418.000000;0.824725
9417.000000;0.824693
9416.000000;0.824668
9415.000000;0.824536
9414.000000;0.824230
9413.000000;0.823823
9412.000000;0.823495
9411.000000;0.823380
9410.000000;0.823446
9409.000000;0.823511
9408.000000;0.823412
9407.000000;0.823162
9406.000000;0.822933
9405.000000;0.822867
9404.000000;0.822934
9403.000000;0.822989
9402.000000;0.822919
9401.000000;0.822720
9400.000000;0.822475
9399.000000;0.822319
9398.000000;0.822382
9397.000000;0.822683
9396.000000;0.823089
9395.000000;0.823418
9394.000000;0.823567
9393.000000;0.823514
9392.000000;0.823236
9391.000000;0.822735
9390.000000;0.822142
9389.000000;0.821686
9388.000000;0.821495
9387.000000;0.821487
9386.000000;0.821481
9385.000000;0.821377
9384.000000;0.821208
9383.000000;0.821075
9382.000000;0.821058
9381.000000;0.821179
9380.000000;0.821381
9379.000000;0.821577
9378.000000;0.821720
9377.000000;0.821806
9376.000000;0.821802
9375.000000;0.821623
9374.000000;0.821217
9373.000000;0.820689
9372.000000;0.820288
9371.000000;0.820285
9370.000000;0.820792
9369.000000;0.821666
9368.000000;0.822545
9367.000000;0.823048
9366.000000;0.822990
9365.000000;0.822476
9364.000000;0.821798
9363.000000;0.821258
9362.000000;0.821001
9361.000000;0.820926
9360.000000;0.820780
9359.000000;0.820427
9358.000000;0.820036
9357.000000;0.819897
9356.000000;0.820074
9355.000000;0.820340
9354.000000;0.820488
9353.000000;0.820548
9352.000000;0.820603
9351.000000;0.820534
9350.000000;0.820141
9349.000000;0.819472
9348.000000;0.818855
9347.000000;0.818577
9346.000000;0.818646
9345.000000;0.818900
9344.000000;0.819189
9343.000000;0.819398
9342.000000;0.819425
9341.000000;0.819276
9340.000000;0.819116
9339.000000;0.819109
9338.000000;0.819201
9337.000000;0.819177
9336.000000;0.818923
9335.000000;0.818543
9334.000000;0.818198
9333.000000;0.817930
9332.000000;0.817716
9331.000000;0.817602
9330.000000;0.817681
9329.000000;0.817941
9328.000000;0.818240
9327.000000;0.818453
9326.000000;0.818593
9325.000000;0.818734
9324.000000;0.818898
9323.000000;0.819041
9322.000000;0.819132
9321.000000;0.819162
9320.000000;0.819122
9319.000000;0.819019
9318.000000;0.818906
9317.000000;0.818834
9316.000000;0.818744
9315.000000;0.818504
9314.000000;0.818079
9313.000000;0.817630
9312.000000;0.817384
9311.000000;0.817433
9310.000000;0.817670
9309.000000;0.817925
9308.000000;0.818105
9307.000000;0.818223
9306.000000;0.818315
9305.000000;0.818344
9304.000000;0.818205
9303.000000;0.817858
9302.000000;0.817444
9301.000000;0.817210
9300.000000;0.817256
9299.000000;0.817404
9298.000000;0.817380
9297.000000;0.817102
9296.000000;0.816729
9295.000000;0.816478
9294.000000;0.816437
9293.000000;0.816545
9292.000000;0.816647
9291.000000;0.816550
9290.000000;0.816162
9289.000000;0.815633
9288.000000;0.815283
9287.000000;0.815313
9286.000000;0.815626
9285.000000;0.815976
9284.000000;0.816209
9283.000000;0.816297
9282.000000;0.816201
9281.000000;0.815870
9280.000000;0.815388
9279.000000;0.814980
9278.000000;0.814819
9277.000000;0.814874
9276.000000;0.815013
9275.000000;0.815175
9274.000000;0.815362
9273.000000;0.815521
9272.000000;0.815534
9271.000000;0.815355
9270.000000;0.815098
9269.000000;0.814925
9268.000000;0.814878
9267.000000;0.814831
9266.000000;0.814638
9265.000000;0.814312
9264.000000;0.814023
9263.000000;0.813896
9262.000000;0.813869
9261.000000;0.813821
9260.000000;0.813813
9259.000000;0.814045
9258.000000;0.814542
9257.000000;0.815000
9256.000000;0.815066
9255.000000;0.814739
9254.000000;0.814349
9253.000000;0.814167
9252.000000;0.814161
9251.000000;0.814152
9250.000000;0.814076
9249.000000;0.814024
9248.000000;0.814074
9247.000000;0.814177
9246.000000;0.814201
9245.000000;0.814063
9244.000000;0.813814
9243.000000;0.813595
9242.000000;0.813480
9241.000000;0.813407
9240.000000;0.813308
9239.000000;0.813256
9238.000000;0.813375
9237.000000;0.813616
9236.000000;0.813762
9235.000000;0.813684
9234.000000;0.813471
9233.000000;0.813254
9232.000000;0.813041
9231.000000;0.812817
9230.000000;0.812673
9229.000000;0.812691
9228.000000;0.812764
9227.000000;0.812708
9226.000000;0.812514
9225.000000;0.812328
9224.000000;0.812212
9223.000000;0.812088
9222.000000;0.811947
9221.000000;0.811918
9220.000000;0.812043
9219.000000;0.812129
9218.000000;0.811984
9217.000000;0.811705
9216.000000;0.811572
9215.000000;0.811712
9214.000000;0.811998
9213.000000;0.812261
9212.000000;0.812433
9211.000000;0.812449
9210.000000;0.812169
9209.000000;0.811520
9208.000000;0.810695
9207.000000;0.810105
9206.000000;0.810088
9205.000000;0.810657
9204.000000;0.811496
9203.000000;0.812162
9202.000000;0.812358
9201.000000;0.812072
9200.000000;0.811521
9199.000000;0.810961
9198.000000;0.810542
9197.000000;0.810307
9196.000000;0.810224
9195.000000;0.810190
9194.000000;0.810067
9193.000000;0.809791
9192.000000;0.809477
9191.000000;0.809351
9190.000000;0.809583
9189.000000;0.810160
9188.000000;0.810873
9187.000000;0.811374
9186.000000;0.811328
9185.000000;0.810684
9184.000000;0.809821
9183.000000;0.809297
9182.000000;0.809346
9181.000000;0.809682
9180.000000;0.809847
9179.000000;0.809671
9178.000000;0.809329
9177.000000;0.809051
9176.000000;0.808936
9175.000000;0.808980
9174.000000;0.809111
9173.000000;0.809180
9172.000000;0.809061
9171.000000;0.808801
9170.000000;0.808562
9169.000000;0.808394
9168.000000;0.808215
9167.000000;0.808024
9166.000000;0.807993
9165.000000;0.808230
9164.000000;0.808555
9163.000000;0.808670
9162.000000;0.808476
9161.000000;0.808128
9160.000000;0.807829
9159.000000;0.807675
9158.000000;0.807677
9157.000000;0.807788
9156.000000;0.807913
9155.000000;0.807973
9154.000000;0.807993
9153.000000;0.808040
9152.000000;0.808080
9151.000000;0.807962
9150.000000;0.807616
9149.000000;0.807202
9148.000000;0.807012
9147.000000;0.807205
9146.000000;0.807644
9145.000000;0.807989
9144.000000;0.807982
9143.000000;0.807637
9142.000000;0.807167
9141.000000;0.806751
9140.000000;0.806454
9139.000000;0.806333
9138.000000;0.806466
9137.000000;0.806821
9136.000000;0.807179
9135.000000;0.807315
9134.000000;0.807212
9133.000000;0.807009
9132.000000;0.806795
9131.000000;0.806576
9130.000000;0.806379
9129.000000;0.806275
9128.000000;0.806290
9127.000000;0.806400
9126.000000;0.806603
9125.000000;0.806866
9124.000000;0.807020
9123.000000;0.806860
9122.000000;0.806400
9121.000000;0.805904
9120.000000;0.805599
9119.000000;0.805464
9118.000000;0.805379
9117.000000;0.805355
9116.000000;0.805502
9115.000000;0.805803
9114.000000;0.806073
9113.000000;0.806139
9112.000000;0.805978
9111.000000;0.805678
9110.000000;0.805339
9109.000000;0.805045
9108.000000;0.804880
9107.000000;0.804900
9106.000000;0.805067
9105.000000;0.805249
9104.000000;0.805284
9103.000000;0.805101
9102.000000;0.804756
9101.000000;0.804385
9100.000000;0.804111
9099.000000;0.804017
9098.000000;0.804147
9097.000000;0.804471
9096.000000;0.804832
9095.000000;0.805014
9094.000000;0.804901
9093.000000;0.804589
9092.000000;0.804292
9091.000000;0.804136
9090.000000;0.804055
9089.000000;0.803901
9088.000000;0.803650
9087.000000;0.803463
9086.000000;0.803506
9085.000000;0.803727
9084.000000;0.803884
9083.000000;0.803826
9082.000000;0.803670
9081.000000;0.803629
9080.000000;0.803718
9079.000000;0.803739
9078.000000;0.803519
9077.000000;0.803088
9076.000000;0.802621
9075.000000;0.802297
9074.000000;0.802217
9073.000000;0.802352
9072.000000;0.802532
9071.000000;0.802585
9070.000000;0.802513
9069.000000;0.802486
9068.000000;0.802605
9067.000000;0.802776
9066.000000;0.802843
9065.000000;0.802772
9064.000000;0.802634
9063.000000;0.802491
9062.000000;0.802392
9061.000000;0.802400
9060.000000;0.802508
9059.000000;0.802543
9058.000000;0.802290
9057.000000;0.801748
9056.000000;0.801193
9055.000000;0.800930
9054.000000;0.801023
9053.000000;0.801289
