Criado como novo conjunto de dados;"2706_e01_daniel.spp","64265.4 Secs"
cm-1;Abs
10000.000000;0.720359
9999.000000;0.719523
9998.000000;0.718681
9997.000000;0.717854
9996.000000;0.717005
9995.000000;0.716204
9994.000000;0.715271
9993.000000;0.713936
9992.000000;0.712690
9991.000000;0.711905
9990.000000;0.711763
9989.000000;0.712119
9988.000000;0.712746
9987.000000;0.713446
9986.000000;0.714015
9985.000000;0.714240
9984.000000;0.714100
9983.000000;0.713864
9982.000000;0.713814
9981.000000;0.713905
9980.000000;0.713844
9979.000000;0.713496
9978.000000;0.713062
9977.000000;0.712857
9976.000000;0.713027
9975.000000;0.713458
9974.000000;0.713809
9973.000000;0.713701
9972.000000;0.713068
9971.000000;0.712316
9970.000000;0.711915
9969.000000;0.711860
9968.000000;0.711786
9967.000000;0.711594
9966.000000;0.711612
9965.000000;0.712033
9964.000000;0.712531
9963.000000;0.712675
9962.000000;0.712476
9961.000000;0.712228
9960.000000;0.711995
9959.000000;0.711596
9958.000000;0.710993
9957.000000;0.710399
9956.000000;0.710007
9955.000000;0.709847
9954.000000;0.709888
9953.000000;0.710064
9952.000000;0.710215
9951.000000;0.710202
9950.000000;0.710106
9949.000000;0.710137
9948.000000;0.710305
9947.000000;0.710394
9946.000000;0.710286
9945.000000;0.710147
9944.000000;0.710187
9943.000000;0.710341
9942.000000;0.710297
9941.000000;0.709824
9940.000000;0.709053
9939.000000;0.708466
9938.000000;0.708510
9937.000000;0.709129
9936.000000;0.709700
9935.000000;0.709567
9934.000000;0.708702
9933.000000;0.707737
9932.000000;0.707349
9931.000000;0.707672
9930.000000;0.708284
9929.000000;0.708634
9928.000000;0.708477
9927.000000;0.707947
9926.000000;0.707298
9925.000000;0.706620
9924.000000;0.705865
9923.000000;0.705121
9922.000000;0.704691
9921.000000;0.704815
9920.000000;0.705409
9919.000000;0.706153
9918.000000;0.706723
9917.000000;0.706875
9916.000000;0.706494
9915.000000;0.705764
9914.000000;0.705169
9913.000000;0.705094
9912.000000;0.705421
9911.000000;0.705704
9910.000000;0.705692
9909.000000;0.705507
9908.000000;0.705366
9907.000000;0.705358
9906.000000;0.705487
9905.000000;0.705693
9904.000000;0.705787
9903.000000;0.705600
9902.000000;0.705268
9901.000000;0.705178
9900.000000;0.705529
9899.000000;0.706067
9898.000000;0.706334
9897.000000;0.706061
9896.000000;0.705286
9895.000000;0.704268
9894.000000;0.703373
9893.000000;0.702874
9892.000000;0.702714
9891.000000;0.702570
9890.000000;0.702247
9889.000000;0.701941
9888.000000;0.702001
9887.000000;0.702520
9886.000000;0.703245
9885.000000;0.703822
9884.000000;0.704043
9883.000000;0.703918
9882.000000;0.703600
9881.000000;0.703244
9880.000000;0.702909
9879.000000;0.702614
9878.000000;0.702452
9877.000000;0.702541
9876.000000;0.702834
9875.000000;0.703057
9874.000000;0.702956
9873.000000;0.702560
9872.000000;0.702147
9871.000000;0.701960
9870.000000;0.701988
9869.000000;0.701982
9868.000000;0.701704
9867.000000;0.701182
9866.000000;0.700709
9865.000000;0.700532
9864.000000;0.700602
9863.000000;0.700716
9862.000000;0.700826
9861.000000;0.701057
9860.000000;0.701410
9859.000000;0.701631
9858.000000;0.701458
9857.000000;0.700897
9856.000000;0.700202
9855.000000;0.699653
9854.000000;0.699404
9853.000000;0.699430
9852.000000;0.699559
9851.000000;0.699631
9850.000000;0.699629
9849.000000;0.699619
9848.000000;0.699586
9847.000000;0.699463
9846.000000;0.699284
9845.000000;0.699161
9844.000000;0.699099
9843.000000;0.699018
9842.000000;0.698964
9841.000000;0.699077
9840.000000;0.699277
9839.000000;0.699209
9838.000000;0.698674
9837.000000;0.697946
9836.000000;0.697492
9835.000000;0.697491
9834.000000;0.697787
9833.000000;0.698167
9832.000000;0.698507
9831.000000;0.698708
9830.000000;0.698719
9829.000000;0.698592
9828.000000;0.698402
9827.000000;0.698133
9826.000000;0.697768
9825.000000;0.697425
9824.000000;0.697262
9823.000000;0.697291
9822.000000;0.697418
9821.000000;0.697602
9820.000000;0.697824
9819.000000;0.697952
9818.000000;0.697829
9817.000000;0.697509
9816.000000;0.697222
9815.000000;0.697069
9814.000000;0.696901
9813.000000;0.696571
9812.000000;0.696200
9811.000000;0.696060
9810.000000;0.696261
9809.000000;0.696627
9808.000000;0.696863
9807.000000;0.696789
9806.000000;0.696423
9805.000000;0.695910
9804.000000;0.695405
9803.000000;0.695043
9802.000000;0.694955
9801.000000;0.695222
9800.000000;0.695773
9799.000000;0.696362
9798.000000;0.696696
9797.000000;0.696596
9796.000000;0.696079
9795.000000;0.695369
9794.000000;0.694832
9793.000000;0.694769
9792.000000;0.695152
9791.000000;0.695628
9790.000000;0.695823
9789.000000;0.695626
9788.000000;0.695115
9787.000000;0.694356
9786.000000;0.693434
9785.000000;0.692624
9784.000000;0.692303
9783.000000;0.692600
9782.000000;0.693222
9781.000000;0.693705
9780.000000;0.693844
9779.000000;0.693804
9778.000000;0.693849
9777.000000;0.694010
9776.000000;0.694083
9775.000000;0.693957
9774.000000;0.693820
9773.000000;0.693928
9772.000000;0.694203
9771.000000;0.694264
9770.000000;0.693883
9769.000000;0.693261
9768.000000;0.692714
9767.000000;0.692276
9766.000000;0.691836
9765.000000;0.691532
9764.000000;0.691672
9763.000000;0.692238
9762.000000;0.692725
9761.000000;0.692646
9760.000000;0.692035
9759.000000;0.691308
9758.000000;0.690760
9757.000000;0.690368
9756.000000;0.690016
9755.000000;0.689724
9754.000000;0.689625
9753.000000;0.689835
9752.000000;0.690371
9751.000000;0.691094
9750.000000;0.691698
9749.000000;0.691873
9748.000000;0.691561
9747.000000;0.691030
9746.000000;0.690611
9745.000000;0.690398
9744.000000;0.690242
9743.000000;0.690008
9742.000000;0.689720
9741.000000;0.689471
9740.000000;0.689323
9739.000000;0.689328
9738.000000;0.689531
9737.000000;0.689847
9736.000000;0.690017
9735.000000;0.689841
9734.000000;0.689447
9733.000000;0.689162
9732.000000;0.689115
9731.000000;0.689114
9730.000000;0.688962
9729.000000;0.688751
9728.000000;0.688730
9727.000000;0.688960
9726.000000;0.689249
9725.000000;0.689389
9724.000000;0.689356
9723.000000;0.689270
9722.000000;0.689209
9721.000000;0.689124
9720.000000;0.688923
9719.000000;0.688650
9718.000000;0.688527
9717.000000;0.688699
9716.000000;0.688964
9715.000000;0.688892
9714.000000;0.688294
9713.000000;0.687468
9712.000000;0.686880
9711.000000;0.686703
9710.000000;0.686780
9709.000000;0.686942
9708.000000;0.687188
9707.000000;0.687547
9706.000000;0.687925
9705.000000;0.688119
9704.000000;0.687934
9703.000000;0.687309
9702.000000;0.686394
9701.000000;0.685511
9700.000000;0.684948
9699.000000;0.684787
9698.000000;0.684935
9697.000000;0.685247
9696.000000;0.685562
9695.000000;0.685728
9694.000000;0.685760
9693.000000;0.685902
9692.000000;0.686334
9691.000000;0.686830
9690.000000;0.686901
9689.000000;0.686348
9688.000000;0.685509
9687.000000;0.684899
9686.000000;0.684714
9685.000000;0.684787
9684.000000;0.684883
9683.000000;0.684908
9682.000000;0.684886
9681.000000;0.684854
9680.000000;0.684797
9679.000000;0.684647
9678.000000;0.684364
9677.000000;0.684052
9676.000000;0.683927
9675.000000;0.684105
9674.000000;0.684434
9673.000000;0.684605
9672.000000;0.684417
9671.000000;0.683934
9670.000000;0.683405
9669.000000;0.683064
9668.000000;0.682969
9667.000000;0.682989
9666.000000;0.682913
9665.000000;0.682597
9664.000000;0.682063
9663.000000;0.681511
9662.000000;0.681233
9661.000000;0.681427
9660.000000;0.682015
9659.000000;0.682682
9658.000000;0.683167
9657.000000;0.683470
9656.000000;0.683677
9655.000000;0.683701
9654.000000;0.683384
9653.000000;0.682862
9652.000000;0.682592
9651.000000;0.682850
9650.000000;0.683337
9649.000000;0.683438
9648.000000;0.682848
9647.000000;0.681855
9646.000000;0.681033
9645.000000;0.680762
9644.000000;0.680991
9643.000000;0.681347
9642.000000;0.681436
9641.000000;0.681117
9640.000000;0.680545
9639.000000;0.679976
9638.000000;0.679588
9637.000000;0.679455
9636.000000;0.679568
9635.000000;0.679802
9634.000000;0.679962
9633.000000;0.679990
9632.000000;0.680065
9631.000000;0.680391
9630.000000;0.680911
9629.000000;0.681366
9628.000000;0.681609
9627.000000;0.681722
9626.000000;0.681775
9625.000000;0.681640
9624.000000;0.681149
9623.000000;0.680385
9622.000000;0.679704
9621.000000;0.679453
9620.000000;0.679680
9619.000000;0.680116
9618.000000;0.680388
9617.000000;0.680288
9616.000000;0.679890
9615.000000;0.679418
9614.000000;0.679026
9613.000000;0.678709
9612.000000;0.678447
9611.000000;0.678342
9610.000000;0.678533
9609.000000;0.678941
9608.000000;0.679187
9607.000000;0.678873
9606.000000;0.678011
9605.000000;0.677119
9604.000000;0.676788
9603.000000;0.677138
9602.000000;0.677740
9601.000000;0.678075
9600.000000;0.677988
9599.000000;0.677672
9598.000000;0.677355
9597.000000;0.677143
9596.000000;0.677111
9595.000000;0.677329
9594.000000;0.677729
9593.000000;0.678060
9592.000000;0.678087
9591.000000;0.677807
9590.000000;0.677385
9589.000000;0.676939
9588.000000;0.676455
9587.000000;0.675914
9586.000000;0.675409
9585.000000;0.675095
9584.000000;0.675048
9583.000000;0.675203
9582.000000;0.675435
9581.000000;0.675677
9580.000000;0.675911
9579.000000;0.676055
9578.000000;0.675940
9577.000000;0.675495
9576.000000;0.674932
9575.000000;0.674655
9574.000000;0.674885
9573.000000;0.675428
9572.000000;0.675859
9571.000000;0.675907
9570.000000;0.675631
9569.000000;0.675278
9568.000000;0.675050
9567.000000;0.674995
9566.000000;0.675035
9565.000000;0.675057
9564.000000;0.675026
9563.000000;0.675021
9562.000000;0.675141
9561.000000;0.675332
9560.000000;0.675365
9559.000000;0.675033
9558.000000;0.674361
9557.000000;0.673597
9556.000000;0.673010
9555.000000;0.672731
9554.000000;0.672752
9553.000000;0.672994
9552.000000;0.673333
9551.000000;0.673618
9550.000000;0.673722
9549.000000;0.673631
9548.000000;0.673449
9547.000000;0.673305
9546.000000;0.673256
9545.000000;0.673277
9544.000000;0.673332
9543.000000;0.673423
9542.000000;0.673555
9541.000000;0.673661
9540.000000;0.673618
9539.000000;0.673362
9538.000000;0.673002
9537.000000;0.672763
9536.000000;0.672762
9535.000000;0.672862
9534.000000;0.672793
9533.000000;0.672444
9532.000000;0.671975
9531.000000;0.671608
9530.000000;0.671398
9529.000000;0.671248
9528.000000;0.671096
9527.000000;0.670981
9526.000000;0.670932
9525.000000;0.670905
9524.000000;0.670859
9523.000000;0.670835
9522.000000;0.670892
9521.000000;0.671031
9520.000000;0.671205
9519.000000;0.671354
9518.000000;0.671399
9517.000000;0.671266
9516.000000;0.671004
9515.000000;0.670810
9514.000000;0.670831
9513.000000;0.670952
9512.000000;0.670890
9511.000000;0.670536
9510.000000;0.670080
9509.000000;0.669774
9508.000000;0.669659
9507.000000;0.669622
9506.000000;0.669621
9505.000000;0.669694
9504.000000;0.669758
9503.000000;0.669591
9502.000000;0.669149
9501.000000;0.668763
9500.000000;0.668831
9499.000000;0.669299
9498.000000;0.669619
9497.000000;0.669332
9496.000000;0.668603
9495.000000;0.668034
9494.000000;0.668003
9493.000000;0.668314
9492.000000;0.668523
9491.000000;0.668446
9490.000000;0.668268
9489.000000;0.668236
9488.000000;0.668397
9487.000000;0.668635
9486.000000;0.668859
9485.000000;0.669065
9484.000000;0.669226
9483.000000;0.669206
9482.000000;0.668856
9481.000000;0.668226
9480.000000;0.667607
9479.000000;0.667297
9478.000000;0.667323
9477.000000;0.667465
9476.000000;0.667540
9475.000000;0.667535
9474.000000;0.667454
9473.000000;0.667197
9472.000000;0.666700
9471.000000;0.666130
9470.000000;0.665763
9469.000000;0.665706
9468.000000;0.665849
9467.000000;0.666065
9466.000000;0.666322
9465.000000;0.666566
9464.000000;0.666649
9463.000000;0.666485
9462.000000;0.666189
9461.000000;0.665939
9460.000000;0.665744
9459.000000;0.665479
9458.000000;0.665131
9457.000000;0.664890
9456.000000;0.664931
9455.000000;0.665184
9454.000000;0.665382
9453.000000;0.665338
9452.000000;0.665087
9451.000000;0.664786
9450.000000;0.664563
9449.000000;0.664500
9448.000000;0.664660
9447.000000;0.665017
9446.000000;0.665373
9445.000000;0.665446
9444.000000;0.665106
9443.000000;0.664510
9442.000000;0.663981
9441.000000;0.663775
9440.000000;0.663934
9439.000000;0.664304
9438.000000;0.664675
9437.000000;0.664917
9436.000000;0.665012
9435.000000;0.664972
9434.000000;0.664773
9433.000000;0.664448
9432.000000;0.664159
9431.000000;0.664087
9430.000000;0.664212
9429.000000;0.664334
9428.000000;0.664317
9427.000000;0.664214
9426.000000;0.664101
9425.000000;0.663909
9424.000000;0.663535
9423.000000;0.663044
9422.000000;0.662640
9421.000000;0.662465
9420.000000;0.662476
9419.000000;0.662490
9418.000000;0.662325
9417.000000;0.661947
9416.000000;0.661549
9415.000000;0.661378
9414.000000;0.661454
9413.000000;0.661527
9412.000000;0.661411
9411.000000;0.661224
9410.000000;0.661206
9409.000000;0.661403
9408.000000;0.661681
9407.000000;0.661951
9406.000000;0.662206
9405.000000;0.662373
9404.000000;0.662332
9403.000000;0.662096
9402.000000;0.661812
9401.000000;0.661573
9400.000000;0.661363
9399.000000;0.661188
9398.000000;0.661099
9397.000000;0.661058
9396.000000;0.660944
9395.000000;0.660715
9394.000000;0.660432
9393.000000;0.660118
9392.000000;0.659766
9391.000000;0.659518
9390.000000;0.659619
9389.000000;0.660092
9388.000000;0.660603
9387.000000;0.660774
9386.000000;0.660521
9385.000000;0.660005
9384.000000;0.659407
9383.000000;0.658879
9382.000000;0.658595
9381.000000;0.658658
9380.000000;0.658965
9379.000000;0.659268
9378.000000;0.659398
9377.000000;0.659355
9376.000000;0.659248
9375.000000;0.659179
9374.000000;0.659166
9373.000000;0.659116
9372.000000;0.658936
9371.000000;0.658696
9370.000000;0.658612
9369.000000;0.658796
9368.000000;0.659071
9367.000000;0.659128
9366.000000;0.658809
9365.000000;0.658241
9364.000000;0.657714
9363.000000;0.657479
9362.000000;0.657552
9361.000000;0.657687
9360.000000;0.657628
9359.000000;0.657421
9358.000000;0.657372
9357.000000;0.657634
9356.000000;0.657989
9355.000000;0.658120
9354.000000;0.657980
9353.000000;0.657748
9352.000000;0.657529
9351.000000;0.657283
9350.000000;0.656992
9349.000000;0.656710
9348.000000;0.656466
9347.000000;0.656240
9346.000000;0.656048
9345.000000;0.655932
9344.000000;0.655895
9343.000000;0.655917
9342.000000;0.656027
9341.000000;0.656246
9340.000000;0.656486
9339.000000;0.656621
9338.000000;0.656642
9337.000000;0.656621
9336.000000;0.656544
9335.000000;0.656336
9334.000000;0.656052
9333.000000;0.655888
9332.000000;0.655944
9331.000000;0.656078
9330.000000;0.656090
9329.000000;0.655919
9328.000000;0.655631
9327.000000;0.655297
9326.000000;0.654990
9325.000000;0.654818
9324.000000;0.654840
9323.000000;0.654982
9322.000000;0.655128
9321.000000;0.655264
9320.000000;0.655452
9319.000000;0.655667
9318.000000;0.655764
9317.000000;0.655636
9316.000000;0.655338
9315.000000;0.655004
9314.000000;0.654688
9313.000000;0.654360
9312.000000;0.654033
9311.000000;0.653817
9310.000000;0.653805
9309.000000;0.653952
9308.000000;0.654118
9307.000000;0.654199
9306.000000;0.654194
9305.000000;0.654139
9304.000000;0.654039
9303.000000;0.653859
9302.000000;0.653560
9301.000000;0.653167
9300.000000;0.652809
9299.000000;0.652656
9298.000000;0.652753
9297.000000;0.652933
9296.000000;0.652964
9295.000000;0.652774
9294.000000;0.652484
9293.000000;0.652259
9292.000000;0.652189
9291.000000;0.652282
9290.000000;0.652454
9289.000000;0.652519
9288.000000;0.652338
9287.000000;0.652009
9286.000000;0.651817
9285.000000;0.651914
9284.000000;0.652156
9283.000000;0.652301
9282.000000;0.652265
9281.000000;0.652092
9280.000000;0.651805
9279.000000;0.651418
9278.000000;0.651030
9277.000000;0.650795
9276.000000;0.650796
9275.000000;0.651012
9274.000000;0.651347
9273.000000;0.651638
9272.000000;0.651698
9271.000000;0.651478
9270.000000;0.651150
9269.000000;0.650939
9268.000000;0.650893
9267.000000;0.650898
9266.000000;0.650879
9265.000000;0.650849
9264.000000;0.650785
9263.000000;0.650575
9262.000000;0.650165
9261.000000;0.649678
9260.000000;0.649341
9259.000000;0.649300
9258.000000;0.649509
9257.000000;0.649777
9256.000000;0.649919
9255.000000;0.649898
9254.000000;0.649810
9253.000000;0.649743
9252.000000;0.649686
9251.000000;0.649590
9250.000000;0.649455
9249.000000;0.649324
9248.000000;0.649210
9247.000000;0.649085
9246.000000;0.648904
9245.000000;0.648621
9244.000000;0.648261
9243.000000;0.647988
9242.000000;0.648015
9241.000000;0.648363
9240.000000;0.648790
9239.000000;0.649046
9238.000000;0.649102
9237.000000;0.649061
9236.000000;0.648927
9235.000000;0.648643
9234.000000;0.648283
9233.000000;0.648024
9232.000000;0.647885
9231.000000;0.647684
9230.000000;0.647310
9229.000000;0.646919
9228.000000;0.646770
9227.000000;0.646938
9226.000000;0.647258
9225.000000;0.647492
9224.000000;0.647512
9223.000000;0.647336
9222.000000;0.647061
9221.000000;0.646777
9220.000000;0.646518
9219.000000;0.646296
9218.000000;0.646143
9217.000000;0.646104
9216.000000;0.646192
9215.000000;0.646370
9214.000000;0.646554
9213.000000;0.646626
9212.000000;0.646496
9211.000000;0.646192
9210.000000;0.645867
9209.000000;0.645645
9208.000000;0.645482
9207.000000;0.645241
9206.000000;0.644886
9205.000000;0.644564
9204.000000;0.644451
9203.000000;0.644574
9202.000000;0.644794
9201.000000;0.644948
9200.000000;0.645002
9199.000000;0.645048
9198.000000;0.645147
9197.000000;0.645211
9196.000000;0.645114
9195.000000;0.644882
9194.000000;0.644683
9193.000000;0.644612
9192.000000;0.644600
9191.000000;0.644593
9190.000000;0.644661
9189.000000;0.644800
9188.000000;0.644758
9187.000000;0.644291
9186.000000;0.643535
9185.000000;0.642959
9184.000000;0.642873
9183.000000;0.643135
9182.000000;0.643379
9181.000000;0.643408
9180.000000;0.643289
9179.000000;0.643172
9178.000000;0.643127
9177.000000;0.643129
9176.000000;0.643140
9175.000000;0.643164
9174.000000;0.643263
9173.000000;0.643475
9172.000000;0.643713
9171.000000;0.643763
9170.000000;0.643442
9169.000000;0.642792
9168.000000;0.642095
9167.000000;0.641677
9166.000000;0.641650
9165.000000;0.641837
9164.000000;0.641989
9163.000000;0.642052
9162.000000;0.642157
9161.000000;0.642358
9160.000000;0.642494
9159.000000;0.642383
9158.000000;0.642058
9157.000000;0.641717
9156.000000;0.641508
9155.000000;0.641429
9154.000000;0.641425
9153.000000;0.641449
9152.000000;0.641484
9151.000000;0.641559
9150.000000;0.641730
9149.000000;0.641932
9148.000000;0.641920
9147.000000;0.641487
9146.000000;0.640770
9145.000000;0.640194
9144.000000;0.640062
9143.000000;0.640270
9142.000000;0.640457
9141.000000;0.640384
9140.000000;0.640109
9139.000000;0.639856
9138.000000;0.639784
9137.000000;0.639879
9136.000000;0.640031
9135.000000;0.640171
9134.000000;0.640278
9133.000000;0.640305
9132.000000;0.640190
9131.000000;0.639985
9130.000000;0.639854
9129.000000;0.639862
9128.000000;0.639843
9127.000000;0.639602
9126.000000;0.639175
9125.000000;0.638793
9124.000000;0.638619
9123.000000;0.638638
9122.000000;0.638782
9121.000000;0.638987
9120.000000;0.639140
9119.000000;0.639114
9118.000000;0.638909
9117.000000;0.638659
9116.000000;0.638476
9115.000000;0.638361
9114.000000;0.638290
9113.000000;0.638262
9112.000000;0.638234
9111.000000;0.638122
9110.000000;0.637916
9109.000000;0.637724
9108.000000;0.637648
9107.000000;0.637681
9106.000000;0.637746
9105.000000;0.637753
9104.000000;0.637607
9103.000000;0.637274
9102.000000;0.636891
9101.000000;0.636700
9100.000000;0.636783
9099.000000;0.636968
9098.000000;0.637051
9097.000000;0.637020
9096.000000;0.636946
9095.000000;0.636774
9094.000000;0.636373
9093.000000;0.635795
9092.000000;0.635332
9091.000000;0.635254
9090.000000;0.635565
9089.000000;0.636029
9088.000000;0.636390
9087.000000;0.636527
9086.000000;0.636467
9085.000000;0.636314
9084.000000;0.636182
9083.000000;0.636128
9082.000000;0.636108
9081.000000;0.636004
9080.000000;0.635715
9079.000000;0.635265
9078.000000;0.634796
9077.000000;0.634448
9076.000000;0.634253
9075.000000;0.634160
9074.000000;0.634112
9073.000000;0.634076
9072.000000;0.634035
9071.000000;0.634016
9070.000000;0.634082
9069.000000;0.634248
9068.000000;0.634425
9067.000000;0.634519
9066.000000;0.634571
9065.000000;0.634679
9064.000000;0.634820
9063.000000;0.634838
9062.000000;0.634656
9061.000000;0.634400
9060.000000;0.634245
9059.000000;0.634212
9058.000000;0.634182
9057.000000;0.634066
9056.000000;0.633890
9055.000000;0.633730
9054.000000;0.633625
9053.000000;0.633558
