Criado como novo conjunto de dados;"2706_e01_daniel.spp","37263.9 Secs"
cm-1;Abs
10000.000000;0.698388
9999.000000;0.698208
9998.000000;0.698031
9997.000000;0.697848
9996.000000;0.697675
9995.000000;0.697482
9994.000000;0.697349
9993.000000;0.697393
9992.000000;0.697408
9991.000000;0.697290
9990.000000;0.697068
9989.000000;0.696935
9988.000000;0.696940
9987.000000;0.696881
9986.000000;0.696611
9985.000000;0.696324
9984.000000;0.696292
9983.000000;0.696461
9982.000000;0.696540
9981.000000;0.696410
9980.000000;0.696184
9979.000000;0.695925
9978.000000;0.695587
9977.000000;0.695208
9976.000000;0.694908
9975.000000;0.694678
9974.000000;0.694420
9973.000000;0.694192
9972.000000;0.694193
9971.000000;0.694457
9970.000000;0.694783
9969.000000;0.695009
9968.000000;0.695140
9967.000000;0.695184
9966.000000;0.695072
9965.000000;0.694801
9964.000000;0.694470
9963.000000;0.694153
9962.000000;0.693944
9961.000000;0.694097
9960.000000;0.694835
9959.000000;0.695933
9958.000000;0.696778
9957.000000;0.696998
9956.000000;0.696791
9955.000000;0.696492
9954.000000;0.696102
9953.000000;0.695495
9952.000000;0.694842
9951.000000;0.694511
9950.000000;0.694596
9949.000000;0.694830
9948.000000;0.694927
9947.000000;0.694816
9946.000000;0.694541
9945.000000;0.694154
9944.000000;0.693716
9943.000000;0.693287
9942.000000;0.692878
9941.000000;0.692536
9940.000000;0.692455
9939.000000;0.692837
9938.000000;0.693592
9937.000000;0.694281
9936.000000;0.694470
9935.000000;0.694109
9934.000000;0.693529
9933.000000;0.693093
9932.000000;0.692912
9931.000000;0.692877
9930.000000;0.692870
9929.000000;0.692864
9928.000000;0.692837
9927.000000;0.692696
9926.000000;0.692363
9925.000000;0.691894
9924.000000;0.691467
9923.000000;0.691261
9922.000000;0.691359
9921.000000;0.691712
9920.000000;0.692129
9919.000000;0.692367
9918.000000;0.692317
9917.000000;0.692085
9916.000000;0.691848
9915.000000;0.691692
9914.000000;0.691646
9913.000000;0.691742
9912.000000;0.691916
9911.000000;0.691943
9910.000000;0.691666
9909.000000;0.691227
9908.000000;0.690877
9907.000000;0.690610
9906.000000;0.690223
9905.000000;0.689729
9904.000000;0.689420
9903.000000;0.689447
9902.000000;0.689573
9901.000000;0.689507
9900.000000;0.689263
9899.000000;0.689028
9898.000000;0.688840
9897.000000;0.688616
9896.000000;0.688412
9895.000000;0.688420
9894.000000;0.688697
9893.000000;0.689043
9892.000000;0.689188
9891.000000;0.689039
9890.000000;0.688731
9889.000000;0.688503
9888.000000;0.688508
9887.000000;0.688719
9886.000000;0.689000
9885.000000;0.689200
9884.000000;0.689156
9883.000000;0.688719
9882.000000;0.687928
9881.000000;0.687120
9880.000000;0.686701
9879.000000;0.686772
9878.000000;0.687097
9877.000000;0.687449
9876.000000;0.687777
9875.000000;0.688001
9874.000000;0.687886
9873.000000;0.687317
9872.000000;0.686549
9871.000000;0.686005
9870.000000;0.685865
9869.000000;0.685976
9868.000000;0.686077
9867.000000;0.685999
9866.000000;0.685728
9865.000000;0.685431
9864.000000;0.685371
9863.000000;0.685662
9862.000000;0.686109
9861.000000;0.686404
9860.000000;0.686463
9859.000000;0.686461
9858.000000;0.686524
9857.000000;0.686523
9856.000000;0.686233
9855.000000;0.685642
9854.000000;0.685024
9853.000000;0.684706
9852.000000;0.684812
9851.000000;0.685208
9850.000000;0.685654
9849.000000;0.685940
9848.000000;0.685916
9847.000000;0.685537
9846.000000;0.684973
9845.000000;0.684606
9844.000000;0.684738
9843.000000;0.685282
9842.000000;0.685808
9841.000000;0.685924
9840.000000;0.685554
9839.000000;0.684886
9838.000000;0.684174
9837.000000;0.683622
9836.000000;0.683341
9835.000000;0.683349
9834.000000;0.683626
9833.000000;0.684128
9832.000000;0.684685
9831.000000;0.684976
9830.000000;0.684779
9829.000000;0.684234
9828.000000;0.683708
9827.000000;0.683409
9826.000000;0.683292
9825.000000;0.683298
9824.000000;0.683452
9823.000000;0.683664
9822.000000;0.683682
9821.000000;0.683382
9820.000000;0.682944
9819.000000;0.682619
9818.000000;0.682437
9817.000000;0.682267
9816.000000;0.682032
9815.000000;0.681741
9814.000000;0.681423
9813.000000;0.681157
9812.000000;0.681087
9811.000000;0.681274
9810.000000;0.681614
9809.000000;0.681996
9808.000000;0.682423
9807.000000;0.682861
9806.000000;0.683068
9805.000000;0.682777
9804.000000;0.682011
9803.000000;0.681129
9802.000000;0.680534
9801.000000;0.680418
9800.000000;0.680703
9799.000000;0.681127
9798.000000;0.681386
9797.000000;0.681311
9796.000000;0.680951
9795.000000;0.680525
9794.000000;0.680320
9793.000000;0.680583
9792.000000;0.681333
9791.000000;0.682226
9790.000000;0.682764
9789.000000;0.682741
9788.000000;0.682371
9787.000000;0.681938
9786.000000;0.681478
9785.000000;0.680944
9784.000000;0.680471
9783.000000;0.680279
9782.000000;0.680382
9781.000000;0.680585
9780.000000;0.680719
9779.000000;0.680709
9778.000000;0.680519
9777.000000;0.680206
9776.000000;0.679993
9775.000000;0.680058
9774.000000;0.680241
9773.000000;0.680157
9772.000000;0.679644
9771.000000;0.678957
9770.000000;0.678488
9769.000000;0.678393
9768.000000;0.678521
9767.000000;0.678600
9766.000000;0.678477
9765.000000;0.678252
9764.000000;0.678191
9763.000000;0.678424
9762.000000;0.678742
9761.000000;0.678814
9760.000000;0.678572
9759.000000;0.678239
9758.000000;0.677961
9757.000000;0.677617
9756.000000;0.677098
9755.000000;0.676628
9754.000000;0.676610
9753.000000;0.677156
9752.000000;0.677892
9751.000000;0.678299
9750.000000;0.678184
9749.000000;0.677774
9748.000000;0.677396
9747.000000;0.677167
9746.000000;0.677003
9745.000000;0.676844
9744.000000;0.676753
9743.000000;0.676818
9742.000000;0.677036
9741.000000;0.677322
9740.000000;0.677559
9739.000000;0.677620
9738.000000;0.677431
9737.000000;0.677068
9736.000000;0.676722
9735.000000;0.676509
9734.000000;0.676371
9733.000000;0.676211
9732.000000;0.676066
9731.000000;0.676068
9730.000000;0.676241
9729.000000;0.676428
9728.000000;0.676423
9727.000000;0.676160
9726.000000;0.675748
9725.000000;0.675368
9724.000000;0.675122
9723.000000;0.675000
9722.000000;0.674966
9721.000000;0.675049
9720.000000;0.675272
9719.000000;0.675539
9718.000000;0.675697
9717.000000;0.675726
9716.000000;0.675762
9715.000000;0.675853
9714.000000;0.675804
9713.000000;0.675389
9712.000000;0.674687
9711.000000;0.674083
9710.000000;0.673898
9709.000000;0.674062
9708.000000;0.674184
9707.000000;0.673947
9706.000000;0.673428
9705.000000;0.673008
9704.000000;0.672982
9703.000000;0.673269
9702.000000;0.673574
9701.000000;0.673732
9700.000000;0.673800
9699.000000;0.673836
9698.000000;0.673780
9697.000000;0.673576
9696.000000;0.673261
9695.000000;0.672871
9694.000000;0.672432
9693.000000;0.672116
9692.000000;0.672212
9691.000000;0.672744
9690.000000;0.673253
9689.000000;0.673200
9688.000000;0.672573
9687.000000;0.671906
9686.000000;0.671686
9685.000000;0.671906
9684.000000;0.672251
9683.000000;0.672504
9682.000000;0.672655
9681.000000;0.672723
9680.000000;0.672678
9679.000000;0.672525
9678.000000;0.672355
9677.000000;0.672220
9676.000000;0.672026
9675.000000;0.671634
9674.000000;0.671094
9673.000000;0.670689
9672.000000;0.670683
9671.000000;0.671052
9670.000000;0.671519
9669.000000;0.671816
9668.000000;0.671872
9667.000000;0.671755
9666.000000;0.671543
9665.000000;0.671299
9664.000000;0.671097
9663.000000;0.671019
9662.000000;0.671119
9661.000000;0.671371
9660.000000;0.671617
9659.000000;0.671656
9658.000000;0.671475
9657.000000;0.671349
9656.000000;0.671551
9655.000000;0.671973
9654.000000;0.672224
9653.000000;0.672129
9652.000000;0.671939
9651.000000;0.671925
9650.000000;0.671943
9649.000000;0.671618
9648.000000;0.670857
9647.000000;0.669993
9646.000000;0.669418
9645.000000;0.669246
9644.000000;0.669323
9643.000000;0.669428
9642.000000;0.669427
9641.000000;0.669319
9640.000000;0.669214
9639.000000;0.669237
9638.000000;0.669405
9637.000000;0.669603
9636.000000;0.669660
9635.000000;0.669477
9634.000000;0.669117
9633.000000;0.668788
9632.000000;0.668650
9631.000000;0.668639
9630.000000;0.668519
9629.000000;0.668161
9628.000000;0.667701
9627.000000;0.667386
9626.000000;0.667349
9625.000000;0.667549
9624.000000;0.667859
9623.000000;0.668151
9622.000000;0.668378
9621.000000;0.668603
9620.000000;0.668879
9619.000000;0.669048
9618.000000;0.668825
9617.000000;0.668169
9616.000000;0.667453
9615.000000;0.667122
9614.000000;0.667261
9613.000000;0.667602
9612.000000;0.667856
9611.000000;0.667878
9610.000000;0.667622
9609.000000;0.667146
9608.000000;0.666662
9607.000000;0.666415
9606.000000;0.666470
9605.000000;0.666718
9604.000000;0.667059
9603.000000;0.667441
9602.000000;0.667734
9601.000000;0.667767
9600.000000;0.667537
9599.000000;0.667228
9598.000000;0.666962
9597.000000;0.666699
9596.000000;0.666422
9595.000000;0.666278
9594.000000;0.666384
9593.000000;0.666593
9592.000000;0.666620
9591.000000;0.666360
9590.000000;0.665960
9589.000000;0.665619
9588.000000;0.665423
9587.000000;0.665385
9586.000000;0.665510
9585.000000;0.665736
9584.000000;0.665901
9583.000000;0.665854
9582.000000;0.665602
9581.000000;0.665321
9580.000000;0.665208
9579.000000;0.665340
9578.000000;0.665629
9577.000000;0.665890
9576.000000;0.665982
9575.000000;0.665931
9574.000000;0.665887
9573.000000;0.665926
9572.000000;0.665942
9571.000000;0.665823
9570.000000;0.665696
9569.000000;0.665823
9568.000000;0.666212
9567.000000;0.666472
9566.000000;0.666229
9565.000000;0.665609
9564.000000;0.665141
9563.000000;0.665164
9562.000000;0.665477
9561.000000;0.665590
9560.000000;0.665231
9559.000000;0.664563
9558.000000;0.663986
9557.000000;0.663794
9556.000000;0.663940
9555.000000;0.664082
9554.000000;0.663897
9553.000000;0.663372
9552.000000;0.662786
9551.000000;0.662432
9550.000000;0.662436
9549.000000;0.662757
9548.000000;0.663251
9547.000000;0.663697
9546.000000;0.663905
9545.000000;0.663853
9544.000000;0.663682
9543.000000;0.663509
9542.000000;0.663331
9541.000000;0.663097
9540.000000;0.662769
9539.000000;0.662319
9538.000000;0.661772
9537.000000;0.661292
9536.000000;0.661097
9535.000000;0.661248
9534.000000;0.661610
9533.000000;0.662025
9532.000000;0.662413
9531.000000;0.662674
9530.000000;0.662676
9529.000000;0.662415
9528.000000;0.662049
9527.000000;0.661688
9526.000000;0.661304
9525.000000;0.660940
9524.000000;0.660837
9523.000000;0.661164
9522.000000;0.661749
9521.000000;0.662227
9520.000000;0.662401
9519.000000;0.662302
9518.000000;0.662000
9517.000000;0.661527
9516.000000;0.660977
9515.000000;0.660498
9514.000000;0.660184
9513.000000;0.660061
9512.000000;0.660138
9511.000000;0.660352
9510.000000;0.660512
9509.000000;0.660443
9508.000000;0.660190
9507.000000;0.659962
9506.000000;0.659862
9505.000000;0.659820
9504.000000;0.659767
9503.000000;0.659753
9502.000000;0.659869
9501.000000;0.660122
9500.000000;0.660417
9499.000000;0.660572
9498.000000;0.660401
9497.000000;0.659905
9496.000000;0.659362
9495.000000;0.659106
9494.000000;0.659173
9493.000000;0.659308
9492.000000;0.659312
9491.000000;0.659257
9490.000000;0.659305
9489.000000;0.659422
9488.000000;0.659415
9487.000000;0.659168
9486.000000;0.658767
9485.000000;0.658421
9484.000000;0.658288
9483.000000;0.658347
9482.000000;0.658385
9481.000000;0.658195
9480.000000;0.657807
9479.000000;0.657499
9478.000000;0.657512
9477.000000;0.657798
9476.000000;0.658099
9475.000000;0.658229
9474.000000;0.658206
9473.000000;0.658147
9472.000000;0.658114
9471.000000;0.658111
9470.000000;0.658151
9469.000000;0.658245
9468.000000;0.658343
9467.000000;0.658354
9466.000000;0.658252
9465.000000;0.658110
9464.000000;0.657991
9463.000000;0.657870
9462.000000;0.657718
9461.000000;0.657594
9460.000000;0.657574
9459.000000;0.657584
9458.000000;0.657435
9457.000000;0.657063
9456.000000;0.656635
9455.000000;0.656366
9454.000000;0.656294
9453.000000;0.656317
9452.000000;0.656350
9451.000000;0.656380
9450.000000;0.656391
9449.000000;0.656365
9448.000000;0.656363
9447.000000;0.656505
9446.000000;0.656830
9445.000000;0.657210
9444.000000;0.657430
9443.000000;0.657362
9442.000000;0.657062
9441.000000;0.656698
9440.000000;0.656404
9439.000000;0.656209
9438.000000;0.656113
9437.000000;0.656142
9436.000000;0.656264
9435.000000;0.656305
9434.000000;0.656069
9433.000000;0.655588
9432.000000;0.655129
9431.000000;0.654904
9430.000000;0.654869
9429.000000;0.654875
9428.000000;0.654903
9427.000000;0.655021
9426.000000;0.655179
9425.000000;0.655172
9424.000000;0.654848
9423.000000;0.654291
9422.000000;0.653796
9421.000000;0.653667
9420.000000;0.653960
9419.000000;0.654400
9418.000000;0.654614
9417.000000;0.654503
9416.000000;0.654307
9415.000000;0.654268
9414.000000;0.654337
9413.000000;0.654315
9412.000000;0.654174
9411.000000;0.654061
9410.000000;0.654048
9409.000000;0.654038
9408.000000;0.653946
9407.000000;0.653813
9406.000000;0.653704
9405.000000;0.653612
9404.000000;0.653515
9403.000000;0.653435
9402.000000;0.653382
9401.000000;0.653312
9400.000000;0.653157
9399.000000;0.652899
9398.000000;0.652588
9397.000000;0.652358
9396.000000;0.652361
9395.000000;0.652636
9394.000000;0.653002
9393.000000;0.653196
9392.000000;0.653111
9391.000000;0.652848
9390.000000;0.652541
9389.000000;0.652244
9388.000000;0.652016
9387.000000;0.651981
9386.000000;0.652177
9385.000000;0.652423
9384.000000;0.652449
9383.000000;0.652170
9382.000000;0.651761
9381.000000;0.651469
9380.000000;0.651392
9379.000000;0.651463
9378.000000;0.651564
9377.000000;0.651623
9376.000000;0.651622
9375.000000;0.651565
9374.000000;0.651439
9373.000000;0.651222
9372.000000;0.650922
9371.000000;0.650616
9370.000000;0.650437
9369.000000;0.650478
9368.000000;0.650708
9367.000000;0.650991
9366.000000;0.651188
9365.000000;0.651241
9364.000000;0.651163
9363.000000;0.650995
9362.000000;0.650769
9361.000000;0.650483
9360.000000;0.650090
9359.000000;0.649566
9358.000000;0.649025
9357.000000;0.648696
9356.000000;0.648701
9355.000000;0.648914
9354.000000;0.649113
9353.000000;0.649249
9352.000000;0.649429
9351.000000;0.649676
9350.000000;0.649835
9349.000000;0.649789
9348.000000;0.649618
9347.000000;0.649478
9346.000000;0.649414
9345.000000;0.649364
9344.000000;0.649287
9343.000000;0.649180
9342.000000;0.649031
9341.000000;0.648837
9340.000000;0.648640
9339.000000;0.648498
9338.000000;0.648434
9337.000000;0.648462
9336.000000;0.648573
9335.000000;0.648668
9334.000000;0.648571
9333.000000;0.648217
9332.000000;0.647786
9331.000000;0.647548
9330.000000;0.647605
9329.000000;0.647841
9328.000000;0.648093
9327.000000;0.648267
9326.000000;0.648324
9325.000000;0.648257
9324.000000;0.648126
9323.000000;0.648032
9322.000000;0.648039
9321.000000;0.648154
9320.000000;0.648352
9319.000000;0.648556
9318.000000;0.648601
9317.000000;0.648323
9316.000000;0.647731
9315.000000;0.647061
9314.000000;0.646618
9313.000000;0.646559
9312.000000;0.646820
9311.000000;0.647221
9310.000000;0.647618
9309.000000;0.647959
9308.000000;0.648216
9307.000000;0.648320
9306.000000;0.648232
9305.000000;0.648043
9304.000000;0.647897
9303.000000;0.647790
9302.000000;0.647556
9301.000000;0.647110
9300.000000;0.646613
9299.000000;0.646302
9298.000000;0.646245
9297.000000;0.646333
9296.000000;0.646451
9295.000000;0.646535
9294.000000;0.646509
9293.000000;0.646320
9292.000000;0.646040
9291.000000;0.645855
9290.000000;0.645902
9289.000000;0.646152
9288.000000;0.646423
9287.000000;0.646471
9286.000000;0.646154
9285.000000;0.645601
9284.000000;0.645167
9283.000000;0.645091
9282.000000;0.645251
9281.000000;0.645347
9280.000000;0.645286
9279.000000;0.645235
9278.000000;0.645310
9277.000000;0.645402
9276.000000;0.645365
9275.000000;0.645226
9274.000000;0.645116
9273.000000;0.645101
9272.000000;0.645163
9271.000000;0.645253
9270.000000;0.645283
9269.000000;0.645150
9268.000000;0.644842
9267.000000;0.644479
9266.000000;0.644192
9265.000000;0.644011
9264.000000;0.643926
9263.000000;0.643976
9262.000000;0.644184
9261.000000;0.644437
9260.000000;0.644541
9259.000000;0.644415
9258.000000;0.644174
9257.000000;0.644010
9256.000000;0.644014
9255.000000;0.644111
9254.000000;0.644144
9253.000000;0.644013
9252.000000;0.643759
9251.000000;0.643495
9250.000000;0.643268
9249.000000;0.643031
9248.000000;0.642740
9247.000000;0.642436
9246.000000;0.642219
9245.000000;0.642155
9244.000000;0.642238
9243.000000;0.642380
9242.000000;0.642461
9241.000000;0.642420
9240.000000;0.642347
9239.000000;0.642386
9238.000000;0.642545
9237.000000;0.642656
9236.000000;0.642584
9235.000000;0.642382
9234.000000;0.642191
9233.000000;0.642055
9232.000000;0.641950
9231.000000;0.641937
9230.000000;0.642125
9229.000000;0.642463
9228.000000;0.642703
9227.000000;0.642635
9226.000000;0.642294
9225.000000;0.641892
9224.000000;0.641601
9223.000000;0.641458
9222.000000;0.641424
9221.000000;0.641452
9220.000000;0.641500
9219.000000;0.641520
9218.000000;0.641467
9217.000000;0.641312
9216.000000;0.641083
9215.000000;0.640885
9214.000000;0.640838
9213.000000;0.640946
9212.000000;0.641066
9211.000000;0.641023
9210.000000;0.640758
9209.000000;0.640358
9208.000000;0.639979
9207.000000;0.639758
9206.000000;0.639737
9205.000000;0.639800
9204.000000;0.639741
9203.000000;0.639457
9202.000000;0.639063
9201.000000;0.638769
9200.000000;0.638665
9199.000000;0.638698
9198.000000;0.638818
9197.000000;0.639025
9196.000000;0.639264
9195.000000;0.639386
9194.000000;0.639297
9193.000000;0.639075
9192.000000;0.638888
9191.000000;0.638842
9190.000000;0.638930
9189.000000;0.639073
9188.000000;0.639146
9187.000000;0.639072
9186.000000;0.638933
9185.000000;0.638926
9184.000000;0.639117
9183.000000;0.639301
9182.000000;0.639218
9181.000000;0.638880
9180.000000;0.638534
9179.000000;0.638349
9178.000000;0.638258
9177.000000;0.638145
9176.000000;0.638047
9175.000000;0.638070
9174.000000;0.638211
9173.000000;0.638333
9172.000000;0.638284
9171.000000;0.638000
9170.000000;0.637544
9169.000000;0.637128
9168.000000;0.637021
9167.000000;0.637340
9166.000000;0.637900
9165.000000;0.638329
9164.000000;0.638386
9163.000000;0.638141
9162.000000;0.637854
9161.000000;0.637688
9160.000000;0.637582
9159.000000;0.637379
9158.000000;0.637051
9157.000000;0.636752
9156.000000;0.636675
9155.000000;0.636859
9154.000000;0.637171
9153.000000;0.637402
9152.000000;0.637397
9151.000000;0.637130
9150.000000;0.636723
9149.000000;0.636373
9148.000000;0.636187
9147.000000;0.636090
9146.000000;0.635943
9145.000000;0.635730
9144.000000;0.635586
9143.000000;0.635606
9142.000000;0.635720
9141.000000;0.635780
9140.000000;0.635729
9139.000000;0.635631
9138.000000;0.635578
9137.000000;0.635625
9136.000000;0.635778
9135.000000;0.635984
9134.000000;0.636117
9133.000000;0.636036
9132.000000;0.635692
9131.000000;0.635195
9130.000000;0.634730
9129.000000;0.634413
9128.000000;0.634225
9127.000000;0.634102
9126.000000;0.634057
9125.000000;0.634178
9124.000000;0.634494
9123.000000;0.634892
9122.000000;0.635186
9121.000000;0.635254
9120.000000;0.635116
9119.000000;0.634909
9118.000000;0.634782
9117.000000;0.634782
9116.000000;0.634811
9115.000000;0.634742
9114.000000;0.634582
9113.000000;0.634437
9112.000000;0.634324
9111.000000;0.634131
9110.000000;0.633829
9109.000000;0.633610
9108.000000;0.633688
9107.000000;0.634019
9106.000000;0.634343
9105.000000;0.634455
9104.000000;0.634311
9103.000000;0.633924
9102.000000;0.633349
9101.000000;0.632767
9100.000000;0.632417
9099.000000;0.632360
9098.000000;0.632434
9097.000000;0.632457
9096.000000;0.632390
9095.000000;0.632267
9094.000000;0.632125
9093.000000;0.632074
9092.000000;0.632278
9091.000000;0.632726
9090.000000;0.633115
9089.000000;0.633105
9088.000000;0.632700
9087.000000;0.632244
9086.000000;0.632079
9085.000000;0.632251
9084.000000;0.632547
9083.000000;0.632732
9082.000000;0.632736
9081.000000;0.632666
9080.000000;0.632642
9079.000000;0.632633
9078.000000;0.632503
9077.000000;0.632218
9076.000000;0.631924
9075.000000;0.631761
9074.000000;0.631672
9073.000000;0.631517
9072.000000;0.631305
9071.000000;0.631202
9070.000000;0.631286
9069.000000;0.631424
9068.000000;0.631430
9067.000000;0.631284
9066.000000;0.631126
9065.000000;0.631073
9064.000000;0.631100
9063.000000;0.631083
9062.000000;0.630931
9061.000000;0.630676
9060.000000;0.630469
9059.000000;0.630459
9058.000000;0.630655
9057.000000;0.630885
9056.000000;0.630943
9055.000000;0.630794
9054.000000;0.630596
9053.000000;0.630502
