Criado como novo conjunto de dados;"2706_e01_daniel.spp","86586.5 Secs"
cm-1;Abs
10000.000000;0.645717
9999.000000;0.645675
9998.000000;0.645638
9997.000000;0.645313
9996.000000;0.644582
9995.000000;0.643633
9994.000000;0.642743
9993.000000;0.642152
9992.000000;0.641989
9991.000000;0.642234
9990.000000;0.642736
9989.000000;0.643368
9988.000000;0.644064
9987.000000;0.644670
9986.000000;0.644956
9985.000000;0.644906
9984.000000;0.644865
9983.000000;0.645197
9982.000000;0.645841
9981.000000;0.646329
9980.000000;0.646220
9979.000000;0.645431
9978.000000;0.644171
9977.000000;0.642720
9976.000000;0.641313
9975.000000;0.640234
9974.000000;0.639922
9973.000000;0.640790
9972.000000;0.642778
9971.000000;0.645142
9970.000000;0.646942
9969.000000;0.647806
9968.000000;0.648040
9967.000000;0.647984
9966.000000;0.647554
9965.000000;0.646546
9964.000000;0.645116
9963.000000;0.643692
9962.000000;0.642513
9961.000000;0.641476
9960.000000;0.640412
9959.000000;0.639403
9958.000000;0.638807
9957.000000;0.638950
9956.000000;0.639705
9955.000000;0.640436
9954.000000;0.640579
9953.000000;0.640278
9952.000000;0.640178
9951.000000;0.640560
9950.000000;0.641014
9949.000000;0.641098
9948.000000;0.640952
9947.000000;0.640966
9946.000000;0.641107
9945.000000;0.640960
9944.000000;0.640378
9943.000000;0.639790
9942.000000;0.639774
9941.000000;0.640436
9940.000000;0.641213
9939.000000;0.641297
9938.000000;0.640418
9937.000000;0.639231
9936.000000;0.638710
9935.000000;0.639092
9934.000000;0.639657
9933.000000;0.639674
9932.000000;0.639274
9931.000000;0.639120
9930.000000;0.639469
9929.000000;0.639958
9928.000000;0.640240
9927.000000;0.640438
9926.000000;0.640918
9925.000000;0.641823
9924.000000;0.642918
9923.000000;0.643771
9922.000000;0.644049
9921.000000;0.643741
9920.000000;0.643071
9919.000000;0.642191
9918.000000;0.641083
9917.000000;0.639814
9916.000000;0.638705
9915.000000;0.638046
9914.000000;0.637800
9913.000000;0.637796
9912.000000;0.638097
9911.000000;0.638913
9910.000000;0.640145
9909.000000;0.641254
9908.000000;0.641682
9907.000000;0.641298
9906.000000;0.640433
9905.000000;0.639573
9904.000000;0.639023
9903.000000;0.638774
9902.000000;0.638626
9901.000000;0.638433
9900.000000;0.638165
9899.000000;0.637802
9898.000000;0.637321
9897.000000;0.636823
9896.000000;0.636486
9895.000000;0.636310
9894.000000;0.636058
9893.000000;0.635602
9892.000000;0.635212
9891.000000;0.635348
9890.000000;0.636191
9889.000000;0.637417
9888.000000;0.638379
9887.000000;0.638492
9886.000000;0.637634
9885.000000;0.636278
9884.000000;0.635134
9883.000000;0.634577
9882.000000;0.634467
9881.000000;0.634529
9880.000000;0.634704
9879.000000;0.635081
9878.000000;0.635677
9877.000000;0.636408
9876.000000;0.637111
9875.000000;0.637476
9874.000000;0.637167
9873.000000;0.636177
9872.000000;0.634905
9871.000000;0.633783
9870.000000;0.632946
9869.000000;0.632382
9868.000000;0.632129
9867.000000;0.632185
9866.000000;0.632404
9865.000000;0.632709
9864.000000;0.633252
9863.000000;0.634116
9862.000000;0.634991
9861.000000;0.635386
9860.000000;0.635113
9859.000000;0.634399
9858.000000;0.633612
9857.000000;0.633024
9856.000000;0.632763
9855.000000;0.632789
9854.000000;0.632947
9853.000000;0.633116
9852.000000;0.633266
9851.000000;0.633332
9850.000000;0.633230
9849.000000;0.633064
9848.000000;0.633112
9847.000000;0.633443
9846.000000;0.633714
9845.000000;0.633533
9844.000000;0.632891
9843.000000;0.632119
9842.000000;0.631548
9841.000000;0.631347
9840.000000;0.631449
9839.000000;0.631510
9838.000000;0.631152
9837.000000;0.630461
9836.000000;0.630035
9835.000000;0.630343
9834.000000;0.631202
9833.000000;0.632075
9832.000000;0.632659
9831.000000;0.632933
9830.000000;0.632861
9829.000000;0.632420
9828.000000;0.631819
9827.000000;0.631350
9826.000000;0.631077
9825.000000;0.630865
9824.000000;0.630650
9823.000000;0.630440
9822.000000;0.630229
9821.000000;0.630135
9820.000000;0.630437
9819.000000;0.631155
9818.000000;0.631756
9817.000000;0.631671
9816.000000;0.631025
9815.000000;0.630457
9814.000000;0.630242
9813.000000;0.630016
9812.000000;0.629452
9811.000000;0.628806
9810.000000;0.628601
9809.000000;0.628996
9808.000000;0.629634
9807.000000;0.630001
9806.000000;0.629877
9805.000000;0.629514
9804.000000;0.629401
9803.000000;0.629725
9802.000000;0.630128
9801.000000;0.630147
9800.000000;0.629826
9799.000000;0.629627
9798.000000;0.629754
9797.000000;0.629833
9796.000000;0.629359
9795.000000;0.628290
9794.000000;0.627103
9793.000000;0.626364
9792.000000;0.626290
9791.000000;0.626647
9790.000000;0.627049
9789.000000;0.627384
9788.000000;0.627849
9787.000000;0.628489
9786.000000;0.628907
9785.000000;0.628692
9784.000000;0.628030
9783.000000;0.627585
9782.000000;0.627715
9781.000000;0.628045
9780.000000;0.627884
9779.000000;0.626969
9778.000000;0.625756
9777.000000;0.625056
9776.000000;0.625361
9775.000000;0.626392
9774.000000;0.627373
9773.000000;0.627860
9772.000000;0.628151
9771.000000;0.628690
9770.000000;0.629260
9769.000000;0.629148
9768.000000;0.628105
9767.000000;0.626750
9766.000000;0.625859
9765.000000;0.625552
9764.000000;0.625347
9763.000000;0.624820
9762.000000;0.624072
9761.000000;0.623586
9760.000000;0.623743
9759.000000;0.624435
9758.000000;0.625127
9757.000000;0.625360
9756.000000;0.625193
9755.000000;0.625033
9754.000000;0.625066
9753.000000;0.625010
9752.000000;0.624461
9751.000000;0.623345
9750.000000;0.622023
9749.000000;0.621036
9748.000000;0.620748
9747.000000;0.621112
9746.000000;0.621793
9745.000000;0.622623
9744.000000;0.623836
9743.000000;0.625653
9742.000000;0.627644
9741.000000;0.628820
9740.000000;0.628520
9739.000000;0.627029
9738.000000;0.625168
9737.000000;0.623489
9736.000000;0.622078
9735.000000;0.621015
9734.000000;0.620661
9733.000000;0.621311
9732.000000;0.622706
9731.000000;0.624104
9730.000000;0.624926
9729.000000;0.625196
9728.000000;0.625272
9727.000000;0.625252
9726.000000;0.624880
9725.000000;0.624013
9724.000000;0.622910
9723.000000;0.621949
9722.000000;0.621297
9721.000000;0.621003
9720.000000;0.621188
9719.000000;0.621819
9718.000000;0.622455
9717.000000;0.622537
9716.000000;0.622006
9715.000000;0.621387
9714.000000;0.621215
9713.000000;0.621566
9712.000000;0.622165
9711.000000;0.622765
9710.000000;0.623259
9709.000000;0.623538
9708.000000;0.623412
9707.000000;0.622761
9706.000000;0.621792
9705.000000;0.621045
9704.000000;0.620971
9703.000000;0.621459
9702.000000;0.621924
9701.000000;0.621988
9700.000000;0.621889
9699.000000;0.622019
9698.000000;0.622243
9697.000000;0.622031
9696.000000;0.621225
9695.000000;0.620348
9694.000000;0.620012
9693.000000;0.620262
9692.000000;0.620628
9691.000000;0.620709
9690.000000;0.620560
9689.000000;0.620534
9688.000000;0.620869
9687.000000;0.621425
9686.000000;0.621817
9685.000000;0.621771
9684.000000;0.621316
9683.000000;0.620649
9682.000000;0.619933
9681.000000;0.619307
9680.000000;0.618917
9679.000000;0.618799
9678.000000;0.618788
9677.000000;0.618701
9676.000000;0.618551
9675.000000;0.618440
9674.000000;0.618332
9673.000000;0.618115
9672.000000;0.617851
9671.000000;0.617742
9670.000000;0.617856
9669.000000;0.618065
9668.000000;0.618246
9667.000000;0.618358
9666.000000;0.618326
9665.000000;0.618076
9664.000000;0.617762
9663.000000;0.617746
9662.000000;0.618210
9661.000000;0.618891
9660.000000;0.619299
9659.000000;0.619147
9658.000000;0.618552
9657.000000;0.617919
9656.000000;0.617678
9655.000000;0.617999
9654.000000;0.618613
9653.000000;0.618978
9652.000000;0.618729
9651.000000;0.617976
9650.000000;0.617103
9649.000000;0.616325
9648.000000;0.615537
9647.000000;0.614609
9646.000000;0.613755
9645.000000;0.613495
9644.000000;0.614150
9643.000000;0.615397
9642.000000;0.616449
9641.000000;0.616749
9640.000000;0.616440
9639.000000;0.616086
9638.000000;0.616064
9637.000000;0.616310
9636.000000;0.616568
9635.000000;0.616700
9634.000000;0.616719
9633.000000;0.616644
9632.000000;0.616404
9631.000000;0.615929
9630.000000;0.615316
9629.000000;0.614851
9628.000000;0.614762
9627.000000;0.614979
9626.000000;0.615255
9625.000000;0.615510
9624.000000;0.615850
9623.000000;0.616206
9622.000000;0.616206
9621.000000;0.615620
9620.000000;0.614748
9619.000000;0.614108
9618.000000;0.613828
9617.000000;0.613599
9616.000000;0.613208
9615.000000;0.612826
9614.000000;0.612720
9613.000000;0.612904
9612.000000;0.613144
9611.000000;0.613179
9610.000000;0.612859
9609.000000;0.612220
9608.000000;0.611515
9607.000000;0.611097
9606.000000;0.611157
9605.000000;0.611579
9604.000000;0.612056
9603.000000;0.612308
9602.000000;0.612237
9601.000000;0.611961
9600.000000;0.611715
9599.000000;0.611637
9598.000000;0.611703
9597.000000;0.611890
9596.000000;0.612303
9595.000000;0.612975
9594.000000;0.613620
9593.000000;0.613800
9592.000000;0.613394
9591.000000;0.612721
9590.000000;0.612143
9589.000000;0.611708
9588.000000;0.611274
9587.000000;0.610846
9586.000000;0.610638
9585.000000;0.610793
9584.000000;0.611152
9583.000000;0.611353
9582.000000;0.611165
9581.000000;0.610718
9580.000000;0.610384
9579.000000;0.610417
9578.000000;0.610742
9577.000000;0.611149
9576.000000;0.611591
9575.000000;0.612163
9574.000000;0.612802
9573.000000;0.613177
9572.000000;0.612993
9571.000000;0.612331
9570.000000;0.611583
9569.000000;0.611051
9568.000000;0.610661
9567.000000;0.610110
9566.000000;0.609293
9565.000000;0.608533
9564.000000;0.608304
9563.000000;0.608718
9562.000000;0.609335
9561.000000;0.609545
9560.000000;0.609112
9559.000000;0.608357
9558.000000;0.607858
9557.000000;0.607991
9556.000000;0.608644
9555.000000;0.609287
9554.000000;0.609404
9553.000000;0.608955
9552.000000;0.608353
9551.000000;0.607966
9550.000000;0.607775
9549.000000;0.607622
9548.000000;0.607623
9547.000000;0.608100
9546.000000;0.609124
9545.000000;0.610300
9544.000000;0.611037
9543.000000;0.610970
9542.000000;0.610153
9541.000000;0.608998
9540.000000;0.608038
9539.000000;0.607580
9538.000000;0.607509
9537.000000;0.607501
9536.000000;0.607447
9535.000000;0.607597
9534.000000;0.608204
9533.000000;0.609121
9532.000000;0.609849
9531.000000;0.610012
9530.000000;0.609744
9529.000000;0.609524
9528.000000;0.609600
9527.000000;0.609696
9526.000000;0.609382
9525.000000;0.608680
9524.000000;0.608094
9523.000000;0.607972
9522.000000;0.608059
9521.000000;0.607840
9520.000000;0.607167
9519.000000;0.606368
9518.000000;0.605798
9517.000000;0.605534
9516.000000;0.605487
9515.000000;0.605592
9514.000000;0.605784
9513.000000;0.605921
9512.000000;0.605858
9511.000000;0.605590
9510.000000;0.605287
9509.000000;0.605171
9508.000000;0.605318
9507.000000;0.605571
9506.000000;0.605693
9505.000000;0.605653
9504.000000;0.605661
9503.000000;0.605841
9502.000000;0.605987
9501.000000;0.605812
9500.000000;0.605357
9499.000000;0.604991
9498.000000;0.604963
9497.000000;0.605130
9496.000000;0.605164
9495.000000;0.604911
9494.000000;0.604503
9493.000000;0.604195
9492.000000;0.604130
9491.000000;0.604226
9490.000000;0.604272
9489.000000;0.604195
9488.000000;0.604214
9487.000000;0.604593
9486.000000;0.605249
9485.000000;0.605702
9484.000000;0.605525
9483.000000;0.604785
9482.000000;0.603947
9481.000000;0.603349
9480.000000;0.602876
9479.000000;0.602199
9478.000000;0.601307
9477.000000;0.600667
9476.000000;0.600780
9475.000000;0.601661
9474.000000;0.602844
9473.000000;0.603834
9472.000000;0.604397
9471.000000;0.604461
9470.000000;0.604016
9469.000000;0.603263
9468.000000;0.602623
9467.000000;0.602370
9466.000000;0.602341
9465.000000;0.602195
9464.000000;0.601860
9463.000000;0.601549
9462.000000;0.601396
9461.000000;0.601298
9460.000000;0.601115
9459.000000;0.600833
9458.000000;0.600526
9457.000000;0.600300
9456.000000;0.600305
9455.000000;0.600655
9454.000000;0.601294
9453.000000;0.602043
9452.000000;0.602776
9451.000000;0.603413
9450.000000;0.603764
9449.000000;0.603556
9448.000000;0.602719
9447.000000;0.601534
9446.000000;0.600432
9445.000000;0.599662
9444.000000;0.599161
9443.000000;0.598669
9442.000000;0.597982
9441.000000;0.597209
9440.000000;0.596744
9439.000000;0.596887
9438.000000;0.597473
9437.000000;0.597987
9436.000000;0.598049
9435.000000;0.597687
9434.000000;0.597167
9433.000000;0.596742
9432.000000;0.596618
9431.000000;0.596958
9430.000000;0.597771
9429.000000;0.598874
9428.000000;0.600022
9427.000000;0.600986
9426.000000;0.601499
9425.000000;0.601302
9424.000000;0.600404
9423.000000;0.599207
9422.000000;0.598208
9421.000000;0.597615
9420.000000;0.597333
9419.000000;0.597261
9418.000000;0.597472
9417.000000;0.598078
9416.000000;0.599009
9415.000000;0.599966
9414.000000;0.600594
9413.000000;0.600718
9412.000000;0.600447
9411.000000;0.600002
9410.000000;0.599444
9409.000000;0.598655
9408.000000;0.597624
9407.000000;0.596667
9406.000000;0.596183
9405.000000;0.596239
9404.000000;0.596528
9403.000000;0.596763
9402.000000;0.596963
9401.000000;0.597295
9400.000000;0.597733
9399.000000;0.598057
9398.000000;0.598117
9397.000000;0.597973
9396.000000;0.597725
9395.000000;0.597349
9394.000000;0.596787
9393.000000;0.596151
9392.000000;0.595750
9391.000000;0.595882
9390.000000;0.596605
9389.000000;0.597642
9388.000000;0.598486
9387.000000;0.598692
9386.000000;0.598222
9385.000000;0.597500
9384.000000;0.597020
9383.000000;0.596866
9382.000000;0.596690
9381.000000;0.596185
9380.000000;0.595490
9379.000000;0.595020
9378.000000;0.594988
9377.000000;0.595220
9376.000000;0.595426
9375.000000;0.595536
9374.000000;0.595676
9373.000000;0.595904
9372.000000;0.596131
9371.000000;0.596314
9370.000000;0.596619
9369.000000;0.597237
9368.000000;0.598055
9367.000000;0.598629
9366.000000;0.598541
9365.000000;0.597737
9364.000000;0.596487
9363.000000;0.595114
9362.000000;0.593882
9361.000000;0.593040
9360.000000;0.592750
9359.000000;0.592919
9358.000000;0.593233
9357.000000;0.593467
9356.000000;0.593693
9355.000000;0.594070
9354.000000;0.594508
9353.000000;0.594690
9352.000000;0.594464
9351.000000;0.594096
9350.000000;0.594004
9349.000000;0.594246
9348.000000;0.594425
9347.000000;0.594192
9346.000000;0.593728
9345.000000;0.593539
9344.000000;0.593778
9343.000000;0.594031
9342.000000;0.593842
9341.000000;0.593257
9340.000000;0.592643
9339.000000;0.592146
9338.000000;0.591635
9337.000000;0.591097
9336.000000;0.590778
9335.000000;0.590861
9334.000000;0.591267
9333.000000;0.591862
9332.000000;0.592656
9331.000000;0.593636
9330.000000;0.594568
9329.000000;0.595141
9328.000000;0.595233
9327.000000;0.594931
9326.000000;0.594352
9325.000000;0.593581
9324.000000;0.592763
9323.000000;0.592122
9322.000000;0.591844
9321.000000;0.591949
9320.000000;0.592242
9319.000000;0.592430
9318.000000;0.592388
9317.000000;0.592310
9316.000000;0.592456
9315.000000;0.592757
9314.000000;0.592837
9313.000000;0.592494
9312.000000;0.591995
9311.000000;0.591731
9310.000000;0.591732
9309.000000;0.591682
9308.000000;0.591376
9307.000000;0.590982
9306.000000;0.590797
9305.000000;0.590859
9304.000000;0.590880
9303.000000;0.590575
9302.000000;0.590032
9301.000000;0.589682
9300.000000;0.589836
9299.000000;0.590292
9298.000000;0.590553
9297.000000;0.590418
9296.000000;0.590181
9295.000000;0.590191
9294.000000;0.590399
9293.000000;0.590461
9292.000000;0.590172
9291.000000;0.589670
9290.000000;0.589265
9289.000000;0.589194
9288.000000;0.589470
9287.000000;0.589846
9286.000000;0.589978
9285.000000;0.589709
9284.000000;0.589195
9283.000000;0.588703
9282.000000;0.588345
9281.000000;0.588067
9280.000000;0.587813
9279.000000;0.587631
9278.000000;0.587649
9277.000000;0.587981
9276.000000;0.588580
9275.000000;0.589152
9274.000000;0.589361
9273.000000;0.589173
9272.000000;0.588883
9271.000000;0.588740
9270.000000;0.588681
9269.000000;0.588540
9268.000000;0.588359
9267.000000;0.588285
9266.000000;0.588294
9265.000000;0.588236
9264.000000;0.588108
9263.000000;0.588096
9262.000000;0.588313
9261.000000;0.588663
9260.000000;0.589005
9259.000000;0.589292
9258.000000;0.589524
9257.000000;0.589629
9256.000000;0.589479
9255.000000;0.588992
9254.000000;0.588224
9253.000000;0.587376
9252.000000;0.586681
9251.000000;0.586240
9250.000000;0.586010
9249.000000;0.585970
9248.000000;0.586174
9247.000000;0.586531
9246.000000;0.586669
9245.000000;0.586214
9244.000000;0.585231
9243.000000;0.584238
9242.000000;0.583718
9241.000000;0.583725
9240.000000;0.583995
9239.000000;0.584343
9238.000000;0.584837
9237.000000;0.585595
9236.000000;0.586485
9235.000000;0.587143
9234.000000;0.587316
9233.000000;0.587149
9232.000000;0.587038
9231.000000;0.587200
9230.000000;0.587490
9229.000000;0.587651
9228.000000;0.587586
9227.000000;0.587350
9226.000000;0.586981
9225.000000;0.586486
9224.000000;0.585892
9223.000000;0.585238
9222.000000;0.584542
9221.000000;0.583840
9220.000000;0.583207
9219.000000;0.582665
9218.000000;0.582178
9217.000000;0.581790
9216.000000;0.581668
9215.000000;0.581940
9214.000000;0.582561
9213.000000;0.583388
9212.000000;0.584269
9211.000000;0.584995
9210.000000;0.585299
9209.000000;0.585054
9208.000000;0.584388
9207.000000;0.583499
9206.000000;0.582493
9205.000000;0.581521
9204.000000;0.580876
9203.000000;0.580726
9202.000000;0.580814
9201.000000;0.580692
9200.000000;0.580254
9199.000000;0.579871
9198.000000;0.579971
9197.000000;0.580649
9196.000000;0.581626
9195.000000;0.582433
9194.000000;0.582659
9193.000000;0.582256
9192.000000;0.581643
9191.000000;0.581356
9190.000000;0.581537
9189.000000;0.581910
9188.000000;0.582234
9187.000000;0.582565
9186.000000;0.583028
9185.000000;0.583534
9184.000000;0.583860
9183.000000;0.583877
9182.000000;0.583587
9181.000000;0.583049
9180.000000;0.582372
9179.000000;0.581738
9178.000000;0.581308
9177.000000;0.581135
9176.000000;0.581185
9175.000000;0.581369
9174.000000;0.581532
9173.000000;0.581525
9172.000000;0.581350
9171.000000;0.581155
9170.000000;0.581036
9169.000000;0.580936
9168.000000;0.580830
9167.000000;0.580887
9166.000000;0.581273
9165.000000;0.581847
9164.000000;0.582199
9163.000000;0.582044
9162.000000;0.581505
9161.000000;0.580966
9160.000000;0.580724
9159.000000;0.580814
9158.000000;0.581065
9157.000000;0.581243
9156.000000;0.581158
9155.000000;0.580759
9154.000000;0.580169
9153.000000;0.579610
9152.000000;0.579255
9151.000000;0.579144
9150.000000;0.579244
9149.000000;0.579511
9148.000000;0.579857
9147.000000;0.580121
9146.000000;0.580177
9145.000000;0.580066
9144.000000;0.579934
9143.000000;0.579817
9142.000000;0.579602
9141.000000;0.579238
9140.000000;0.578889
9139.000000;0.578799
9138.000000;0.579038
9137.000000;0.579452
9136.000000;0.579802
9135.000000;0.579905
9134.000000;0.579705
9133.000000;0.579288
9132.000000;0.578833
9131.000000;0.578454
9130.000000;0.578108
9129.000000;0.577716
9128.000000;0.577355
9127.000000;0.577250
9126.000000;0.577550
9125.000000;0.578159
9124.000000;0.578782
9123.000000;0.579151
9122.000000;0.579194
9121.000000;0.579040
9120.000000;0.578850
9119.000000;0.578646
9118.000000;0.578320
9117.000000;0.577796
9116.000000;0.577154
9115.000000;0.576570
9114.000000;0.576202
9113.000000;0.576140
9112.000000;0.576381
9111.000000;0.576776
9110.000000;0.577087
9109.000000;0.577182
9108.000000;0.577125
9107.000000;0.577016
9106.000000;0.576807
9105.000000;0.576397
9104.000000;0.575866
9103.000000;0.575457
9102.000000;0.575315
9101.000000;0.575352
9100.000000;0.575436
9099.000000;0.575594
9098.000000;0.575930
9097.000000;0.576404
9096.000000;0.576811
9095.000000;0.577010
9094.000000;0.577071
9093.000000;0.577143
9092.000000;0.577204
9091.000000;0.577048
9090.000000;0.576564
9089.000000;0.575928
9088.000000;0.575457
9087.000000;0.575300
9086.000000;0.575345
9085.000000;0.575387
9084.000000;0.575300
9083.000000;0.575065
9082.000000;0.574760
9081.000000;0.574547
9080.000000;0.574555
9079.000000;0.574704
9078.000000;0.574745
9077.000000;0.574545
9076.000000;0.574248
9075.000000;0.574084
9074.000000;0.574080
9073.000000;0.574069
9072.000000;0.573922
9071.000000;0.573656
9070.000000;0.573347
9069.000000;0.573060
9068.000000;0.572886
9067.000000;0.572929
9066.000000;0.573196
9065.000000;0.573536
9064.000000;0.573756
9063.000000;0.573795
9062.000000;0.573757
9061.000000;0.573772
9060.000000;0.573845
9059.000000;0.573858
9058.000000;0.573744
9057.000000;0.573627
9056.000000;0.573716
9055.000000;0.574076
9054.000000;0.574536
9053.000000;0.574861
