Criado como novo conjunto de dados;"2706_e01_daniel.spp","46984.4 Secs"
cm-1;Abs
10000.000000;1.137805
9999.000000;1.136964
9998.000000;1.136124
9997.000000;1.135285
9996.000000;1.134449
9995.000000;1.133612
9994.000000;1.132782
9993.000000;1.131943
9992.000000;1.131125
9991.000000;1.130273
9990.000000;1.129495
9989.000000;1.128424
9988.000000;1.127129
9987.000000;1.126229
9986.000000;1.126030
9985.000000;1.126676
9984.000000;1.127867
9983.000000;1.128984
9982.000000;1.129415
9981.000000;1.128937
9980.000000;1.127696
9979.000000;1.126003
9978.000000;1.124282
9977.000000;1.123081
9976.000000;1.122870
9975.000000;1.123726
9974.000000;1.125243
9973.000000;1.126795
9972.000000;1.127892
9971.000000;1.128397
9970.000000;1.128453
9969.000000;1.128236
9968.000000;1.127831
9967.000000;1.127308
9966.000000;1.126779
9965.000000;1.126265
9964.000000;1.125696
9963.000000;1.125232
9962.000000;1.125422
9961.000000;1.126637
9960.000000;1.128316
9959.000000;1.129233
9958.000000;1.128814
9957.000000;1.127859
9956.000000;1.127561
9955.000000;1.128060
9954.000000;1.128366
9953.000000;1.127640
9952.000000;1.126144
9951.000000;1.124843
9950.000000;1.124444
9949.000000;1.124965
9948.000000;1.125933
9947.000000;1.126719
9946.000000;1.126853
9945.000000;1.126254
9944.000000;1.125200
9943.000000;1.123964
9942.000000;1.122539
9941.000000;1.120888
9940.000000;1.119344
9939.000000;1.118497
9938.000000;1.118611
9937.000000;1.119387
9936.000000;1.120388
9935.000000;1.121524
9934.000000;1.122893
9933.000000;1.124269
9932.000000;1.125056
9931.000000;1.124869
9930.000000;1.123998
9929.000000;1.123127
9928.000000;1.122669
9927.000000;1.122505
9926.000000;1.122356
9925.000000;1.122210
9924.000000;1.122256
9923.000000;1.122472
9922.000000;1.122472
9921.000000;1.121930
9920.000000;1.121067
9919.000000;1.120546
9918.000000;1.120820
9917.000000;1.121711
9916.000000;1.122697
9915.000000;1.123416
9914.000000;1.123727
9913.000000;1.123479
9912.000000;1.122573
9911.000000;1.121307
9910.000000;1.120335
9909.000000;1.120087
9908.000000;1.120347
9907.000000;1.120540
9906.000000;1.120332
9905.000000;1.119812
9904.000000;1.119204
9903.000000;1.118633
9902.000000;1.118185
9901.000000;1.118004
9900.000000;1.118173
9899.000000;1.118529
9898.000000;1.118674
9897.000000;1.118251
9896.000000;1.117279
9895.000000;1.116200
9894.000000;1.115559
9893.000000;1.115577
9892.000000;1.116044
9891.000000;1.116565
9890.000000;1.116866
9889.000000;1.116886
9888.000000;1.116717
9887.000000;1.116519
9886.000000;1.116418
9885.000000;1.116433
9884.000000;1.116525
9883.000000;1.116716
9882.000000;1.117030
9881.000000;1.117294
9880.000000;1.117187
9879.000000;1.116610
9878.000000;1.115900
9877.000000;1.115550
9876.000000;1.115763
9875.000000;1.116361
9874.000000;1.117005
9873.000000;1.117380
9872.000000;1.117274
9871.000000;1.116695
9870.000000;1.115929
9869.000000;1.115321
9868.000000;1.114949
9867.000000;1.114614
9866.000000;1.114143
9865.000000;1.113612
9864.000000;1.113308
9863.000000;1.113561
9862.000000;1.114536
9861.000000;1.116009
9860.000000;1.117366
9859.000000;1.118022
9858.000000;1.117917
9857.000000;1.117442
9856.000000;1.116877
9855.000000;1.116159
9854.000000;1.115301
9853.000000;1.114719
9852.000000;1.114809
9851.000000;1.115337
9850.000000;1.115640
9849.000000;1.115504
9848.000000;1.115454
9847.000000;1.115953
9846.000000;1.116598
9845.000000;1.116499
9844.000000;1.115390
9843.000000;1.114003
9842.000000;1.113258
9841.000000;1.113386
9840.000000;1.113942
9839.000000;1.114389
9838.000000;1.114442
9837.000000;1.114059
9836.000000;1.113400
9835.000000;1.112782
9834.000000;1.112428
9833.000000;1.112229
9832.000000;1.111918
9831.000000;1.111475
9830.000000;1.111159
9829.000000;1.111126
9828.000000;1.111271
9827.000000;1.111473
9826.000000;1.111750
9825.000000;1.112037
9824.000000;1.112086
9823.000000;1.111820
9822.000000;1.111616
9821.000000;1.111902
9820.000000;1.112541
9819.000000;1.112892
9818.000000;1.112584
9817.000000;1.111986
9816.000000;1.111736
9815.000000;1.112007
9814.000000;1.112462
9813.000000;1.112816
9812.000000;1.113181
9811.000000;1.113778
9810.000000;1.114482
9809.000000;1.114830
9808.000000;1.114467
9807.000000;1.113499
9806.000000;1.112411
9805.000000;1.111712
9804.000000;1.111640
9803.000000;1.112047
9802.000000;1.112541
9801.000000;1.112804
9800.000000;1.112876
9799.000000;1.113026
9798.000000;1.113322
9797.000000;1.113454
9796.000000;1.113103
9795.000000;1.112391
9794.000000;1.111774
9793.000000;1.111506
9792.000000;1.111380
9791.000000;1.111049
9790.000000;1.110456
9789.000000;1.109833
9788.000000;1.109403
9787.000000;1.109212
9786.000000;1.109236
9785.000000;1.109502
9784.000000;1.110003
9783.000000;1.110538
9782.000000;1.110735
9781.000000;1.110329
9780.000000;1.109418
9779.000000;1.108393
9778.000000;1.107580
9777.000000;1.107048
9776.000000;1.106788
9775.000000;1.106912
9774.000000;1.107512
9773.000000;1.108408
9772.000000;1.109227
9771.000000;1.109721
9770.000000;1.109861
9769.000000;1.109688
9768.000000;1.109295
9767.000000;1.108976
9766.000000;1.109100
9765.000000;1.109700
9764.000000;1.110346
9763.000000;1.110565
9762.000000;1.110271
9761.000000;1.109652
9760.000000;1.108854
9759.000000;1.108044
9758.000000;1.107639
9757.000000;1.108072
9756.000000;1.109196
9755.000000;1.110172
9754.000000;1.110232
9753.000000;1.109519
9752.000000;1.108929
9751.000000;1.109082
9750.000000;1.109602
9749.000000;1.109559
9748.000000;1.108516
9747.000000;1.106931
9746.000000;1.105559
9745.000000;1.104752
9744.000000;1.104455
9743.000000;1.104565
9742.000000;1.104975
9741.000000;1.105393
9740.000000;1.105490
9739.000000;1.105245
9738.000000;1.104897
9737.000000;1.104531
9736.000000;1.104011
9735.000000;1.103422
9734.000000;1.103240
9733.000000;1.103824
9732.000000;1.104962
9731.000000;1.106145
9730.000000;1.107070
9729.000000;1.107608
9728.000000;1.107510
9727.000000;1.106624
9726.000000;1.105391
9725.000000;1.104639
9724.000000;1.104702
9723.000000;1.105071
9722.000000;1.105104
9721.000000;1.104802
9720.000000;1.104570
9719.000000;1.104461
9718.000000;1.104126
9717.000000;1.103504
9716.000000;1.103046
9715.000000;1.103064
9714.000000;1.103272
9713.000000;1.103334
9712.000000;1.103569
9711.000000;1.104608
9710.000000;1.106373
9709.000000;1.107858
9708.000000;1.108081
9707.000000;1.106969
9706.000000;1.105149
9705.000000;1.103283
9704.000000;1.101887
9703.000000;1.101372
9702.000000;1.101702
9701.000000;1.102137
9700.000000;1.101799
9699.000000;1.100644
9698.000000;1.099522
9697.000000;1.099254
9696.000000;1.099912
9695.000000;1.101017
9694.000000;1.102073
9693.000000;1.102844
9692.000000;1.103407
9691.000000;1.104075
9690.000000;1.105018
9689.000000;1.105851
9688.000000;1.105894
9687.000000;1.104980
9686.000000;1.103707
9685.000000;1.102678
9684.000000;1.101858
9683.000000;1.101002
9682.000000;1.100419
9681.000000;1.100752
9680.000000;1.102025
9679.000000;1.103354
9678.000000;1.103780
9677.000000;1.103168
9676.000000;1.102125
9675.000000;1.101284
9674.000000;1.100859
9673.000000;1.100764
9672.000000;1.100928
9671.000000;1.101372
9670.000000;1.102017
9669.000000;1.102491
9668.000000;1.102318
9667.000000;1.101439
9666.000000;1.100484
9665.000000;1.100292
9664.000000;1.101090
9663.000000;1.102237
9662.000000;1.102810
9661.000000;1.102341
9660.000000;1.100988
9659.000000;1.099210
9658.000000;1.097521
9657.000000;1.096465
9656.000000;1.096439
9655.000000;1.097353
9654.000000;1.098570
9653.000000;1.099408
9652.000000;1.099694
9651.000000;1.099708
9650.000000;1.099616
9649.000000;1.099227
9648.000000;1.098447
9647.000000;1.097733
9646.000000;1.097745
9645.000000;1.098524
9644.000000;1.099313
9643.000000;1.099345
9642.000000;1.098655
9641.000000;1.097931
9640.000000;1.097708
9639.000000;1.097932
9638.000000;1.098252
9637.000000;1.098512
9636.000000;1.098812
9635.000000;1.099222
9634.000000;1.099577
9633.000000;1.099596
9632.000000;1.099148
9631.000000;1.098351
9630.000000;1.097434
9629.000000;1.096606
9628.000000;1.096091
9627.000000;1.096154
9626.000000;1.096867
9625.000000;1.097841
9624.000000;1.098372
9623.000000;1.098023
9622.000000;1.097030
9621.000000;1.096056
9620.000000;1.095599
9619.000000;1.095688
9618.000000;1.096034
9617.000000;1.096314
9616.000000;1.096351
9615.000000;1.096125
9614.000000;1.095717
9613.000000;1.095259
9612.000000;1.094921
9611.000000;1.094898
9610.000000;1.095314
9609.000000;1.096048
9608.000000;1.096698
9607.000000;1.096820
9606.000000;1.096271
9605.000000;1.095348
9604.000000;1.094556
9603.000000;1.094192
9602.000000;1.094142
9601.000000;1.094124
9600.000000;1.094122
9599.000000;1.094401
9598.000000;1.095019
9597.000000;1.095505
9596.000000;1.095324
9595.000000;1.094580
9594.000000;1.093947
9593.000000;1.093858
9592.000000;1.094094
9591.000000;1.094263
9590.000000;1.094366
9589.000000;1.094642
9588.000000;1.095083
9587.000000;1.095390
9586.000000;1.095317
9585.000000;1.094827
9584.000000;1.094032
9583.000000;1.093215
9582.000000;1.092783
9581.000000;1.092899
9580.000000;1.093182
9579.000000;1.093034
9578.000000;1.092290
9577.000000;1.091370
9576.000000;1.090803
9575.000000;1.090814
9574.000000;1.091343
9573.000000;1.092158
9572.000000;1.092871
9571.000000;1.093091
9570.000000;1.092746
9569.000000;1.092174
9568.000000;1.091793
9567.000000;1.091766
9566.000000;1.091970
9565.000000;1.092159
9564.000000;1.092108
9563.000000;1.091781
9562.000000;1.091406
9561.000000;1.091249
9560.000000;1.091266
9559.000000;1.091134
9558.000000;1.090725
9557.000000;1.090338
9556.000000;1.090305
9555.000000;1.090497
9554.000000;1.090436
9553.000000;1.089854
9552.000000;1.088987
9551.000000;1.088342
9550.000000;1.088298
9549.000000;1.088880
9548.000000;1.089766
9547.000000;1.090497
9546.000000;1.090810
9545.000000;1.090820
9544.000000;1.090818
9543.000000;1.090956
9542.000000;1.091190
9541.000000;1.091467
9540.000000;1.091756
9539.000000;1.091897
9538.000000;1.091601
9537.000000;1.090769
9536.000000;1.089737
9535.000000;1.089048
9534.000000;1.088940
9533.000000;1.089109
9532.000000;1.089011
9531.000000;1.088409
9530.000000;1.087586
9529.000000;1.087020
9528.000000;1.086914
9527.000000;1.087106
9526.000000;1.087409
9525.000000;1.087814
9524.000000;1.088316
9523.000000;1.088713
9522.000000;1.088814
9521.000000;1.088775
9520.000000;1.088946
9519.000000;1.089320
9518.000000;1.089379
9517.000000;1.088687
9516.000000;1.087526
9515.000000;1.086735
9514.000000;1.086902
9513.000000;1.087852
9512.000000;1.088910
9511.000000;1.089523
9510.000000;1.089592
9509.000000;1.089338
9508.000000;1.088975
9507.000000;1.088535
9506.000000;1.087970
9505.000000;1.087336
9504.000000;1.086856
9503.000000;1.086750
9502.000000;1.087027
9501.000000;1.087452
9500.000000;1.087685
9499.000000;1.087489
9498.000000;1.086886
9497.000000;1.086220
9496.000000;1.085988
9495.000000;1.086450
9494.000000;1.087342
9493.000000;1.088050
9492.000000;1.088136
9491.000000;1.087687
9490.000000;1.087147
9489.000000;1.086886
9488.000000;1.086931
9487.000000;1.087013
9486.000000;1.086833
9485.000000;1.086336
9484.000000;1.085751
9483.000000;1.085311
9482.000000;1.084947
9481.000000;1.084395
9480.000000;1.083631
9479.000000;1.083023
9478.000000;1.082919
9477.000000;1.083216
9476.000000;1.083514
9475.000000;1.083621
9474.000000;1.083689
9473.000000;1.083857
9472.000000;1.084012
9471.000000;1.084015
9470.000000;1.083982
9469.000000;1.084176
9468.000000;1.084658
9467.000000;1.085156
9466.000000;1.085274
9465.000000;1.084803
9464.000000;1.083894
9463.000000;1.083013
9462.000000;1.082623
9461.000000;1.082785
9460.000000;1.083099
9459.000000;1.083155
9458.000000;1.083033
9457.000000;1.083191
9456.000000;1.083822
9455.000000;1.084530
9454.000000;1.084766
9453.000000;1.084466
9452.000000;1.084032
9451.000000;1.083748
9450.000000;1.083466
9449.000000;1.082934
9448.000000;1.082220
9447.000000;1.081641
9446.000000;1.081416
9445.000000;1.081558
9444.000000;1.082022
9443.000000;1.082746
9442.000000;1.083517
9441.000000;1.083996
9440.000000;1.083954
9439.000000;1.083450
9438.000000;1.082757
9437.000000;1.082182
9436.000000;1.081884
9435.000000;1.081731
9434.000000;1.081375
9433.000000;1.080675
9432.000000;1.080029
9431.000000;1.080023
9430.000000;1.080661
9429.000000;1.081184
9428.000000;1.080836
9427.000000;1.079646
9426.000000;1.078297
9425.000000;1.077399
9424.000000;1.077111
9423.000000;1.077301
9422.000000;1.077773
9421.000000;1.078365
9420.000000;1.079056
9419.000000;1.079945
9418.000000;1.080932
9417.000000;1.081516
9416.000000;1.081241
9415.000000;1.080305
9414.000000;1.079457
9413.000000;1.079247
9412.000000;1.079602
9411.000000;1.080146
9410.000000;1.080601
9409.000000;1.080793
9408.000000;1.080607
9407.000000;1.080173
9406.000000;1.079847
9405.000000;1.079795
9404.000000;1.079759
9403.000000;1.079454
9402.000000;1.079028
9401.000000;1.078859
9400.000000;1.079037
9399.000000;1.079319
9398.000000;1.079498
9397.000000;1.079531
9396.000000;1.079339
9395.000000;1.078815
9394.000000;1.078074
9393.000000;1.077448
9392.000000;1.077114
9391.000000;1.076914
9390.000000;1.076697
9389.000000;1.076636
9388.000000;1.077037
9387.000000;1.077872
9386.000000;1.078666
9385.000000;1.078889
9384.000000;1.078450
9383.000000;1.077799
9382.000000;1.077530
9381.000000;1.077816
9380.000000;1.078235
9379.000000;1.078228
9378.000000;1.077764
9377.000000;1.077386
9376.000000;1.077567
9375.000000;1.078139
9374.000000;1.078490
9373.000000;1.078273
9372.000000;1.077767
9371.000000;1.077530
9370.000000;1.077829
9369.000000;1.078445
9368.000000;1.078958
9367.000000;1.079118
9366.000000;1.078940
9365.000000;1.078546
9364.000000;1.078024
9363.000000;1.077437
9362.000000;1.076915
9361.000000;1.076629
9360.000000;1.076644
9359.000000;1.076821
9358.000000;1.076892
9357.000000;1.076655
9356.000000;1.076149
9355.000000;1.075637
9354.000000;1.075406
9353.000000;1.075494
9352.000000;1.075606
9351.000000;1.075380
9350.000000;1.074783
9349.000000;1.074217
9348.000000;1.074156
9347.000000;1.074660
9346.000000;1.075290
9345.000000;1.075516
9344.000000;1.075211
9343.000000;1.074732
9342.000000;1.074548
9341.000000;1.074797
9340.000000;1.075197
9339.000000;1.075348
9338.000000;1.075102
9337.000000;1.074655
9336.000000;1.074312
9335.000000;1.074191
9334.000000;1.074154
9333.000000;1.073992
9332.000000;1.073682
9331.000000;1.073445
9330.000000;1.073503
9329.000000;1.073813
9328.000000;1.074104
9327.000000;1.074222
9326.000000;1.074307
9325.000000;1.074545
9324.000000;1.074814
9323.000000;1.074759
9322.000000;1.074229
9321.000000;1.073484
9320.000000;1.072893
9319.000000;1.072567
9318.000000;1.072387
9317.000000;1.072278
9316.000000;1.072276
9315.000000;1.072350
9314.000000;1.072337
9313.000000;1.072119
9312.000000;1.071749
9311.000000;1.071383
9310.000000;1.071180
9309.000000;1.071306
9308.000000;1.071883
9307.000000;1.072782
9306.000000;1.073561
9305.000000;1.073766
9304.000000;1.073332
9303.000000;1.072596
9302.000000;1.071915
9301.000000;1.071391
9300.000000;1.070936
9299.000000;1.070484
9298.000000;1.070051
9297.000000;1.069713
9296.000000;1.069597
9295.000000;1.069807
9294.000000;1.070259
9293.000000;1.070643
9292.000000;1.070700
9291.000000;1.070509
9290.000000;1.070359
9289.000000;1.070361
9288.000000;1.070361
9287.000000;1.070293
9286.000000;1.070419
9285.000000;1.071020
9284.000000;1.071904
9283.000000;1.072439
9282.000000;1.072145
9281.000000;1.071160
9280.000000;1.070072
9279.000000;1.069383
9278.000000;1.069201
9277.000000;1.069331
9276.000000;1.069508
9275.000000;1.069547
9274.000000;1.069400
9273.000000;1.069172
9272.000000;1.069048
9271.000000;1.069146
9270.000000;1.069394
9269.000000;1.069590
9268.000000;1.069599
9267.000000;1.069487
9266.000000;1.069397
9265.000000;1.069296
9264.000000;1.068947
9263.000000;1.068234
9262.000000;1.067442
9261.000000;1.067060
9260.000000;1.067252
9259.000000;1.067680
9258.000000;1.067898
9257.000000;1.067823
9256.000000;1.067705
9255.000000;1.067719
9254.000000;1.067756
9253.000000;1.067588
9252.000000;1.067118
9251.000000;1.066457
9250.000000;1.065866
9249.000000;1.065613
9248.000000;1.065786
9247.000000;1.066206
9246.000000;1.066616
9245.000000;1.066933
9244.000000;1.067230
9243.000000;1.067488
9242.000000;1.067523
9241.000000;1.067203
9240.000000;1.066630
9239.000000;1.066047
9238.000000;1.065676
9237.000000;1.065648
9236.000000;1.065956
9235.000000;1.066373
9234.000000;1.066588
9233.000000;1.066517
9232.000000;1.066384
9231.000000;1.066408
9230.000000;1.066535
9229.000000;1.066599
9228.000000;1.066594
9227.000000;1.066606
9226.000000;1.066595
9225.000000;1.066446
9224.000000;1.066197
9223.000000;1.065986
9222.000000;1.065822
9221.000000;1.065605
9220.000000;1.065378
9219.000000;1.065315
9218.000000;1.065412
9217.000000;1.065420
9216.000000;1.065202
9215.000000;1.064972
9214.000000;1.065042
9213.000000;1.065427
9212.000000;1.065856
9211.000000;1.066080
9210.000000;1.066046
9209.000000;1.065822
9208.000000;1.065490
9207.000000;1.065142
9206.000000;1.064861
9205.000000;1.064653
9204.000000;1.064417
9203.000000;1.064038
9202.000000;1.063520
9201.000000;1.063017
9200.000000;1.062733
9199.000000;1.062760
9198.000000;1.063024
9197.000000;1.063377
9196.000000;1.063683
9195.000000;1.063816
9194.000000;1.063660
9193.000000;1.063232
9192.000000;1.062736
9191.000000;1.062383
9190.000000;1.062164
9189.000000;1.061930
9188.000000;1.061686
9187.000000;1.061646
9186.000000;1.061895
9185.000000;1.062138
9184.000000;1.061947
9183.000000;1.061280
9182.000000;1.060641
9181.000000;1.060640
9180.000000;1.061388
9179.000000;1.062337
9178.000000;1.062781
9177.000000;1.062528
9176.000000;1.062026
9175.000000;1.061820
9174.000000;1.062010
9173.000000;1.062319
9172.000000;1.062518
9171.000000;1.062587
9170.000000;1.062521
9169.000000;1.062279
9168.000000;1.062002
9167.000000;1.062023
9166.000000;1.062476
9165.000000;1.063006
9164.000000;1.063051
9163.000000;1.062406
9162.000000;1.061425
9161.000000;1.060658
9160.000000;1.060350
9159.000000;1.060309
9158.000000;1.060187
9157.000000;1.059873
9156.000000;1.059550
9155.000000;1.059397
9154.000000;1.059337
9153.000000;1.059213
9152.000000;1.059119
9151.000000;1.059331
9150.000000;1.059892
9149.000000;1.060440
9148.000000;1.060564
9147.000000;1.060199
9146.000000;1.059610
9145.000000;1.059092
9144.000000;1.058789
9143.000000;1.058707
9142.000000;1.058761
9141.000000;1.058810
9140.000000;1.058717
9139.000000;1.058379
9138.000000;1.057792
9137.000000;1.057167
9136.000000;1.056892
9135.000000;1.057197
9134.000000;1.057831
9133.000000;1.058259
9132.000000;1.058210
9131.000000;1.057876
9130.000000;1.057538
9129.000000;1.057270
9128.000000;1.057081
9127.000000;1.057066
9126.000000;1.057209
9125.000000;1.057244
9124.000000;1.056985
9123.000000;1.056612
9122.000000;1.056408
9121.000000;1.056328
9120.000000;1.056103
9119.000000;1.055698
9118.000000;1.055382
9117.000000;1.055369
9116.000000;1.055615
9115.000000;1.055965
9114.000000;1.056301
9113.000000;1.056515
9112.000000;1.056537
9111.000000;1.056420
9110.000000;1.056259
9109.000000;1.056014
9108.000000;1.055595
9107.000000;1.055132
9106.000000;1.054955
9105.000000;1.055231
9104.000000;1.055732
9103.000000;1.056007
9102.000000;1.055760
9101.000000;1.055091
9100.000000;1.054460
9099.000000;1.054348
9098.000000;1.054807
9097.000000;1.055364
9096.000000;1.055520
9095.000000;1.055286
9094.000000;1.055024
9093.000000;1.054848
9092.000000;1.054529
9091.000000;1.054015
9090.000000;1.053654
9089.000000;1.053695
9088.000000;1.053859
9087.000000;1.053709
9086.000000;1.053269
9085.000000;1.052948
9084.000000;1.052959
9083.000000;1.053103
9082.000000;1.053134
9081.000000;1.053043
9080.000000;1.052915
9079.000000;1.052767
9078.000000;1.052676
9077.000000;1.052853
9076.000000;1.053373
9075.000000;1.053936
9074.000000;1.054131
9073.000000;1.053954
9072.000000;1.053838
9071.000000;1.054061
9070.000000;1.054315
9069.000000;1.054059
9068.000000;1.053223
9067.000000;1.052340
9066.000000;1.051955
9065.000000;1.052066
9064.000000;1.052270
9063.000000;1.052300
9062.000000;1.052244
9061.000000;1.052295
9060.000000;1.052450
9059.000000;1.052518
9058.000000;1.052342
9057.000000;1.051959
9056.000000;1.051578
9055.000000;1.051403
9054.000000;1.051447
9053.000000;1.051531
