Criado como novo conjunto de dados;"2706_e01_daniel.spp","100447.1 Secs"
cm-1;Abs
10000.000000;0.865473
9999.000000;0.865093
9998.000000;0.864787
9997.000000;0.864402
9996.000000;0.863858
9995.000000;0.863373
9994.000000;0.863326
9993.000000;0.863875
9992.000000;0.864683
9991.000000;0.865222
9990.000000;0.865291
9989.000000;0.865105
9988.000000;0.864901
9987.000000;0.864665
9986.000000;0.864285
9985.000000;0.863752
9984.000000;0.863099
9983.000000;0.862332
9982.000000;0.861575
9981.000000;0.861175
9980.000000;0.861421
9979.000000;0.862195
9978.000000;0.863073
9977.000000;0.863768
9976.000000;0.864301
9975.000000;0.864725
9974.000000;0.864920
9973.000000;0.864804
9972.000000;0.864542
9971.000000;0.864360
9970.000000;0.864242
9969.000000;0.864014
9968.000000;0.863668
9967.000000;0.863382
9966.000000;0.863213
9965.000000;0.862972
9964.000000;0.862512
9963.000000;0.861982
9962.000000;0.861685
9961.000000;0.861768
9960.000000;0.862161
9959.000000;0.862689
9958.000000;0.863110
9957.000000;0.863128
9956.000000;0.862629
9955.000000;0.861954
9954.000000;0.861740
9953.000000;0.862317
9952.000000;0.863303
9951.000000;0.863923
9950.000000;0.863744
9949.000000;0.863024
9948.000000;0.862314
9947.000000;0.861895
9946.000000;0.861664
9945.000000;0.861454
9944.000000;0.861317
9943.000000;0.861448
9942.000000;0.861930
9941.000000;0.862603
9940.000000;0.863162
9939.000000;0.863387
9938.000000;0.863264
9937.000000;0.862892
9936.000000;0.862286
9935.000000;0.861396
9934.000000;0.860347
9933.000000;0.859537
9932.000000;0.859302
9931.000000;0.859517
9930.000000;0.859680
9929.000000;0.859435
9928.000000;0.858899
9927.000000;0.858459
9926.000000;0.858407
9925.000000;0.858827
9924.000000;0.859629
9923.000000;0.860529
9922.000000;0.861123
9921.000000;0.861185
9920.000000;0.860876
9919.000000;0.860533
9918.000000;0.860301
9917.000000;0.860064
9916.000000;0.859657
9915.000000;0.859047
9914.000000;0.858360
9913.000000;0.857896
9912.000000;0.858026
9911.000000;0.858864
9910.000000;0.860019
9909.000000;0.860808
9908.000000;0.860773
9907.000000;0.859934
9906.000000;0.858647
9905.000000;0.857392
9904.000000;0.856633
9903.000000;0.856577
9902.000000;0.856977
9901.000000;0.857340
9900.000000;0.857403
9899.000000;0.857286
9898.000000;0.857185
9897.000000;0.857110
9896.000000;0.856967
9895.000000;0.856699
9894.000000;0.856264
9893.000000;0.855660
9892.000000;0.855088
9891.000000;0.854888
9890.000000;0.855207
9889.000000;0.855833
9888.000000;0.856450
9887.000000;0.856861
9886.000000;0.856889
9885.000000;0.856311
9884.000000;0.855174
9883.000000;0.853998
9882.000000;0.853399
9881.000000;0.853497
9880.000000;0.853880
9879.000000;0.854074
9878.000000;0.853935
9877.000000;0.853642
9876.000000;0.853539
9875.000000;0.853926
9874.000000;0.854810
9873.000000;0.855784
9872.000000;0.856307
9871.000000;0.856137
9870.000000;0.855481
9869.000000;0.854767
9868.000000;0.854374
9867.000000;0.854438
9866.000000;0.854755
9865.000000;0.854918
9864.000000;0.854755
9863.000000;0.854571
9862.000000;0.854763
9861.000000;0.855258
9860.000000;0.855550
9859.000000;0.855280
9858.000000;0.854541
9857.000000;0.853616
9856.000000;0.852743
9855.000000;0.852171
9854.000000;0.852113
9853.000000;0.852455
9852.000000;0.852754
9851.000000;0.852735
9850.000000;0.852584
9849.000000;0.852589
9848.000000;0.852727
9847.000000;0.852870
9846.000000;0.853171
9845.000000;0.853865
9844.000000;0.854759
9843.000000;0.855295
9842.000000;0.855206
9841.000000;0.854792
9840.000000;0.854431
9839.000000;0.854111
9838.000000;0.853608
9837.000000;0.852928
9836.000000;0.852339
9835.000000;0.852056
9834.000000;0.852060
9833.000000;0.852141
9832.000000;0.852006
9831.000000;0.851445
9830.000000;0.850605
9829.000000;0.850049
9828.000000;0.850298
9827.000000;0.851254
9826.000000;0.852218
9825.000000;0.852569
9824.000000;0.852313
9823.000000;0.851905
9822.000000;0.851665
9821.000000;0.851540
9820.000000;0.851340
9819.000000;0.851004
9818.000000;0.850598
9817.000000;0.850217
9816.000000;0.849973
9815.000000;0.849990
9814.000000;0.850301
9813.000000;0.850795
9812.000000;0.851321
9811.000000;0.851798
9810.000000;0.852146
9809.000000;0.852179
9808.000000;0.851726
9807.000000;0.850906
9806.000000;0.850158
9805.000000;0.849898
9804.000000;0.850180
9803.000000;0.850761
9802.000000;0.851419
9801.000000;0.852076
9800.000000;0.852623
9799.000000;0.852869
9798.000000;0.852781
9797.000000;0.852621
9796.000000;0.852630
9795.000000;0.852634
9794.000000;0.852196
9793.000000;0.851208
9792.000000;0.850088
9791.000000;0.849283
9790.000000;0.848792
9789.000000;0.848357
9788.000000;0.847982
9787.000000;0.847950
9786.000000;0.848377
9785.000000;0.849003
9784.000000;0.849511
9783.000000;0.849819
9782.000000;0.849964
9781.000000;0.849885
9780.000000;0.849484
9779.000000;0.848827
9778.000000;0.848146
9777.000000;0.847668
9776.000000;0.847504
9775.000000;0.847611
9774.000000;0.847823
9773.000000;0.847991
9772.000000;0.848162
9771.000000;0.848504
9770.000000;0.848999
9769.000000;0.849332
9768.000000;0.849203
9767.000000;0.848646
9766.000000;0.847926
9765.000000;0.847275
9764.000000;0.846847
9763.000000;0.846753
9762.000000;0.846916
9761.000000;0.847009
9760.000000;0.846809
9759.000000;0.846535
9758.000000;0.846576
9757.000000;0.846914
9756.000000;0.847139
9755.000000;0.847033
9754.000000;0.846813
9753.000000;0.846700
9752.000000;0.846571
9751.000000;0.846243
9750.000000;0.845831
9749.000000;0.845593
9748.000000;0.845574
9747.000000;0.845618
9746.000000;0.845631
9745.000000;0.845656
9744.000000;0.845760
9743.000000;0.846013
9742.000000;0.846428
9741.000000;0.846810
9740.000000;0.846776
9739.000000;0.846159
9738.000000;0.845269
9737.000000;0.844597
9736.000000;0.844352
9735.000000;0.844456
9734.000000;0.844833
9733.000000;0.845400
9732.000000;0.845862
9731.000000;0.845875
9730.000000;0.845466
9729.000000;0.845037
9728.000000;0.844915
9727.000000;0.845120
9726.000000;0.845559
9725.000000;0.846130
9724.000000;0.846542
9723.000000;0.846371
9722.000000;0.845524
9721.000000;0.844448
9720.000000;0.843680
9719.000000;0.843326
9718.000000;0.843139
9717.000000;0.842948
9716.000000;0.842806
9715.000000;0.842805
9714.000000;0.842941
9713.000000;0.843150
9712.000000;0.843339
9711.000000;0.843405
9710.000000;0.843335
9709.000000;0.843246
9708.000000;0.843217
9707.000000;0.843130
9706.000000;0.842807
9705.000000;0.842270
9704.000000;0.841754
9703.000000;0.841499
9702.000000;0.841604
9701.000000;0.842041
9700.000000;0.842661
9699.000000;0.843214
9698.000000;0.843468
9697.000000;0.843374
9696.000000;0.843078
9695.000000;0.842793
9694.000000;0.842667
9693.000000;0.842713
9692.000000;0.842778
9691.000000;0.842657
9690.000000;0.842288
9689.000000;0.841772
9688.000000;0.841188
9687.000000;0.840524
9686.000000;0.839907
9685.000000;0.839701
9684.000000;0.840168
9683.000000;0.841124
9682.000000;0.842116
9681.000000;0.842849
9680.000000;0.843239
9679.000000;0.843164
9678.000000;0.842508
9677.000000;0.841469
9676.000000;0.840538
9675.000000;0.840062
9674.000000;0.840023
9673.000000;0.840271
9672.000000;0.840717
9671.000000;0.841215
9670.000000;0.841519
9669.000000;0.841552
9668.000000;0.841503
9667.000000;0.841509
9666.000000;0.841408
9665.000000;0.840981
9664.000000;0.840301
9663.000000;0.839648
9662.000000;0.839177
9661.000000;0.838867
9660.000000;0.838699
9659.000000;0.838718
9658.000000;0.838969
9657.000000;0.839489
9656.000000;0.840259
9655.000000;0.841019
9654.000000;0.841274
9653.000000;0.840724
9652.000000;0.839655
9651.000000;0.838701
9650.000000;0.838270
9649.000000;0.838328
9648.000000;0.838632
9647.000000;0.838894
9646.000000;0.838789
9645.000000;0.838174
9644.000000;0.837402
9643.000000;0.837122
9642.000000;0.837610
9641.000000;0.838429
9640.000000;0.838900
9639.000000;0.838771
9638.000000;0.838312
9637.000000;0.837900
9636.000000;0.837704
9635.000000;0.837703
9634.000000;0.837819
9633.000000;0.838010
9632.000000;0.838308
9631.000000;0.838755
9630.000000;0.839244
9629.000000;0.839499
9628.000000;0.839284
9627.000000;0.838647
9626.000000;0.837890
9625.000000;0.837342
9624.000000;0.837169
9623.000000;0.837315
9622.000000;0.837553
9621.000000;0.837632
9620.000000;0.837476
9619.000000;0.837235
9618.000000;0.837119
9617.000000;0.837233
9616.000000;0.837581
9615.000000;0.838116
9614.000000;0.838665
9613.000000;0.838896
9612.000000;0.838543
9611.000000;0.837703
9610.000000;0.836804
9609.000000;0.836229
9608.000000;0.836021
9607.000000;0.835984
9606.000000;0.835984
9605.000000;0.836065
9604.000000;0.836290
9603.000000;0.836571
9602.000000;0.836736
9601.000000;0.836731
9600.000000;0.836682
9599.000000;0.836692
9598.000000;0.836678
9597.000000;0.836485
9596.000000;0.836128
9595.000000;0.835767
9594.000000;0.835445
9593.000000;0.835062
9592.000000;0.834659
9591.000000;0.834555
9590.000000;0.834997
9589.000000;0.835746
9588.000000;0.836224
9587.000000;0.836104
9586.000000;0.835630
9585.000000;0.835280
9584.000000;0.835254
9583.000000;0.835351
9582.000000;0.835265
9581.000000;0.834912
9580.000000;0.834498
9579.000000;0.834312
9578.000000;0.834462
9577.000000;0.834791
9576.000000;0.835050
9575.000000;0.835117
9574.000000;0.835047
9573.000000;0.834930
9572.000000;0.834775
9571.000000;0.834515
9570.000000;0.834062
9569.000000;0.833410
9568.000000;0.832738
9567.000000;0.832363
9566.000000;0.832472
9565.000000;0.832869
9564.000000;0.833124
9563.000000;0.833006
9562.000000;0.832687
9561.000000;0.832493
9560.000000;0.832565
9559.000000;0.832825
9558.000000;0.833146
9557.000000;0.833456
9556.000000;0.833715
9555.000000;0.833895
9554.000000;0.833988
9553.000000;0.833989
9552.000000;0.833890
9551.000000;0.833697
9550.000000;0.833420
9549.000000;0.833059
9548.000000;0.832670
9547.000000;0.832426
9546.000000;0.832477
9545.000000;0.832723
9544.000000;0.832879
9543.000000;0.832833
9542.000000;0.832761
9541.000000;0.832768
9540.000000;0.832632
9539.000000;0.832137
9538.000000;0.831525
9537.000000;0.831286
9536.000000;0.831516
9535.000000;0.831799
9534.000000;0.831787
9533.000000;0.831611
9532.000000;0.831556
9531.000000;0.831581
9530.000000;0.831409
9529.000000;0.830976
9528.000000;0.830536
9527.000000;0.830359
9526.000000;0.830521
9525.000000;0.830968
9524.000000;0.831591
9523.000000;0.832178
9522.000000;0.832466
9521.000000;0.832359
9520.000000;0.832045
9519.000000;0.831820
9518.000000;0.831801
9517.000000;0.831840
9516.000000;0.831677
9515.000000;0.831155
9514.000000;0.830330
9513.000000;0.829458
9512.000000;0.828862
9511.000000;0.828758
9510.000000;0.829136
9509.000000;0.829776
9508.000000;0.830395
9507.000000;0.830795
9506.000000;0.830883
9505.000000;0.830624
9504.000000;0.830043
9503.000000;0.829301
9502.000000;0.828674
9501.000000;0.828361
9500.000000;0.828333
9499.000000;0.828431
9498.000000;0.828566
9497.000000;0.828766
9496.000000;0.829051
9495.000000;0.829373
9494.000000;0.829641
9493.000000;0.829714
9492.000000;0.829416
9491.000000;0.828750
9490.000000;0.828083
9489.000000;0.827904
9488.000000;0.828289
9487.000000;0.828760
9486.000000;0.828803
9485.000000;0.828389
9484.000000;0.827855
9483.000000;0.827440
9482.000000;0.827148
9481.000000;0.826951
9480.000000;0.826889
9479.000000;0.826953
9478.000000;0.827078
9477.000000;0.827264
9476.000000;0.827561
9475.000000;0.827900
9474.000000;0.828078
9473.000000;0.827967
9472.000000;0.827639
9471.000000;0.827258
9470.000000;0.826965
9469.000000;0.826893
9468.000000;0.827120
9467.000000;0.827541
9466.000000;0.827867
9465.000000;0.827857
9464.000000;0.827488
9463.000000;0.826880
9462.000000;0.826162
9461.000000;0.825463
9460.000000;0.824942
9459.000000;0.824700
9458.000000;0.824681
9457.000000;0.824744
9456.000000;0.824807
9455.000000;0.824905
9454.000000;0.825104
9453.000000;0.825397
9452.000000;0.825671
9451.000000;0.825793
9450.000000;0.825743
9449.000000;0.825657
9448.000000;0.825685
9447.000000;0.825825
9446.000000;0.825949
9445.000000;0.825957
9444.000000;0.825848
9443.000000;0.825641
9442.000000;0.825363
9441.000000;0.825118
9440.000000;0.825054
9439.000000;0.825171
9438.000000;0.825239
9437.000000;0.825007
9436.000000;0.824450
9435.000000;0.823795
9434.000000;0.823355
9433.000000;0.823346
9432.000000;0.823753
9431.000000;0.824301
9430.000000;0.824636
9429.000000;0.824638
9428.000000;0.824525
9427.000000;0.824579
9426.000000;0.824784
9425.000000;0.824816
9424.000000;0.824386
9423.000000;0.823559
9422.000000;0.822757
9421.000000;0.822460
9420.000000;0.822827
9419.000000;0.823530
9418.000000;0.823997
9417.000000;0.823925
9416.000000;0.823522
9415.000000;0.823220
9414.000000;0.823207
9413.000000;0.823330
9412.000000;0.823386
9411.000000;0.823349
9410.000000;0.823298
9409.000000;0.823260
9408.000000;0.823227
9407.000000;0.823227
9406.000000;0.823271
9405.000000;0.823248
9404.000000;0.823009
9403.000000;0.822575
9402.000000;0.822188
9401.000000;0.822072
9400.000000;0.822190
9399.000000;0.822288
9398.000000;0.822192
9397.000000;0.821963
9396.000000;0.821756
9395.000000;0.821607
9394.000000;0.821446
9393.000000;0.821275
9392.000000;0.821225
9391.000000;0.821418
9390.000000;0.821803
9389.000000;0.822164
9388.000000;0.822295
9387.000000;0.822157
9386.000000;0.821900
9385.000000;0.821718
9384.000000;0.821686
9383.000000;0.821736
9382.000000;0.821763
9381.000000;0.821698
9380.000000;0.821486
9379.000000;0.821120
9378.000000;0.820732
9377.000000;0.820539
9376.000000;0.820580
9375.000000;0.820622
9374.000000;0.820439
9373.000000;0.820104
9372.000000;0.819844
9371.000000;0.819693
9370.000000;0.819522
9369.000000;0.819374
9368.000000;0.819493
9367.000000;0.819946
9366.000000;0.820448
9365.000000;0.820706
9364.000000;0.820726
9363.000000;0.820664
9362.000000;0.820534
9361.000000;0.820278
9360.000000;0.819997
9359.000000;0.819876
9358.000000;0.819926
9357.000000;0.819985
9356.000000;0.819973
9355.000000;0.819949
9354.000000;0.819921
9353.000000;0.819772
9352.000000;0.819451
9351.000000;0.819083
9350.000000;0.818843
9349.000000;0.818791
9348.000000;0.818877
9347.000000;0.819009
9346.000000;0.819081
9345.000000;0.819009
9344.000000;0.818801
9343.000000;0.818561
9342.000000;0.818392
9341.000000;0.818338
9340.000000;0.818449
9339.000000;0.818797
9338.000000;0.819332
9337.000000;0.819778
9336.000000;0.819820
9335.000000;0.819422
9334.000000;0.818870
9333.000000;0.818439
9332.000000;0.818133
9331.000000;0.817848
9330.000000;0.817658
9329.000000;0.817757
9328.000000;0.818100
9327.000000;0.818351
9326.000000;0.818278
9325.000000;0.818048
9324.000000;0.817951
9323.000000;0.817979
9322.000000;0.817907
9321.000000;0.817700
9320.000000;0.817575
9319.000000;0.817616
9318.000000;0.817612
9317.000000;0.817373
9316.000000;0.817018
9315.000000;0.816784
9314.000000;0.816722
9313.000000;0.816734
9312.000000;0.816808
9311.000000;0.817032
9310.000000;0.817378
9309.000000;0.817631
9308.000000;0.817560
9307.000000;0.817116
9306.000000;0.816487
9305.000000;0.815982
9304.000000;0.815812
9303.000000;0.815926
9302.000000;0.816097
9301.000000;0.816168
9300.000000;0.816167
9299.000000;0.816158
9298.000000;0.816141
9297.000000;0.816127
9296.000000;0.816162
9295.000000;0.816194
9294.000000;0.816045
9293.000000;0.815657
9292.000000;0.815230
9291.000000;0.814998
9290.000000;0.814950
9289.000000;0.814931
9288.000000;0.814927
9287.000000;0.815048
9286.000000;0.815279
9285.000000;0.815450
9284.000000;0.815475
9283.000000;0.815447
9282.000000;0.815472
9281.000000;0.815521
9280.000000;0.815494
9279.000000;0.815336
9278.000000;0.815072
9277.000000;0.814789
9276.000000;0.814596
9275.000000;0.814557
9274.000000;0.814629
9273.000000;0.814719
9272.000000;0.814755
9271.000000;0.814694
9270.000000;0.814513
9269.000000;0.814272
9268.000000;0.814118
9267.000000;0.814134
9266.000000;0.814231
9265.000000;0.814263
9264.000000;0.814183
9263.000000;0.813990
9262.000000;0.813641
9261.000000;0.813162
9260.000000;0.812757
9259.000000;0.812622
9258.000000;0.812679
9257.000000;0.812678
9256.000000;0.812541
9255.000000;0.812427
9254.000000;0.812452
9253.000000;0.812544
9252.000000;0.812621
9251.000000;0.812714
9250.000000;0.812824
9249.000000;0.812809
9248.000000;0.812567
9247.000000;0.812228
9246.000000;0.812058
9245.000000;0.812186
9244.000000;0.812478
9243.000000;0.812662
9242.000000;0.812569
9241.000000;0.812309
9240.000000;0.812200
9239.000000;0.812435
9238.000000;0.812834
9237.000000;0.813020
9236.000000;0.812838
9235.000000;0.812498
9234.000000;0.812285
9233.000000;0.812279
9232.000000;0.812384
9231.000000;0.812496
9230.000000;0.812539
9229.000000;0.812445
9228.000000;0.812191
9227.000000;0.811846
9226.000000;0.811539
9225.000000;0.811406
9224.000000;0.811556
9223.000000;0.811963
9222.000000;0.812384
9221.000000;0.812503
9220.000000;0.812213
9219.000000;0.811688
9218.000000;0.811160
9217.000000;0.810719
9216.000000;0.810356
9215.000000;0.810085
9214.000000;0.809921
9213.000000;0.809825
9212.000000;0.809756
9211.000000;0.809726
9210.000000;0.809771
9209.000000;0.809921
9208.000000;0.810198
9207.000000;0.810571
9206.000000;0.810877
9205.000000;0.810921
9204.000000;0.810686
9203.000000;0.810371
9202.000000;0.810148
9201.000000;0.810008
9200.000000;0.809909
9199.000000;0.809931
9198.000000;0.810179
9197.000000;0.810591
9196.000000;0.810954
9195.000000;0.811086
9194.000000;0.810925
9193.000000;0.810511
9192.000000;0.809989
9191.000000;0.809564
9190.000000;0.809361
9189.000000;0.809341
9188.000000;0.809417
9187.000000;0.809575
9186.000000;0.809800
9185.000000;0.809962
9184.000000;0.809887
9183.000000;0.809559
9182.000000;0.809162
9181.000000;0.808919
9180.000000;0.808941
9179.000000;0.809180
9178.000000;0.809462
9177.000000;0.809573
9176.000000;0.809422
9175.000000;0.809130
9174.000000;0.808918
9173.000000;0.808891
9172.000000;0.808929
9171.000000;0.808806
9170.000000;0.808396
9169.000000;0.807811
9168.000000;0.807333
9167.000000;0.807175
9166.000000;0.807305
9165.000000;0.807538
9164.000000;0.807775
9163.000000;0.808042
9162.000000;0.808281
9161.000000;0.808293
9160.000000;0.807985
9159.000000;0.807580
9158.000000;0.807407
9157.000000;0.807537
9156.000000;0.807760
9155.000000;0.807859
9154.000000;0.807798
9153.000000;0.807639
9152.000000;0.807402
9151.000000;0.807080
9150.000000;0.806714
9149.000000;0.806412
9148.000000;0.806286
9147.000000;0.806350
9146.000000;0.806471
9145.000000;0.806464
9144.000000;0.806304
9143.000000;0.806181
9142.000000;0.806281
9141.000000;0.806541
9140.000000;0.806706
9139.000000;0.806598
9138.000000;0.806263
9137.000000;0.805873
9136.000000;0.805548
9135.000000;0.805302
9134.000000;0.805071
9133.000000;0.804787
9132.000000;0.804449
9131.000000;0.804137
9130.000000;0.803941
9129.000000;0.803917
9128.000000;0.804109
9127.000000;0.804524
9126.000000;0.805020
9125.000000;0.805317
9124.000000;0.805253
9123.000000;0.805015
9122.000000;0.804980
9121.000000;0.805303
9120.000000;0.805759
9119.000000;0.805999
9118.000000;0.805889
9117.000000;0.805583
9116.000000;0.805344
9115.000000;0.805337
9114.000000;0.805532
9113.000000;0.805758
9112.000000;0.805856
9111.000000;0.805775
9110.000000;0.805540
9109.000000;0.805176
9108.000000;0.804746
9107.000000;0.804367
9106.000000;0.804119
9105.000000;0.803970
9104.000000;0.803884
9103.000000;0.803936
9102.000000;0.804176
9101.000000;0.804436
9100.000000;0.804473
9099.000000;0.804303
9098.000000;0.804190
9097.000000;0.804240
9096.000000;0.804220
9095.000000;0.803917
9094.000000;0.803490
9093.000000;0.803260
9092.000000;0.803289
9091.000000;0.803367
9090.000000;0.803364
9089.000000;0.803355
9088.000000;0.803381
9087.000000;0.803310
9086.000000;0.803059
9085.000000;0.802787
9084.000000;0.802733
9083.000000;0.802925
9082.000000;0.803150
9081.000000;0.803187
9080.000000;0.802995
9079.000000;0.802697
9078.000000;0.802458
9077.000000;0.802376
9076.000000;0.802439
9075.000000;0.802553
9074.000000;0.802617
9073.000000;0.802586
9072.000000;0.802446
9071.000000;0.802174
9070.000000;0.801762
9069.000000;0.801278
9068.000000;0.800881
9067.000000;0.800741
9066.000000;0.800920
9065.000000;0.801311
9064.000000;0.801692
9063.000000;0.801896
9062.000000;0.801928
9061.000000;0.801919
9060.000000;0.801958
9059.000000;0.801997
9058.000000;0.801942
9057.000000;0.801769
9056.000000;0.801529
9055.000000;0.801280
9054.000000;0.801086
9053.000000;0.801022
