Criado como novo conjunto de dados;"2706_e01_daniel.spp","90366.5 Secs"
cm-1;Abs
10000.000000;0.628409
9999.000000;0.628274
9998.000000;0.628216
9997.000000;0.628107
9996.000000;0.628069
9995.000000;0.628320
9994.000000;0.628689
9993.000000;0.628820
9992.000000;0.628645
9991.000000;0.628433
9990.000000;0.628301
9989.000000;0.628083
9988.000000;0.627694
9987.000000;0.627319
9986.000000;0.627128
9985.000000;0.627053
9984.000000;0.626929
9983.000000;0.626690
9982.000000;0.626336
9981.000000;0.625910
9980.000000;0.625553
9979.000000;0.625403
9978.000000;0.625423
9977.000000;0.625465
9976.000000;0.625508
9975.000000;0.625595
9974.000000;0.625633
9973.000000;0.625539
9972.000000;0.625568
9971.000000;0.626087
9970.000000;0.626962
9969.000000;0.627536
9968.000000;0.627424
9967.000000;0.627006
9966.000000;0.626902
9965.000000;0.627223
9964.000000;0.627587
9963.000000;0.627670
9962.000000;0.627473
9961.000000;0.627163
9960.000000;0.626890
9959.000000;0.626717
9958.000000;0.626550
9957.000000;0.626211
9956.000000;0.625673
9955.000000;0.625146
9954.000000;0.624833
9953.000000;0.624697
9952.000000;0.624606
9951.000000;0.624562
9950.000000;0.624634
9949.000000;0.624702
9948.000000;0.624479
9947.000000;0.623859
9946.000000;0.623162
9945.000000;0.622915
9944.000000;0.623327
9943.000000;0.623976
9942.000000;0.624152
9941.000000;0.623594
9940.000000;0.622784
9939.000000;0.622387
9938.000000;0.622548
9937.000000;0.622904
9936.000000;0.623138
9935.000000;0.623215
9934.000000;0.623080
9933.000000;0.622538
9932.000000;0.621596
9931.000000;0.620684
9930.000000;0.620311
9929.000000;0.620601
9928.000000;0.621251
9927.000000;0.621809
9926.000000;0.621939
9925.000000;0.621614
9924.000000;0.621181
9923.000000;0.621098
9922.000000;0.621455
9921.000000;0.621846
9920.000000;0.621804
9919.000000;0.621322
9918.000000;0.620815
9917.000000;0.620633
9916.000000;0.620697
9915.000000;0.620629
9914.000000;0.620203
9913.000000;0.619642
9912.000000;0.619409
9911.000000;0.619683
9910.000000;0.620131
9909.000000;0.620292
9908.000000;0.620088
9907.000000;0.619825
9906.000000;0.619770
9905.000000;0.619933
9904.000000;0.620191
9903.000000;0.620407
9902.000000;0.620405
9901.000000;0.620050
9900.000000;0.619401
9899.000000;0.618671
9898.000000;0.618056
9897.000000;0.617728
9896.000000;0.617894
9895.000000;0.618606
9894.000000;0.619511
9893.000000;0.620072
9892.000000;0.620115
9891.000000;0.619953
9890.000000;0.619929
9889.000000;0.620062
9888.000000;0.620185
9887.000000;0.620177
9886.000000;0.619954
9885.000000;0.619480
9884.000000;0.618907
9883.000000;0.618513
9882.000000;0.618348
9881.000000;0.618145
9880.000000;0.617714
9879.000000;0.617233
9878.000000;0.616970
9877.000000;0.616881
9876.000000;0.616691
9875.000000;0.616306
9874.000000;0.615927
9873.000000;0.615781
9872.000000;0.615881
9871.000000;0.616067
9870.000000;0.616192
9869.000000;0.616240
9868.000000;0.616302
9867.000000;0.616468
9866.000000;0.616758
9865.000000;0.617143
9864.000000;0.617549
9863.000000;0.617786
9862.000000;0.617587
9861.000000;0.616894
9860.000000;0.616044
9859.000000;0.615494
9858.000000;0.615348
9857.000000;0.615288
9856.000000;0.614973
9855.000000;0.614411
9854.000000;0.613904
9853.000000;0.613772
9852.000000;0.614098
9851.000000;0.614638
9850.000000;0.614977
9849.000000;0.614900
9848.000000;0.614576
9847.000000;0.614288
9846.000000;0.614104
9845.000000;0.613963
9844.000000;0.613957
9843.000000;0.614232
9842.000000;0.614649
9841.000000;0.614858
9840.000000;0.614749
9839.000000;0.614568
9838.000000;0.614516
9837.000000;0.614501
9836.000000;0.614378
9835.000000;0.614200
9834.000000;0.614090
9833.000000;0.614038
9832.000000;0.613969
9831.000000;0.613873
9830.000000;0.613769
9829.000000;0.613658
9828.000000;0.613571
9827.000000;0.613563
9826.000000;0.613600
9825.000000;0.613579
9824.000000;0.613497
9823.000000;0.613464
9822.000000;0.613527
9821.000000;0.613634
9820.000000;0.613778
9819.000000;0.613988
9818.000000;0.614141
9817.000000;0.614013
9816.000000;0.613598
9815.000000;0.613194
9814.000000;0.613042
9813.000000;0.613034
9812.000000;0.612899
9811.000000;0.612544
9810.000000;0.612131
9809.000000;0.611883
9808.000000;0.611881
9807.000000;0.611969
9806.000000;0.611852
9805.000000;0.611377
9804.000000;0.610704
9803.000000;0.610093
9802.000000;0.609594
9801.000000;0.609141
9800.000000;0.608874
9799.000000;0.609062
9798.000000;0.609666
9797.000000;0.610275
9796.000000;0.610584
9795.000000;0.610666
9794.000000;0.610684
9793.000000;0.610597
9792.000000;0.610327
9791.000000;0.610004
9790.000000;0.609833
9789.000000;0.609877
9788.000000;0.610099
9787.000000;0.610435
9786.000000;0.610678
9785.000000;0.610505
9784.000000;0.609831
9783.000000;0.609002
9782.000000;0.608442
9781.000000;0.608220
9780.000000;0.608142
9779.000000;0.608140
9778.000000;0.608310
9777.000000;0.608645
9776.000000;0.608965
9775.000000;0.609126
9774.000000;0.609149
9773.000000;0.609101
9772.000000;0.608997
9771.000000;0.608836
9770.000000;0.608643
9769.000000;0.608438
9768.000000;0.608233
9767.000000;0.608063
9766.000000;0.608017
9765.000000;0.608208
9764.000000;0.608708
9763.000000;0.609446
9762.000000;0.610156
9761.000000;0.610508
9760.000000;0.610339
9759.000000;0.609747
9758.000000;0.608978
9757.000000;0.608259
9756.000000;0.607720
9755.000000;0.607357
9754.000000;0.607078
9753.000000;0.606834
9752.000000;0.606692
9751.000000;0.606677
9750.000000;0.606635
9749.000000;0.606413
9748.000000;0.606162
9747.000000;0.606227
9746.000000;0.606692
9745.000000;0.607224
9744.000000;0.607460
9743.000000;0.607383
9742.000000;0.607207
9741.000000;0.607067
9740.000000;0.606954
9739.000000;0.606857
9738.000000;0.606777
9737.000000;0.606655
9736.000000;0.606402
9735.000000;0.606017
9734.000000;0.605636
9733.000000;0.605448
9732.000000;0.605568
9731.000000;0.605931
9730.000000;0.606312
9729.000000;0.606532
9728.000000;0.606611
9727.000000;0.606657
9726.000000;0.606649
9725.000000;0.606461
9724.000000;0.606082
9723.000000;0.605658
9722.000000;0.605322
9721.000000;0.605097
9720.000000;0.604956
9719.000000;0.604815
9718.000000;0.604524
9717.000000;0.604054
9716.000000;0.603668
9715.000000;0.603672
9714.000000;0.603960
9713.000000;0.604079
9712.000000;0.603837
9711.000000;0.603550
9710.000000;0.603555
9709.000000;0.603745
9708.000000;0.603814
9707.000000;0.603739
9706.000000;0.603734
9705.000000;0.603829
9704.000000;0.603800
9703.000000;0.603537
9702.000000;0.603256
9701.000000;0.603281
9700.000000;0.603701
9699.000000;0.604266
9698.000000;0.604559
9697.000000;0.604305
9696.000000;0.603609
9695.000000;0.602878
9694.000000;0.602482
9693.000000;0.602516
9692.000000;0.602851
9691.000000;0.603311
9690.000000;0.603699
9689.000000;0.603817
9688.000000;0.603607
9687.000000;0.603248
9686.000000;0.602989
9685.000000;0.602893
9684.000000;0.602818
9683.000000;0.602626
9682.000000;0.602305
9681.000000;0.601910
9680.000000;0.601476
9679.000000;0.601018
9678.000000;0.600575
9677.000000;0.600244
9676.000000;0.600160
9675.000000;0.600402
9674.000000;0.600889
9673.000000;0.601396
9672.000000;0.601722
9671.000000;0.601831
9670.000000;0.601811
9669.000000;0.601740
9668.000000;0.601647
9667.000000;0.601544
9666.000000;0.601433
9665.000000;0.601252
9664.000000;0.600884
9663.000000;0.600279
9662.000000;0.599589
9661.000000;0.599114
9660.000000;0.599038
9659.000000;0.599217
9658.000000;0.599313
9657.000000;0.599159
9656.000000;0.598896
9655.000000;0.598732
9654.000000;0.598710
9653.000000;0.598793
9652.000000;0.599008
9651.000000;0.599333
9650.000000;0.599542
9649.000000;0.599417
9648.000000;0.599082
9647.000000;0.598897
9646.000000;0.598981
9645.000000;0.599059
9644.000000;0.598836
9643.000000;0.598370
9642.000000;0.597985
9641.000000;0.597940
9640.000000;0.598271
9639.000000;0.598808
9638.000000;0.599269
9637.000000;0.599438
9636.000000;0.599337
9635.000000;0.599190
9634.000000;0.599152
9633.000000;0.599143
9632.000000;0.598997
9631.000000;0.598669
9630.000000;0.598242
9629.000000;0.597826
9628.000000;0.597508
9627.000000;0.597344
9626.000000;0.597314
9625.000000;0.597342
9624.000000;0.597405
9623.000000;0.597593
9622.000000;0.597975
9621.000000;0.598429
9620.000000;0.598680
9619.000000;0.598528
9618.000000;0.598036
9617.000000;0.597493
9616.000000;0.597172
9615.000000;0.597112
9614.000000;0.597117
9613.000000;0.596977
9612.000000;0.596677
9611.000000;0.596388
9610.000000;0.596308
9609.000000;0.596494
9608.000000;0.596785
9607.000000;0.596898
9606.000000;0.596707
9605.000000;0.596438
9604.000000;0.596419
9603.000000;0.596595
9602.000000;0.596530
9601.000000;0.595992
9600.000000;0.595332
9599.000000;0.595033
9598.000000;0.595084
9597.000000;0.595086
9596.000000;0.594856
9595.000000;0.594576
9594.000000;0.594396
9593.000000;0.594239
9592.000000;0.594089
9591.000000;0.594132
9590.000000;0.594458
9589.000000;0.594836
9588.000000;0.594965
9587.000000;0.594824
9586.000000;0.594637
9585.000000;0.594604
9584.000000;0.594766
9583.000000;0.594998
9582.000000;0.595078
9581.000000;0.594880
9580.000000;0.594557
9579.000000;0.594401
9578.000000;0.594462
9577.000000;0.594461
9576.000000;0.594186
9575.000000;0.593806
9574.000000;0.593676
9573.000000;0.593928
9572.000000;0.594378
9571.000000;0.594723
9570.000000;0.594740
9569.000000;0.594399
9568.000000;0.593908
9567.000000;0.593581
9566.000000;0.593557
9565.000000;0.593682
9564.000000;0.593724
9563.000000;0.593638
9562.000000;0.593540
9561.000000;0.593536
9560.000000;0.593654
9559.000000;0.593859
9558.000000;0.594042
9557.000000;0.594050
9556.000000;0.593846
9555.000000;0.593575
9554.000000;0.593384
9553.000000;0.593239
9552.000000;0.592999
9551.000000;0.592651
9550.000000;0.592341
9549.000000;0.592191
9548.000000;0.592178
9547.000000;0.592218
9546.000000;0.592280
9545.000000;0.592365
9544.000000;0.592410
9543.000000;0.592282
9542.000000;0.591898
9541.000000;0.591345
9540.000000;0.590846
9539.000000;0.590600
9538.000000;0.590653
9537.000000;0.590913
9536.000000;0.591251
9535.000000;0.591543
9534.000000;0.591680
9533.000000;0.591613
9532.000000;0.591389
9531.000000;0.591105
9530.000000;0.590833
9529.000000;0.590599
9528.000000;0.590416
9527.000000;0.590294
9526.000000;0.590237
9525.000000;0.590263
9524.000000;0.590404
9523.000000;0.590624
9522.000000;0.590787
9521.000000;0.590754
9520.000000;0.590474
9519.000000;0.589961
9518.000000;0.589293
9517.000000;0.588685
9516.000000;0.588446
9515.000000;0.588720
9514.000000;0.589287
9513.000000;0.589755
9512.000000;0.589896
9511.000000;0.589746
9510.000000;0.589459
9509.000000;0.589218
9508.000000;0.589218
9507.000000;0.589528
9506.000000;0.589945
9505.000000;0.590124
9504.000000;0.589905
9503.000000;0.589393
9502.000000;0.588769
9501.000000;0.588153
9500.000000;0.587671
9499.000000;0.587482
9498.000000;0.587628
9497.000000;0.587938
9496.000000;0.588138
9495.000000;0.588064
9494.000000;0.587780
9493.000000;0.587540
9492.000000;0.587569
9491.000000;0.587817
9490.000000;0.587989
9489.000000;0.587900
9488.000000;0.587705
9487.000000;0.587659
9486.000000;0.587767
9485.000000;0.587839
9484.000000;0.587799
9483.000000;0.587723
9482.000000;0.587618
9481.000000;0.587403
9480.000000;0.587117
9479.000000;0.586924
9478.000000;0.586847
9477.000000;0.586714
9476.000000;0.586455
9475.000000;0.586257
9474.000000;0.586313
9473.000000;0.586541
9472.000000;0.586686
9471.000000;0.586617
9470.000000;0.586430
9469.000000;0.586340
9468.000000;0.586525
9467.000000;0.586966
9466.000000;0.587391
9465.000000;0.587457
9464.000000;0.587057
9463.000000;0.586413
9462.000000;0.585850
9461.000000;0.585537
9460.000000;0.585451
9459.000000;0.585474
9458.000000;0.585461
9457.000000;0.585320
9456.000000;0.585072
9455.000000;0.584829
9454.000000;0.584691
9453.000000;0.584714
9452.000000;0.584905
9451.000000;0.585154
9450.000000;0.585233
9449.000000;0.585007
9448.000000;0.584640
9447.000000;0.584441
9446.000000;0.584496
9445.000000;0.584580
9444.000000;0.584455
9443.000000;0.584112
9442.000000;0.583706
9441.000000;0.583395
9440.000000;0.583290
9439.000000;0.583411
9438.000000;0.583617
9437.000000;0.583686
9436.000000;0.583551
9435.000000;0.583375
9434.000000;0.583367
9433.000000;0.583564
9432.000000;0.583823
9431.000000;0.583950
9430.000000;0.583850
9429.000000;0.583619
9428.000000;0.583494
9427.000000;0.583596
9426.000000;0.583761
9425.000000;0.583732
9424.000000;0.583480
9423.000000;0.583174
9422.000000;0.582890
9421.000000;0.582533
9420.000000;0.582096
9419.000000;0.581756
9418.000000;0.581658
9417.000000;0.581738
9416.000000;0.581838
9415.000000;0.581866
9414.000000;0.581795
9413.000000;0.581663
9412.000000;0.581625
9411.000000;0.581848
9410.000000;0.582270
9409.000000;0.582595
9408.000000;0.582620
9407.000000;0.582452
9406.000000;0.582317
9405.000000;0.582281
9404.000000;0.582251
9403.000000;0.582132
9402.000000;0.581901
9401.000000;0.581602
9400.000000;0.581346
9399.000000;0.581214
9398.000000;0.581132
9397.000000;0.580944
9396.000000;0.580649
9395.000000;0.580431
9394.000000;0.580404
9393.000000;0.580477
9392.000000;0.580543
9391.000000;0.580628
9390.000000;0.580755
9389.000000;0.580817
9388.000000;0.580731
9387.000000;0.580588
9386.000000;0.580497
9385.000000;0.580388
9384.000000;0.580120
9383.000000;0.579718
9382.000000;0.579355
9381.000000;0.579129
9380.000000;0.579005
9379.000000;0.578954
9378.000000;0.579011
9377.000000;0.579199
9376.000000;0.579450
9375.000000;0.579633
9374.000000;0.579622
9373.000000;0.579404
9372.000000;0.579121
9371.000000;0.578955
9370.000000;0.578918
9369.000000;0.578848
9368.000000;0.578669
9367.000000;0.578513
9366.000000;0.578523
9365.000000;0.578646
9364.000000;0.578730
9363.000000;0.578741
9362.000000;0.578731
9361.000000;0.578680
9360.000000;0.578521
9359.000000;0.578304
9358.000000;0.578170
9357.000000;0.578160
9356.000000;0.578149
9355.000000;0.578027
9354.000000;0.577839
9353.000000;0.577725
9352.000000;0.577785
9351.000000;0.577992
9350.000000;0.578206
9349.000000;0.578242
9348.000000;0.578004
9347.000000;0.577577
9346.000000;0.577156
9345.000000;0.576884
9344.000000;0.576775
9343.000000;0.576784
9342.000000;0.576885
9341.000000;0.577063
9340.000000;0.577266
9339.000000;0.577406
9338.000000;0.577419
9337.000000;0.577330
9336.000000;0.577237
9335.000000;0.577206
9334.000000;0.577180
9333.000000;0.577034
9332.000000;0.576735
9331.000000;0.576421
9330.000000;0.576285
9329.000000;0.576389
9328.000000;0.576596
9327.000000;0.576667
9326.000000;0.576455
9325.000000;0.576040
9324.000000;0.575684
9323.000000;0.575625
9322.000000;0.575877
9321.000000;0.576230
9320.000000;0.576446
9319.000000;0.576442
9318.000000;0.576314
9317.000000;0.576210
9316.000000;0.576195
9315.000000;0.576183
9314.000000;0.576041
9313.000000;0.575751
9312.000000;0.575454
9311.000000;0.575275
9310.000000;0.575173
9309.000000;0.575035
9308.000000;0.574902
9307.000000;0.574952
9306.000000;0.575241
9305.000000;0.575544
9304.000000;0.575525
9303.000000;0.575063
9302.000000;0.574371
9301.000000;0.573813
9300.000000;0.573625
9299.000000;0.573781
9298.000000;0.574074
9297.000000;0.574289
9296.000000;0.574309
9295.000000;0.574112
9294.000000;0.573787
9293.000000;0.573530
9292.000000;0.573521
9291.000000;0.573729
9290.000000;0.573915
9289.000000;0.573902
9288.000000;0.573749
9287.000000;0.573602
9286.000000;0.573497
9285.000000;0.573401
9284.000000;0.573357
9283.000000;0.573390
9282.000000;0.573364
9281.000000;0.573132
9280.000000;0.572812
9279.000000;0.572699
9278.000000;0.572874
9277.000000;0.573082
9276.000000;0.573060
9275.000000;0.572836
9274.000000;0.572615
9273.000000;0.572509
9272.000000;0.572496
9271.000000;0.572538
9270.000000;0.572618
9269.000000;0.572707
9268.000000;0.572764
9267.000000;0.572755
9266.000000;0.572639
9265.000000;0.572399
9264.000000;0.572124
9263.000000;0.571972
9262.000000;0.572001
9261.000000;0.572095
9260.000000;0.572095
9259.000000;0.571969
9258.000000;0.571808
9257.000000;0.571720
9256.000000;0.571745
9255.000000;0.571834
9254.000000;0.571875
9253.000000;0.571791
9252.000000;0.571640
9251.000000;0.571542
9250.000000;0.571514
9249.000000;0.571436
9248.000000;0.571216
9247.000000;0.570907
9246.000000;0.570617
9245.000000;0.570387
9244.000000;0.570218
9243.000000;0.570143
9242.000000;0.570203
9241.000000;0.570361
9240.000000;0.570518
9239.000000;0.570586
9238.000000;0.570531
9237.000000;0.570376
9236.000000;0.570203
9235.000000;0.570098
9234.000000;0.570070
9233.000000;0.570024
9232.000000;0.569865
9231.000000;0.569609
9230.000000;0.569373
9229.000000;0.569281
9228.000000;0.569380
9227.000000;0.569627
9226.000000;0.569931
9225.000000;0.570209
9224.000000;0.570401
9223.000000;0.570451
9222.000000;0.570308
9221.000000;0.569978
9220.000000;0.569557
9219.000000;0.569146
9218.000000;0.568784
9217.000000;0.568491
9216.000000;0.568339
9215.000000;0.568380
9214.000000;0.568521
9213.000000;0.568571
9212.000000;0.568436
9211.000000;0.568185
9210.000000;0.567918
9209.000000;0.567650
9208.000000;0.567367
9207.000000;0.567125
9206.000000;0.567037
9205.000000;0.567164
9204.000000;0.567455
9203.000000;0.567773
9202.000000;0.567980
9201.000000;0.568027
9200.000000;0.567965
9199.000000;0.567869
9198.000000;0.567774
9197.000000;0.567706
9196.000000;0.567688
9195.000000;0.567668
9194.000000;0.567502
9193.000000;0.567112
9192.000000;0.566625
9191.000000;0.566245
9190.000000;0.566047
9189.000000;0.565980
9188.000000;0.566039
9187.000000;0.566265
9186.000000;0.566571
9185.000000;0.566744
9184.000000;0.566689
9183.000000;0.566566
9182.000000;0.566574
9181.000000;0.566700
9180.000000;0.566761
9179.000000;0.566647
9178.000000;0.566423
9177.000000;0.566230
9176.000000;0.566143
9175.000000;0.566121
9174.000000;0.566042
9173.000000;0.565798
9172.000000;0.565412
9171.000000;0.565041
9170.000000;0.564870
9169.000000;0.564974
9168.000000;0.565290
9167.000000;0.565651
9166.000000;0.565876
9165.000000;0.565878
9164.000000;0.565707
9163.000000;0.565482
9162.000000;0.565268
9161.000000;0.565060
9160.000000;0.564868
9159.000000;0.564737
9158.000000;0.564684
9157.000000;0.564685
9156.000000;0.564753
9155.000000;0.564947
9154.000000;0.565257
9153.000000;0.565551
9152.000000;0.565686
9151.000000;0.565661
9150.000000;0.565591
9149.000000;0.565549
9148.000000;0.565464
9147.000000;0.565211
9146.000000;0.564776
9145.000000;0.564302
9144.000000;0.563960
9143.000000;0.563789
9142.000000;0.563706
9141.000000;0.563649
9140.000000;0.563641
9139.000000;0.563682
9138.000000;0.563658
9137.000000;0.563441
9136.000000;0.563046
9135.000000;0.562645
9134.000000;0.562411
9133.000000;0.562419
9132.000000;0.562634
9131.000000;0.562939
9130.000000;0.563168
9129.000000;0.563190
9128.000000;0.562999
9127.000000;0.562710
9126.000000;0.562473
9125.000000;0.562397
9124.000000;0.562495
9123.000000;0.562656
9122.000000;0.562720
9121.000000;0.562643
9120.000000;0.562569
9119.000000;0.562657
9118.000000;0.562889
9117.000000;0.563091
9116.000000;0.563136
9115.000000;0.563021
9114.000000;0.562796
9113.000000;0.562512
9112.000000;0.562266
9111.000000;0.562165
9110.000000;0.562211
9109.000000;0.562268
9108.000000;0.562185
9107.000000;0.561937
9106.000000;0.561638
9105.000000;0.561452
9104.000000;0.561480
9103.000000;0.561688
9102.000000;0.561916
9101.000000;0.561994
9100.000000;0.561871
9099.000000;0.561629
9098.000000;0.561386
9097.000000;0.561198
9096.000000;0.561047
9095.000000;0.560876
9094.000000;0.560666
9093.000000;0.560477
9092.000000;0.560384
9091.000000;0.560376
9090.000000;0.560356
9089.000000;0.560281
9088.000000;0.560233
9087.000000;0.560293
9086.000000;0.560395
9085.000000;0.560404
9084.000000;0.560277
9083.000000;0.560108
9082.000000;0.560021
9081.000000;0.560079
9080.000000;0.560248
9079.000000;0.560369
9078.000000;0.560235
9077.000000;0.559796
9076.000000;0.559262
9075.000000;0.558920
9074.000000;0.558858
9073.000000;0.558937
9072.000000;0.558999
9071.000000;0.558997
9070.000000;0.558948
9069.000000;0.558879
9068.000000;0.558839
9067.000000;0.558872
9066.000000;0.558948
9065.000000;0.558980
9064.000000;0.558942
9063.000000;0.558894
9062.000000;0.558895
9061.000000;0.558939
9060.000000;0.558982
9059.000000;0.558993
9058.000000;0.558956
9057.000000;0.558860
9056.000000;0.558696
9055.000000;0.558458
9054.000000;0.558181
9053.000000;0.557967
