Criado como novo conjunto de dados;"2706_e01_daniel.spp","55444.7 Secs"
cm-1;Abs
10000.000000;0.816544
9999.000000;0.816843
9998.000000;0.817184
9997.000000;0.817672
9996.000000;0.818078
9995.000000;0.817866
9994.000000;0.816674
9993.000000;0.814809
9992.000000;0.813133
9991.000000;0.812365
9990.000000;0.812556
9989.000000;0.813216
9988.000000;0.813748
9987.000000;0.813694
9986.000000;0.812895
9985.000000;0.811685
9984.000000;0.810810
9983.000000;0.810825
9982.000000;0.811546
9981.000000;0.812281
9980.000000;0.812558
9979.000000;0.812492
9978.000000;0.812477
9977.000000;0.812776
9976.000000;0.813391
9975.000000;0.814112
9974.000000;0.814652
9973.000000;0.814881
9972.000000;0.814943
9971.000000;0.814978
9970.000000;0.814799
9969.000000;0.814088
9968.000000;0.812918
9967.000000;0.811811
9966.000000;0.811198
9965.000000;0.811056
9964.000000;0.811155
9963.000000;0.811415
9962.000000;0.811839
9961.000000;0.812277
9960.000000;0.812497
9959.000000;0.812443
9958.000000;0.812283
9957.000000;0.812207
9956.000000;0.812260
9955.000000;0.812340
9954.000000;0.812294
9953.000000;0.812057
9952.000000;0.811733
9951.000000;0.811532
9950.000000;0.811588
9949.000000;0.811844
9948.000000;0.812103
9947.000000;0.812157
9946.000000;0.811879
9945.000000;0.811307
9944.000000;0.810644
9943.000000;0.810100
9942.000000;0.809721
9941.000000;0.809459
9940.000000;0.809364
9939.000000;0.809563
9938.000000;0.810024
9937.000000;0.810511
9936.000000;0.810825
9935.000000;0.810958
9934.000000;0.810905
9933.000000;0.810540
9932.000000;0.809788
9931.000000;0.808829
9930.000000;0.807943
9929.000000;0.807253
9928.000000;0.806762
9927.000000;0.806597
9926.000000;0.806957
9925.000000;0.807781
9924.000000;0.808623
9923.000000;0.808995
9922.000000;0.808745
9921.000000;0.808057
9920.000000;0.807205
9919.000000;0.806435
9918.000000;0.805968
9917.000000;0.805898
9916.000000;0.806085
9915.000000;0.806287
9914.000000;0.806413
9913.000000;0.806535
9912.000000;0.806646
9911.000000;0.806605
9910.000000;0.806387
9909.000000;0.806172
9908.000000;0.806050
9907.000000;0.805842
9906.000000;0.805468
9905.000000;0.805306
9904.000000;0.805787
9903.000000;0.806608
9902.000000;0.806816
9901.000000;0.805902
9900.000000;0.804519
9899.000000;0.803801
9898.000000;0.804170
9897.000000;0.805082
9896.000000;0.805795
9895.000000;0.806027
9894.000000;0.805872
9893.000000;0.805484
9892.000000;0.805061
9891.000000;0.804894
9890.000000;0.805130
9889.000000;0.805527
9888.000000;0.805592
9887.000000;0.805058
9886.000000;0.804151
9885.000000;0.803387
9884.000000;0.803121
9883.000000;0.803278
9882.000000;0.803499
9881.000000;0.803546
9880.000000;0.803516
9879.000000;0.803644
9878.000000;0.803990
9877.000000;0.804388
9876.000000;0.804617
9875.000000;0.804520
9874.000000;0.804032
9873.000000;0.803263
9872.000000;0.802532
9871.000000;0.802135
9870.000000;0.802053
9869.000000;0.802053
9868.000000;0.802074
9867.000000;0.802302
9866.000000;0.802788
9865.000000;0.803233
9864.000000;0.803332
9863.000000;0.803170
9862.000000;0.803079
9861.000000;0.803226
9860.000000;0.803513
9859.000000;0.803781
9858.000000;0.803898
9857.000000;0.803710
9856.000000;0.803148
9855.000000;0.802373
9854.000000;0.801631
9853.000000;0.801006
9852.000000;0.800528
9851.000000;0.800459
9850.000000;0.801125
9849.000000;0.802338
9848.000000;0.803291
9847.000000;0.803300
9846.000000;0.802512
9845.000000;0.801690
9844.000000;0.801431
9843.000000;0.801774
9842.000000;0.802360
9841.000000;0.802721
9840.000000;0.802525
9839.000000;0.801851
9838.000000;0.801202
9837.000000;0.801009
9836.000000;0.801130
9835.000000;0.801068
9834.000000;0.800647
9833.000000;0.800197
9832.000000;0.800033
9831.000000;0.800056
9830.000000;0.799986
9829.000000;0.799733
9828.000000;0.799377
9827.000000;0.798995
9826.000000;0.798700
9825.000000;0.798692
9824.000000;0.799070
9823.000000;0.799656
9822.000000;0.800161
9821.000000;0.800422
9820.000000;0.800369
9819.000000;0.799896
9818.000000;0.799006
9817.000000;0.798026
9816.000000;0.797474
9815.000000;0.797654
9814.000000;0.798423
9813.000000;0.799303
9812.000000;0.799804
9811.000000;0.799757
9810.000000;0.799430
9809.000000;0.799236
9808.000000;0.799253
9807.000000;0.799170
9806.000000;0.798778
9805.000000;0.798322
9804.000000;0.798193
9803.000000;0.798418
9802.000000;0.798670
9801.000000;0.798673
9800.000000;0.798395
9799.000000;0.797945
9798.000000;0.797516
9797.000000;0.797334
9796.000000;0.797426
9795.000000;0.797463
9794.000000;0.797087
9793.000000;0.796364
9792.000000;0.795701
9791.000000;0.795353
9790.000000;0.795269
9789.000000;0.795364
9788.000000;0.795628
9787.000000;0.795936
9786.000000;0.796075
9785.000000;0.796019
9784.000000;0.795931
9783.000000;0.795811
9782.000000;0.795435
9781.000000;0.794791
9780.000000;0.794277
9779.000000;0.794271
9778.000000;0.794690
9777.000000;0.795167
9776.000000;0.795495
9775.000000;0.795701
9774.000000;0.795830
9773.000000;0.795880
9772.000000;0.795911
9771.000000;0.795988
9770.000000;0.796056
9769.000000;0.795999
9768.000000;0.795827
9767.000000;0.795664
9766.000000;0.795592
9765.000000;0.795586
9764.000000;0.795584
9763.000000;0.795508
9762.000000;0.795241
9761.000000;0.794703
9760.000000;0.793960
9759.000000;0.793220
9758.000000;0.792680
9757.000000;0.792402
9756.000000;0.792290
9755.000000;0.792182
9754.000000;0.791979
9753.000000;0.791740
9752.000000;0.791631
9751.000000;0.791800
9750.000000;0.792302
9749.000000;0.793055
9748.000000;0.793800
9747.000000;0.794196
9746.000000;0.794095
9745.000000;0.793717
9744.000000;0.793420
9743.000000;0.793288
9742.000000;0.793100
9741.000000;0.792705
9740.000000;0.792254
9739.000000;0.791980
9738.000000;0.791911
9737.000000;0.791917
9736.000000;0.791934
9735.000000;0.792037
9734.000000;0.792305
9733.000000;0.792671
9732.000000;0.792923
9731.000000;0.792865
9730.000000;0.792536
9729.000000;0.792219
9728.000000;0.792113
9727.000000;0.792083
9726.000000;0.791869
9725.000000;0.791495
9724.000000;0.791264
9723.000000;0.791325
9722.000000;0.791491
9721.000000;0.791541
9720.000000;0.791474
9719.000000;0.791381
9718.000000;0.791257
9717.000000;0.791092
9716.000000;0.790968
9715.000000;0.790914
9714.000000;0.790803
9713.000000;0.790569
9712.000000;0.790398
9711.000000;0.790514
9710.000000;0.790850
9709.000000;0.791128
9708.000000;0.791179
9707.000000;0.790982
9706.000000;0.790476
9705.000000;0.789585
9704.000000;0.788506
9703.000000;0.787745
9702.000000;0.787670
9701.000000;0.788087
9700.000000;0.788417
9699.000000;0.788335
9698.000000;0.788104
9697.000000;0.788203
9696.000000;0.788712
9695.000000;0.789273
9694.000000;0.789628
9693.000000;0.789907
9692.000000;0.790244
9691.000000;0.790375
9690.000000;0.789950
9689.000000;0.789146
9688.000000;0.788577
9687.000000;0.788558
9686.000000;0.788782
9685.000000;0.788825
9684.000000;0.788648
9683.000000;0.788419
9682.000000;0.788112
9681.000000;0.787598
9680.000000;0.786979
9679.000000;0.786572
9678.000000;0.786567
9677.000000;0.786863
9676.000000;0.787190
9675.000000;0.787264
9674.000000;0.786911
9673.000000;0.786237
9672.000000;0.785654
9671.000000;0.785575
9670.000000;0.786027
9669.000000;0.786639
9668.000000;0.787012
9667.000000;0.787032
9666.000000;0.786833
9665.000000;0.786547
9664.000000;0.786144
9663.000000;0.785557
9662.000000;0.784921
9661.000000;0.784601
9660.000000;0.784851
9659.000000;0.785475
9658.000000;0.785996
9657.000000;0.786174
9656.000000;0.786195
9655.000000;0.786318
9654.000000;0.786509
9653.000000;0.786569
9652.000000;0.786443
9651.000000;0.786247
9650.000000;0.786107
9649.000000;0.786094
9648.000000;0.786238
9647.000000;0.786455
9646.000000;0.786526
9645.000000;0.786294
9644.000000;0.785846
9643.000000;0.785381
9642.000000;0.784984
9641.000000;0.784642
9640.000000;0.784423
9639.000000;0.784449
9638.000000;0.784679
9637.000000;0.784871
9636.000000;0.784818
9635.000000;0.784574
9634.000000;0.784393
9633.000000;0.784453
9632.000000;0.784651
9631.000000;0.784693
9630.000000;0.784401
9629.000000;0.783893
9628.000000;0.783395
9627.000000;0.782962
9626.000000;0.782513
9625.000000;0.782100
9624.000000;0.781925
9623.000000;0.782048
9622.000000;0.782259
9621.000000;0.782347
9620.000000;0.782356
9619.000000;0.782448
9618.000000;0.782660
9617.000000;0.782904
9616.000000;0.783098
9615.000000;0.783184
9614.000000;0.783104
9613.000000;0.782896
9612.000000;0.782735
9611.000000;0.782748
9610.000000;0.782857
9609.000000;0.782888
9608.000000;0.782755
9607.000000;0.782444
9606.000000;0.781929
9605.000000;0.781280
9604.000000;0.780761
9603.000000;0.780642
9602.000000;0.780893
9601.000000;0.781196
9600.000000;0.781301
9599.000000;0.781277
9598.000000;0.781382
9597.000000;0.781725
9596.000000;0.782088
9595.000000;0.782094
9594.000000;0.781594
9593.000000;0.780891
9592.000000;0.780499
9591.000000;0.780663
9590.000000;0.781182
9589.000000;0.781692
9588.000000;0.782012
9587.000000;0.782163
9586.000000;0.782211
9585.000000;0.782179
9584.000000;0.782013
9583.000000;0.781572
9582.000000;0.780765
9581.000000;0.779788
9580.000000;0.779088
9579.000000;0.778950
9578.000000;0.779204
9577.000000;0.779435
9576.000000;0.779410
9575.000000;0.779188
9574.000000;0.778937
9573.000000;0.778809
9572.000000;0.778907
9571.000000;0.779207
9570.000000;0.779490
9569.000000;0.779510
9568.000000;0.779239
9567.000000;0.778892
9566.000000;0.778731
9565.000000;0.778880
9564.000000;0.779265
9563.000000;0.779625
9562.000000;0.779648
9561.000000;0.779264
9560.000000;0.778782
9559.000000;0.778639
9558.000000;0.778960
9557.000000;0.779437
9556.000000;0.779638
9555.000000;0.779383
9554.000000;0.778820
9553.000000;0.778203
9552.000000;0.777671
9551.000000;0.777255
9550.000000;0.777052
9549.000000;0.777244
9548.000000;0.777815
9547.000000;0.778354
9546.000000;0.778355
9545.000000;0.777778
9544.000000;0.777136
9543.000000;0.776946
9542.000000;0.777234
9541.000000;0.777676
9540.000000;0.778016
9539.000000;0.778212
9538.000000;0.778296
9537.000000;0.778292
9536.000000;0.778238
9535.000000;0.778156
9534.000000;0.778001
9533.000000;0.777729
9532.000000;0.777364
9531.000000;0.776920
9530.000000;0.776353
9529.000000;0.775703
9528.000000;0.775201
9527.000000;0.775100
9526.000000;0.775424
9525.000000;0.775966
9524.000000;0.776493
9523.000000;0.776877
9522.000000;0.777078
9521.000000;0.777128
9520.000000;0.777101
9519.000000;0.777020
9518.000000;0.776816
9517.000000;0.776440
9516.000000;0.775973
9515.000000;0.775557
9514.000000;0.775266
9513.000000;0.775108
9512.000000;0.775079
9511.000000;0.775148
9510.000000;0.775222
9509.000000;0.775206
9508.000000;0.775062
9507.000000;0.774775
9506.000000;0.774359
9505.000000;0.773961
9504.000000;0.773813
9503.000000;0.773981
9502.000000;0.774266
9501.000000;0.774487
9500.000000;0.774738
9499.000000;0.775189
9498.000000;0.775708
9497.000000;0.775934
9496.000000;0.775743
9495.000000;0.775410
9494.000000;0.775235
9493.000000;0.775167
9492.000000;0.774927
9491.000000;0.774405
9490.000000;0.773788
9489.000000;0.773325
9488.000000;0.773097
9487.000000;0.773066
9486.000000;0.773216
9485.000000;0.773530
9484.000000;0.773836
9483.000000;0.773875
9482.000000;0.773597
9481.000000;0.773257
9480.000000;0.773096
9479.000000;0.773011
9478.000000;0.772689
9477.000000;0.772023
9476.000000;0.771253
9475.000000;0.770714
9474.000000;0.770629
9473.000000;0.771096
9472.000000;0.772027
9471.000000;0.773041
9470.000000;0.773647
9469.000000;0.773648
9468.000000;0.773265
9467.000000;0.772810
9466.000000;0.772418
9465.000000;0.772126
9464.000000;0.772007
9463.000000;0.772088
9462.000000;0.772265
9461.000000;0.772439
9460.000000;0.772603
9459.000000;0.772707
9458.000000;0.772594
9457.000000;0.772166
9456.000000;0.771551
9455.000000;0.770988
9454.000000;0.770653
9453.000000;0.770615
9452.000000;0.770803
9451.000000;0.770971
9450.000000;0.770897
9449.000000;0.770681
9448.000000;0.770666
9447.000000;0.770971
9446.000000;0.771315
9445.000000;0.771409
9444.000000;0.771263
9443.000000;0.770978
9442.000000;0.770504
9441.000000;0.769842
9440.000000;0.769256
9439.000000;0.769012
9438.000000;0.769057
9437.000000;0.769196
9436.000000;0.769387
9435.000000;0.769612
9434.000000;0.769639
9433.000000;0.769262
9432.000000;0.768713
9431.000000;0.768462
9430.000000;0.768651
9429.000000;0.768993
9428.000000;0.769219
9427.000000;0.769340
9426.000000;0.769441
9425.000000;0.769501
9424.000000;0.769496
9423.000000;0.769467
9422.000000;0.769398
9421.000000;0.769207
9420.000000;0.768895
9419.000000;0.768574
9418.000000;0.768318
9417.000000;0.768143
9416.000000;0.768104
9415.000000;0.768243
9414.000000;0.768426
9413.000000;0.768425
9412.000000;0.768194
9411.000000;0.767901
9410.000000;0.767671
9409.000000;0.767489
9408.000000;0.767347
9407.000000;0.767303
9406.000000;0.767329
9405.000000;0.767298
9404.000000;0.767192
9403.000000;0.767142
9402.000000;0.767175
9401.000000;0.767093
9400.000000;0.766726
9399.000000;0.766197
9398.000000;0.765798
9397.000000;0.765707
9396.000000;0.765898
9395.000000;0.766261
9394.000000;0.766665
9393.000000;0.766953
9392.000000;0.767001
9391.000000;0.766860
9390.000000;0.766761
9389.000000;0.766917
9388.000000;0.767262
9387.000000;0.767435
9386.000000;0.767112
9385.000000;0.766382
9384.000000;0.765702
9383.000000;0.765431
9382.000000;0.765508
9381.000000;0.765643
9380.000000;0.765695
9379.000000;0.765702
9378.000000;0.765671
9377.000000;0.765531
9376.000000;0.765322
9375.000000;0.765199
9374.000000;0.765218
9373.000000;0.765222
9372.000000;0.765033
9371.000000;0.764648
9370.000000;0.764229
9369.000000;0.763950
9368.000000;0.763904
9367.000000;0.764059
9366.000000;0.764271
9365.000000;0.764379
9364.000000;0.764337
9363.000000;0.764205
9362.000000;0.764036
9361.000000;0.763839
9360.000000;0.763640
9359.000000;0.763499
9358.000000;0.763430
9357.000000;0.763388
9356.000000;0.763347
9355.000000;0.763329
9354.000000;0.763351
9353.000000;0.763382
9352.000000;0.763384
9351.000000;0.763362
9350.000000;0.763343
9349.000000;0.763341
9348.000000;0.763344
9347.000000;0.763342
9346.000000;0.763353
9345.000000;0.763408
9344.000000;0.763518
9343.000000;0.763646
9342.000000;0.763751
9341.000000;0.763823
9340.000000;0.763846
9339.000000;0.763774
9338.000000;0.763586
9337.000000;0.763333
9336.000000;0.763038
9335.000000;0.762620
9334.000000;0.762042
9333.000000;0.761501
9332.000000;0.761291
9331.000000;0.761455
9330.000000;0.761741
9329.000000;0.761936
9328.000000;0.762055
9327.000000;0.762146
9326.000000;0.762124
9325.000000;0.761945
9324.000000;0.761754
9323.000000;0.761690
9322.000000;0.761670
9321.000000;0.761562
9320.000000;0.761445
9319.000000;0.761511
9318.000000;0.761747
9317.000000;0.761922
9316.000000;0.761846
9315.000000;0.761533
9314.000000;0.761146
9313.000000;0.760880
9312.000000;0.760870
9311.000000;0.761056
9310.000000;0.761205
9309.000000;0.761165
9308.000000;0.761066
9307.000000;0.761141
9306.000000;0.761397
9305.000000;0.761583
9304.000000;0.761457
9303.000000;0.760990
9302.000000;0.760377
9301.000000;0.759915
9300.000000;0.759817
9299.000000;0.760018
9298.000000;0.760245
9297.000000;0.760335
9296.000000;0.760374
9295.000000;0.760405
9294.000000;0.760220
9293.000000;0.759657
9292.000000;0.758977
9291.000000;0.758649
9290.000000;0.758783
9289.000000;0.759017
9288.000000;0.758996
9287.000000;0.758756
9286.000000;0.758572
9285.000000;0.758614
9284.000000;0.758820
9283.000000;0.758994
9282.000000;0.758987
9281.000000;0.758858
9280.000000;0.758850
9279.000000;0.759102
9278.000000;0.759421
9277.000000;0.759472
9276.000000;0.759170
9275.000000;0.758740
9274.000000;0.758394
9273.000000;0.758134
9272.000000;0.757896
9271.000000;0.757707
9270.000000;0.757647
9269.000000;0.757733
9268.000000;0.757892
9267.000000;0.757967
9266.000000;0.757796
9265.000000;0.757390
9264.000000;0.757038
9263.000000;0.757059
9262.000000;0.757401
9261.000000;0.757646
9260.000000;0.757471
9259.000000;0.756999
9258.000000;0.756632
9257.000000;0.756613
9256.000000;0.756834
9255.000000;0.756986
9254.000000;0.756842
9253.000000;0.756442
9252.000000;0.756056
9251.000000;0.755933
9250.000000;0.756092
9249.000000;0.756350
9248.000000;0.756528
9247.000000;0.756576
9246.000000;0.756539
9245.000000;0.756499
9244.000000;0.756531
9243.000000;0.756626
9242.000000;0.756664
9241.000000;0.756550
9240.000000;0.756370
9239.000000;0.756309
9238.000000;0.756420
9237.000000;0.756555
9236.000000;0.756516
9235.000000;0.756208
9234.000000;0.755665
9233.000000;0.755042
9232.000000;0.754599
9231.000000;0.754550
9230.000000;0.754867
9229.000000;0.755274
9228.000000;0.755471
9227.000000;0.755331
9226.000000;0.754916
9225.000000;0.754387
9224.000000;0.753931
9223.000000;0.753666
9222.000000;0.753588
9221.000000;0.753592
9220.000000;0.753548
9219.000000;0.753348
9218.000000;0.752966
9217.000000;0.752544
9216.000000;0.752352
9215.000000;0.752540
9214.000000;0.752959
9213.000000;0.753324
9212.000000;0.753529
9211.000000;0.753659
9210.000000;0.753728
9209.000000;0.753580
9208.000000;0.753158
9207.000000;0.752712
9206.000000;0.752601
9205.000000;0.752904
9204.000000;0.753327
9203.000000;0.753494
9202.000000;0.753316
9201.000000;0.753035
9200.000000;0.752937
9199.000000;0.753063
9198.000000;0.753231
9197.000000;0.753282
9196.000000;0.753243
9195.000000;0.753198
9194.000000;0.753137
9193.000000;0.753000
9192.000000;0.752804
9191.000000;0.752602
9190.000000;0.752368
9189.000000;0.752036
9188.000000;0.751661
9187.000000;0.751417
9186.000000;0.751402
9185.000000;0.751542
9184.000000;0.751701
9183.000000;0.751823
9182.000000;0.751918
9181.000000;0.751970
9180.000000;0.751919
9179.000000;0.751749
9178.000000;0.751530
9177.000000;0.751349
9176.000000;0.751214
9175.000000;0.751076
9174.000000;0.750932
9173.000000;0.750865
9172.000000;0.750906
9171.000000;0.750925
9170.000000;0.750759
9169.000000;0.750439
9168.000000;0.750168
9167.000000;0.750080
9166.000000;0.750138
9165.000000;0.750274
9164.000000;0.750458
9163.000000;0.750593
9162.000000;0.750501
9161.000000;0.750158
9160.000000;0.749788
9159.000000;0.749608
9158.000000;0.749583
9157.000000;0.749567
9156.000000;0.749542
9155.000000;0.749577
9154.000000;0.749632
9153.000000;0.749616
9152.000000;0.749575
9151.000000;0.749645
9150.000000;0.749818
9149.000000;0.749933
9148.000000;0.749899
9147.000000;0.749760
9146.000000;0.749543
9145.000000;0.749192
9144.000000;0.748724
9143.000000;0.748308
9142.000000;0.748100
9141.000000;0.748092
9140.000000;0.748146
9139.000000;0.748130
9138.000000;0.747996
9137.000000;0.747814
9136.000000;0.747753
9135.000000;0.747948
9134.000000;0.748334
9133.000000;0.748666
9132.000000;0.748733
9131.000000;0.748518
9130.000000;0.748131
9129.000000;0.747670
9128.000000;0.747203
9127.000000;0.746822
9126.000000;0.746641
9125.000000;0.746708
9124.000000;0.746964
9123.000000;0.747298
9122.000000;0.747621
9121.000000;0.747871
9120.000000;0.747967
9119.000000;0.747833
9118.000000;0.747499
9117.000000;0.747136
9116.000000;0.746894
9115.000000;0.746768
9114.000000;0.746679
9113.000000;0.746673
9112.000000;0.746882
9111.000000;0.747273
9110.000000;0.747550
9109.000000;0.747410
9108.000000;0.746818
9107.000000;0.746012
9106.000000;0.745296
9105.000000;0.744896
9104.000000;0.744892
9103.000000;0.745175
9102.000000;0.745509
9101.000000;0.745712
9100.000000;0.745767
9099.000000;0.745757
9098.000000;0.745758
9097.000000;0.745817
9096.000000;0.745929
9095.000000;0.745983
9094.000000;0.745819
9093.000000;0.745433
9092.000000;0.745038
9091.000000;0.744874
9090.000000;0.744992
9089.000000;0.745246
9088.000000;0.745428
9087.000000;0.745370
9086.000000;0.745042
9085.000000;0.744618
9084.000000;0.744327
9083.000000;0.744191
9082.000000;0.744008
9081.000000;0.743676
9080.000000;0.743370
9079.000000;0.743290
9078.000000;0.743377
9077.000000;0.743419
9076.000000;0.743343
9075.000000;0.743240
9074.000000;0.743180
9073.000000;0.743174
9072.000000;0.743267
9071.000000;0.743491
9070.000000;0.743725
9069.000000;0.743759
9068.000000;0.743540
9067.000000;0.743253
9066.000000;0.743125
9065.000000;0.743207
9064.000000;0.743363
9063.000000;0.743415
9062.000000;0.743320
9061.000000;0.743208
9060.000000;0.743244
9059.000000;0.743442
9058.000000;0.743674
9057.000000;0.743836
9056.000000;0.743911
9055.000000;0.743841
9054.000000;0.743529
9053.000000;0.743017
