Criado como novo conjunto de dados;"2706_e01_daniel.spp","90186.7 Secs"
cm-1;Abs
10000.000000;0.651365
9999.000000;0.650980
9998.000000;0.650589
9997.000000;0.650210
9996.000000;0.649809
9995.000000;0.649454
9994.000000;0.648965
9993.000000;0.647967
9992.000000;0.646737
9991.000000;0.645555
9990.000000;0.644662
9989.000000;0.644107
9988.000000;0.643915
9987.000000;0.644116
9986.000000;0.644638
9985.000000;0.645224
9984.000000;0.645603
9983.000000;0.645694
9982.000000;0.645603
9981.000000;0.645459
9980.000000;0.645334
9979.000000;0.645279
9978.000000;0.645317
9977.000000;0.645356
9976.000000;0.645230
9975.000000;0.644933
9974.000000;0.644773
9973.000000;0.645103
9972.000000;0.645835
9971.000000;0.646400
9970.000000;0.646392
9969.000000;0.646114
9968.000000;0.646199
9967.000000;0.646745
9966.000000;0.647148
9965.000000;0.646859
9964.000000;0.645988
9963.000000;0.645006
9962.000000;0.644141
9961.000000;0.643368
9960.000000;0.642768
9959.000000;0.642550
9958.000000;0.642744
9957.000000;0.643118
9956.000000;0.643407
9955.000000;0.643466
9954.000000;0.643283
9953.000000;0.643006
9952.000000;0.642926
9951.000000;0.643223
9950.000000;0.643714
9949.000000;0.643994
9948.000000;0.643833
9947.000000;0.643345
9946.000000;0.642808
9945.000000;0.642438
9944.000000;0.642274
9943.000000;0.642170
9942.000000;0.641952
9941.000000;0.641686
9940.000000;0.641683
9939.000000;0.642077
9938.000000;0.642563
9937.000000;0.642723
9936.000000;0.642515
9935.000000;0.642227
9934.000000;0.642069
9933.000000;0.642092
9932.000000;0.642371
9931.000000;0.642909
9930.000000;0.643355
9929.000000;0.643220
9928.000000;0.642488
9927.000000;0.641694
9926.000000;0.641247
9925.000000;0.640984
9924.000000;0.640601
9923.000000;0.640244
9922.000000;0.640324
9921.000000;0.640872
9920.000000;0.641411
9919.000000;0.641540
9918.000000;0.641376
9917.000000;0.641264
9916.000000;0.641257
9915.000000;0.641120
9914.000000;0.640775
9913.000000;0.640467
9912.000000;0.640401
9911.000000;0.640430
9910.000000;0.640260
9909.000000;0.639843
9908.000000;0.639373
9907.000000;0.638982
9906.000000;0.638692
9905.000000;0.638628
9904.000000;0.638947
9903.000000;0.639479
9902.000000;0.639710
9901.000000;0.639337
9900.000000;0.638671
9899.000000;0.638296
9898.000000;0.638444
9897.000000;0.638834
9896.000000;0.639028
9895.000000;0.638795
9894.000000;0.638226
9893.000000;0.637613
9892.000000;0.637176
9891.000000;0.636868
9890.000000;0.636552
9889.000000;0.636343
9888.000000;0.636551
9887.000000;0.637213
9886.000000;0.637954
9885.000000;0.638439
9884.000000;0.638675
9883.000000;0.638721
9882.000000;0.638434
9881.000000;0.637788
9880.000000;0.637159
9879.000000;0.636902
9878.000000;0.636875
9877.000000;0.636716
9876.000000;0.636415
9875.000000;0.636208
9874.000000;0.636071
9873.000000;0.635793
9872.000000;0.635460
9871.000000;0.635411
9870.000000;0.635714
9869.000000;0.636081
9868.000000;0.636366
9867.000000;0.636709
9866.000000;0.637126
9865.000000;0.637335
9864.000000;0.637146
9863.000000;0.636704
9862.000000;0.636190
9861.000000;0.635609
9860.000000;0.634999
9859.000000;0.634545
9858.000000;0.634307
9857.000000;0.634113
9856.000000;0.633911
9855.000000;0.633942
9854.000000;0.634347
9853.000000;0.634796
9852.000000;0.634827
9851.000000;0.634414
9850.000000;0.633969
9849.000000;0.633842
9848.000000;0.634026
9847.000000;0.634306
9846.000000;0.634474
9845.000000;0.634396
9844.000000;0.634016
9843.000000;0.633381
9842.000000;0.632606
9841.000000;0.631824
9840.000000;0.631213
9839.000000;0.630985
9838.000000;0.631275
9837.000000;0.631980
9836.000000;0.632767
9835.000000;0.633302
9834.000000;0.633505
9833.000000;0.633548
9832.000000;0.633559
9831.000000;0.633374
9830.000000;0.632728
9829.000000;0.631695
9828.000000;0.630745
9827.000000;0.630282
9826.000000;0.630270
9825.000000;0.630448
9824.000000;0.630703
9823.000000;0.631026
9822.000000;0.631292
9821.000000;0.631390
9820.000000;0.631489
9819.000000;0.631820
9818.000000;0.632223
9817.000000;0.632240
9816.000000;0.631730
9815.000000;0.631086
9814.000000;0.630708
9813.000000;0.630549
9812.000000;0.630387
9811.000000;0.630260
9810.000000;0.630363
9809.000000;0.630634
9808.000000;0.630745
9807.000000;0.630517
9806.000000;0.630145
9805.000000;0.629960
9804.000000;0.630060
9803.000000;0.630277
9802.000000;0.630418
9801.000000;0.630486
9800.000000;0.630609
9799.000000;0.630830
9798.000000;0.631063
9797.000000;0.631228
9796.000000;0.631291
9795.000000;0.631119
9794.000000;0.630494
9793.000000;0.629453
9792.000000;0.628469
9791.000000;0.628064
9790.000000;0.628250
9789.000000;0.628556
9788.000000;0.628591
9787.000000;0.628415
9786.000000;0.628319
9785.000000;0.628468
9784.000000;0.628801
9783.000000;0.629118
9782.000000;0.629157
9781.000000;0.628759
9780.000000;0.628086
9779.000000;0.627589
9778.000000;0.627643
9777.000000;0.628215
9776.000000;0.628915
9775.000000;0.629302
9774.000000;0.629135
9773.000000;0.628447
9772.000000;0.627478
9771.000000;0.626549
9770.000000;0.625931
9769.000000;0.625762
9768.000000;0.626018
9767.000000;0.626520
9766.000000;0.627039
9765.000000;0.627448
9764.000000;0.627744
9763.000000;0.627895
9762.000000;0.627762
9761.000000;0.627239
9760.000000;0.626423
9759.000000;0.625579
9758.000000;0.625006
9757.000000;0.624939
9756.000000;0.625404
9755.000000;0.626069
9754.000000;0.626423
9753.000000;0.626281
9752.000000;0.625985
9751.000000;0.625932
9750.000000;0.626079
9749.000000;0.626156
9748.000000;0.626151
9747.000000;0.626236
9746.000000;0.626324
9745.000000;0.626136
9744.000000;0.625721
9743.000000;0.625499
9742.000000;0.625670
9741.000000;0.625914
9740.000000;0.625851
9739.000000;0.625519
9738.000000;0.625201
9737.000000;0.625028
9736.000000;0.624982
9735.000000;0.625087
9734.000000;0.625332
9733.000000;0.625509
9732.000000;0.625387
9731.000000;0.625010
9730.000000;0.624641
9729.000000;0.624430
9728.000000;0.624299
9727.000000;0.624135
9726.000000;0.623941
9725.000000;0.623763
9724.000000;0.623561
9723.000000;0.623238
9722.000000;0.622777
9721.000000;0.622313
9720.000000;0.622070
9719.000000;0.622184
9718.000000;0.622592
9717.000000;0.623105
9716.000000;0.623568
9715.000000;0.623883
9714.000000;0.623926
9713.000000;0.623602
9712.000000;0.623039
9711.000000;0.622605
9710.000000;0.622599
9709.000000;0.622940
9708.000000;0.623234
9707.000000;0.623166
9706.000000;0.622780
9705.000000;0.622362
9704.000000;0.622096
9703.000000;0.621887
9702.000000;0.621559
9701.000000;0.621127
9700.000000;0.620778
9699.000000;0.620606
9698.000000;0.620503
9697.000000;0.620376
9696.000000;0.620334
9695.000000;0.620540
9694.000000;0.620974
9693.000000;0.621466
9692.000000;0.621850
9691.000000;0.621977
9690.000000;0.621694
9689.000000;0.621040
9688.000000;0.620398
9687.000000;0.620188
9686.000000;0.620384
9685.000000;0.620538
9684.000000;0.620367
9683.000000;0.620105
9682.000000;0.620169
9681.000000;0.620628
9680.000000;0.621149
9679.000000;0.621387
9678.000000;0.621291
9677.000000;0.621050
9676.000000;0.620857
9675.000000;0.620766
9674.000000;0.620698
9673.000000;0.620538
9672.000000;0.620225
9671.000000;0.619791
9670.000000;0.619388
9669.000000;0.619239
9668.000000;0.619460
9667.000000;0.619867
9666.000000;0.620073
9665.000000;0.619879
9664.000000;0.619487
9663.000000;0.619236
9662.000000;0.619198
9661.000000;0.619142
9660.000000;0.618864
9659.000000;0.618404
9658.000000;0.617982
9657.000000;0.617831
9656.000000;0.618032
9655.000000;0.618395
9654.000000;0.618559
9653.000000;0.618381
9652.000000;0.618176
9651.000000;0.618366
9650.000000;0.618921
9649.000000;0.619329
9648.000000;0.619195
9647.000000;0.618659
9646.000000;0.618158
9645.000000;0.617923
9644.000000;0.617834
9643.000000;0.617647
9642.000000;0.617210
9641.000000;0.616535
9640.000000;0.615787
9639.000000;0.615218
9638.000000;0.615028
9637.000000;0.615243
9636.000000;0.615715
9635.000000;0.616210
9634.000000;0.616529
9633.000000;0.616623
9632.000000;0.616609
9631.000000;0.616634
9630.000000;0.616695
9629.000000;0.616628
9628.000000;0.616292
9627.000000;0.615721
9626.000000;0.615119
9625.000000;0.614717
9624.000000;0.614624
9623.000000;0.614791
9622.000000;0.615102
9621.000000;0.615484
9620.000000;0.615870
9619.000000;0.616102
9618.000000;0.616029
9617.000000;0.615768
9616.000000;0.615685
9615.000000;0.615981
9614.000000;0.616393
9613.000000;0.616502
9612.000000;0.616242
9611.000000;0.615892
9610.000000;0.615607
9609.000000;0.615240
9608.000000;0.614663
9607.000000;0.614046
9606.000000;0.613642
9605.000000;0.613482
9604.000000;0.613405
9603.000000;0.613326
9602.000000;0.613314
9601.000000;0.613432
9600.000000;0.613611
9599.000000;0.613737
9598.000000;0.613784
9597.000000;0.613834
9596.000000;0.613984
9595.000000;0.614249
9594.000000;0.614551
9593.000000;0.614762
9592.000000;0.614743
9591.000000;0.614402
9590.000000;0.613771
9589.000000;0.613048
9588.000000;0.612472
9587.000000;0.612154
9586.000000;0.612040
9585.000000;0.612028
9584.000000;0.612021
9583.000000;0.611918
9582.000000;0.611696
9581.000000;0.611560
9580.000000;0.611805
9579.000000;0.612407
9578.000000;0.612903
9577.000000;0.612859
9576.000000;0.612370
9575.000000;0.611926
9574.000000;0.611845
9573.000000;0.612028
9572.000000;0.612218
9571.000000;0.612277
9570.000000;0.612169
9569.000000;0.611888
9568.000000;0.611509
9567.000000;0.611208
9566.000000;0.611123
9565.000000;0.611242
9564.000000;0.611479
9563.000000;0.611792
9562.000000;0.612156
9561.000000;0.612484
9560.000000;0.612652
9559.000000;0.612624
9558.000000;0.612493
9557.000000;0.612378
9556.000000;0.612282
9555.000000;0.612123
9554.000000;0.611891
9553.000000;0.611705
9552.000000;0.611643
9551.000000;0.611594
9550.000000;0.611392
9549.000000;0.611093
9548.000000;0.610948
9547.000000;0.611056
9546.000000;0.611191
9545.000000;0.611048
9544.000000;0.610589
9543.000000;0.610052
9542.000000;0.609690
9541.000000;0.609552
9540.000000;0.609497
9539.000000;0.609367
9538.000000;0.609189
9537.000000;0.609181
9536.000000;0.609487
9535.000000;0.609950
9534.000000;0.610267
9533.000000;0.610325
9532.000000;0.610225
9531.000000;0.610002
9530.000000;0.609577
9529.000000;0.609036
9528.000000;0.608683
9527.000000;0.608670
9526.000000;0.608802
9525.000000;0.608821
9524.000000;0.608692
9523.000000;0.608481
9522.000000;0.608202
9521.000000;0.607956
9520.000000;0.607969
9519.000000;0.608262
9518.000000;0.608509
9517.000000;0.608486
9516.000000;0.608434
9515.000000;0.608687
9514.000000;0.609094
9513.000000;0.609206
9512.000000;0.608915
9511.000000;0.608537
9510.000000;0.608292
9509.000000;0.608068
9508.000000;0.607740
9507.000000;0.607376
9506.000000;0.607061
9505.000000;0.606754
9504.000000;0.606442
9503.000000;0.606228
9502.000000;0.606199
9501.000000;0.606353
9500.000000;0.606663
9499.000000;0.607074
9498.000000;0.607421
9497.000000;0.607533
9496.000000;0.607416
9495.000000;0.607176
9494.000000;0.606801
9493.000000;0.606225
9492.000000;0.605569
9491.000000;0.605074
9490.000000;0.604806
9489.000000;0.604661
9488.000000;0.604648
9487.000000;0.604885
9486.000000;0.605293
9485.000000;0.605577
9484.000000;0.605609
9483.000000;0.605598
9482.000000;0.605741
9481.000000;0.605958
9480.000000;0.606074
9479.000000;0.606062
9478.000000;0.605941
9477.000000;0.605644
9476.000000;0.605171
9475.000000;0.604739
9474.000000;0.604573
9473.000000;0.604643
9472.000000;0.604740
9471.000000;0.604746
9470.000000;0.604681
9469.000000;0.604566
9468.000000;0.604392
9467.000000;0.604185
9466.000000;0.603989
9465.000000;0.603805
9464.000000;0.603658
9463.000000;0.603679
9462.000000;0.604007
9461.000000;0.604598
9460.000000;0.605181
9459.000000;0.605443
9458.000000;0.605261
9457.000000;0.604769
9456.000000;0.604236
9455.000000;0.603850
9454.000000;0.603599
9453.000000;0.603373
9452.000000;0.603121
9451.000000;0.602868
9450.000000;0.602623
9449.000000;0.602375
9448.000000;0.602178
9447.000000;0.602145
9446.000000;0.602295
9445.000000;0.602503
9444.000000;0.602659
9443.000000;0.602800
9442.000000;0.603025
9441.000000;0.603300
9440.000000;0.603425
9439.000000;0.603196
9438.000000;0.602621
9437.000000;0.601953
9436.000000;0.601492
9435.000000;0.601343
9434.000000;0.601388
9433.000000;0.601480
9432.000000;0.601615
9431.000000;0.601847
9430.000000;0.602121
9429.000000;0.602283
9428.000000;0.602237
9427.000000;0.602035
9426.000000;0.601817
9425.000000;0.601700
9424.000000;0.601692
9423.000000;0.601690
9422.000000;0.601587
9421.000000;0.601414
9420.000000;0.601284
9419.000000;0.601210
9418.000000;0.601074
9417.000000;0.600847
9416.000000;0.600666
9415.000000;0.600599
9414.000000;0.600491
9413.000000;0.600225
9412.000000;0.599992
9411.000000;0.600064
9410.000000;0.600376
9409.000000;0.600580
9408.000000;0.600488
9407.000000;0.600227
9406.000000;0.599927
9405.000000;0.599543
9404.000000;0.599101
9403.000000;0.598882
9402.000000;0.599147
9401.000000;0.599768
9400.000000;0.600299
9399.000000;0.600390
9398.000000;0.600042
9397.000000;0.599490
9396.000000;0.598963
9395.000000;0.598582
9394.000000;0.598387
9393.000000;0.598361
9392.000000;0.598425
9391.000000;0.598472
9390.000000;0.598462
9389.000000;0.598481
9388.000000;0.598652
9387.000000;0.598979
9386.000000;0.599343
9385.000000;0.599628
9384.000000;0.599778
9383.000000;0.599748
9382.000000;0.599509
9381.000000;0.599143
9380.000000;0.598800
9379.000000;0.598528
9378.000000;0.598253
9377.000000;0.597972
9376.000000;0.597808
9375.000000;0.597795
9374.000000;0.597771
9373.000000;0.597626
9372.000000;0.597511
9371.000000;0.597612
9370.000000;0.597851
9369.000000;0.597990
9368.000000;0.597963
9367.000000;0.597898
9366.000000;0.597860
9365.000000;0.597778
9364.000000;0.597614
9363.000000;0.597436
9362.000000;0.597297
9361.000000;0.597185
9360.000000;0.597092
9359.000000;0.597025
9358.000000;0.596955
9357.000000;0.596857
9356.000000;0.596774
9355.000000;0.596735
9354.000000;0.596662
9353.000000;0.596460
9352.000000;0.596193
9351.000000;0.596023
9350.000000;0.596001
9349.000000;0.596043
9348.000000;0.596076
9347.000000;0.596058
9346.000000;0.595911
9345.000000;0.595585
9344.000000;0.595200
9343.000000;0.594983
9342.000000;0.595024
9341.000000;0.595224
9340.000000;0.595460
9339.000000;0.595696
9338.000000;0.595907
9337.000000;0.596022
9336.000000;0.595975
9335.000000;0.595761
9334.000000;0.595429
9333.000000;0.595061
9332.000000;0.594741
9331.000000;0.594517
9330.000000;0.594409
9329.000000;0.594466
9328.000000;0.594719
9327.000000;0.595033
9326.000000;0.595184
9325.000000;0.595145
9324.000000;0.595151
9323.000000;0.595336
9322.000000;0.595497
9321.000000;0.595401
9320.000000;0.595152
9319.000000;0.595014
9318.000000;0.594977
9317.000000;0.594785
9316.000000;0.594360
9315.000000;0.593897
9314.000000;0.593570
9313.000000;0.593378
9312.000000;0.593322
9311.000000;0.593473
9310.000000;0.593791
9309.000000;0.594080
9308.000000;0.594197
9307.000000;0.594165
9306.000000;0.594061
9305.000000;0.593908
9304.000000;0.593744
9303.000000;0.593632
9302.000000;0.593569
9301.000000;0.593489
9300.000000;0.593353
9299.000000;0.593146
9298.000000;0.592834
9297.000000;0.592452
9296.000000;0.592183
9295.000000;0.592183
9294.000000;0.592359
9293.000000;0.592497
9292.000000;0.592558
9291.000000;0.592627
9290.000000;0.592641
9289.000000;0.592441
9288.000000;0.592104
9287.000000;0.591915
9286.000000;0.591951
9285.000000;0.591940
9284.000000;0.591643
9283.000000;0.591143
9282.000000;0.590648
9281.000000;0.590243
9280.000000;0.589985
9279.000000;0.590034
9278.000000;0.590478
9277.000000;0.591112
9276.000000;0.591586
9275.000000;0.591729
9274.000000;0.591637
9273.000000;0.591507
9272.000000;0.591468
9271.000000;0.591534
9270.000000;0.591611
9269.000000;0.591573
9268.000000;0.591365
9267.000000;0.591003
9266.000000;0.590539
9265.000000;0.590088
9264.000000;0.589823
9263.000000;0.589801
9262.000000;0.589822
9261.000000;0.589633
9260.000000;0.589263
9259.000000;0.588982
9258.000000;0.588929
9257.000000;0.589000
9256.000000;0.589131
9255.000000;0.589424
9254.000000;0.589876
9253.000000;0.590223
9252.000000;0.590235
9251.000000;0.590019
9250.000000;0.589824
9249.000000;0.589671
9248.000000;0.589367
9247.000000;0.588857
9246.000000;0.588364
9245.000000;0.588161
9244.000000;0.588293
9243.000000;0.588544
9242.000000;0.588640
9241.000000;0.588510
9240.000000;0.588365
9239.000000;0.588453
9238.000000;0.588752
9237.000000;0.588985
9236.000000;0.588966
9235.000000;0.588766
9234.000000;0.588535
9233.000000;0.588294
9232.000000;0.588031
9231.000000;0.587828
9230.000000;0.587743
9229.000000;0.587658
9228.000000;0.587431
9227.000000;0.587146
9226.000000;0.587072
9225.000000;0.587340
9224.000000;0.587787
9223.000000;0.588159
9222.000000;0.588361
9221.000000;0.588448
9220.000000;0.588439
9219.000000;0.588260
9218.000000;0.587860
9217.000000;0.587322
9216.000000;0.586795
9215.000000;0.586375
9214.000000;0.586106
9213.000000;0.586040
9212.000000;0.586188
9211.000000;0.586414
9210.000000;0.586527
9209.000000;0.586504
9208.000000;0.586514
9207.000000;0.586656
9206.000000;0.586818
9205.000000;0.586882
9204.000000;0.586915
9203.000000;0.586982
9202.000000;0.586895
9201.000000;0.586401
9200.000000;0.585564
9199.000000;0.584746
9198.000000;0.584219
9197.000000;0.583975
9196.000000;0.583937
9195.000000;0.584111
9194.000000;0.584479
9193.000000;0.584914
9192.000000;0.585314
9191.000000;0.585698
9190.000000;0.586084
9189.000000;0.586387
9188.000000;0.586501
9187.000000;0.586418
9186.000000;0.586194
9185.000000;0.585861
9184.000000;0.585443
9183.000000;0.584971
9182.000000;0.584461
9181.000000;0.583931
9180.000000;0.583470
9179.000000;0.583204
9178.000000;0.583181
9177.000000;0.583361
9176.000000;0.583712
9175.000000;0.584217
9174.000000;0.584773
9173.000000;0.585170
9172.000000;0.585253
9171.000000;0.585048
9170.000000;0.584713
9169.000000;0.584400
9168.000000;0.584172
9167.000000;0.584000
9166.000000;0.583833
9165.000000;0.583696
9164.000000;0.583652
9163.000000;0.583634
9162.000000;0.583436
9161.000000;0.583011
9160.000000;0.582646
9159.000000;0.582661
9158.000000;0.582988
9157.000000;0.583260
9156.000000;0.583282
9155.000000;0.583191
9154.000000;0.583137
9153.000000;0.583072
9152.000000;0.582934
9151.000000;0.582792
9150.000000;0.582697
9149.000000;0.582549
9148.000000;0.582271
9147.000000;0.581974
9146.000000;0.581811
9145.000000;0.581776
9144.000000;0.581758
9143.000000;0.581720
9142.000000;0.581700
9141.000000;0.581716
9140.000000;0.581747
9139.000000;0.581764
9138.000000;0.581700
9137.000000;0.581483
9136.000000;0.581157
9135.000000;0.580906
9134.000000;0.580879
9133.000000;0.581042
9132.000000;0.581259
9131.000000;0.581429
9130.000000;0.581497
9129.000000;0.581430
9128.000000;0.581278
9127.000000;0.581189
9126.000000;0.581257
9125.000000;0.581386
9124.000000;0.581386
9123.000000;0.581181
9122.000000;0.580872
9121.000000;0.580631
9120.000000;0.580570
9119.000000;0.580679
9118.000000;0.580831
9117.000000;0.580866
9116.000000;0.580728
9115.000000;0.580511
9114.000000;0.580367
9113.000000;0.580364
9112.000000;0.580427
9111.000000;0.580390
9110.000000;0.580135
9109.000000;0.579731
9108.000000;0.579405
9107.000000;0.579336
9106.000000;0.579493
9105.000000;0.579719
9104.000000;0.579915
9103.000000;0.580062
9102.000000;0.580106
9101.000000;0.579995
9100.000000;0.579790
9099.000000;0.579632
9098.000000;0.579543
9097.000000;0.579398
9096.000000;0.579123
9095.000000;0.578812
9094.000000;0.578600
9093.000000;0.578499
9092.000000;0.578427
9091.000000;0.578338
9090.000000;0.578272
9089.000000;0.578308
9088.000000;0.578475
9087.000000;0.578691
9086.000000;0.578792
9085.000000;0.578695
9084.000000;0.578492
9083.000000;0.578343
9082.000000;0.578310
9081.000000;0.578366
9080.000000;0.578486
9079.000000;0.578617
9078.000000;0.578629
9077.000000;0.578440
9076.000000;0.578145
9075.000000;0.577887
9074.000000;0.577646
9073.000000;0.577329
9072.000000;0.577016
9071.000000;0.576897
9070.000000;0.576965
9069.000000;0.576987
9068.000000;0.576843
9067.000000;0.576672
9066.000000;0.576642
9065.000000;0.576739
9064.000000;0.576894
9063.000000;0.577094
9062.000000;0.577292
9061.000000;0.577364
9060.000000;0.577302
9059.000000;0.577277
9058.000000;0.577362
9057.000000;0.577352
9056.000000;0.577009
9055.000000;0.576423
9054.000000;0.575922
9053.000000;0.575700
