Criado como novo conjunto de dados;"2706_e01_daniel.spp","40324.1 Secs"
cm-1;Abs
10000.000000;0.725633
9999.000000;0.725339
9998.000000;0.725042
9997.000000;0.724750
9996.000000;0.724467
9995.000000;0.724420
9994.000000;0.724758
9993.000000;0.725295
9992.000000;0.725741
9991.000000;0.725854
9990.000000;0.725548
9989.000000;0.724944
9988.000000;0.724396
9987.000000;0.724286
9986.000000;0.724664
9985.000000;0.725157
9984.000000;0.725365
9983.000000;0.725267
9982.000000;0.725069
9981.000000;0.724784
9980.000000;0.724236
9979.000000;0.723442
9978.000000;0.722703
9977.000000;0.722256
9976.000000;0.722049
9975.000000;0.721976
9974.000000;0.722088
9973.000000;0.722418
9972.000000;0.722745
9971.000000;0.722775
9970.000000;0.722480
9969.000000;0.722115
9968.000000;0.721909
9967.000000;0.721856
9966.000000;0.721808
9965.000000;0.721664
9964.000000;0.721465
9963.000000;0.721329
9962.000000;0.721338
9961.000000;0.721434
9960.000000;0.721432
9959.000000;0.721143
9958.000000;0.720526
9957.000000;0.719758
9956.000000;0.719167
9955.000000;0.719004
9954.000000;0.719194
9953.000000;0.719373
9952.000000;0.719263
9951.000000;0.718997
9950.000000;0.718965
9949.000000;0.719339
9948.000000;0.719883
9947.000000;0.720213
9946.000000;0.720126
9945.000000;0.719685
9944.000000;0.719104
9943.000000;0.718636
9942.000000;0.718446
9941.000000;0.718527
9940.000000;0.718754
9939.000000;0.719022
9938.000000;0.719275
9937.000000;0.719442
9936.000000;0.719476
9935.000000;0.719448
9934.000000;0.719474
9933.000000;0.719509
9932.000000;0.719356
9931.000000;0.718926
9930.000000;0.718373
9929.000000;0.717925
9928.000000;0.717703
9927.000000;0.717727
9926.000000;0.717939
9925.000000;0.718153
9924.000000;0.718155
9923.000000;0.717963
9922.000000;0.717884
9921.000000;0.718150
9920.000000;0.718585
9919.000000;0.718794
9918.000000;0.718601
9917.000000;0.718181
9916.000000;0.717814
9915.000000;0.717654
9914.000000;0.717735
9913.000000;0.717969
9912.000000;0.718100
9911.000000;0.717818
9910.000000;0.717073
9909.000000;0.716235
9908.000000;0.715808
9907.000000;0.715935
9906.000000;0.716274
9905.000000;0.716400
9904.000000;0.716285
9903.000000;0.716271
9902.000000;0.716600
9901.000000;0.717090
9900.000000;0.717339
9899.000000;0.717153
9898.000000;0.716682
9897.000000;0.716224
9896.000000;0.715996
9895.000000;0.716037
9894.000000;0.716198
9893.000000;0.716228
9892.000000;0.716004
9891.000000;0.715676
9890.000000;0.715502
9889.000000;0.715569
9888.000000;0.715755
9887.000000;0.715858
9886.000000;0.715655
9885.000000;0.714949
9884.000000;0.713850
9883.000000;0.712969
9882.000000;0.712986
9881.000000;0.713874
9880.000000;0.714796
9879.000000;0.714964
9878.000000;0.714463
9877.000000;0.714023
9876.000000;0.714110
9875.000000;0.714490
9874.000000;0.714608
9873.000000;0.714190
9872.000000;0.713422
9871.000000;0.712726
9870.000000;0.712425
9869.000000;0.712544
9868.000000;0.712851
9867.000000;0.713110
9866.000000;0.713270
9865.000000;0.713406
9864.000000;0.713529
9863.000000;0.713551
9862.000000;0.713431
9861.000000;0.713303
9860.000000;0.713383
9859.000000;0.713738
9858.000000;0.714160
9857.000000;0.714286
9856.000000;0.713929
9855.000000;0.713254
9854.000000;0.712586
9853.000000;0.712056
9852.000000;0.711571
9851.000000;0.711118
9850.000000;0.710912
9849.000000;0.711105
9848.000000;0.711465
9847.000000;0.711534
9846.000000;0.711119
9845.000000;0.710506
9844.000000;0.710191
9843.000000;0.710441
9842.000000;0.711121
9841.000000;0.711812
9840.000000;0.712103
9839.000000;0.711871
9838.000000;0.711321
9837.000000;0.710767
9836.000000;0.710365
9835.000000;0.710085
9834.000000;0.709841
9833.000000;0.709568
9832.000000;0.709206
9831.000000;0.708762
9830.000000;0.708397
9829.000000;0.708314
9828.000000;0.708511
9827.000000;0.708749
9826.000000;0.708847
9825.000000;0.708915
9824.000000;0.709172
9823.000000;0.709608
9822.000000;0.709953
9821.000000;0.709974
9820.000000;0.709686
9819.000000;0.709267
9818.000000;0.708871
9817.000000;0.708577
9816.000000;0.708407
9815.000000;0.708309
9814.000000;0.708140
9813.000000;0.707784
9812.000000;0.707314
9811.000000;0.707003
9810.000000;0.707115
9809.000000;0.707627
9808.000000;0.708187
9807.000000;0.708387
9806.000000;0.708143
9805.000000;0.707755
9804.000000;0.707543
9803.000000;0.707486
9802.000000;0.707336
9801.000000;0.707063
9800.000000;0.706985
9799.000000;0.707361
9798.000000;0.707996
9797.000000;0.708397
9796.000000;0.708259
9795.000000;0.707718
9794.000000;0.707196
9793.000000;0.707075
9792.000000;0.707430
9791.000000;0.707931
9790.000000;0.708074
9789.000000;0.707645
9788.000000;0.706948
9787.000000;0.706465
9786.000000;0.706390
9785.000000;0.706622
9784.000000;0.707080
9783.000000;0.707726
9782.000000;0.708299
9781.000000;0.708364
9780.000000;0.707769
9779.000000;0.706852
9778.000000;0.706038
9777.000000;0.705437
9776.000000;0.704981
9775.000000;0.704748
9774.000000;0.704892
9773.000000;0.705326
9772.000000;0.705684
9771.000000;0.705653
9770.000000;0.705247
9769.000000;0.704761
9768.000000;0.704520
9767.000000;0.704645
9766.000000;0.704982
9765.000000;0.705278
9764.000000;0.705431
9763.000000;0.705493
9762.000000;0.705466
9761.000000;0.705244
9760.000000;0.704843
9759.000000;0.704506
9758.000000;0.704425
9757.000000;0.704487
9756.000000;0.704437
9755.000000;0.704201
9754.000000;0.703932
9753.000000;0.703811
9752.000000;0.703923
9751.000000;0.704225
9750.000000;0.704490
9749.000000;0.704408
9748.000000;0.703922
9747.000000;0.703370
9746.000000;0.703107
9745.000000;0.703086
9744.000000;0.703024
9743.000000;0.702873
9742.000000;0.702859
9741.000000;0.703072
9740.000000;0.703285
9739.000000;0.703255
9738.000000;0.702983
9737.000000;0.702597
9736.000000;0.702180
9735.000000;0.701821
9734.000000;0.701652
9733.000000;0.701713
9732.000000;0.701864
9731.000000;0.701944
9730.000000;0.701942
9729.000000;0.701955
9728.000000;0.702042
9727.000000;0.702172
9726.000000;0.702245
9725.000000;0.702122
9724.000000;0.701731
9723.000000;0.701209
9722.000000;0.700839
9721.000000;0.700790
9720.000000;0.700939
9719.000000;0.701023
9718.000000;0.700932
9717.000000;0.700803
9716.000000;0.700848
9715.000000;0.701108
9714.000000;0.701377
9713.000000;0.701408
9712.000000;0.701213
9711.000000;0.701090
9710.000000;0.701249
9709.000000;0.701483
9708.000000;0.701357
9707.000000;0.700721
9706.000000;0.699871
9705.000000;0.699183
9704.000000;0.698751
9703.000000;0.698485
9702.000000;0.698388
9701.000000;0.698560
9700.000000;0.698953
9699.000000;0.699295
9698.000000;0.699314
9697.000000;0.699011
9696.000000;0.698683
9695.000000;0.698699
9694.000000;0.699219
9693.000000;0.700051
9692.000000;0.700770
9691.000000;0.701012
9690.000000;0.700722
9689.000000;0.700131
9688.000000;0.699516
9687.000000;0.698976
9686.000000;0.698451
9685.000000;0.697932
9684.000000;0.697592
9683.000000;0.697617
9682.000000;0.697929
9681.000000;0.698180
9680.000000;0.698096
9679.000000;0.697777
9678.000000;0.697561
9677.000000;0.697624
9676.000000;0.697788
9675.000000;0.697723
9674.000000;0.697278
9673.000000;0.696619
9672.000000;0.696084
9671.000000;0.695909
9670.000000;0.696065
9669.000000;0.696330
9668.000000;0.696509
9667.000000;0.696556
9666.000000;0.696490
9665.000000;0.696313
9664.000000;0.696079
9663.000000;0.695963
9662.000000;0.696120
9661.000000;0.696489
9660.000000;0.696823
9659.000000;0.696902
9658.000000;0.696702
9657.000000;0.696384
9656.000000;0.696180
9655.000000;0.696254
9654.000000;0.696553
9653.000000;0.696814
9652.000000;0.696789
9651.000000;0.696496
9650.000000;0.696175
9649.000000;0.696033
9648.000000;0.696069
9647.000000;0.696136
9646.000000;0.696057
9645.000000;0.695739
9644.000000;0.695251
9643.000000;0.694831
9642.000000;0.694739
9641.000000;0.695053
9640.000000;0.695612
9639.000000;0.696128
9638.000000;0.696343
9637.000000;0.696154
9636.000000;0.695689
9635.000000;0.695240
9634.000000;0.695030
9633.000000;0.695049
9632.000000;0.695150
9631.000000;0.695230
9630.000000;0.695255
9629.000000;0.695152
9628.000000;0.694840
9627.000000;0.694382
9626.000000;0.694006
9625.000000;0.693939
9624.000000;0.694237
9623.000000;0.694724
9622.000000;0.695055
9621.000000;0.694927
9620.000000;0.694368
9619.000000;0.693779
9618.000000;0.693564
9617.000000;0.693728
9616.000000;0.693946
9615.000000;0.693968
9614.000000;0.693797
9613.000000;0.693536
9612.000000;0.693270
9611.000000;0.693114
9610.000000;0.693161
9609.000000;0.693289
9608.000000;0.693223
9607.000000;0.692898
9606.000000;0.692588
9605.000000;0.692561
9604.000000;0.692741
9603.000000;0.692862
9602.000000;0.692812
9601.000000;0.692648
9600.000000;0.692379
9599.000000;0.691968
9598.000000;0.691543
9597.000000;0.691369
9596.000000;0.691564
9595.000000;0.691950
9594.000000;0.692253
9593.000000;0.692344
9592.000000;0.692246
9591.000000;0.692022
9590.000000;0.691747
9589.000000;0.691517
9588.000000;0.691371
9587.000000;0.691248
9586.000000;0.691068
9585.000000;0.690851
9584.000000;0.690708
9583.000000;0.690737
9582.000000;0.690958
9581.000000;0.691292
9580.000000;0.691551
9579.000000;0.691497
9578.000000;0.691038
9577.000000;0.690372
9576.000000;0.689853
9575.000000;0.689663
9574.000000;0.689698
9573.000000;0.689788
9572.000000;0.689929
9571.000000;0.690202
9570.000000;0.690577
9569.000000;0.690923
9568.000000;0.691179
9567.000000;0.691362
9566.000000;0.691418
9565.000000;0.691204
9564.000000;0.690687
9563.000000;0.690057
9562.000000;0.689577
9561.000000;0.689365
9560.000000;0.689359
9559.000000;0.689431
9558.000000;0.689506
9557.000000;0.689603
9556.000000;0.689785
9555.000000;0.690037
9554.000000;0.690216
9553.000000;0.690205
9552.000000;0.690080
9551.000000;0.690023
9550.000000;0.690050
9549.000000;0.689967
9548.000000;0.689654
9547.000000;0.689259
9546.000000;0.689032
9545.000000;0.689036
9544.000000;0.689109
9543.000000;0.689042
9542.000000;0.688750
9541.000000;0.688321
9540.000000;0.687973
9539.000000;0.687882
9538.000000;0.688003
9537.000000;0.688140
9536.000000;0.688179
9535.000000;0.688165
9534.000000;0.688107
9533.000000;0.687904
9532.000000;0.687577
9531.000000;0.687374
9530.000000;0.687477
9529.000000;0.687716
9528.000000;0.687797
9527.000000;0.687710
9526.000000;0.687686
9525.000000;0.687779
9524.000000;0.687748
9523.000000;0.687420
9522.000000;0.686957
9521.000000;0.686657
9520.000000;0.686613
9519.000000;0.686671
9518.000000;0.686630
9517.000000;0.686410
9516.000000;0.686067
9515.000000;0.685733
9514.000000;0.685530
9513.000000;0.685483
9512.000000;0.685524
9511.000000;0.685570
9510.000000;0.685601
9509.000000;0.685690
9508.000000;0.685961
9507.000000;0.686478
9506.000000;0.687111
9505.000000;0.687560
9504.000000;0.687597
9503.000000;0.687279
9502.000000;0.686862
9501.000000;0.686542
9500.000000;0.686322
9499.000000;0.686102
9498.000000;0.685804
9497.000000;0.685443
9496.000000;0.685144
9495.000000;0.685075
9494.000000;0.685270
9493.000000;0.685529
9492.000000;0.685576
9491.000000;0.685338
9490.000000;0.684987
9489.000000;0.684730
9488.000000;0.684620
9487.000000;0.684595
9486.000000;0.684592
9485.000000;0.684584
9484.000000;0.684541
9483.000000;0.684413
9482.000000;0.684155
9481.000000;0.683811
9480.000000;0.683554
9479.000000;0.683576
9478.000000;0.683888
9477.000000;0.684293
9476.000000;0.684590
9475.000000;0.684747
9474.000000;0.684821
9473.000000;0.684792
9472.000000;0.684599
9471.000000;0.684269
9470.000000;0.683890
9469.000000;0.683494
9468.000000;0.683085
9467.000000;0.682761
9466.000000;0.682667
9465.000000;0.682812
9464.000000;0.683052
9463.000000;0.683251
9462.000000;0.683356
9461.000000;0.683333
9460.000000;0.683145
9459.000000;0.682851
9458.000000;0.682621
9457.000000;0.682568
9456.000000;0.682629
9455.000000;0.682617
9454.000000;0.682383
9453.000000;0.681920
9452.000000;0.681399
9451.000000;0.681083
9450.000000;0.681133
9449.000000;0.681434
9448.000000;0.681705
9447.000000;0.681785
9446.000000;0.681756
9445.000000;0.681759
9444.000000;0.681791
9443.000000;0.681760
9442.000000;0.681674
9441.000000;0.681678
9440.000000;0.681887
9439.000000;0.682212
9438.000000;0.682408
9437.000000;0.682286
9436.000000;0.681889
9435.000000;0.681422
9434.000000;0.681045
9433.000000;0.680786
9432.000000;0.680642
9431.000000;0.680652
9430.000000;0.680804
9429.000000;0.680981
9428.000000;0.681087
9427.000000;0.681158
9426.000000;0.681244
9425.000000;0.681228
9424.000000;0.680910
9423.000000;0.680280
9422.000000;0.679595
9421.000000;0.679174
9420.000000;0.679165
9419.000000;0.679481
9418.000000;0.679865
9417.000000;0.680038
9416.000000;0.679897
9415.000000;0.679596
9414.000000;0.679372
9413.000000;0.679297
9412.000000;0.679272
9411.000000;0.679212
9410.000000;0.679096
9409.000000;0.678885
9408.000000;0.678545
9407.000000;0.678192
9406.000000;0.678053
9405.000000;0.678197
9404.000000;0.678441
9403.000000;0.678589
9402.000000;0.678671
9401.000000;0.678812
9400.000000;0.678955
9399.000000;0.678896
9398.000000;0.678575
9397.000000;0.678189
9396.000000;0.677948
9395.000000;0.677832
9394.000000;0.677679
9393.000000;0.677467
9392.000000;0.677380
9391.000000;0.677549
9390.000000;0.677841
9389.000000;0.677987
9388.000000;0.677898
9387.000000;0.677705
9386.000000;0.677525
9385.000000;0.677310
9384.000000;0.676995
9383.000000;0.676652
9382.000000;0.676379
9381.000000;0.676163
9380.000000;0.675997
9379.000000;0.676039
9378.000000;0.676451
9377.000000;0.677070
9376.000000;0.677446
9375.000000;0.677305
9374.000000;0.676838
9373.000000;0.676459
9372.000000;0.676363
9371.000000;0.676418
9370.000000;0.676414
9369.000000;0.676332
9368.000000;0.676343
9367.000000;0.676577
9366.000000;0.676932
9365.000000;0.677123
9364.000000;0.676954
9363.000000;0.676501
9362.000000;0.676009
9361.000000;0.675649
9360.000000;0.675437
9359.000000;0.675326
9358.000000;0.675277
9357.000000;0.675229
9356.000000;0.675133
9355.000000;0.675029
9354.000000;0.674985
9353.000000;0.674943
9352.000000;0.674743
9351.000000;0.674366
9350.000000;0.674032
9349.000000;0.673964
9348.000000;0.674121
9347.000000;0.674277
9346.000000;0.674304
9345.000000;0.674269
9344.000000;0.674271
9343.000000;0.674298
9342.000000;0.674283
9341.000000;0.674209
9340.000000;0.674101
9339.000000;0.673982
9338.000000;0.673875
9337.000000;0.673839
9336.000000;0.673929
9335.000000;0.674094
9334.000000;0.674164
9333.000000;0.674001
9332.000000;0.673670
9331.000000;0.673423
9330.000000;0.673470
9329.000000;0.673775
9328.000000;0.674107
9327.000000;0.674299
9326.000000;0.674389
9325.000000;0.674486
9324.000000;0.674550
9323.000000;0.674394
9322.000000;0.673943
9321.000000;0.673433
9320.000000;0.673216
9319.000000;0.673377
9318.000000;0.673621
9317.000000;0.673606
9316.000000;0.673314
9315.000000;0.673001
9314.000000;0.672842
9313.000000;0.672771
9312.000000;0.672669
9311.000000;0.672543
9310.000000;0.672456
9309.000000;0.672389
9308.000000;0.672288
9307.000000;0.672185
9306.000000;0.672154
9305.000000;0.672174
9304.000000;0.672136
9303.000000;0.671974
9302.000000;0.671740
9301.000000;0.671542
9300.000000;0.671443
9299.000000;0.671405
9298.000000;0.671305
9297.000000;0.671046
9296.000000;0.670698
9295.000000;0.670474
9294.000000;0.670517
9293.000000;0.670719
9292.000000;0.670839
9291.000000;0.670767
9290.000000;0.670603
9289.000000;0.670487
9288.000000;0.670424
9287.000000;0.670319
9286.000000;0.670133
9285.000000;0.669961
9284.000000;0.669938
9283.000000;0.670086
9282.000000;0.670288
9281.000000;0.670434
9280.000000;0.670566
9279.000000;0.670805
9278.000000;0.671158
9277.000000;0.671467
9276.000000;0.671546
9275.000000;0.671327
9274.000000;0.670835
9273.000000;0.670158
9272.000000;0.669466
9271.000000;0.668965
9270.000000;0.668750
9269.000000;0.668768
9268.000000;0.668957
9267.000000;0.669320
9266.000000;0.669789
9265.000000;0.670140
9264.000000;0.670154
9263.000000;0.669838
9262.000000;0.669372
9261.000000;0.668893
9260.000000;0.668448
9259.000000;0.668085
9258.000000;0.667884
9257.000000;0.667895
9256.000000;0.668131
9255.000000;0.668579
9254.000000;0.669112
9253.000000;0.669464
9252.000000;0.669430
9251.000000;0.669103
9250.000000;0.668775
9249.000000;0.668613
9248.000000;0.668521
9247.000000;0.668329
9246.000000;0.667998
9245.000000;0.667628
9244.000000;0.667353
9243.000000;0.667251
9242.000000;0.667286
9241.000000;0.667317
9240.000000;0.667249
9239.000000;0.667167
9238.000000;0.667241
9237.000000;0.667508
9236.000000;0.667817
9235.000000;0.667982
9234.000000;0.667906
9233.000000;0.667568
9232.000000;0.667033
9231.000000;0.666491
9230.000000;0.666189
9229.000000;0.666238
9228.000000;0.666550
9227.000000;0.666962
9226.000000;0.667350
9225.000000;0.667604
9224.000000;0.667613
9223.000000;0.667341
9222.000000;0.666879
9221.000000;0.666373
9220.000000;0.665938
9219.000000;0.665641
9218.000000;0.665493
9217.000000;0.665440
9216.000000;0.665426
9215.000000;0.665500
9214.000000;0.665770
9213.000000;0.666196
9212.000000;0.666507
9211.000000;0.666426
9210.000000;0.665972
9209.000000;0.665460
9208.000000;0.665201
9207.000000;0.665237
9206.000000;0.665375
9205.000000;0.665407
9204.000000;0.665269
9203.000000;0.664997
9202.000000;0.664644
9201.000000;0.664294
9200.000000;0.664105
9199.000000;0.664213
9198.000000;0.664533
9197.000000;0.664757
9196.000000;0.664614
9195.000000;0.664127
9194.000000;0.663565
9193.000000;0.663204
9192.000000;0.663163
9191.000000;0.663407
9190.000000;0.663799
9189.000000;0.664159
9188.000000;0.664387
9187.000000;0.664514
9186.000000;0.664621
9185.000000;0.664710
9184.000000;0.664714
9183.000000;0.664577
9182.000000;0.664287
9181.000000;0.663874
9180.000000;0.663465
9179.000000;0.663241
9178.000000;0.663242
9177.000000;0.663281
9176.000000;0.663182
9175.000000;0.663057
9174.000000;0.663163
9173.000000;0.663512
9172.000000;0.663801
9171.000000;0.663772
9170.000000;0.663488
9169.000000;0.663187
9168.000000;0.663018
9167.000000;0.662979
9166.000000;0.663003
9165.000000;0.662984
9164.000000;0.662819
9163.000000;0.662528
9162.000000;0.662272
9161.000000;0.662172
9160.000000;0.662174
9159.000000;0.662158
9158.000000;0.662108
9157.000000;0.662087
9156.000000;0.662103
9155.000000;0.662110
9154.000000;0.662100
9153.000000;0.662098
9152.000000;0.662072
9151.000000;0.661942
9150.000000;0.661693
9149.000000;0.661414
9148.000000;0.661186
9147.000000;0.660996
9146.000000;0.660772
9145.000000;0.660506
9144.000000;0.660304
9143.000000;0.660292
9142.000000;0.660476
9141.000000;0.660714
9140.000000;0.660857
9139.000000;0.660891
9138.000000;0.660911
9137.000000;0.660951
9136.000000;0.660933
9135.000000;0.660779
9134.000000;0.660515
9133.000000;0.660227
9132.000000;0.659984
9131.000000;0.659837
9130.000000;0.659812
9129.000000;0.659852
9128.000000;0.659831
9127.000000;0.659706
9126.000000;0.659607
9125.000000;0.659706
9124.000000;0.660005
9123.000000;0.660334
9122.000000;0.660534
9121.000000;0.660572
9120.000000;0.660470
9119.000000;0.660215
9118.000000;0.659794
9117.000000;0.659275
9116.000000;0.658815
9115.000000;0.658584
9114.000000;0.658654
9113.000000;0.658941
9112.000000;0.659240
9111.000000;0.659370
9110.000000;0.659309
9109.000000;0.659176
9108.000000;0.659056
9107.000000;0.658908
9106.000000;0.658650
9105.000000;0.658307
9104.000000;0.658024
9103.000000;0.657925
9102.000000;0.658007
9101.000000;0.658145
9100.000000;0.658201
9099.000000;0.658133
9098.000000;0.658026
9097.000000;0.658011
9096.000000;0.658134
9095.000000;0.658303
9094.000000;0.658389
9093.000000;0.658362
9092.000000;0.658282
9091.000000;0.658165
9090.000000;0.657956
9089.000000;0.657661
9088.000000;0.657444
9087.000000;0.657488
9086.000000;0.657770
9085.000000;0.658049
9084.000000;0.658068
9083.000000;0.657765
9082.000000;0.657302
9081.000000;0.656932
9080.000000;0.656789
9079.000000;0.656774
9078.000000;0.656648
9077.000000;0.656303
9076.000000;0.655909
9075.000000;0.655732
9074.000000;0.655851
9073.000000;0.656135
9072.000000;0.656453
9071.000000;0.656763
9070.000000;0.656985
9069.000000;0.656976
9068.000000;0.656725
9067.000000;0.656446
9066.000000;0.656354
9065.000000;0.656426
9064.000000;0.656487
9063.000000;0.656466
9062.000000;0.656423
9061.000000;0.656370
9060.000000;0.656195
9059.000000;0.655819
9058.000000;0.655331
9057.000000;0.654927
9056.000000;0.654761
9055.000000;0.654855
9054.000000;0.655110
9053.000000;0.655365
