Criado como novo conjunto de dados;"2706_e01_daniel.spp","83526.1 Secs"
cm-1;Abs
10000.000000;0.794835
9999.000000;0.794688
9998.000000;0.794505
9997.000000;0.794161
9996.000000;0.793701
9995.000000;0.793224
9994.000000;0.792732
9993.000000;0.792167
9992.000000;0.791646
9991.000000;0.791511
9990.000000;0.791907
9989.000000;0.792396
9988.000000;0.792326
9987.000000;0.791639
9986.000000;0.791010
9985.000000;0.791059
9984.000000;0.791670
9983.000000;0.792235
9982.000000;0.792326
9981.000000;0.791962
9980.000000;0.791397
9979.000000;0.790915
9978.000000;0.790733
9977.000000;0.790857
9976.000000;0.791037
9975.000000;0.791022
9974.000000;0.790837
9973.000000;0.790715
9972.000000;0.790761
9971.000000;0.790796
9970.000000;0.790510
9969.000000;0.789768
9968.000000;0.788786
9967.000000;0.788017
9966.000000;0.787790
9965.000000;0.788012
9964.000000;0.788286
9963.000000;0.788298
9962.000000;0.788020
9961.000000;0.787608
9960.000000;0.787261
9959.000000;0.787148
9958.000000;0.787327
9957.000000;0.787733
9956.000000;0.788404
9955.000000;0.789626
9954.000000;0.791537
9953.000000;0.793529
9952.000000;0.794453
9951.000000;0.793705
9950.000000;0.791917
9949.000000;0.790255
9948.000000;0.789232
9947.000000;0.788487
9946.000000;0.787626
9945.000000;0.786853
9944.000000;0.786602
9943.000000;0.786793
9942.000000;0.786809
9941.000000;0.786256
9940.000000;0.785511
9939.000000;0.785283
9938.000000;0.785755
9937.000000;0.786435
9936.000000;0.786865
9935.000000;0.787139
9934.000000;0.787530
9933.000000;0.787899
9932.000000;0.787846
9931.000000;0.787327
9930.000000;0.786756
9929.000000;0.786478
9928.000000;0.786434
9927.000000;0.786392
9926.000000;0.786215
9925.000000;0.785827
9924.000000;0.785221
9923.000000;0.784628
9922.000000;0.784439
9921.000000;0.784804
9920.000000;0.785455
9919.000000;0.786033
9918.000000;0.786412
9917.000000;0.786585
9916.000000;0.786474
9915.000000;0.786074
9914.000000;0.785630
9913.000000;0.785423
9912.000000;0.785424
9911.000000;0.785338
9910.000000;0.784975
9909.000000;0.784440
9908.000000;0.783975
9907.000000;0.783720
9906.000000;0.783668
9905.000000;0.783732
9904.000000;0.783803
9903.000000;0.783747
9902.000000;0.783441
9901.000000;0.782902
9900.000000;0.782407
9899.000000;0.782345
9898.000000;0.782831
9897.000000;0.783505
9896.000000;0.783844
9895.000000;0.783667
9894.000000;0.783246
9893.000000;0.782963
9892.000000;0.782969
9891.000000;0.783138
9890.000000;0.783207
9889.000000;0.782982
9888.000000;0.782555
9887.000000;0.782271
9886.000000;0.782369
9885.000000;0.782666
9884.000000;0.782701
9883.000000;0.782214
9882.000000;0.781400
9881.000000;0.780726
9880.000000;0.780541
9879.000000;0.780763
9878.000000;0.780895
9877.000000;0.780523
9876.000000;0.779917
9875.000000;0.779843
9874.000000;0.780564
9873.000000;0.781361
9872.000000;0.781387
9871.000000;0.780762
9870.000000;0.780303
9869.000000;0.780364
9868.000000;0.780546
9867.000000;0.780499
9866.000000;0.780354
9865.000000;0.780185
9864.000000;0.779682
9863.000000;0.778714
9862.000000;0.777758
9861.000000;0.777364
9860.000000;0.777500
9859.000000;0.777733
9858.000000;0.777795
9857.000000;0.777701
9856.000000;0.777560
9855.000000;0.777581
9854.000000;0.778039
9853.000000;0.778913
9852.000000;0.779697
9851.000000;0.779881
9850.000000;0.779550
9849.000000;0.779233
9848.000000;0.779241
9847.000000;0.779388
9846.000000;0.779296
9845.000000;0.778791
9844.000000;0.778048
9843.000000;0.777487
9842.000000;0.777375
9841.000000;0.777436
9840.000000;0.777054
9839.000000;0.776070
9838.000000;0.775112
9837.000000;0.774872
9836.000000;0.775244
9835.000000;0.775520
9834.000000;0.775353
9833.000000;0.775115
9832.000000;0.775286
9831.000000;0.775863
9830.000000;0.776471
9829.000000;0.776787
9828.000000;0.776728
9827.000000;0.776401
9826.000000;0.776028
9825.000000;0.775809
9824.000000;0.775751
9823.000000;0.775684
9822.000000;0.775498
9821.000000;0.775267
9820.000000;0.775104
9819.000000;0.774992
9818.000000;0.774838
9817.000000;0.774645
9816.000000;0.774529
9815.000000;0.774582
9814.000000;0.774766
9813.000000;0.774966
9812.000000;0.775106
9811.000000;0.775192
9810.000000;0.775238
9809.000000;0.775215
9808.000000;0.775113
9807.000000;0.775010
9806.000000;0.774989
9805.000000;0.774999
9804.000000;0.774872
9803.000000;0.774503
9802.000000;0.773936
9801.000000;0.773271
9800.000000;0.772578
9799.000000;0.771923
9798.000000;0.771400
9797.000000;0.771073
9796.000000;0.770914
9795.000000;0.770807
9794.000000;0.770644
9793.000000;0.770437
9792.000000;0.770378
9791.000000;0.770671
9790.000000;0.771247
9789.000000;0.771721
9788.000000;0.771783
9787.000000;0.771569
9786.000000;0.771471
9785.000000;0.771637
9784.000000;0.771823
9783.000000;0.771742
9782.000000;0.771348
9781.000000;0.770760
9780.000000;0.770119
9779.000000;0.769571
9778.000000;0.769239
9777.000000;0.769144
9776.000000;0.769216
9775.000000;0.769406
9774.000000;0.769637
9773.000000;0.769704
9772.000000;0.769447
9771.000000;0.769054
9770.000000;0.768938
9769.000000;0.769238
9768.000000;0.769603
9767.000000;0.769607
9766.000000;0.769209
9765.000000;0.768700
9764.000000;0.768359
9763.000000;0.768261
9762.000000;0.768299
9761.000000;0.768307
9760.000000;0.768271
9759.000000;0.768424
9758.000000;0.768949
9757.000000;0.769582
9756.000000;0.769773
9755.000000;0.769342
9754.000000;0.768705
9753.000000;0.768297
9752.000000;0.768030
9751.000000;0.767585
9750.000000;0.767014
9749.000000;0.766717
9748.000000;0.766897
9747.000000;0.767314
9746.000000;0.767595
9745.000000;0.767599
9744.000000;0.767463
9743.000000;0.767436
9742.000000;0.767665
9741.000000;0.767995
9740.000000;0.767994
9739.000000;0.767322
9738.000000;0.766143
9737.000000;0.765072
9736.000000;0.764698
9735.000000;0.765156
9734.000000;0.766076
9733.000000;0.766871
9732.000000;0.767130
9731.000000;0.766840
9730.000000;0.766283
9729.000000;0.765741
9728.000000;0.765344
9727.000000;0.765164
9726.000000;0.765254
9725.000000;0.765512
9724.000000;0.765664
9723.000000;0.765548
9722.000000;0.765357
9721.000000;0.765398
9720.000000;0.765653
9719.000000;0.765711
9718.000000;0.765222
9717.000000;0.764302
9716.000000;0.763425
9715.000000;0.762974
9714.000000;0.762945
9713.000000;0.763053
9712.000000;0.763089
9711.000000;0.763108
9710.000000;0.763260
9709.000000;0.763533
9708.000000;0.763764
9707.000000;0.763869
9706.000000;0.763928
9705.000000;0.764009
9704.000000;0.764007
9703.000000;0.763726
9702.000000;0.763050
9701.000000;0.762036
9700.000000;0.760927
9699.000000;0.760081
9698.000000;0.759778
9697.000000;0.759981
9696.000000;0.760349
9695.000000;0.760579
9694.000000;0.760724
9693.000000;0.761118
9692.000000;0.761998
9691.000000;0.763186
9690.000000;0.764115
9689.000000;0.764209
9688.000000;0.763360
9687.000000;0.762052
9686.000000;0.760990
9685.000000;0.760596
9684.000000;0.760847
9683.000000;0.761473
9682.000000;0.762159
9681.000000;0.762591
9680.000000;0.762524
9679.000000;0.761934
9678.000000;0.761066
9677.000000;0.760299
9676.000000;0.759961
9675.000000;0.760161
9674.000000;0.760686
9673.000000;0.761083
9672.000000;0.761004
9671.000000;0.760523
9670.000000;0.760049
9669.000000;0.759951
9668.000000;0.760325
9667.000000;0.761001
9666.000000;0.761614
9665.000000;0.761745
9664.000000;0.761257
9663.000000;0.760479
9662.000000;0.759889
9661.000000;0.759590
9660.000000;0.759276
9659.000000;0.758706
9658.000000;0.757961
9657.000000;0.757226
9656.000000;0.756600
9655.000000;0.756221
9654.000000;0.756325
9653.000000;0.757008
9652.000000;0.758047
9651.000000;0.759072
9650.000000;0.759792
9649.000000;0.759999
9648.000000;0.759576
9647.000000;0.758691
9646.000000;0.757824
9645.000000;0.757378
9644.000000;0.757296
9643.000000;0.757207
9642.000000;0.756900
9641.000000;0.756517
9640.000000;0.756313
9639.000000;0.756351
9638.000000;0.756487
9637.000000;0.756573
9636.000000;0.756653
9635.000000;0.756886
9634.000000;0.757265
9633.000000;0.757495
9632.000000;0.757311
9631.000000;0.756828
9630.000000;0.756413
9629.000000;0.756218
9628.000000;0.756077
9627.000000;0.755889
9626.000000;0.755839
9625.000000;0.756131
9624.000000;0.756673
9623.000000;0.757177
9622.000000;0.757429
9621.000000;0.757366
9620.000000;0.757027
9619.000000;0.756559
9618.000000;0.756146
9617.000000;0.755810
9616.000000;0.755405
9615.000000;0.754930
9614.000000;0.754685
9613.000000;0.754959
9612.000000;0.755626
9611.000000;0.756209
9610.000000;0.756295
9609.000000;0.755831
9608.000000;0.755083
9607.000000;0.754428
9606.000000;0.754116
9605.000000;0.754121
9604.000000;0.754189
9603.000000;0.754088
9602.000000;0.753791
9601.000000;0.753452
9600.000000;0.753262
9599.000000;0.753314
9598.000000;0.753525
9597.000000;0.753672
9596.000000;0.753642
9595.000000;0.753587
9594.000000;0.753722
9593.000000;0.753974
9592.000000;0.754039
9591.000000;0.753780
9590.000000;0.753338
9589.000000;0.752834
9588.000000;0.752268
9587.000000;0.751783
9586.000000;0.751722
9585.000000;0.752210
9584.000000;0.752864
9583.000000;0.753150
9582.000000;0.752913
9581.000000;0.752377
9580.000000;0.751802
9579.000000;0.751364
9578.000000;0.751224
9577.000000;0.751451
9576.000000;0.751884
9575.000000;0.752253
9574.000000;0.752432
9573.000000;0.752494
9572.000000;0.752564
9571.000000;0.752732
9570.000000;0.752987
9569.000000;0.753149
9568.000000;0.752950
9567.000000;0.752332
9566.000000;0.751590
9565.000000;0.751081
9564.000000;0.750896
9563.000000;0.750902
9562.000000;0.750955
9561.000000;0.750909
9560.000000;0.750567
9559.000000;0.749865
9558.000000;0.749061
9557.000000;0.748545
9556.000000;0.748497
9555.000000;0.748841
9554.000000;0.749421
9553.000000;0.750028
9552.000000;0.750355
9551.000000;0.750221
9550.000000;0.749862
9549.000000;0.749753
9548.000000;0.750089
9547.000000;0.750591
9546.000000;0.750871
9545.000000;0.750791
9544.000000;0.750414
9543.000000;0.749808
9542.000000;0.749046
9541.000000;0.748300
9540.000000;0.747796
9539.000000;0.747653
9538.000000;0.747810
9537.000000;0.748086
9536.000000;0.748292
9535.000000;0.748329
9534.000000;0.748214
9533.000000;0.748012
9532.000000;0.747750
9531.000000;0.747432
9530.000000;0.747090
9529.000000;0.746764
9528.000000;0.746467
9527.000000;0.746239
9526.000000;0.746204
9525.000000;0.746467
9524.000000;0.746919
9523.000000;0.747239
9522.000000;0.747163
9521.000000;0.746739
9520.000000;0.746256
9519.000000;0.745951
9518.000000;0.745817
9517.000000;0.745689
9516.000000;0.745479
9515.000000;0.745273
9514.000000;0.745219
9513.000000;0.745356
9512.000000;0.745570
9511.000000;0.745702
9510.000000;0.745658
9509.000000;0.745465
9508.000000;0.745216
9507.000000;0.744972
9506.000000;0.744717
9505.000000;0.744456
9504.000000;0.744334
9503.000000;0.744502
9502.000000;0.744848
9501.000000;0.745005
9500.000000;0.744779
9499.000000;0.744427
9498.000000;0.744326
9497.000000;0.744462
9496.000000;0.744457
9495.000000;0.744088
9494.000000;0.743546
9493.000000;0.743160
9492.000000;0.743091
9491.000000;0.743351
9490.000000;0.743900
9489.000000;0.744570
9488.000000;0.745028
9487.000000;0.745008
9486.000000;0.744531
9485.000000;0.743853
9484.000000;0.743212
9483.000000;0.742677
9482.000000;0.742176
9481.000000;0.741640
9480.000000;0.741151
9479.000000;0.740911
9478.000000;0.741004
9477.000000;0.741244
9476.000000;0.741386
9475.000000;0.741459
9474.000000;0.741720
9473.000000;0.742268
9472.000000;0.742882
9471.000000;0.743267
9470.000000;0.743284
9469.000000;0.742916
9468.000000;0.742230
9467.000000;0.741433
9466.000000;0.740815
9465.000000;0.740516
9464.000000;0.740468
9463.000000;0.740574
9462.000000;0.740780
9461.000000;0.740945
9460.000000;0.740896
9459.000000;0.740713
9458.000000;0.740725
9457.000000;0.741073
9456.000000;0.741451
9455.000000;0.741444
9454.000000;0.740980
9453.000000;0.740315
9452.000000;0.739744
9451.000000;0.739447
9450.000000;0.739462
9449.000000;0.739592
9448.000000;0.739505
9447.000000;0.739111
9446.000000;0.738717
9445.000000;0.738637
9444.000000;0.738771
9443.000000;0.738795
9442.000000;0.738658
9441.000000;0.738633
9440.000000;0.738895
9439.000000;0.739295
9438.000000;0.739560
9437.000000;0.739550
9436.000000;0.739306
9435.000000;0.739005
9434.000000;0.738864
9433.000000;0.738960
9432.000000;0.739109
9431.000000;0.739005
9430.000000;0.738520
9429.000000;0.737780
9428.000000;0.736989
9427.000000;0.736284
9426.000000;0.735727
9425.000000;0.735344
9424.000000;0.735146
9423.000000;0.735169
9422.000000;0.735478
9421.000000;0.736062
9420.000000;0.736753
9419.000000;0.737330
9418.000000;0.737644
9417.000000;0.737645
9416.000000;0.737349
9415.000000;0.736868
9414.000000;0.736396
9413.000000;0.736048
9412.000000;0.735772
9411.000000;0.735476
9410.000000;0.735204
9409.000000;0.735071
9408.000000;0.735121
9407.000000;0.735319
9406.000000;0.735628
9405.000000;0.735979
9404.000000;0.736215
9403.000000;0.736175
9402.000000;0.735847
9401.000000;0.735371
9400.000000;0.734923
9399.000000;0.734661
9398.000000;0.734682
9397.000000;0.734918
9396.000000;0.735114
9395.000000;0.735017
9394.000000;0.734633
9393.000000;0.734221
9392.000000;0.734053
9391.000000;0.734199
9390.000000;0.734500
9389.000000;0.734705
9388.000000;0.734670
9387.000000;0.734481
9386.000000;0.734355
9385.000000;0.734411
9384.000000;0.734580
9383.000000;0.734740
9382.000000;0.734820
9381.000000;0.734728
9380.000000;0.734365
9379.000000;0.733815
9378.000000;0.733415
9377.000000;0.733453
9376.000000;0.733846
9375.000000;0.734210
9374.000000;0.734244
9373.000000;0.733961
9372.000000;0.733611
9371.000000;0.733459
9370.000000;0.733591
9369.000000;0.733859
9368.000000;0.734017
9367.000000;0.733947
9366.000000;0.733697
9365.000000;0.733313
9364.000000;0.732758
9363.000000;0.732067
9362.000000;0.731426
9361.000000;0.730992
9360.000000;0.730736
9359.000000;0.730581
9358.000000;0.730564
9357.000000;0.730740
9356.000000;0.731031
9355.000000;0.731330
9354.000000;0.731680
9353.000000;0.732162
9352.000000;0.732682
9351.000000;0.733007
9350.000000;0.732993
9349.000000;0.732661
9348.000000;0.732092
9347.000000;0.731401
9346.000000;0.730793
9345.000000;0.730479
9344.000000;0.730467
9343.000000;0.730523
9342.000000;0.730354
9341.000000;0.729834
9340.000000;0.729137
9339.000000;0.728682
9338.000000;0.728835
9337.000000;0.729518
9336.000000;0.730192
9335.000000;0.730375
9334.000000;0.730124
9333.000000;0.729886
9332.000000;0.729969
9331.000000;0.730317
9330.000000;0.730750
9329.000000;0.731141
9328.000000;0.731352
9327.000000;0.731223
9326.000000;0.730729
9325.000000;0.730030
9324.000000;0.729297
9323.000000;0.728610
9322.000000;0.728061
9321.000000;0.727824
9320.000000;0.728008
9319.000000;0.728506
9318.000000;0.729048
9317.000000;0.729404
9316.000000;0.729512
9315.000000;0.729475
9314.000000;0.729444
9313.000000;0.729462
9312.000000;0.729386
9311.000000;0.729027
9310.000000;0.728352
9309.000000;0.727523
9308.000000;0.726745
9307.000000;0.726157
9306.000000;0.725853
9305.000000;0.725865
9304.000000;0.726087
9303.000000;0.726296
9302.000000;0.726367
9301.000000;0.726419
9300.000000;0.726675
9299.000000;0.727159
9298.000000;0.727623
9297.000000;0.727794
9296.000000;0.727647
9295.000000;0.727359
9294.000000;0.727046
9293.000000;0.726653
9292.000000;0.726149
9291.000000;0.725677
9290.000000;0.725410
9289.000000;0.725319
9288.000000;0.725234
9287.000000;0.725119
9286.000000;0.725112
9285.000000;0.725302
9284.000000;0.725592
9283.000000;0.725840
9282.000000;0.726004
9281.000000;0.726090
9280.000000;0.726094
9279.000000;0.726069
9278.000000;0.726115
9277.000000;0.726204
9276.000000;0.726121
9275.000000;0.725713
9274.000000;0.725119
9273.000000;0.724615
9272.000000;0.724306
9271.000000;0.724069
9270.000000;0.723767
9269.000000;0.723392
9268.000000;0.723041
9267.000000;0.722837
9266.000000;0.722847
9265.000000;0.723000
9264.000000;0.723142
9263.000000;0.723216
9262.000000;0.723317
9261.000000;0.723487
9260.000000;0.723583
9259.000000;0.723448
9258.000000;0.723140
9257.000000;0.722828
9256.000000;0.722571
9255.000000;0.722353
9254.000000;0.722258
9253.000000;0.722360
9252.000000;0.722486
9251.000000;0.722316
9250.000000;0.721798
9249.000000;0.721262
9248.000000;0.721037
9247.000000;0.721115
9246.000000;0.721268
9245.000000;0.721347
9244.000000;0.721345
9243.000000;0.721274
9242.000000;0.721159
9241.000000;0.721115
9240.000000;0.721283
9239.000000;0.721638
9238.000000;0.721946
9237.000000;0.721974
9236.000000;0.721732
9235.000000;0.721449
9234.000000;0.721304
9233.000000;0.721200
9232.000000;0.720885
9231.000000;0.720295
9230.000000;0.719704
9229.000000;0.719466
9228.000000;0.719643
9227.000000;0.719967
9226.000000;0.720133
9225.000000;0.720074
9224.000000;0.719937
9223.000000;0.719879
9222.000000;0.719910
9221.000000;0.719904
9220.000000;0.719712
9219.000000;0.719304
9218.000000;0.718816
9217.000000;0.718471
9216.000000;0.718432
9215.000000;0.718686
9214.000000;0.719022
9213.000000;0.719136
9212.000000;0.718848
9211.000000;0.718276
9210.000000;0.717774
9209.000000;0.717630
9208.000000;0.717835
9207.000000;0.718137
9206.000000;0.718275
9205.000000;0.718162
9204.000000;0.717895
9203.000000;0.717668
9202.000000;0.717637
9201.000000;0.717787
9200.000000;0.717922
9199.000000;0.717841
9198.000000;0.717536
9197.000000;0.717190
9196.000000;0.716985
9195.000000;0.716932
9194.000000;0.716876
9193.000000;0.716662
9192.000000;0.716310
9191.000000;0.716036
9190.000000;0.716044
9189.000000;0.716287
9188.000000;0.716497
9187.000000;0.716455
9186.000000;0.716191
9185.000000;0.715919
9184.000000;0.715839
9183.000000;0.716025
9182.000000;0.716402
9181.000000;0.716750
9180.000000;0.716816
9179.000000;0.716510
9178.000000;0.715988
9177.000000;0.715499
9176.000000;0.715195
9175.000000;0.715108
9174.000000;0.715178
9173.000000;0.715219
9172.000000;0.714983
9171.000000;0.714435
9170.000000;0.713916
9169.000000;0.713875
9168.000000;0.714395
9167.000000;0.715083
9166.000000;0.715465
9165.000000;0.715427
9164.000000;0.715240
9163.000000;0.715222
9162.000000;0.715418
9161.000000;0.715589
9160.000000;0.715470
9159.000000;0.715055
9158.000000;0.714590
9157.000000;0.714308
9156.000000;0.714210
9155.000000;0.714136
9154.000000;0.713974
9153.000000;0.713734
9152.000000;0.713474
9151.000000;0.713263
9150.000000;0.713161
9149.000000;0.713153
9148.000000;0.713112
9147.000000;0.712911
9146.000000;0.712608
9145.000000;0.712407
9144.000000;0.712441
9143.000000;0.712644
9142.000000;0.712857
9141.000000;0.712970
9140.000000;0.712943
9139.000000;0.712761
9138.000000;0.712472
9137.000000;0.712219
9136.000000;0.712176
9135.000000;0.712400
9134.000000;0.712759
9133.000000;0.713007
9132.000000;0.712954
9131.000000;0.712583
9130.000000;0.712037
9129.000000;0.711508
9128.000000;0.711147
9127.000000;0.711015
9126.000000;0.711053
9125.000000;0.711091
9124.000000;0.710975
9123.000000;0.710740
9122.000000;0.710602
9121.000000;0.710746
9120.000000;0.711127
9119.000000;0.711523
9118.000000;0.711744
9117.000000;0.711735
9116.000000;0.711539
9115.000000;0.711223
9114.000000;0.710856
9113.000000;0.710488
9112.000000;0.710149
9111.000000;0.709866
9110.000000;0.709682
9109.000000;0.709637
9108.000000;0.709727
9107.000000;0.709907
9106.000000;0.710103
9105.000000;0.710247
9104.000000;0.710325
9103.000000;0.710390
9102.000000;0.710493
9101.000000;0.710575
9100.000000;0.710517
9099.000000;0.710283
9098.000000;0.709948
9097.000000;0.709554
9096.000000;0.709057
9095.000000;0.708487
9094.000000;0.708042
9093.000000;0.707895
9092.000000;0.707951
9091.000000;0.707962
9090.000000;0.707847
9089.000000;0.707776
9088.000000;0.707909
9087.000000;0.708184
9086.000000;0.708422
9085.000000;0.708546
9084.000000;0.708609
9083.000000;0.708652
9082.000000;0.708636
9081.000000;0.708503
9080.000000;0.708246
9079.000000;0.707889
9078.000000;0.707435
9077.000000;0.706903
9076.000000;0.706397
9075.000000;0.706083
9074.000000;0.706022
9073.000000;0.706091
9072.000000;0.706118
9071.000000;0.706089
9070.000000;0.706121
9069.000000;0.706247
9068.000000;0.706342
9067.000000;0.706322
9066.000000;0.706306
9065.000000;0.706456
9064.000000;0.706724
9063.000000;0.706879
9062.000000;0.706761
9061.000000;0.706394
9060.000000;0.705860
9059.000000;0.705222
9058.000000;0.704620
9057.000000;0.704294
9056.000000;0.704351
9055.000000;0.704569
9054.000000;0.704564
9053.000000;0.704207
