Criado como novo conjunto de dados;"2706_e01_daniel.spp","42844.3 Secs"
cm-1;Abs
10000.000000;0.841651
9999.000000;0.840298
9998.000000;0.839552
9997.000000;0.839572
9996.000000;0.840013
9995.000000;0.840202
9994.000000;0.839770
9993.000000;0.839042
9992.000000;0.838624
9991.000000;0.838735
9990.000000;0.839121
9989.000000;0.839518
9988.000000;0.839911
9987.000000;0.840339
9986.000000;0.840684
9985.000000;0.840780
9984.000000;0.840619
9983.000000;0.840416
9982.000000;0.840475
9981.000000;0.840877
9980.000000;0.841225
9979.000000;0.840902
9978.000000;0.839790
9977.000000;0.838566
9976.000000;0.838040
9975.000000;0.838305
9974.000000;0.838776
9973.000000;0.838930
9972.000000;0.838763
9971.000000;0.838556
9970.000000;0.838489
9969.000000;0.838534
9968.000000;0.838538
9967.000000;0.838357
9966.000000;0.838067
9965.000000;0.837982
9964.000000;0.838286
9963.000000;0.838709
9962.000000;0.838775
9961.000000;0.838347
9960.000000;0.837718
9959.000000;0.837238
9958.000000;0.837062
9957.000000;0.837183
9956.000000;0.837458
9955.000000;0.837623
9954.000000;0.837516
9953.000000;0.837243
9952.000000;0.836962
9951.000000;0.836633
9950.000000;0.836219
9949.000000;0.836000
9948.000000;0.836299
9947.000000;0.836949
9946.000000;0.837364
9945.000000;0.837180
9944.000000;0.836530
9943.000000;0.835693
9942.000000;0.834849
9941.000000;0.834233
9940.000000;0.834178
9939.000000;0.834793
9938.000000;0.835777
9937.000000;0.836642
9936.000000;0.836985
9935.000000;0.836587
9934.000000;0.835507
9933.000000;0.834154
9932.000000;0.833036
9931.000000;0.832375
9930.000000;0.832083
9929.000000;0.832060
9928.000000;0.832279
9927.000000;0.832610
9926.000000;0.832847
9925.000000;0.832970
9924.000000;0.833118
9923.000000;0.833278
9922.000000;0.833259
9921.000000;0.833020
9920.000000;0.832804
9919.000000;0.832855
9918.000000;0.833147
9917.000000;0.833397
9916.000000;0.833226
9915.000000;0.832423
9914.000000;0.831280
9913.000000;0.830541
9912.000000;0.830727
9911.000000;0.831557
9910.000000;0.832351
9909.000000;0.832864
9908.000000;0.833295
9907.000000;0.833570
9906.000000;0.833217
9905.000000;0.832122
9904.000000;0.830858
9903.000000;0.829998
9902.000000;0.829558
9901.000000;0.829375
9900.000000;0.829578
9899.000000;0.830296
9898.000000;0.831215
9897.000000;0.831867
9896.000000;0.832178
9895.000000;0.832371
9894.000000;0.832503
9893.000000;0.832466
9892.000000;0.832348
9891.000000;0.832403
9890.000000;0.832695
9889.000000;0.833023
9888.000000;0.833196
9887.000000;0.833129
9886.000000;0.832721
9885.000000;0.831940
9884.000000;0.831023
9883.000000;0.830339
9882.000000;0.829990
9881.000000;0.829722
9880.000000;0.829314
9879.000000;0.828848
9878.000000;0.828514
9877.000000;0.828307
9876.000000;0.828048
9875.000000;0.827651
9874.000000;0.827266
9873.000000;0.827134
9872.000000;0.827345
9871.000000;0.827744
9870.000000;0.828061
9869.000000;0.828117
9868.000000;0.827918
9867.000000;0.827600
9866.000000;0.827321
9865.000000;0.827210
9864.000000;0.827352
9863.000000;0.827754
9862.000000;0.828314
9861.000000;0.828823
9860.000000;0.829033
9859.000000;0.828785
9858.000000;0.828144
9857.000000;0.827381
9856.000000;0.826771
9855.000000;0.826389
9854.000000;0.826127
9853.000000;0.825887
9852.000000;0.825704
9851.000000;0.825700
9850.000000;0.825921
9849.000000;0.826225
9848.000000;0.826333
9847.000000;0.826091
9846.000000;0.825692
9845.000000;0.825525
9844.000000;0.825762
9843.000000;0.826192
9842.000000;0.826507
9841.000000;0.826606
9840.000000;0.826568
9839.000000;0.826473
9838.000000;0.826410
9837.000000;0.826502
9836.000000;0.826753
9835.000000;0.826945
9834.000000;0.826840
9833.000000;0.826416
9832.000000;0.825783
9831.000000;0.825023
9830.000000;0.824293
9829.000000;0.823918
9828.000000;0.824099
9827.000000;0.824578
9826.000000;0.824874
9825.000000;0.824837
9824.000000;0.824692
9823.000000;0.824584
9822.000000;0.824385
9821.000000;0.824048
9820.000000;0.823834
9819.000000;0.823995
9818.000000;0.824397
9817.000000;0.824681
9816.000000;0.824733
9815.000000;0.824818
9814.000000;0.825229
9813.000000;0.825875
9812.000000;0.826303
9811.000000;0.826142
9810.000000;0.825500
9809.000000;0.824842
9808.000000;0.824464
9807.000000;0.824201
9806.000000;0.823717
9805.000000;0.822965
9804.000000;0.822258
9803.000000;0.821969
9802.000000;0.822241
9801.000000;0.822868
9800.000000;0.823355
9799.000000;0.823275
9798.000000;0.822741
9797.000000;0.822384
9796.000000;0.822638
9795.000000;0.823196
9794.000000;0.823406
9793.000000;0.823081
9792.000000;0.822606
9791.000000;0.822290
9790.000000;0.822029
9789.000000;0.821655
9788.000000;0.821272
9787.000000;0.821063
9786.000000;0.820984
9785.000000;0.820860
9784.000000;0.820630
9783.000000;0.820370
9782.000000;0.820165
9781.000000;0.820065
9780.000000;0.820081
9779.000000;0.820142
9778.000000;0.820107
9777.000000;0.819910
9776.000000;0.819649
9775.000000;0.819526
9774.000000;0.819690
9773.000000;0.820108
9772.000000;0.820542
9771.000000;0.820719
9770.000000;0.820614
9769.000000;0.820456
9768.000000;0.820372
9767.000000;0.820177
9766.000000;0.819704
9765.000000;0.819208
9764.000000;0.819143
9763.000000;0.819573
9762.000000;0.820077
9761.000000;0.820284
9760.000000;0.820221
9759.000000;0.820093
9758.000000;0.819955
9757.000000;0.819738
9756.000000;0.819423
9755.000000;0.819073
9754.000000;0.818807
9753.000000;0.818765
9752.000000;0.818944
9751.000000;0.819051
9750.000000;0.818727
9749.000000;0.818020
9748.000000;0.817458
9747.000000;0.817520
9746.000000;0.818147
9745.000000;0.818881
9744.000000;0.819338
9743.000000;0.819431
9742.000000;0.819251
9741.000000;0.818901
9740.000000;0.818447
9739.000000;0.817953
9738.000000;0.817525
9737.000000;0.817300
9736.000000;0.817319
9735.000000;0.817421
9734.000000;0.817366
9733.000000;0.817057
9732.000000;0.816564
9731.000000;0.815981
9730.000000;0.815419
9729.000000;0.815109
9728.000000;0.815267
9727.000000;0.815790
9726.000000;0.816245
9725.000000;0.816301
9724.000000;0.816065
9723.000000;0.815880
9722.000000;0.815917
9721.000000;0.816070
9720.000000;0.816147
9719.000000;0.816012
9718.000000;0.815614
9717.000000;0.815035
9716.000000;0.814494
9715.000000;0.814196
9714.000000;0.814161
9713.000000;0.814277
9712.000000;0.814483
9711.000000;0.814834
9710.000000;0.815353
9709.000000;0.815914
9708.000000;0.816279
9707.000000;0.816266
9706.000000;0.815873
9705.000000;0.815254
9704.000000;0.814598
9703.000000;0.814013
9702.000000;0.813532
9701.000000;0.813194
9700.000000;0.813074
9699.000000;0.813216
9698.000000;0.813529
9697.000000;0.813763
9696.000000;0.813663
9695.000000;0.813191
9694.000000;0.812621
9693.000000;0.812351
9692.000000;0.812607
9691.000000;0.813310
9690.000000;0.814151
9689.000000;0.814737
9688.000000;0.814757
9687.000000;0.814210
9686.000000;0.813499
9685.000000;0.813148
9684.000000;0.813321
9683.000000;0.813699
9682.000000;0.813848
9681.000000;0.813628
9680.000000;0.813204
9679.000000;0.812850
9678.000000;0.812807
9677.000000;0.813155
9676.000000;0.813653
9675.000000;0.813832
9674.000000;0.813426
9673.000000;0.812625
9672.000000;0.811795
9671.000000;0.811121
9670.000000;0.810646
9669.000000;0.810456
9668.000000;0.810550
9667.000000;0.810664
9666.000000;0.810529
9665.000000;0.810258
9664.000000;0.810190
9663.000000;0.810366
9662.000000;0.810448
9661.000000;0.810230
9660.000000;0.809949
9659.000000;0.809968
9658.000000;0.810349
9657.000000;0.810892
9656.000000;0.811409
9655.000000;0.811803
9654.000000;0.811949
9653.000000;0.811714
9652.000000;0.811113
9651.000000;0.810359
9650.000000;0.809693
9649.000000;0.809211
9648.000000;0.808866
9647.000000;0.808625
9646.000000;0.808569
9645.000000;0.808779
9644.000000;0.809173
9643.000000;0.809531
9642.000000;0.809726
9641.000000;0.809835
9640.000000;0.809970
9639.000000;0.810107
9638.000000;0.810146
9637.000000;0.810039
9636.000000;0.809795
9635.000000;0.809453
9634.000000;0.809163
9633.000000;0.809143
9632.000000;0.809407
9631.000000;0.809616
9630.000000;0.809407
9629.000000;0.808822
9628.000000;0.808282
9627.000000;0.808143
9626.000000;0.808420
9625.000000;0.808892
9624.000000;0.809293
9623.000000;0.809416
9622.000000;0.809222
9621.000000;0.808913
9620.000000;0.808755
9619.000000;0.808792
9618.000000;0.808814
9617.000000;0.808637
9616.000000;0.808311
9615.000000;0.808001
9614.000000;0.807775
9613.000000;0.807575
9612.000000;0.807348
9611.000000;0.807128
9610.000000;0.806998
9609.000000;0.806966
9608.000000;0.806930
9607.000000;0.806801
9606.000000;0.806657
9605.000000;0.806662
9604.000000;0.806809
9603.000000;0.806851
9602.000000;0.806582
9601.000000;0.806099
9600.000000;0.805726
9599.000000;0.805740
9598.000000;0.806213
9597.000000;0.806969
9596.000000;0.807617
9595.000000;0.807770
9594.000000;0.807384
9593.000000;0.806788
9592.000000;0.806287
9591.000000;0.805892
9590.000000;0.805575
9589.000000;0.805549
9588.000000;0.805985
9587.000000;0.806573
9586.000000;0.806727
9585.000000;0.806279
9584.000000;0.805676
9583.000000;0.805397
9582.000000;0.805452
9581.000000;0.805555
9580.000000;0.805579
9579.000000;0.805619
9578.000000;0.805717
9577.000000;0.805736
9576.000000;0.805526
9575.000000;0.805145
9574.000000;0.804834
9573.000000;0.804769
9572.000000;0.804832
9571.000000;0.804691
9570.000000;0.804168
9569.000000;0.803458
9568.000000;0.802939
9567.000000;0.802810
9566.000000;0.802987
9565.000000;0.803279
9564.000000;0.803536
9563.000000;0.803676
9562.000000;0.803708
9561.000000;0.803738
9560.000000;0.803841
9559.000000;0.803944
9558.000000;0.803937
9557.000000;0.803849
9556.000000;0.803776
9555.000000;0.803666
9554.000000;0.803354
9553.000000;0.802826
9552.000000;0.802317
9551.000000;0.802057
9550.000000;0.802055
9549.000000;0.802161
9548.000000;0.802260
9547.000000;0.802311
9546.000000;0.802277
9545.000000;0.802112
9544.000000;0.801842
9543.000000;0.801617
9542.000000;0.801655
9541.000000;0.802080
9540.000000;0.802764
9539.000000;0.803368
9538.000000;0.803594
9537.000000;0.803373
9536.000000;0.802831
9535.000000;0.802128
9534.000000;0.801433
9533.000000;0.800959
9532.000000;0.800846
9531.000000;0.800995
9530.000000;0.801114
9529.000000;0.800992
9528.000000;0.800688
9527.000000;0.800450
9526.000000;0.800462
9525.000000;0.800692
9524.000000;0.800952
9523.000000;0.801064
9522.000000;0.800985
9521.000000;0.800784
9520.000000;0.800550
9519.000000;0.800371
9518.000000;0.800315
9517.000000;0.800347
9516.000000;0.800290
9515.000000;0.799991
9514.000000;0.799532
9513.000000;0.799147
9512.000000;0.798935
9511.000000;0.798799
9510.000000;0.798661
9509.000000;0.798559
9508.000000;0.798496
9507.000000;0.798402
9506.000000;0.798352
9505.000000;0.798576
9504.000000;0.799104
9503.000000;0.799587
9502.000000;0.799678
9501.000000;0.799474
9500.000000;0.799374
9499.000000;0.799561
9498.000000;0.799853
9497.000000;0.799996
9496.000000;0.799932
9495.000000;0.799794
9494.000000;0.799733
9493.000000;0.799719
9492.000000;0.799490
9491.000000;0.798821
9490.000000;0.797933
9489.000000;0.797409
9488.000000;0.797538
9487.000000;0.797915
9486.000000;0.797938
9485.000000;0.797547
9484.000000;0.797193
9483.000000;0.797183
9482.000000;0.797409
9481.000000;0.797678
9480.000000;0.797949
9479.000000;0.798158
9478.000000;0.798128
9477.000000;0.797810
9476.000000;0.797410
9475.000000;0.797113
9474.000000;0.796848
9473.000000;0.796455
9472.000000;0.795967
9471.000000;0.795603
9470.000000;0.795561
9469.000000;0.795893
9468.000000;0.796494
9467.000000;0.797121
9466.000000;0.797487
9465.000000;0.797446
9464.000000;0.797092
9463.000000;0.796638
9462.000000;0.796230
9461.000000;0.795893
9460.000000;0.795604
9459.000000;0.795378
9458.000000;0.795268
9457.000000;0.795286
9456.000000;0.795341
9455.000000;0.795308
9454.000000;0.795193
9453.000000;0.795133
9452.000000;0.795191
9451.000000;0.795241
9450.000000;0.795148
9449.000000;0.794981
9448.000000;0.794921
9447.000000;0.795041
9446.000000;0.795271
9445.000000;0.795541
9444.000000;0.795808
9443.000000;0.795988
9442.000000;0.796006
9441.000000;0.795897
9440.000000;0.795737
9439.000000;0.795471
9438.000000;0.794958
9437.000000;0.794215
9436.000000;0.793498
9435.000000;0.793095
9434.000000;0.793085
9433.000000;0.793306
9432.000000;0.793483
9431.000000;0.793436
9430.000000;0.793239
9429.000000;0.793167
9428.000000;0.793407
9427.000000;0.793845
9426.000000;0.794200
9425.000000;0.794309
9424.000000;0.794172
9423.000000;0.793786
9422.000000;0.793162
9421.000000;0.792517
9420.000000;0.792244
9419.000000;0.792532
9418.000000;0.793095
9417.000000;0.793389
9416.000000;0.793115
9415.000000;0.792465
9414.000000;0.791896
9413.000000;0.791721
9412.000000;0.791911
9411.000000;0.792214
9410.000000;0.792410
9409.000000;0.792427
9408.000000;0.792289
9407.000000;0.792047
9406.000000;0.791763
9405.000000;0.791491
9404.000000;0.791250
9403.000000;0.791068
9402.000000;0.791042
9401.000000;0.791238
9400.000000;0.791512
9399.000000;0.791568
9398.000000;0.791279
9397.000000;0.790823
9396.000000;0.790428
9395.000000;0.790096
9394.000000;0.789711
9393.000000;0.789322
9392.000000;0.789154
9391.000000;0.789335
9390.000000;0.789736
9389.000000;0.790089
9388.000000;0.790207
9387.000000;0.790101
9386.000000;0.789936
9385.000000;0.789859
9384.000000;0.789849
9383.000000;0.789765
9382.000000;0.789533
9381.000000;0.789210
9380.000000;0.788872
9379.000000;0.788567
9378.000000;0.788401
9377.000000;0.788520
9376.000000;0.788920
9375.000000;0.789393
9374.000000;0.789736
9373.000000;0.789889
9372.000000;0.789812
9371.000000;0.789429
9370.000000;0.788852
9369.000000;0.788453
9368.000000;0.788515
9367.000000;0.788861
9366.000000;0.789044
9365.000000;0.788844
9364.000000;0.788425
9363.000000;0.788043
9362.000000;0.787802
9361.000000;0.787677
9360.000000;0.787604
9359.000000;0.787521
9358.000000;0.787428
9357.000000;0.787397
9356.000000;0.787434
9355.000000;0.787407
9354.000000;0.787227
9353.000000;0.787037
9352.000000;0.787061
9351.000000;0.787306
9350.000000;0.787544
9349.000000;0.787606
9348.000000;0.787531
9347.000000;0.787445
9346.000000;0.787395
9345.000000;0.787345
9344.000000;0.787243
9343.000000;0.787078
9342.000000;0.786906
9341.000000;0.786813
9340.000000;0.786806
9339.000000;0.786817
9338.000000;0.786834
9337.000000;0.786909
9336.000000;0.786976
9335.000000;0.786827
9334.000000;0.786433
9333.000000;0.786117
9332.000000;0.786197
9331.000000;0.786530
9330.000000;0.786665
9329.000000;0.786426
9328.000000;0.786097
9327.000000;0.786004
9326.000000;0.786145
9325.000000;0.786331
9324.000000;0.786507
9323.000000;0.786743
9322.000000;0.787007
9321.000000;0.787115
9320.000000;0.786919
9319.000000;0.786485
9318.000000;0.786033
9317.000000;0.785736
9316.000000;0.785604
9315.000000;0.785562
9314.000000;0.785575
9313.000000;0.785620
9312.000000;0.785583
9311.000000;0.785354
9310.000000;0.785029
9309.000000;0.784883
9308.000000;0.785046
9307.000000;0.785346
9306.000000;0.785538
9305.000000;0.785559
9304.000000;0.785462
9303.000000;0.785256
9302.000000;0.784967
9301.000000;0.784725
9300.000000;0.784598
9299.000000;0.784413
9298.000000;0.783943
9297.000000;0.783247
9296.000000;0.782676
9295.000000;0.782526
9294.000000;0.782808
9293.000000;0.783313
9292.000000;0.783756
9291.000000;0.783906
9290.000000;0.783721
9289.000000;0.783395
9288.000000;0.783185
9287.000000;0.783191
9286.000000;0.783344
9285.000000;0.783523
9284.000000;0.783596
9283.000000;0.783456
9282.000000;0.783156
9281.000000;0.782942
9280.000000;0.783021
9279.000000;0.783308
9278.000000;0.783533
9277.000000;0.783546
9276.000000;0.783399
9275.000000;0.783178
9274.000000;0.782906
9273.000000;0.782582
9272.000000;0.782190
9271.000000;0.781695
9270.000000;0.781161
9269.000000;0.780810
9268.000000;0.780800
9267.000000;0.780997
9266.000000;0.781117
9265.000000;0.781086
9264.000000;0.781105
9263.000000;0.781318
9262.000000;0.781575
9261.000000;0.781585
9260.000000;0.781237
9259.000000;0.780740
9258.000000;0.780470
9257.000000;0.780650
9256.000000;0.781120
9255.000000;0.781483
9254.000000;0.781519
9253.000000;0.781339
9252.000000;0.781084
9251.000000;0.780662
9250.000000;0.779997
9249.000000;0.779364
9248.000000;0.779177
9247.000000;0.779457
9246.000000;0.779787
9245.000000;0.779817
9244.000000;0.779596
9243.000000;0.779350
9242.000000;0.779162
9241.000000;0.779017
9240.000000;0.778985
9239.000000;0.779179
9238.000000;0.779577
9237.000000;0.779981
9236.000000;0.780172
9235.000000;0.780059
9234.000000;0.779733
9233.000000;0.779380
9232.000000;0.779128
9231.000000;0.778994
9230.000000;0.778984
9229.000000;0.779151
9228.000000;0.779467
9227.000000;0.779720
9226.000000;0.779703
9225.000000;0.779480
9224.000000;0.779310
9223.000000;0.779296
9222.000000;0.779248
9221.000000;0.778952
9220.000000;0.778457
9219.000000;0.778004
9218.000000;0.777761
9217.000000;0.777683
9216.000000;0.777638
9215.000000;0.777605
9214.000000;0.777689
9213.000000;0.777930
9212.000000;0.778133
9211.000000;0.778004
9210.000000;0.777475
9209.000000;0.776790
9208.000000;0.776245
9207.000000;0.775960
9206.000000;0.775952
9205.000000;0.776242
9204.000000;0.776736
9203.000000;0.777157
9202.000000;0.777292
9201.000000;0.777247
9200.000000;0.777273
9199.000000;0.777400
9198.000000;0.777430
9197.000000;0.777264
9196.000000;0.777021
9195.000000;0.776815
9194.000000;0.776584
9193.000000;0.776215
9192.000000;0.775728
9191.000000;0.775276
9190.000000;0.775040
9189.000000;0.775104
9188.000000;0.775381
9187.000000;0.775670
9186.000000;0.775851
9185.000000;0.775972
9184.000000;0.776073
9183.000000;0.776038
9182.000000;0.775789
9181.000000;0.775517
9180.000000;0.775506
9179.000000;0.775732
9178.000000;0.775843
9177.000000;0.775590
9176.000000;0.775101
9175.000000;0.774655
9174.000000;0.774378
9173.000000;0.774236
9172.000000;0.774190
9171.000000;0.774210
9170.000000;0.774241
9169.000000;0.774240
9168.000000;0.774234
9167.000000;0.774277
9166.000000;0.774341
9165.000000;0.774314
9164.000000;0.774130
9163.000000;0.773890
9162.000000;0.773832
9161.000000;0.774075
9160.000000;0.774413
9159.000000;0.774448
9158.000000;0.774024
9157.000000;0.773431
9156.000000;0.773078
9155.000000;0.773082
9154.000000;0.773266
9153.000000;0.773466
9152.000000;0.773631
9151.000000;0.773697
9150.000000;0.773564
9149.000000;0.773241
9148.000000;0.772868
9147.000000;0.772564
9146.000000;0.772361
9145.000000;0.772293
9144.000000;0.772396
9143.000000;0.772610
9142.000000;0.772797
9141.000000;0.772888
9140.000000;0.772916
9139.000000;0.772901
9138.000000;0.772804
9137.000000;0.772630
9136.000000;0.772465
9135.000000;0.772372
9134.000000;0.772317
9133.000000;0.772226
9132.000000;0.772037
9131.000000;0.771738
9130.000000;0.771419
9129.000000;0.771266
9128.000000;0.771368
9127.000000;0.771541
9126.000000;0.771474
9125.000000;0.771100
9124.000000;0.770691
9123.000000;0.770545
9122.000000;0.770660
9121.000000;0.770794
9120.000000;0.770759
9119.000000;0.770595
9118.000000;0.770486
9117.000000;0.770547
9116.000000;0.770687
9115.000000;0.770714
9114.000000;0.770562
9113.000000;0.770375
9112.000000;0.770312
9111.000000;0.770344
9110.000000;0.770330
9109.000000;0.770249
9108.000000;0.770221
9107.000000;0.770306
9106.000000;0.770390
9105.000000;0.770295
9104.000000;0.769961
9103.000000;0.769515
9102.000000;0.769187
9101.000000;0.769135
9100.000000;0.769299
9099.000000;0.769471
9098.000000;0.769546
9097.000000;0.769625
9096.000000;0.769792
9095.000000;0.769926
9094.000000;0.769853
9093.000000;0.769619
9092.000000;0.769421
9091.000000;0.769340
9090.000000;0.769302
9089.000000;0.769274
9088.000000;0.769304
9087.000000;0.769350
9086.000000;0.769261
9085.000000;0.768991
9084.000000;0.768696
9083.000000;0.768571
9082.000000;0.768654
9081.000000;0.768824
9080.000000;0.768901
9079.000000;0.768743
9078.000000;0.768357
9077.000000;0.767939
9076.000000;0.767720
9075.000000;0.767751
9074.000000;0.767891
9073.000000;0.768003
9072.000000;0.768031
9071.000000;0.767943
9070.000000;0.767707
9069.000000;0.767384
9068.000000;0.767115
9067.000000;0.766975
9066.000000;0.766920
9065.000000;0.766892
9064.000000;0.766877
9063.000000;0.766846
9062.000000;0.766730
9061.000000;0.766497
9060.000000;0.766175
9059.000000;0.765812
9058.000000;0.765483
9057.000000;0.765326
9056.000000;0.765437
9055.000000;0.765731
9054.000000;0.765997
9053.000000;0.766116
