Criado como novo conjunto de dados;"2706_e01_daniel.spp","5942.0 Secs"
cm-1;Abs
10000.000000;0.909444
9999.000000;0.908338
9998.000000;0.907238
9997.000000;0.906137
9996.000000;0.905044
9995.000000;0.903944
9994.000000;0.902874
9993.000000;0.901929
9992.000000;0.901174
9991.000000;0.900713
9990.000000;0.900437
9989.000000;0.900056
9988.000000;0.899511
9987.000000;0.899193
9986.000000;0.899541
9985.000000;0.900523
9984.000000;0.901648
9983.000000;0.902388
9982.000000;0.902489
9981.000000;0.902019
9980.000000;0.901304
9979.000000;0.900735
9978.000000;0.900457
9977.000000;0.900296
9976.000000;0.900082
9975.000000;0.899990
9974.000000;0.900380
9973.000000;0.901338
9972.000000;0.902470
9971.000000;0.903211
9970.000000;0.903299
9969.000000;0.902950
9968.000000;0.902594
9967.000000;0.902429
9966.000000;0.902238
9965.000000;0.901698
9964.000000;0.900834
9963.000000;0.900095
9962.000000;0.899966
9961.000000;0.900555
9960.000000;0.901512
9959.000000;0.902214
9958.000000;0.902146
9957.000000;0.901326
9956.000000;0.900393
9955.000000;0.900070
9954.000000;0.900463
9953.000000;0.901049
9952.000000;0.901328
9951.000000;0.901259
9950.000000;0.900979
9949.000000;0.900440
9948.000000;0.899637
9947.000000;0.898983
9946.000000;0.899063
9945.000000;0.899978
9944.000000;0.901180
9943.000000;0.902022
9942.000000;0.902299
9941.000000;0.902180
9940.000000;0.901866
9939.000000;0.901484
9938.000000;0.901204
9937.000000;0.901165
9936.000000;0.901258
9935.000000;0.901152
9934.000000;0.900650
9933.000000;0.899961
9932.000000;0.899498
9931.000000;0.899473
9930.000000;0.899772
9929.000000;0.900174
9928.000000;0.900530
9927.000000;0.900736
9926.000000;0.900736
9925.000000;0.900642
9924.000000;0.900698
9923.000000;0.900996
9922.000000;0.901315
9921.000000;0.901352
9920.000000;0.901028
9919.000000;0.900493
9918.000000;0.899936
9917.000000;0.899501
9916.000000;0.899311
9915.000000;0.899426
9914.000000;0.899792
9913.000000;0.900303
9912.000000;0.900863
9911.000000;0.901327
9910.000000;0.901481
9909.000000;0.901185
9908.000000;0.900492
9907.000000;0.899598
9906.000000;0.898780
9905.000000;0.898373
9904.000000;0.898590
9903.000000;0.899228
9902.000000;0.899747
9901.000000;0.899793
9900.000000;0.899507
9899.000000;0.899182
9898.000000;0.898841
9897.000000;0.898405
9896.000000;0.898071
9895.000000;0.898166
9894.000000;0.898654
9893.000000;0.899041
9892.000000;0.898833
9891.000000;0.897990
9890.000000;0.896959
9889.000000;0.896376
9888.000000;0.896602
9887.000000;0.897433
9886.000000;0.898310
9885.000000;0.898893
9884.000000;0.899276
9883.000000;0.899583
9882.000000;0.899676
9881.000000;0.899470
9880.000000;0.899231
9879.000000;0.899211
9878.000000;0.899224
9877.000000;0.898968
9876.000000;0.898539
9875.000000;0.898202
9874.000000;0.897832
9873.000000;0.897120
9872.000000;0.896270
9871.000000;0.895928
9870.000000;0.896320
9869.000000;0.896916
9868.000000;0.897108
9867.000000;0.896881
9866.000000;0.896656
9865.000000;0.896784
9864.000000;0.897347
9863.000000;0.898168
9862.000000;0.898851
9861.000000;0.899067
9860.000000;0.898932
9859.000000;0.898904
9858.000000;0.899185
9857.000000;0.899457
9856.000000;0.899322
9855.000000;0.898772
9854.000000;0.898095
9853.000000;0.897533
9852.000000;0.897215
9851.000000;0.897245
9850.000000;0.897620
9849.000000;0.898122
9848.000000;0.898421
9847.000000;0.898334
9846.000000;0.897963
9845.000000;0.897629
9844.000000;0.897624
9843.000000;0.897898
9842.000000;0.898056
9841.000000;0.897789
9840.000000;0.897288
9839.000000;0.897036
9838.000000;0.897265
9837.000000;0.897780
9836.000000;0.898280
9835.000000;0.898633
9834.000000;0.898826
9833.000000;0.898869
9832.000000;0.898805
9831.000000;0.898693
9830.000000;0.898545
9829.000000;0.898337
9828.000000;0.898031
9827.000000;0.897540
9826.000000;0.896829
9825.000000;0.896160
9824.000000;0.895952
9823.000000;0.896193
9822.000000;0.896259
9821.000000;0.895707
9820.000000;0.895003
9819.000000;0.894999
9818.000000;0.895826
9817.000000;0.896794
9816.000000;0.897324
9815.000000;0.897440
9814.000000;0.897319
9813.000000;0.896953
9812.000000;0.896474
9811.000000;0.896291
9810.000000;0.896606
9809.000000;0.897110
9808.000000;0.897412
9807.000000;0.897501
9806.000000;0.897567
9805.000000;0.897665
9804.000000;0.897754
9803.000000;0.897785
9802.000000;0.897529
9801.000000;0.896658
9800.000000;0.895291
9799.000000;0.894188
9798.000000;0.894049
9797.000000;0.894772
9796.000000;0.895641
9795.000000;0.896162
9794.000000;0.896428
9793.000000;0.896724
9792.000000;0.897081
9791.000000;0.897273
9790.000000;0.897106
9789.000000;0.896610
9788.000000;0.896008
9787.000000;0.895581
9786.000000;0.895535
9785.000000;0.895947
9784.000000;0.896707
9783.000000;0.897465
9782.000000;0.897755
9781.000000;0.897367
9780.000000;0.896540
9779.000000;0.895715
9778.000000;0.895151
9777.000000;0.894911
9776.000000;0.895022
9775.000000;0.895437
9774.000000;0.895934
9773.000000;0.896315
9772.000000;0.896627
9771.000000;0.896963
9770.000000;0.897182
9769.000000;0.897085
9768.000000;0.896765
9767.000000;0.896462
9766.000000;0.896188
9765.000000;0.895863
9764.000000;0.895697
9763.000000;0.895966
9762.000000;0.896458
9761.000000;0.896648
9760.000000;0.896468
9759.000000;0.896412
9758.000000;0.896747
9757.000000;0.897119
9756.000000;0.897124
9755.000000;0.896812
9754.000000;0.896383
9753.000000;0.895832
9752.000000;0.895201
9751.000000;0.894779
9750.000000;0.894742
9749.000000;0.894874
9748.000000;0.894966
9747.000000;0.895169
9746.000000;0.895626
9745.000000;0.896037
9744.000000;0.895980
9743.000000;0.895510
9742.000000;0.895069
9741.000000;0.894911
9740.000000;0.894932
9739.000000;0.894979
9738.000000;0.895017
9737.000000;0.895047
9736.000000;0.895078
9735.000000;0.895174
9734.000000;0.895337
9733.000000;0.895400
9732.000000;0.895174
9731.000000;0.894670
9730.000000;0.894077
9729.000000;0.893627
9728.000000;0.893540
9727.000000;0.893911
9726.000000;0.894525
9725.000000;0.894938
9724.000000;0.894916
9723.000000;0.894667
9722.000000;0.894505
9721.000000;0.894477
9720.000000;0.894468
9719.000000;0.894492
9718.000000;0.894658
9717.000000;0.894962
9716.000000;0.895300
9715.000000;0.895573
9714.000000;0.895660
9713.000000;0.895412
9712.000000;0.894849
9711.000000;0.894238
9710.000000;0.893831
9709.000000;0.893627
9708.000000;0.893538
9707.000000;0.893610
9706.000000;0.893895
9705.000000;0.894251
9704.000000;0.894470
9703.000000;0.894506
9702.000000;0.894427
9701.000000;0.894247
9700.000000;0.893965
9699.000000;0.893657
9698.000000;0.893375
9697.000000;0.893083
9696.000000;0.892821
9695.000000;0.892798
9694.000000;0.893113
9693.000000;0.893529
9692.000000;0.893734
9691.000000;0.893705
9690.000000;0.893602
9689.000000;0.893450
9688.000000;0.893203
9687.000000;0.893047
9686.000000;0.893335
9685.000000;0.894136
9684.000000;0.895053
9683.000000;0.895592
9682.000000;0.895600
9681.000000;0.895318
9680.000000;0.895092
9679.000000;0.895049
9678.000000;0.895008
9677.000000;0.894716
9676.000000;0.894223
9675.000000;0.893890
9674.000000;0.893955
9673.000000;0.894215
9672.000000;0.894292
9671.000000;0.894105
9670.000000;0.893913
9669.000000;0.893942
9668.000000;0.894145
9667.000000;0.894309
9666.000000;0.894217
9665.000000;0.893720
9664.000000;0.892854
9663.000000;0.891943
9662.000000;0.891444
9661.000000;0.891575
9660.000000;0.892122
9659.000000;0.892653
9658.000000;0.892909
9657.000000;0.892984
9656.000000;0.893147
9655.000000;0.893503
9654.000000;0.893852
9653.000000;0.893912
9652.000000;0.893662
9651.000000;0.893369
9650.000000;0.893282
9649.000000;0.893407
9648.000000;0.893592
9647.000000;0.893661
9646.000000;0.893447
9645.000000;0.892859
9644.000000;0.892069
9643.000000;0.891519
9642.000000;0.891553
9641.000000;0.892084
9640.000000;0.892698
9639.000000;0.893055
9638.000000;0.893083
9637.000000;0.892891
9636.000000;0.892636
9635.000000;0.892491
9634.000000;0.892582
9633.000000;0.892908
9632.000000;0.893337
9631.000000;0.893706
9630.000000;0.893884
9629.000000;0.893813
9628.000000;0.893534
9627.000000;0.893181
9626.000000;0.892888
9625.000000;0.892754
9624.000000;0.892867
9623.000000;0.893295
9622.000000;0.893948
9621.000000;0.894538
9620.000000;0.894758
9619.000000;0.894517
9618.000000;0.893981
9617.000000;0.893419
9616.000000;0.893063
9615.000000;0.893035
9614.000000;0.893297
9613.000000;0.893631
9612.000000;0.893743
9611.000000;0.893438
9610.000000;0.892777
9609.000000;0.892091
9608.000000;0.891785
9607.000000;0.892037
9606.000000;0.892646
9605.000000;0.893198
9604.000000;0.893378
9603.000000;0.893122
9602.000000;0.892586
9601.000000;0.892079
9600.000000;0.891917
9599.000000;0.892126
9598.000000;0.892322
9597.000000;0.892097
9596.000000;0.891553
9595.000000;0.891243
9594.000000;0.891506
9593.000000;0.892079
9592.000000;0.892477
9591.000000;0.892549
9590.000000;0.892467
9589.000000;0.892348
9588.000000;0.892157
9587.000000;0.891928
9586.000000;0.891819
9585.000000;0.891891
9584.000000;0.892006
9583.000000;0.892014
9582.000000;0.891938
9581.000000;0.891914
9580.000000;0.892004
9579.000000;0.892109
9578.000000;0.892059
9577.000000;0.891772
9576.000000;0.891387
9575.000000;0.891188
9574.000000;0.891364
9573.000000;0.891829
9572.000000;0.892344
9571.000000;0.892769
9570.000000;0.893121
9569.000000;0.893399
9568.000000;0.893468
9567.000000;0.893193
9566.000000;0.892619
9565.000000;0.891956
9564.000000;0.891415
9563.000000;0.891119
9562.000000;0.891126
9561.000000;0.891429
9560.000000;0.891902
9559.000000;0.892304
9558.000000;0.892438
9557.000000;0.892278
9556.000000;0.891949
9555.000000;0.891635
9554.000000;0.891531
9553.000000;0.891760
9552.000000;0.892206
9551.000000;0.892482
9550.000000;0.892291
9549.000000;0.891806
9548.000000;0.891527
9547.000000;0.891679
9546.000000;0.891950
9545.000000;0.891929
9544.000000;0.891636
9543.000000;0.891447
9542.000000;0.891599
9541.000000;0.891959
9540.000000;0.892202
9539.000000;0.892092
9538.000000;0.891636
9537.000000;0.891109
9536.000000;0.890882
9535.000000;0.891083
9534.000000;0.891457
9533.000000;0.891661
9532.000000;0.891626
9531.000000;0.891511
9530.000000;0.891413
9529.000000;0.891299
9528.000000;0.891176
9527.000000;0.891116
9526.000000;0.891135
9525.000000;0.891203
9524.000000;0.891353
9523.000000;0.891619
9522.000000;0.891897
9521.000000;0.892048
9520.000000;0.892081
9519.000000;0.892045
9518.000000;0.891786
9517.000000;0.891092
9516.000000;0.890123
9515.000000;0.889406
9514.000000;0.889309
9513.000000;0.889714
9512.000000;0.890304
9511.000000;0.890943
9510.000000;0.891594
9509.000000;0.892079
9508.000000;0.892159
9507.000000;0.891792
9506.000000;0.891160
9505.000000;0.890482
9504.000000;0.889916
9503.000000;0.889614
9502.000000;0.889694
9501.000000;0.890147
9500.000000;0.890794
9499.000000;0.891371
9498.000000;0.891662
9497.000000;0.891643
9496.000000;0.891504
9495.000000;0.891453
9494.000000;0.891430
9493.000000;0.891135
9492.000000;0.890460
9491.000000;0.889769
9490.000000;0.889577
9489.000000;0.889966
9488.000000;0.890475
9487.000000;0.890610
9486.000000;0.890342
9485.000000;0.890016
9484.000000;0.889867
9483.000000;0.889813
9482.000000;0.889705
9481.000000;0.889614
9480.000000;0.889737
9479.000000;0.890087
9478.000000;0.890409
9477.000000;0.890453
9476.000000;0.890237
9475.000000;0.890040
9474.000000;0.890156
9473.000000;0.890632
9472.000000;0.891173
9471.000000;0.891338
9470.000000;0.890968
9469.000000;0.890419
9468.000000;0.890211
9467.000000;0.890451
9466.000000;0.890759
9465.000000;0.890822
9464.000000;0.890787
9463.000000;0.890948
9462.000000;0.891259
9461.000000;0.891372
9460.000000;0.891092
9459.000000;0.890566
9458.000000;0.890058
9457.000000;0.889713
9456.000000;0.889550
9455.000000;0.889524
9454.000000;0.889571
9453.000000;0.889660
9452.000000;0.889798
9451.000000;0.889929
9450.000000;0.889902
9449.000000;0.889676
9448.000000;0.889479
9447.000000;0.889615
9446.000000;0.890094
9445.000000;0.890588
9444.000000;0.890757
9443.000000;0.890544
9442.000000;0.890169
9441.000000;0.889900
9440.000000;0.889823
9439.000000;0.889796
9438.000000;0.889658
9437.000000;0.889488
9436.000000;0.889507
9435.000000;0.889698
9434.000000;0.889727
9433.000000;0.889358
9432.000000;0.888776
9431.000000;0.888306
9430.000000;0.888018
9429.000000;0.887829
9428.000000;0.887837
9427.000000;0.888254
9426.000000;0.889040
9425.000000;0.889848
9424.000000;0.890329
9423.000000;0.890304
9422.000000;0.889737
9421.000000;0.888810
9420.000000;0.887981
9419.000000;0.887666
9418.000000;0.887835
9417.000000;0.888132
9416.000000;0.888390
9415.000000;0.888746
9414.000000;0.889250
9413.000000;0.889659
9412.000000;0.889746
9411.000000;0.889541
9410.000000;0.889187
9409.000000;0.888774
9408.000000;0.888436
9407.000000;0.888338
9406.000000;0.888404
9405.000000;0.888285
9404.000000;0.887787
9403.000000;0.887195
9402.000000;0.887009
9401.000000;0.887453
9400.000000;0.888352
9399.000000;0.889315
9398.000000;0.889921
9397.000000;0.889895
9396.000000;0.889350
9395.000000;0.888802
9394.000000;0.888725
9393.000000;0.889098
9392.000000;0.889494
9391.000000;0.889599
9390.000000;0.889465
9389.000000;0.889290
9388.000000;0.889116
9387.000000;0.888860
9386.000000;0.888529
9385.000000;0.888262
9384.000000;0.888135
9383.000000;0.888018
9382.000000;0.887734
9381.000000;0.887322
9380.000000;0.887034
9379.000000;0.887000
9378.000000;0.887058
9377.000000;0.887015
9376.000000;0.886977
9375.000000;0.887216
9374.000000;0.887749
9373.000000;0.888285
9372.000000;0.888581
9371.000000;0.888678
9370.000000;0.888689
9369.000000;0.888590
9368.000000;0.888336
9367.000000;0.888060
9366.000000;0.887979
9365.000000;0.888150
9364.000000;0.888428
9363.000000;0.888638
9362.000000;0.888702
9361.000000;0.888632
9360.000000;0.888478
9359.000000;0.888276
9358.000000;0.887982
9357.000000;0.887516
9356.000000;0.886942
9355.000000;0.886556
9354.000000;0.886694
9353.000000;0.887403
9352.000000;0.888336
9351.000000;0.889008
9350.000000;0.889158
9349.000000;0.888888
9348.000000;0.888480
9347.000000;0.888132
9346.000000;0.887869
9345.000000;0.887644
9344.000000;0.887452
9343.000000;0.887327
9342.000000;0.887281
9341.000000;0.887291
9340.000000;0.887331
9339.000000;0.887405
9338.000000;0.887536
9337.000000;0.887722
9336.000000;0.887889
9335.000000;0.887901
9334.000000;0.887684
9333.000000;0.887323
9332.000000;0.886992
9331.000000;0.886808
9330.000000;0.886828
9329.000000;0.887100
9328.000000;0.887573
9327.000000;0.887949
9326.000000;0.887871
9325.000000;0.887341
9324.000000;0.886801
9323.000000;0.886659
9322.000000;0.886868
9321.000000;0.887100
9320.000000;0.887177
9319.000000;0.887169
9318.000000;0.887143
9317.000000;0.887043
9316.000000;0.886830
9315.000000;0.886616
9314.000000;0.886580
9313.000000;0.886816
9312.000000;0.887226
9311.000000;0.887545
9310.000000;0.887549
9309.000000;0.887288
9308.000000;0.887050
9307.000000;0.887036
9306.000000;0.887172
9305.000000;0.887268
9304.000000;0.887239
9303.000000;0.887091
9302.000000;0.886849
9301.000000;0.886626
9300.000000;0.886601
9299.000000;0.886777
9298.000000;0.886913
9297.000000;0.886852
9296.000000;0.886763
9295.000000;0.886836
9294.000000;0.886918
9293.000000;0.886721
9292.000000;0.886297
9291.000000;0.885989
9290.000000;0.885950
9289.000000;0.885994
9288.000000;0.885967
9287.000000;0.885962
9286.000000;0.886107
9285.000000;0.886365
9284.000000;0.886634
9283.000000;0.886856
9282.000000;0.886947
9281.000000;0.886766
9280.000000;0.886286
9279.000000;0.885676
9278.000000;0.885164
9277.000000;0.884888
9276.000000;0.884880
9275.000000;0.885065
9274.000000;0.885271
9273.000000;0.885380
9272.000000;0.885491
9271.000000;0.885780
9270.000000;0.886189
9269.000000;0.886433
9268.000000;0.886355
9267.000000;0.886091
9266.000000;0.885836
9265.000000;0.885613
9264.000000;0.885384
9263.000000;0.885216
9262.000000;0.885219
9261.000000;0.885389
9260.000000;0.885645
9259.000000;0.885919
9258.000000;0.886131
9257.000000;0.886156
9256.000000;0.885939
9255.000000;0.885626
9254.000000;0.885452
9253.000000;0.885509
9252.000000;0.885676
9251.000000;0.885787
9250.000000;0.885783
9249.000000;0.885698
9248.000000;0.885554
9247.000000;0.885340
9246.000000;0.885114
9245.000000;0.885033
9244.000000;0.885216
9243.000000;0.885570
9242.000000;0.885856
9241.000000;0.885935
9240.000000;0.885885
9239.000000;0.885838
9238.000000;0.885820
9237.000000;0.885799
9236.000000;0.885779
9235.000000;0.885751
9234.000000;0.885627
9233.000000;0.885348
9232.000000;0.885009
9231.000000;0.884794
9230.000000;0.884781
9229.000000;0.884893
9228.000000;0.884996
9227.000000;0.885010
9226.000000;0.884968
9225.000000;0.884996
9224.000000;0.885167
9223.000000;0.885334
9222.000000;0.885241
9221.000000;0.884861
9220.000000;0.884498
9219.000000;0.884426
9218.000000;0.884546
9217.000000;0.884540
9216.000000;0.884274
9215.000000;0.883921
9214.000000;0.883735
9213.000000;0.883841
9212.000000;0.884177
9211.000000;0.884526
9210.000000;0.884623
9209.000000;0.884397
9208.000000;0.884072
9207.000000;0.883947
9206.000000;0.884112
9205.000000;0.884439
9204.000000;0.884742
9203.000000;0.884873
9202.000000;0.884766
9201.000000;0.884539
9200.000000;0.884451
9199.000000;0.884609
9198.000000;0.884806
9197.000000;0.884779
9196.000000;0.884536
9195.000000;0.884279
9194.000000;0.884130
9193.000000;0.884112
9192.000000;0.884260
9191.000000;0.884539
9190.000000;0.884726
9189.000000;0.884652
9188.000000;0.884492
9187.000000;0.884578
9186.000000;0.884933
9185.000000;0.885214
9184.000000;0.885148
9183.000000;0.884789
9182.000000;0.884332
9181.000000;0.883891
9180.000000;0.883532
9179.000000;0.883353
9178.000000;0.883420
9177.000000;0.883696
9176.000000;0.884055
9175.000000;0.884286
9174.000000;0.884184
9173.000000;0.883797
9172.000000;0.883536
9171.000000;0.883804
9170.000000;0.884493
9169.000000;0.885032
9168.000000;0.885016
9167.000000;0.884600
9166.000000;0.884229
9165.000000;0.884143
9164.000000;0.884244
9163.000000;0.884306
9162.000000;0.884190
9161.000000;0.883918
9160.000000;0.883620
9159.000000;0.883401
9158.000000;0.883243
9157.000000;0.883091
9156.000000;0.882975
9155.000000;0.882983
9154.000000;0.883113
9153.000000;0.883265
9152.000000;0.883353
9151.000000;0.883364
9150.000000;0.883323
9149.000000;0.883301
9148.000000;0.883383
9147.000000;0.883558
9146.000000;0.883677
9145.000000;0.883638
9144.000000;0.883538
9143.000000;0.883527
9142.000000;0.883581
9141.000000;0.883556
9140.000000;0.883405
9139.000000;0.883209
9138.000000;0.883023
9137.000000;0.882871
9136.000000;0.882825
9135.000000;0.882930
9134.000000;0.883078
9133.000000;0.883111
9132.000000;0.883023
9131.000000;0.882893
9130.000000;0.882697
9129.000000;0.882378
9128.000000;0.882070
9127.000000;0.881998
9126.000000;0.882155
9125.000000;0.882284
9124.000000;0.882238
9123.000000;0.882141
9122.000000;0.882170
9121.000000;0.882356
9120.000000;0.882669
9119.000000;0.883070
9118.000000;0.883389
9117.000000;0.883359
9116.000000;0.882960
9115.000000;0.882566
9114.000000;0.882582
9113.000000;0.882971
9112.000000;0.883297
9111.000000;0.883204
9110.000000;0.882744
9109.000000;0.882259
9108.000000;0.882057
9107.000000;0.882225
9106.000000;0.882667
9105.000000;0.883222
9104.000000;0.883712
9103.000000;0.883966
9102.000000;0.883906
9101.000000;0.883634
9100.000000;0.883351
9099.000000;0.883136
9098.000000;0.882900
9097.000000;0.882557
9096.000000;0.882161
9095.000000;0.881817
9094.000000;0.881578
9093.000000;0.881510
9092.000000;0.881705
9091.000000;0.882110
9090.000000;0.882460
9089.000000;0.882505
9088.000000;0.882250
9087.000000;0.881861
9086.000000;0.881453
9085.000000;0.881124
9084.000000;0.881043
9083.000000;0.881284
9082.000000;0.881652
9081.000000;0.881854
9080.000000;0.881834
9079.000000;0.881766
9078.000000;0.881769
9077.000000;0.881816
9076.000000;0.881877
9075.000000;0.881968
9074.000000;0.882052
9073.000000;0.882069
9072.000000;0.882067
9071.000000;0.882151
9070.000000;0.882299
9069.000000;0.882369
9068.000000;0.882263
9067.000000;0.881999
9066.000000;0.881666
9065.000000;0.881422
9064.000000;0.881445
9063.000000;0.881722
9062.000000;0.881964
9061.000000;0.881922
9060.000000;0.881724
9059.000000;0.881689
9058.000000;0.881880
9057.000000;0.882067
9056.000000;0.882096
9055.000000;0.882042
9054.000000;0.881970
9053.000000;0.881790
