Criado como novo conjunto de dados;"2706_e01_daniel.spp","42303.7 Secs"
cm-1;Abs
10000.000000;0.811963
9999.000000;0.811571
9998.000000;0.810873
9997.000000;0.810294
9996.000000;0.810153
9995.000000;0.810190
9994.000000;0.809950
9993.000000;0.809224
9992.000000;0.808263
9991.000000;0.807402
9990.000000;0.806762
9989.000000;0.806276
9988.000000;0.805915
9987.000000;0.805709
9986.000000;0.805634
9985.000000;0.805651
9984.000000;0.805862
9983.000000;0.806438
9982.000000;0.807312
9981.000000;0.808080
9980.000000;0.808335
9979.000000;0.808048
9978.000000;0.807475
9977.000000;0.806795
9976.000000;0.806035
9975.000000;0.805323
9974.000000;0.804984
9973.000000;0.805270
9972.000000;0.806093
9971.000000;0.807100
9970.000000;0.807919
9969.000000;0.808295
9968.000000;0.808109
9967.000000;0.807430
9966.000000;0.806528
9965.000000;0.805716
9964.000000;0.805152
9963.000000;0.804833
9962.000000;0.804770
9961.000000;0.805045
9960.000000;0.805618
9959.000000;0.806189
9958.000000;0.806380
9957.000000;0.806137
9956.000000;0.805828
9955.000000;0.805872
9954.000000;0.806259
9953.000000;0.806541
9952.000000;0.806330
9951.000000;0.805724
9950.000000;0.805162
9949.000000;0.804896
9948.000000;0.804742
9947.000000;0.804389
9946.000000;0.803843
9945.000000;0.803432
9944.000000;0.803388
9943.000000;0.803555
9942.000000;0.803596
9941.000000;0.803421
9940.000000;0.803273
9939.000000;0.803351
9938.000000;0.803519
9937.000000;0.803505
9936.000000;0.803318
9935.000000;0.803246
9934.000000;0.803434
9933.000000;0.803671
9932.000000;0.803661
9931.000000;0.803341
9930.000000;0.802801
9929.000000;0.802050
9928.000000;0.801102
9927.000000;0.800199
9926.000000;0.799722
9925.000000;0.799845
9924.000000;0.800396
9923.000000;0.801077
9922.000000;0.801643
9921.000000;0.801882
9920.000000;0.801650
9919.000000;0.801079
9918.000000;0.800601
9917.000000;0.800636
9916.000000;0.801259
9915.000000;0.802186
9914.000000;0.802989
9913.000000;0.803310
9912.000000;0.803076
9911.000000;0.802615
9910.000000;0.802393
9909.000000;0.802493
9908.000000;0.802454
9907.000000;0.801804
9906.000000;0.800682
9905.000000;0.799737
9904.000000;0.799417
9903.000000;0.799550
9902.000000;0.799638
9901.000000;0.799386
9900.000000;0.798877
9899.000000;0.798355
9898.000000;0.798007
9897.000000;0.797937
9896.000000;0.798229
9895.000000;0.798932
9894.000000;0.799887
9893.000000;0.800602
9892.000000;0.800480
9891.000000;0.799389
9890.000000;0.797952
9889.000000;0.797066
9888.000000;0.797085
9887.000000;0.797572
9886.000000;0.797861
9885.000000;0.797701
9884.000000;0.797293
9883.000000;0.796933
9882.000000;0.796828
9881.000000;0.797150
9880.000000;0.797931
9879.000000;0.798837
9878.000000;0.799283
9877.000000;0.798994
9876.000000;0.798334
9875.000000;0.797951
9874.000000;0.798112
9873.000000;0.798523
9872.000000;0.798742
9871.000000;0.798627
9870.000000;0.798341
9869.000000;0.798090
9868.000000;0.797966
9867.000000;0.797929
9866.000000;0.797823
9865.000000;0.797453
9864.000000;0.796799
9863.000000;0.796152
9862.000000;0.795859
9861.000000;0.795917
9860.000000;0.795981
9859.000000;0.795830
9858.000000;0.795638
9857.000000;0.795657
9856.000000;0.795800
9855.000000;0.795730
9854.000000;0.795310
9853.000000;0.794757
9852.000000;0.794345
9851.000000;0.794189
9850.000000;0.794324
9849.000000;0.794757
9848.000000;0.795321
9847.000000;0.795645
9846.000000;0.795477
9845.000000;0.794971
9844.000000;0.794485
9843.000000;0.794168
9842.000000;0.793901
9841.000000;0.793608
9840.000000;0.793454
9839.000000;0.793670
9838.000000;0.794266
9837.000000;0.794983
9836.000000;0.795499
9835.000000;0.795663
9834.000000;0.795551
9833.000000;0.795286
9832.000000;0.794847
9831.000000;0.794132
9830.000000;0.793234
9829.000000;0.792505
9828.000000;0.792194
9827.000000;0.792127
9826.000000;0.791910
9825.000000;0.791442
9824.000000;0.791048
9823.000000;0.791071
9822.000000;0.791505
9821.000000;0.792048
9820.000000;0.792384
9819.000000;0.792347
9818.000000;0.791983
9817.000000;0.791534
9816.000000;0.791248
9815.000000;0.791159
9814.000000;0.791127
9813.000000;0.791096
9812.000000;0.791138
9811.000000;0.791237
9810.000000;0.791236
9809.000000;0.791111
9808.000000;0.791057
9807.000000;0.791135
9806.000000;0.791049
9805.000000;0.790547
9804.000000;0.789892
9803.000000;0.789644
9802.000000;0.789989
9801.000000;0.790542
9800.000000;0.790844
9799.000000;0.790832
9798.000000;0.790770
9797.000000;0.790889
9796.000000;0.791172
9795.000000;0.791370
9794.000000;0.791213
9793.000000;0.790710
9792.000000;0.790210
9791.000000;0.790036
9790.000000;0.790114
9789.000000;0.790155
9788.000000;0.790110
9787.000000;0.790215
9786.000000;0.790555
9785.000000;0.790877
9784.000000;0.790901
9783.000000;0.790599
9782.000000;0.790112
9781.000000;0.789606
9780.000000;0.789293
9779.000000;0.789326
9778.000000;0.789529
9777.000000;0.789473
9776.000000;0.788976
9775.000000;0.788341
9774.000000;0.787943
9773.000000;0.787822
9772.000000;0.787881
9771.000000;0.788229
9770.000000;0.788963
9769.000000;0.789758
9768.000000;0.790027
9767.000000;0.789544
9766.000000;0.788656
9765.000000;0.787851
9764.000000;0.787371
9763.000000;0.787226
9762.000000;0.787319
9761.000000;0.787444
9760.000000;0.787371
9759.000000;0.787060
9758.000000;0.786693
9757.000000;0.786436
9756.000000;0.786261
9755.000000;0.786102
9754.000000;0.786065
9753.000000;0.786348
9752.000000;0.786977
9751.000000;0.787681
9750.000000;0.788064
9749.000000;0.787919
9748.000000;0.787403
9747.000000;0.786874
9746.000000;0.786567
9745.000000;0.786480
9744.000000;0.786557
9743.000000;0.786805
9742.000000;0.787092
9741.000000;0.787045
9740.000000;0.786405
9739.000000;0.785469
9738.000000;0.784895
9737.000000;0.784991
9736.000000;0.785410
9735.000000;0.785633
9734.000000;0.785603
9733.000000;0.785655
9732.000000;0.785924
9731.000000;0.786092
9730.000000;0.785803
9729.000000;0.785154
9728.000000;0.784648
9727.000000;0.784678
9726.000000;0.785202
9725.000000;0.785844
9724.000000;0.786192
9723.000000;0.785985
9722.000000;0.785212
9721.000000;0.784210
9720.000000;0.783529
9719.000000;0.783487
9718.000000;0.783832
9717.000000;0.784011
9716.000000;0.783762
9715.000000;0.783276
9714.000000;0.782813
9713.000000;0.782410
9712.000000;0.782055
9711.000000;0.781873
9710.000000;0.781953
9709.000000;0.782193
9708.000000;0.782479
9707.000000;0.782832
9706.000000;0.783199
9705.000000;0.783302
9704.000000;0.782983
9703.000000;0.782534
9702.000000;0.782358
9701.000000;0.782403
9700.000000;0.782245
9699.000000;0.781725
9698.000000;0.781178
9697.000000;0.780991
9696.000000;0.781241
9695.000000;0.781809
9694.000000;0.782538
9693.000000;0.783155
9692.000000;0.783312
9691.000000;0.782924
9690.000000;0.782320
9689.000000;0.781912
9688.000000;0.781808
9687.000000;0.781847
9686.000000;0.781896
9685.000000;0.781941
9684.000000;0.781991
9683.000000;0.782004
9682.000000;0.781912
9681.000000;0.781674
9680.000000;0.781349
9679.000000;0.781117
9678.000000;0.781134
9677.000000;0.781314
9676.000000;0.781382
9675.000000;0.781159
9674.000000;0.780723
9673.000000;0.780254
9672.000000;0.779868
9671.000000;0.779650
9670.000000;0.779673
9669.000000;0.779900
9668.000000;0.780154
9667.000000;0.780308
9666.000000;0.780395
9665.000000;0.780446
9664.000000;0.780344
9663.000000;0.779947
9662.000000;0.779326
9661.000000;0.778736
9660.000000;0.778406
9659.000000;0.778423
9658.000000;0.778760
9657.000000;0.779295
9656.000000;0.779803
9655.000000;0.780028
9654.000000;0.779839
9653.000000;0.779331
9652.000000;0.778807
9651.000000;0.778603
9650.000000;0.778825
9649.000000;0.779219
9648.000000;0.779389
9647.000000;0.779187
9646.000000;0.778810
9645.000000;0.778517
9644.000000;0.778364
9643.000000;0.778258
9642.000000;0.778144
9641.000000;0.778048
9640.000000;0.778001
9639.000000;0.778014
9638.000000;0.778060
9637.000000;0.778036
9636.000000;0.777813
9635.000000;0.777376
9634.000000;0.776863
9633.000000;0.776433
9632.000000;0.776167
9631.000000;0.776114
9630.000000;0.776313
9629.000000;0.776685
9628.000000;0.777014
9627.000000;0.777134
9626.000000;0.777079
9625.000000;0.776952
9624.000000;0.776761
9623.000000;0.776495
9622.000000;0.776265
9621.000000;0.776232
9620.000000;0.776402
9619.000000;0.776638
9618.000000;0.776840
9617.000000;0.777004
9616.000000;0.777089
9615.000000;0.776959
9614.000000;0.776540
9613.000000;0.775954
9612.000000;0.775429
9611.000000;0.775097
9610.000000;0.774937
9609.000000;0.774895
9608.000000;0.775007
9607.000000;0.775322
9606.000000;0.775723
9605.000000;0.775910
9604.000000;0.775649
9603.000000;0.775047
9602.000000;0.774511
9601.000000;0.774439
9600.000000;0.774915
9599.000000;0.775631
9598.000000;0.776062
9597.000000;0.775830
9596.000000;0.775061
9595.000000;0.774346
9594.000000;0.774194
9593.000000;0.774521
9592.000000;0.774803
9591.000000;0.774728
9590.000000;0.774513
9589.000000;0.774516
9588.000000;0.774745
9587.000000;0.774902
9586.000000;0.774783
9585.000000;0.774467
9584.000000;0.774146
9583.000000;0.773910
9582.000000;0.773690
9581.000000;0.773344
9580.000000;0.772833
9579.000000;0.772312
9578.000000;0.772008
9577.000000;0.771985
9576.000000;0.772112
9575.000000;0.772298
9574.000000;0.772599
9573.000000;0.773044
9572.000000;0.773474
9571.000000;0.773705
9570.000000;0.773736
9569.000000;0.773686
9568.000000;0.773562
9567.000000;0.773267
9566.000000;0.772793
9565.000000;0.772297
9564.000000;0.771969
9563.000000;0.771917
9562.000000;0.772146
9561.000000;0.772538
9560.000000;0.772828
9559.000000;0.772725
9558.000000;0.772130
9557.000000;0.771267
9556.000000;0.770598
9555.000000;0.770545
9554.000000;0.771161
9553.000000;0.771993
9552.000000;0.772395
9551.000000;0.772090
9550.000000;0.771411
9549.000000;0.770915
9548.000000;0.770840
9547.000000;0.770987
9546.000000;0.771040
9545.000000;0.770849
9544.000000;0.770483
9543.000000;0.770170
9542.000000;0.770173
9541.000000;0.770584
9540.000000;0.771181
9539.000000;0.771578
9538.000000;0.771550
9537.000000;0.771169
9536.000000;0.770662
9535.000000;0.770238
9534.000000;0.769993
9533.000000;0.769876
9532.000000;0.769702
9531.000000;0.769339
9530.000000;0.768900
9529.000000;0.768684
9528.000000;0.768862
9527.000000;0.769272
9526.000000;0.769578
9525.000000;0.769588
9524.000000;0.769380
9523.000000;0.769155
9522.000000;0.769028
9521.000000;0.768961
9520.000000;0.768879
9519.000000;0.768760
9518.000000;0.768585
9517.000000;0.768258
9516.000000;0.767693
9515.000000;0.767003
9514.000000;0.766459
9513.000000;0.766230
9512.000000;0.766223
9511.000000;0.766283
9510.000000;0.766436
9509.000000;0.766824
9508.000000;0.767440
9507.000000;0.768052
9506.000000;0.768395
9505.000000;0.768372
9504.000000;0.768073
9503.000000;0.767698
9502.000000;0.767439
9501.000000;0.767349
9500.000000;0.767292
9499.000000;0.767084
9498.000000;0.766675
9497.000000;0.766185
9496.000000;0.765800
9495.000000;0.765670
9494.000000;0.765840
9493.000000;0.766179
9492.000000;0.766406
9491.000000;0.766315
9490.000000;0.765999
9489.000000;0.765792
9488.000000;0.765951
9487.000000;0.766424
9486.000000;0.766895
9485.000000;0.767023
9484.000000;0.766681
9483.000000;0.766058
9482.000000;0.765491
9481.000000;0.765154
9480.000000;0.764972
9479.000000;0.764883
9478.000000;0.765055
9477.000000;0.765659
9476.000000;0.766482
9475.000000;0.767001
9474.000000;0.766906
9473.000000;0.766372
9472.000000;0.765771
9471.000000;0.765281
9470.000000;0.764900
9469.000000;0.764670
9468.000000;0.764673
9467.000000;0.764862
9466.000000;0.765029
9465.000000;0.764994
9464.000000;0.764745
9463.000000;0.764399
9462.000000;0.764103
9461.000000;0.763954
9460.000000;0.763977
9459.000000;0.764121
9458.000000;0.764300
9457.000000;0.764427
9456.000000;0.764396
9455.000000;0.764115
9454.000000;0.763637
9453.000000;0.763230
9452.000000;0.763217
9451.000000;0.763656
9450.000000;0.764236
9449.000000;0.764547
9448.000000;0.764456
9447.000000;0.764181
9446.000000;0.763982
9445.000000;0.763874
9444.000000;0.763684
9443.000000;0.763339
9442.000000;0.762971
9441.000000;0.762740
9440.000000;0.762653
9439.000000;0.762605
9438.000000;0.762510
9437.000000;0.762335
9436.000000;0.762088
9435.000000;0.761856
9434.000000;0.761789
9433.000000;0.761933
9432.000000;0.762097
9431.000000;0.762008
9430.000000;0.761615
9429.000000;0.761151
9428.000000;0.760889
9427.000000;0.760909
9426.000000;0.761105
9425.000000;0.761343
9424.000000;0.761554
9423.000000;0.761740
9422.000000;0.761900
9421.000000;0.761972
9420.000000;0.761828
9419.000000;0.761417
9418.000000;0.760895
9417.000000;0.760526
9416.000000;0.760411
9415.000000;0.760394
9414.000000;0.760269
9413.000000;0.760031
9412.000000;0.759855
9411.000000;0.759851
9410.000000;0.759932
9409.000000;0.759942
9408.000000;0.759876
9407.000000;0.759887
9406.000000;0.760080
9405.000000;0.760320
9404.000000;0.760325
9403.000000;0.759979
9402.000000;0.759493
9401.000000;0.759193
9400.000000;0.759177
9399.000000;0.759261
9398.000000;0.759243
9397.000000;0.759126
9396.000000;0.759053
9395.000000;0.759093
9394.000000;0.759159
9393.000000;0.759105
9392.000000;0.758893
9391.000000;0.758669
9390.000000;0.758678
9389.000000;0.759057
9388.000000;0.759680
9387.000000;0.760193
9386.000000;0.760256
9385.000000;0.759768
9384.000000;0.758926
9383.000000;0.758111
9382.000000;0.757657
9381.000000;0.757648
9380.000000;0.757872
9379.000000;0.758012
9378.000000;0.757919
9377.000000;0.757695
9376.000000;0.757531
9375.000000;0.757527
9374.000000;0.757656
9373.000000;0.757836
9372.000000;0.757985
9371.000000;0.758044
9370.000000;0.757968
9369.000000;0.757727
9368.000000;0.757323
9367.000000;0.756840
9366.000000;0.756440
9365.000000;0.756237
9364.000000;0.756191
9363.000000;0.756176
9362.000000;0.756167
9361.000000;0.756239
9360.000000;0.756389
9359.000000;0.756468
9358.000000;0.756394
9357.000000;0.756317
9356.000000;0.756452
9355.000000;0.756763
9354.000000;0.756952
9353.000000;0.756824
9352.000000;0.756546
9351.000000;0.756469
9350.000000;0.756716
9349.000000;0.757021
9348.000000;0.757014
9347.000000;0.756638
9346.000000;0.756216
9345.000000;0.756087
9344.000000;0.756242
9343.000000;0.756350
9342.000000;0.756127
9341.000000;0.755616
9340.000000;0.755076
9339.000000;0.754707
9338.000000;0.754522
9337.000000;0.754429
9336.000000;0.754339
9335.000000;0.754189
9334.000000;0.753946
9333.000000;0.753637
9332.000000;0.753351
9331.000000;0.753196
9330.000000;0.753253
9329.000000;0.753539
9328.000000;0.753968
9327.000000;0.754359
9326.000000;0.754540
9325.000000;0.754480
9324.000000;0.754310
9323.000000;0.754199
9322.000000;0.754218
9321.000000;0.754325
9320.000000;0.754419
9319.000000;0.754414
9318.000000;0.754272
9317.000000;0.754019
9316.000000;0.753735
9315.000000;0.753497
9314.000000;0.753341
9313.000000;0.753254
9312.000000;0.753201
9311.000000;0.753158
9310.000000;0.753120
9309.000000;0.753098
9308.000000;0.753095
9307.000000;0.753099
9306.000000;0.753099
9305.000000;0.753108
9304.000000;0.753140
9303.000000;0.753149
9302.000000;0.753041
9301.000000;0.752781
9300.000000;0.752462
9299.000000;0.752212
9298.000000;0.752031
9297.000000;0.751798
9296.000000;0.751464
9295.000000;0.751192
9294.000000;0.751215
9293.000000;0.751537
9292.000000;0.751866
9291.000000;0.751875
9290.000000;0.751536
9289.000000;0.751138
9288.000000;0.750984
9287.000000;0.751108
9286.000000;0.751302
9285.000000;0.751394
9284.000000;0.751400
9283.000000;0.751406
9282.000000;0.751384
9281.000000;0.751235
9280.000000;0.751006
9279.000000;0.750921
9278.000000;0.751117
9277.000000;0.751418
9276.000000;0.751487
9275.000000;0.751198
9274.000000;0.750755
9273.000000;0.750428
9272.000000;0.750272
9271.000000;0.750157
9270.000000;0.749991
9269.000000;0.749807
9268.000000;0.749668
9267.000000;0.749580
9266.000000;0.749505
9265.000000;0.749397
9264.000000;0.749206
9263.000000;0.748896
9262.000000;0.748509
9261.000000;0.748184
9260.000000;0.748074
9259.000000;0.748228
9258.000000;0.748564
9257.000000;0.748932
9256.000000;0.749201
9255.000000;0.749290
9254.000000;0.749148
9253.000000;0.748766
9252.000000;0.748234
9251.000000;0.747767
9250.000000;0.747576
9249.000000;0.747665
9248.000000;0.747793
9247.000000;0.747723
9246.000000;0.747469
9245.000000;0.747245
9244.000000;0.747186
9243.000000;0.747208
9242.000000;0.747188
9241.000000;0.747164
9240.000000;0.747276
9239.000000;0.747544
9238.000000;0.747801
9237.000000;0.747848
9236.000000;0.747625
9235.000000;0.747229
9234.000000;0.746822
9233.000000;0.746559
9232.000000;0.746543
9231.000000;0.746774
9230.000000;0.747119
9229.000000;0.747363
9228.000000;0.747315
9227.000000;0.746927
9226.000000;0.746354
9225.000000;0.745885
9224.000000;0.745739
9223.000000;0.745910
9222.000000;0.746213
9221.000000;0.746486
9220.000000;0.746685
9219.000000;0.746771
9218.000000;0.746624
9217.000000;0.746185
9216.000000;0.745641
9215.000000;0.745325
9214.000000;0.745380
9213.000000;0.745624
9212.000000;0.745792
9211.000000;0.745809
9210.000000;0.745758
9209.000000;0.745655
9208.000000;0.745419
9207.000000;0.745073
9206.000000;0.744826
9205.000000;0.744882
9204.000000;0.745195
9203.000000;0.745483
9202.000000;0.745492
9201.000000;0.745222
9200.000000;0.744917
9199.000000;0.744837
9198.000000;0.745026
9197.000000;0.745281
9196.000000;0.745315
9195.000000;0.744977
9194.000000;0.744352
9193.000000;0.743691
9192.000000;0.743263
9191.000000;0.743187
9190.000000;0.743357
9189.000000;0.743535
9188.000000;0.743577
9187.000000;0.743543
9186.000000;0.743551
9185.000000;0.743569
9184.000000;0.743446
9183.000000;0.743154
9182.000000;0.742870
9181.000000;0.742801
9180.000000;0.742979
9179.000000;0.743268
9178.000000;0.743508
9177.000000;0.743593
9176.000000;0.743503
9175.000000;0.743305
9174.000000;0.743108
9173.000000;0.742950
9172.000000;0.742748
9171.000000;0.742418
9170.000000;0.742002
9169.000000;0.741644
9168.000000;0.741464
9167.000000;0.741495
9166.000000;0.741697
9165.000000;0.741954
9164.000000;0.742121
9163.000000;0.742154
9162.000000;0.742160
9161.000000;0.742226
9160.000000;0.742235
9159.000000;0.742003
9158.000000;0.741575
9157.000000;0.741252
9156.000000;0.741232
9155.000000;0.741387
9154.000000;0.741480
9153.000000;0.741486
9152.000000;0.741552
9151.000000;0.741705
9150.000000;0.741795
9149.000000;0.741715
9148.000000;0.741550
9147.000000;0.741424
9146.000000;0.741329
9145.000000;0.741168
9144.000000;0.740892
9143.000000;0.740529
9142.000000;0.740139
9141.000000;0.739818
9140.000000;0.739704
9139.000000;0.739874
9138.000000;0.740240
9137.000000;0.740601
9136.000000;0.740797
9135.000000;0.740783
9134.000000;0.740584
9133.000000;0.740263
9132.000000;0.739930
9131.000000;0.739695
9130.000000;0.739591
9129.000000;0.739568
9128.000000;0.739571
9127.000000;0.739542
9126.000000;0.739384
9125.000000;0.739036
9124.000000;0.738606
9123.000000;0.738337
9122.000000;0.738360
9121.000000;0.738546
9120.000000;0.738683
9119.000000;0.738722
9118.000000;0.738760
9117.000000;0.738827
9116.000000;0.738849
9115.000000;0.738805
9114.000000;0.738774
9113.000000;0.738761
9112.000000;0.738623
9111.000000;0.738263
9110.000000;0.737834
9109.000000;0.737621
9108.000000;0.737717
9107.000000;0.737910
9106.000000;0.737940
9105.000000;0.737774
9104.000000;0.737608
9103.000000;0.737624
9102.000000;0.737815
9101.000000;0.738047
9100.000000;0.738215
9099.000000;0.738298
9098.000000;0.738282
9097.000000;0.738125
9096.000000;0.737815
9095.000000;0.737442
9094.000000;0.737154
9093.000000;0.737027
9092.000000;0.737018
9091.000000;0.737029
9090.000000;0.737014
9089.000000;0.737005
9088.000000;0.737068
9087.000000;0.737208
9086.000000;0.737339
9085.000000;0.737341
9084.000000;0.737191
9083.000000;0.737006
9082.000000;0.736931
9081.000000;0.736966
9080.000000;0.736952
9079.000000;0.736724
9078.000000;0.736288
9077.000000;0.735813
9076.000000;0.735473
9075.000000;0.735303
9074.000000;0.735210
9073.000000;0.735105
9072.000000;0.734990
9071.000000;0.734915
9070.000000;0.734873
9069.000000;0.734819
9068.000000;0.734780
9067.000000;0.734860
9066.000000;0.735083
9065.000000;0.735322
9064.000000;0.735444
9063.000000;0.735479
9062.000000;0.735529
9061.000000;0.735554
9060.000000;0.735388
9059.000000;0.734980
9058.000000;0.734512
9057.000000;0.734213
9056.000000;0.734135
9055.000000;0.734190
9054.000000;0.734307
9053.000000;0.734477
