Criado como novo conjunto de dados;"2706_e01_daniel.spp","99367.2 Secs"
cm-1;Abs
10000.000000;0.867527
9999.000000;0.867273
9998.000000;0.866788
9997.000000;0.865912
9996.000000;0.864956
9995.000000;0.864488
9994.000000;0.864680
9993.000000;0.865051
9992.000000;0.865068
9991.000000;0.864763
9990.000000;0.864532
9989.000000;0.864479
9988.000000;0.864333
9987.000000;0.863996
9986.000000;0.863798
9985.000000;0.864060
9984.000000;0.864613
9983.000000;0.864954
9982.000000;0.864776
9981.000000;0.864213
9980.000000;0.863641
9979.000000;0.863422
9978.000000;0.863759
9977.000000;0.864545
9976.000000;0.865285
9975.000000;0.865352
9974.000000;0.864555
9973.000000;0.863396
9972.000000;0.862617
9971.000000;0.862485
9970.000000;0.862636
9969.000000;0.862618
9968.000000;0.862409
9967.000000;0.862306
9966.000000;0.862474
9965.000000;0.862794
9964.000000;0.863112
9963.000000;0.863403
9962.000000;0.863672
9961.000000;0.863849
9960.000000;0.863874
9959.000000;0.863806
9958.000000;0.863752
9957.000000;0.863732
9956.000000;0.863660
9955.000000;0.863409
9954.000000;0.862898
9953.000000;0.862189
9952.000000;0.861541
9951.000000;0.861270
9950.000000;0.861476
9949.000000;0.861938
9948.000000;0.862328
9947.000000;0.862494
9946.000000;0.862481
9945.000000;0.862355
9944.000000;0.862106
9943.000000;0.861725
9942.000000;0.861295
9941.000000;0.861010
9940.000000;0.861097
9939.000000;0.861634
9938.000000;0.862382
9937.000000;0.862860
9936.000000;0.862708
9935.000000;0.861974
9934.000000;0.861002
9933.000000;0.860079
9932.000000;0.859318
9931.000000;0.858816
9930.000000;0.858741
9929.000000;0.859178
9928.000000;0.859954
9927.000000;0.860715
9926.000000;0.861127
9925.000000;0.861010
9924.000000;0.860395
9923.000000;0.859541
9922.000000;0.858856
9921.000000;0.858699
9920.000000;0.859178
9919.000000;0.860122
9918.000000;0.861153
9917.000000;0.861790
9916.000000;0.861677
9915.000000;0.860899
9914.000000;0.860035
9913.000000;0.859658
9912.000000;0.859770
9911.000000;0.859876
9910.000000;0.859652
9909.000000;0.859342
9908.000000;0.859338
9907.000000;0.859572
9906.000000;0.859567
9905.000000;0.859022
9904.000000;0.858123
9903.000000;0.857263
9902.000000;0.856701
9901.000000;0.856518
9900.000000;0.856674
9899.000000;0.856973
9898.000000;0.857146
9897.000000;0.857164
9896.000000;0.857343
9895.000000;0.857950
9894.000000;0.858723
9893.000000;0.858973
9892.000000;0.858227
9891.000000;0.856735
9890.000000;0.855318
9889.000000;0.854739
9888.000000;0.855155
9887.000000;0.856075
9886.000000;0.856836
9885.000000;0.857166
9884.000000;0.857280
9883.000000;0.857455
9882.000000;0.857631
9881.000000;0.857520
9880.000000;0.856974
9879.000000;0.856146
9878.000000;0.855315
9877.000000;0.854691
9876.000000;0.854368
9875.000000;0.854346
9874.000000;0.854524
9873.000000;0.854735
9872.000000;0.854809
9871.000000;0.854670
9870.000000;0.854415
9869.000000;0.854308
9868.000000;0.854570
9867.000000;0.855091
9866.000000;0.855462
9865.000000;0.855378
9864.000000;0.854974
9863.000000;0.854658
9862.000000;0.854677
9861.000000;0.854937
9860.000000;0.855192
9859.000000;0.855277
9858.000000;0.855212
9857.000000;0.855175
9856.000000;0.855348
9855.000000;0.855673
9854.000000;0.855836
9853.000000;0.855626
9852.000000;0.855250
9851.000000;0.855083
9850.000000;0.855135
9849.000000;0.855009
9848.000000;0.854436
9847.000000;0.853653
9846.000000;0.853101
9845.000000;0.852912
9844.000000;0.852859
9843.000000;0.852734
9842.000000;0.852605
9841.000000;0.852660
9840.000000;0.852884
9839.000000;0.853009
9838.000000;0.852797
9837.000000;0.852314
9836.000000;0.851853
9835.000000;0.851611
9834.000000;0.851581
9833.000000;0.851716
9832.000000;0.851990
9831.000000;0.852269
9830.000000;0.852336
9829.000000;0.852195
9828.000000;0.852151
9827.000000;0.852384
9826.000000;0.852611
9825.000000;0.852478
9824.000000;0.852156
9823.000000;0.852143
9822.000000;0.852489
9821.000000;0.852648
9820.000000;0.852221
9819.000000;0.851484
9818.000000;0.850978
9817.000000;0.850901
9816.000000;0.851143
9815.000000;0.851647
9814.000000;0.852373
9813.000000;0.853046
9812.000000;0.853308
9811.000000;0.853139
9810.000000;0.852837
9809.000000;0.852523
9808.000000;0.851919
9807.000000;0.850774
9806.000000;0.849343
9805.000000;0.848288
9804.000000;0.848095
9803.000000;0.848667
9802.000000;0.849474
9801.000000;0.850060
9800.000000;0.850361
9799.000000;0.850565
9798.000000;0.850767
9797.000000;0.850843
9796.000000;0.850591
9795.000000;0.849932
9794.000000;0.849023
9793.000000;0.848249
9792.000000;0.848010
9791.000000;0.848345
9790.000000;0.848827
9789.000000;0.849016
9788.000000;0.848988
9787.000000;0.849176
9786.000000;0.849687
9785.000000;0.850090
9784.000000;0.850001
9783.000000;0.849589
9782.000000;0.849290
9781.000000;0.849241
9780.000000;0.849275
9779.000000;0.849312
9778.000000;0.849423
9777.000000;0.849565
9776.000000;0.849513
9775.000000;0.849144
9774.000000;0.848588
9773.000000;0.848064
9772.000000;0.847725
9771.000000;0.847660
9770.000000;0.847902
9769.000000;0.848337
9768.000000;0.848699
9767.000000;0.848722
9766.000000;0.848339
9765.000000;0.847756
9764.000000;0.847372
9763.000000;0.847509
9762.000000;0.848085
9761.000000;0.848597
9760.000000;0.848574
9759.000000;0.848015
9758.000000;0.847305
9757.000000;0.846742
9756.000000;0.846314
9755.000000;0.845917
9754.000000;0.845594
9753.000000;0.845444
9752.000000;0.845437
9751.000000;0.845422
9750.000000;0.845327
9749.000000;0.845272
9748.000000;0.845458
9747.000000;0.845903
9746.000000;0.846300
9745.000000;0.846273
9744.000000;0.845808
9743.000000;0.845355
9742.000000;0.845362
9741.000000;0.845814
9740.000000;0.846322
9739.000000;0.846586
9738.000000;0.846583
9737.000000;0.846376
9736.000000;0.846000
9735.000000;0.845581
9734.000000;0.845341
9733.000000;0.845377
9732.000000;0.845561
9731.000000;0.845745
9730.000000;0.845917
9729.000000;0.846064
9728.000000;0.846022
9727.000000;0.845632
9726.000000;0.844993
9725.000000;0.844409
9724.000000;0.844100
9723.000000;0.844058
9722.000000;0.844166
9721.000000;0.844331
9720.000000;0.844498
9719.000000;0.844624
9718.000000;0.844671
9717.000000;0.844592
9716.000000;0.844340
9715.000000;0.843920
9714.000000;0.843441
9713.000000;0.843070
9712.000000;0.842909
9711.000000;0.842933
9710.000000;0.843047
9709.000000;0.843183
9708.000000;0.843334
9707.000000;0.843501
9706.000000;0.843626
9705.000000;0.843600
9704.000000;0.843374
9703.000000;0.843023
9702.000000;0.842656
9701.000000;0.842305
9700.000000;0.841981
9699.000000;0.841826
9698.000000;0.842039
9697.000000;0.842602
9696.000000;0.843214
9695.000000;0.843595
9694.000000;0.843766
9693.000000;0.843892
9692.000000;0.843983
9691.000000;0.843923
9690.000000;0.843737
9689.000000;0.843586
9688.000000;0.843458
9687.000000;0.843127
9686.000000;0.842555
9685.000000;0.842126
9684.000000;0.842251
9683.000000;0.842823
9682.000000;0.843286
9681.000000;0.843214
9680.000000;0.842649
9679.000000;0.841885
9678.000000;0.841163
9677.000000;0.840627
9676.000000;0.840367
9675.000000;0.840341
9674.000000;0.840382
9673.000000;0.840401
9672.000000;0.840484
9671.000000;0.840671
9670.000000;0.840777
9669.000000;0.840616
9668.000000;0.840335
9667.000000;0.840306
9666.000000;0.840677
9665.000000;0.841170
9664.000000;0.841378
9663.000000;0.841138
9662.000000;0.840611
9661.000000;0.840097
9660.000000;0.839845
9659.000000;0.839933
9658.000000;0.840227
9657.000000;0.840480
9656.000000;0.840499
9655.000000;0.840240
9654.000000;0.839815
9653.000000;0.839469
9652.000000;0.839481
9651.000000;0.839906
9650.000000;0.840399
9649.000000;0.840468
9648.000000;0.840004
9647.000000;0.839440
9646.000000;0.839282
9645.000000;0.839560
9644.000000;0.839829
9643.000000;0.839676
9642.000000;0.839143
9641.000000;0.838664
9640.000000;0.838657
9639.000000;0.839142
9638.000000;0.839741
9637.000000;0.840032
9636.000000;0.839913
9635.000000;0.839560
9634.000000;0.839079
9633.000000;0.838410
9632.000000;0.837602
9631.000000;0.836973
9630.000000;0.836812
9629.000000;0.836997
9628.000000;0.837106
9627.000000;0.836892
9626.000000;0.836533
9625.000000;0.836396
9624.000000;0.836688
9623.000000;0.837336
9622.000000;0.838083
9621.000000;0.838670
9620.000000;0.838975
9619.000000;0.839021
9618.000000;0.838824
9617.000000;0.838314
9616.000000;0.837490
9615.000000;0.836613
9614.000000;0.836081
9613.000000;0.836055
9612.000000;0.836325
9611.000000;0.836584
9610.000000;0.836729
9609.000000;0.836843
9608.000000;0.836976
9607.000000;0.837046
9606.000000;0.836949
9605.000000;0.836677
9604.000000;0.836355
9603.000000;0.836164
9602.000000;0.836229
9601.000000;0.836500
9600.000000;0.836752
9599.000000;0.836732
9598.000000;0.836337
9597.000000;0.835657
9596.000000;0.834934
9595.000000;0.834504
9594.000000;0.834650
9593.000000;0.835364
9592.000000;0.836229
9591.000000;0.836688
9590.000000;0.836533
9589.000000;0.836069
9588.000000;0.835725
9587.000000;0.835596
9586.000000;0.835460
9585.000000;0.835179
9584.000000;0.834859
9583.000000;0.834594
9582.000000;0.834279
9581.000000;0.833793
9580.000000;0.833265
9579.000000;0.832969
9578.000000;0.833022
9577.000000;0.833333
9576.000000;0.833818
9575.000000;0.834466
9574.000000;0.835162
9573.000000;0.835634
9572.000000;0.835715
9571.000000;0.835554
9570.000000;0.835458
9569.000000;0.835577
9568.000000;0.835806
9567.000000;0.835944
9566.000000;0.835831
9565.000000;0.835413
9564.000000;0.834788
9563.000000;0.834180
9562.000000;0.833778
9561.000000;0.833600
9560.000000;0.833543
9559.000000;0.833518
9558.000000;0.833456
9557.000000;0.833252
9556.000000;0.832862
9555.000000;0.832432
9554.000000;0.832219
9553.000000;0.832303
9552.000000;0.832471
9551.000000;0.832455
9550.000000;0.832203
9549.000000;0.831871
9548.000000;0.831634
9547.000000;0.831602
9546.000000;0.831888
9545.000000;0.832568
9544.000000;0.833520
9543.000000;0.834373
9542.000000;0.834740
9541.000000;0.834534
9540.000000;0.833991
9539.000000;0.833373
9538.000000;0.832732
9537.000000;0.832011
9536.000000;0.831309
9535.000000;0.830908
9534.000000;0.831012
9533.000000;0.831513
9532.000000;0.832068
9531.000000;0.832377
9530.000000;0.832366
9529.000000;0.832126
9528.000000;0.831778
9527.000000;0.831404
9526.000000;0.831082
9525.000000;0.830888
9524.000000;0.830854
9523.000000;0.830930
9522.000000;0.831036
9521.000000;0.831144
9520.000000;0.831275
9519.000000;0.831414
9518.000000;0.831473
9517.000000;0.831363
9516.000000;0.831068
9515.000000;0.830630
9514.000000;0.830122
9513.000000;0.829676
9512.000000;0.829469
9511.000000;0.829573
9510.000000;0.829886
9509.000000;0.830270
9508.000000;0.830689
9507.000000;0.831087
9506.000000;0.831235
9505.000000;0.830899
9504.000000;0.830185
9503.000000;0.829502
9502.000000;0.829118
9501.000000;0.828950
9500.000000;0.828839
9499.000000;0.828818
9498.000000;0.828928
9497.000000;0.828977
9496.000000;0.828715
9495.000000;0.828185
9494.000000;0.827676
9493.000000;0.827379
9492.000000;0.827293
9491.000000;0.827455
9490.000000;0.828001
9489.000000;0.828892
9488.000000;0.829731
9487.000000;0.830042
9486.000000;0.829698
9485.000000;0.829014
9484.000000;0.828443
9483.000000;0.828229
9482.000000;0.828291
9481.000000;0.828366
9480.000000;0.828238
9479.000000;0.827882
9478.000000;0.827421
9477.000000;0.827008
9476.000000;0.826759
9475.000000;0.826707
9474.000000;0.826754
9473.000000;0.826700
9472.000000;0.826432
9471.000000;0.826081
9470.000000;0.825904
9469.000000;0.826018
9468.000000;0.826337
9467.000000;0.826760
9466.000000;0.827271
9465.000000;0.827812
9464.000000;0.828169
9463.000000;0.828128
9462.000000;0.827731
9461.000000;0.827274
9460.000000;0.827052
9459.000000;0.827137
9458.000000;0.827410
9457.000000;0.827691
9456.000000;0.827821
9455.000000;0.827694
9454.000000;0.827314
9453.000000;0.826869
9452.000000;0.826659
9451.000000;0.826844
9450.000000;0.827271
9449.000000;0.827620
9448.000000;0.827723
9447.000000;0.827661
9446.000000;0.827516
9445.000000;0.827148
9444.000000;0.826354
9443.000000;0.825234
9442.000000;0.824256
9441.000000;0.823896
9440.000000;0.824245
9439.000000;0.824941
9438.000000;0.825459
9437.000000;0.825501
9436.000000;0.825175
9435.000000;0.824838
9434.000000;0.824745
9433.000000;0.824844
9432.000000;0.824926
9431.000000;0.824881
9430.000000;0.824775
9429.000000;0.824715
9428.000000;0.824770
9427.000000;0.824958
9426.000000;0.825190
9425.000000;0.825228
9424.000000;0.824870
9423.000000;0.824235
9422.000000;0.823739
9421.000000;0.823688
9420.000000;0.823953
9419.000000;0.824140
9418.000000;0.824012
9417.000000;0.823668
9416.000000;0.823354
9415.000000;0.823194
9414.000000;0.823141
9413.000000;0.823089
9412.000000;0.823007
9411.000000;0.822972
9410.000000;0.823091
9409.000000;0.823385
9408.000000;0.823756
9407.000000;0.824065
9406.000000;0.824217
9405.000000;0.824190
9404.000000;0.824033
9403.000000;0.823843
9402.000000;0.823699
9401.000000;0.823584
9400.000000;0.823412
9399.000000;0.823159
9398.000000;0.822936
9397.000000;0.822872
9396.000000;0.822965
9395.000000;0.823072
9394.000000;0.823057
9393.000000;0.822904
9392.000000;0.822701
9391.000000;0.822544
9390.000000;0.822464
9389.000000;0.822430
9388.000000;0.822398
9387.000000;0.822333
9386.000000;0.822205
9385.000000;0.821993
9384.000000;0.821752
9383.000000;0.821628
9382.000000;0.821717
9381.000000;0.821903
9380.000000;0.821930
9379.000000;0.821658
9378.000000;0.821175
9377.000000;0.820625
9376.000000;0.820063
9375.000000;0.819560
9374.000000;0.819327
9373.000000;0.819560
9372.000000;0.820176
9371.000000;0.820823
9370.000000;0.821198
9369.000000;0.821270
9368.000000;0.821206
9367.000000;0.821176
9366.000000;0.821279
9365.000000;0.821515
9364.000000;0.821748
9363.000000;0.821741
9362.000000;0.821336
9361.000000;0.820613
9360.000000;0.819844
9359.000000;0.819316
9358.000000;0.819179
9357.000000;0.819399
9356.000000;0.819761
9355.000000;0.819985
9354.000000;0.819909
9353.000000;0.819604
9352.000000;0.819279
9351.000000;0.819073
9350.000000;0.818980
9349.000000;0.818928
9348.000000;0.818888
9347.000000;0.818910
9346.000000;0.819073
9345.000000;0.819397
9344.000000;0.819768
9343.000000;0.819976
9342.000000;0.819857
9341.000000;0.819396
9340.000000;0.818698
9339.000000;0.817926
9338.000000;0.817322
9337.000000;0.817186
9336.000000;0.817651
9335.000000;0.818446
9334.000000;0.819020
9333.000000;0.819021
9332.000000;0.818614
9331.000000;0.818259
9330.000000;0.818224
9329.000000;0.818389
9328.000000;0.818481
9327.000000;0.818378
9326.000000;0.818176
9325.000000;0.818039
9324.000000;0.818043
9323.000000;0.818165
9322.000000;0.818339
9321.000000;0.818506
9320.000000;0.818596
9319.000000;0.818526
9318.000000;0.818279
9317.000000;0.817977
9316.000000;0.817803
9315.000000;0.817809
9314.000000;0.817868
9313.000000;0.817871
9312.000000;0.817867
9311.000000;0.817938
9310.000000;0.817987
9309.000000;0.817804
9308.000000;0.817359
9307.000000;0.816886
9306.000000;0.816615
9305.000000;0.816525
9304.000000;0.816422
9303.000000;0.816219
9302.000000;0.816022
9301.000000;0.815954
9300.000000;0.815977
9299.000000;0.815942
9298.000000;0.815783
9297.000000;0.815644
9296.000000;0.815753
9295.000000;0.816185
9294.000000;0.816757
9293.000000;0.817173
9292.000000;0.817257
9291.000000;0.817014
9290.000000;0.816545
9289.000000;0.815958
9288.000000;0.815385
9287.000000;0.814997
9286.000000;0.814956
9285.000000;0.815318
9284.000000;0.815945
9283.000000;0.816490
9282.000000;0.816568
9281.000000;0.816087
9280.000000;0.815382
9279.000000;0.814924
9278.000000;0.814875
9277.000000;0.815007
9276.000000;0.815039
9275.000000;0.814899
9274.000000;0.814658
9273.000000;0.814371
9272.000000;0.814091
9271.000000;0.813927
9270.000000;0.813955
9269.000000;0.814129
9268.000000;0.814376
9267.000000;0.814708
9266.000000;0.815124
9265.000000;0.815475
9264.000000;0.815555
9263.000000;0.815310
9262.000000;0.814857
9261.000000;0.814309
9260.000000;0.813724
9259.000000;0.813202
9258.000000;0.812904
9257.000000;0.812914
9256.000000;0.813159
9255.000000;0.813508
9254.000000;0.813873
9253.000000;0.814205
9252.000000;0.814431
9251.000000;0.814452
9250.000000;0.814185
9249.000000;0.813625
9248.000000;0.812926
9247.000000;0.812391
9246.000000;0.812279
9245.000000;0.812573
9244.000000;0.812990
9243.000000;0.813245
9242.000000;0.813283
9241.000000;0.813261
9240.000000;0.813353
9239.000000;0.813590
9238.000000;0.813823
9237.000000;0.813816
9236.000000;0.813435
9235.000000;0.812792
9234.000000;0.812174
9233.000000;0.811819
9232.000000;0.811766
9231.000000;0.811923
9230.000000;0.812188
9229.000000;0.812491
9228.000000;0.812752
9227.000000;0.812872
9226.000000;0.812757
9225.000000;0.812382
9224.000000;0.811851
9223.000000;0.811375
9222.000000;0.811105
9221.000000;0.811001
9220.000000;0.810933
9219.000000;0.810891
9218.000000;0.811008
9217.000000;0.811327
9216.000000;0.811678
9215.000000;0.811871
9214.000000;0.811913
9213.000000;0.811933
9212.000000;0.811940
9211.000000;0.811784
9210.000000;0.811374
9209.000000;0.810838
9208.000000;0.810430
9207.000000;0.810310
9206.000000;0.810427
9205.000000;0.810584
9204.000000;0.810612
9203.000000;0.810501
9202.000000;0.810373
9201.000000;0.810331
9200.000000;0.810342
9199.000000;0.810304
9198.000000;0.810177
9197.000000;0.810026
9196.000000;0.809947
9195.000000;0.809974
9194.000000;0.810046
9193.000000;0.810043
9192.000000;0.809901
9191.000000;0.809720
9190.000000;0.809702
9189.000000;0.809915
9188.000000;0.810153
9187.000000;0.810118
9186.000000;0.809753
9185.000000;0.809308
9184.000000;0.809045
9183.000000;0.808963
9182.000000;0.808882
9181.000000;0.808728
9180.000000;0.808621
9179.000000;0.808684
9178.000000;0.808875
9177.000000;0.809051
9176.000000;0.809127
9175.000000;0.809117
9174.000000;0.809037
9173.000000;0.808862
9172.000000;0.808581
9171.000000;0.808243
9170.000000;0.807903
9169.000000;0.807588
9168.000000;0.807362
9167.000000;0.807333
9166.000000;0.807532
9165.000000;0.807791
9164.000000;0.807834
9163.000000;0.807555
9162.000000;0.807150
9161.000000;0.806934
9160.000000;0.807044
9159.000000;0.807335
9158.000000;0.807549
9157.000000;0.807534
9156.000000;0.807325
9155.000000;0.807064
9154.000000;0.806874
9153.000000;0.806791
9152.000000;0.806772
9151.000000;0.806767
9150.000000;0.806757
9149.000000;0.806742
9148.000000;0.806679
9147.000000;0.806477
9146.000000;0.806101
9145.000000;0.805680
9144.000000;0.805471
9143.000000;0.805627
9142.000000;0.806011
9141.000000;0.806299
9140.000000;0.806296
9139.000000;0.806114
9138.000000;0.806000
9137.000000;0.806051
9136.000000;0.806168
9135.000000;0.806215
9134.000000;0.806151
9133.000000;0.806021
9132.000000;0.805907
9131.000000;0.805880
9130.000000;0.805930
9129.000000;0.805937
9128.000000;0.805813
9127.000000;0.805651
9126.000000;0.805638
9125.000000;0.805807
9124.000000;0.805981
9123.000000;0.806005
9122.000000;0.805917
9121.000000;0.805846
9120.000000;0.805832
9119.000000;0.805819
9118.000000;0.805751
9117.000000;0.805578
9116.000000;0.805251
9115.000000;0.804816
9114.000000;0.804440
9113.000000;0.804235
9112.000000;0.804129
9111.000000;0.804005
9110.000000;0.803910
9109.000000;0.803966
9108.000000;0.804129
9107.000000;0.804209
9106.000000;0.804142
9105.000000;0.804071
9104.000000;0.804100
9103.000000;0.804143
9102.000000;0.804089
9101.000000;0.803978
9100.000000;0.803902
9099.000000;0.803835
9098.000000;0.803703
9097.000000;0.803557
9096.000000;0.803541
9095.000000;0.803697
9094.000000;0.803905
9093.000000;0.804019
9092.000000;0.803976
9091.000000;0.803787
9090.000000;0.803498
9089.000000;0.803192
9088.000000;0.802975
9087.000000;0.802902
9086.000000;0.802948
9085.000000;0.803033
9084.000000;0.803069
9083.000000;0.802998
9082.000000;0.802835
9081.000000;0.802663
9080.000000;0.802549
9079.000000;0.802451
9078.000000;0.802269
9077.000000;0.801994
9076.000000;0.801759
9075.000000;0.801740
9074.000000;0.801994
9073.000000;0.802412
9072.000000;0.802798
9071.000000;0.802987
9070.000000;0.802923
9069.000000;0.802634
9068.000000;0.802197
9067.000000;0.801736
9066.000000;0.801444
9065.000000;0.801494
9064.000000;0.801867
9063.000000;0.802294
9062.000000;0.802467
9061.000000;0.802305
9060.000000;0.802001
9059.000000;0.801797
9058.000000;0.801767
9057.000000;0.801812
9056.000000;0.801791
9055.000000;0.801645
9054.000000;0.801419
9053.000000;0.801201
