Criado como novo conjunto de dados;"2706_e01_daniel.spp","92346.8 Secs"
cm-1;Abs
10000.000000;0.854495
9999.000000;0.853681
9998.000000;0.852895
9997.000000;0.852051
9996.000000;0.851562
9995.000000;0.851766
9994.000000;0.852307
9993.000000;0.852725
9992.000000;0.852796
9991.000000;0.852627
9990.000000;0.852394
9989.000000;0.852196
9988.000000;0.852104
9987.000000;0.852168
9986.000000;0.852325
9985.000000;0.852380
9984.000000;0.852152
9983.000000;0.851666
9982.000000;0.851186
9981.000000;0.851037
9980.000000;0.851313
9979.000000;0.851704
9978.000000;0.851722
9977.000000;0.851192
9976.000000;0.850487
9975.000000;0.850139
9974.000000;0.850280
9973.000000;0.850617
9972.000000;0.850877
9971.000000;0.851069
9970.000000;0.851251
9969.000000;0.851292
9968.000000;0.851046
9967.000000;0.850642
9966.000000;0.850407
9965.000000;0.850567
9964.000000;0.851116
9963.000000;0.851889
9962.000000;0.852592
9961.000000;0.852840
9960.000000;0.852394
9959.000000;0.851440
9958.000000;0.850518
9957.000000;0.850105
9956.000000;0.850290
9955.000000;0.850822
9954.000000;0.851346
9953.000000;0.851585
9952.000000;0.851439
9951.000000;0.851025
9950.000000;0.850557
9949.000000;0.850132
9948.000000;0.849707
9947.000000;0.849323
9946.000000;0.849209
9945.000000;0.849513
9944.000000;0.849996
9943.000000;0.850203
9942.000000;0.849987
9941.000000;0.849693
9940.000000;0.849732
9939.000000;0.850085
9938.000000;0.850349
9937.000000;0.850226
9936.000000;0.849815
9935.000000;0.849423
9934.000000;0.849194
9933.000000;0.848964
9932.000000;0.848447
9931.000000;0.847538
9930.000000;0.846464
9929.000000;0.845648
9928.000000;0.845391
9927.000000;0.845656
9926.000000;0.846172
9925.000000;0.846679
9924.000000;0.847034
9923.000000;0.847156
9922.000000;0.847013
9921.000000;0.846698
9920.000000;0.846419
9919.000000;0.846322
9918.000000;0.846397
9917.000000;0.846581
9916.000000;0.846911
9915.000000;0.847502
9914.000000;0.848377
9913.000000;0.849338
9912.000000;0.849970
9911.000000;0.849828
9910.000000;0.848797
9909.000000;0.847331
9908.000000;0.846191
9907.000000;0.845779
9906.000000;0.845777
9905.000000;0.845560
9904.000000;0.844932
9903.000000;0.844286
9902.000000;0.844075
9901.000000;0.844334
9900.000000;0.844809
9899.000000;0.845284
9898.000000;0.845623
9897.000000;0.845629
9896.000000;0.845151
9895.000000;0.844367
9894.000000;0.843767
9893.000000;0.843736
9892.000000;0.844248
9891.000000;0.845014
9890.000000;0.845808
9889.000000;0.846522
9888.000000;0.846995
9887.000000;0.847000
9886.000000;0.846491
9885.000000;0.845752
9884.000000;0.845176
9883.000000;0.844915
9882.000000;0.844813
9881.000000;0.844651
9880.000000;0.844404
9879.000000;0.844191
9878.000000;0.844053
9877.000000;0.843846
9876.000000;0.843443
9875.000000;0.842992
9874.000000;0.842851
9873.000000;0.843173
9872.000000;0.843651
9871.000000;0.843821
9870.000000;0.843645
9869.000000;0.843560
9868.000000;0.843869
9867.000000;0.844285
9866.000000;0.844293
9865.000000;0.843831
9864.000000;0.843334
9863.000000;0.843127
9862.000000;0.843083
9861.000000;0.842963
9860.000000;0.842786
9859.000000;0.842677
9858.000000;0.842563
9857.000000;0.842296
9856.000000;0.841967
9855.000000;0.841836
9854.000000;0.841962
9853.000000;0.842129
9852.000000;0.842182
9851.000000;0.842236
9850.000000;0.842483
9849.000000;0.842942
9848.000000;0.843464
9847.000000;0.843855
9846.000000;0.843909
9845.000000;0.843448
9844.000000;0.842501
9843.000000;0.841432
9842.000000;0.840762
9841.000000;0.840791
9840.000000;0.841376
9839.000000;0.842065
9838.000000;0.842454
9837.000000;0.842476
9836.000000;0.842375
9835.000000;0.842403
9834.000000;0.842538
9833.000000;0.842511
9832.000000;0.842078
9831.000000;0.841229
9830.000000;0.840165
9829.000000;0.839147
9828.000000;0.838387
9827.000000;0.837982
9826.000000;0.837900
9825.000000;0.838012
9824.000000;0.838184
9823.000000;0.838340
9822.000000;0.838476
9821.000000;0.838670
9820.000000;0.839035
9819.000000;0.839570
9818.000000;0.840034
9817.000000;0.840102
9816.000000;0.839736
9815.000000;0.839337
9814.000000;0.839356
9813.000000;0.839754
9812.000000;0.839994
9811.000000;0.839631
9810.000000;0.838838
9809.000000;0.838216
9808.000000;0.838121
9807.000000;0.838318
9806.000000;0.838340
9805.000000;0.838043
9804.000000;0.837715
9803.000000;0.837697
9802.000000;0.838055
9801.000000;0.838601
9800.000000;0.839063
9799.000000;0.839223
9798.000000;0.839049
9797.000000;0.838766
9796.000000;0.838673
9795.000000;0.838799
9794.000000;0.838854
9793.000000;0.838625
9792.000000;0.838280
9791.000000;0.838114
9790.000000;0.838102
9789.000000;0.837937
9788.000000;0.837496
9787.000000;0.837043
9786.000000;0.836884
9785.000000;0.837008
9784.000000;0.837144
9783.000000;0.837052
9782.000000;0.836655
9781.000000;0.836022
9780.000000;0.835335
9779.000000;0.834822
9778.000000;0.834611
9777.000000;0.834663
9776.000000;0.834846
9775.000000;0.835024
9774.000000;0.835068
9773.000000;0.834928
9772.000000;0.834755
9771.000000;0.834809
9770.000000;0.835145
9769.000000;0.835502
9768.000000;0.835626
9767.000000;0.835588
9766.000000;0.835603
9765.000000;0.835666
9764.000000;0.835584
9763.000000;0.835339
9762.000000;0.835147
9761.000000;0.835095
9760.000000;0.834974
9759.000000;0.834617
9758.000000;0.834198
9757.000000;0.833999
9756.000000;0.833960
9755.000000;0.833690
9754.000000;0.832966
9753.000000;0.832077
9752.000000;0.831571
9751.000000;0.831740
9750.000000;0.832417
9749.000000;0.833215
9748.000000;0.833883
9747.000000;0.834402
9746.000000;0.834817
9745.000000;0.835087
9744.000000;0.835137
9743.000000;0.834978
9742.000000;0.834695
9741.000000;0.834330
9740.000000;0.833870
9739.000000;0.833362
9738.000000;0.832980
9737.000000;0.832913
9736.000000;0.833208
9735.000000;0.833725
9734.000000;0.834212
9733.000000;0.834430
9732.000000;0.834301
9731.000000;0.833984
9730.000000;0.833758
9729.000000;0.833759
9728.000000;0.833884
9727.000000;0.833990
9726.000000;0.834070
9725.000000;0.834153
9724.000000;0.834146
9723.000000;0.833969
9722.000000;0.833783
9721.000000;0.833818
9720.000000;0.833950
9719.000000;0.833692
9718.000000;0.832818
9717.000000;0.831803
9716.000000;0.831406
9715.000000;0.831834
9714.000000;0.832504
9713.000000;0.832687
9712.000000;0.832209
9711.000000;0.831502
9710.000000;0.831081
9709.000000;0.831103
9708.000000;0.831332
9707.000000;0.831437
9706.000000;0.831313
9705.000000;0.831160
9704.000000;0.831212
9703.000000;0.831399
9702.000000;0.831371
9701.000000;0.830898
9700.000000;0.830169
9699.000000;0.829574
9698.000000;0.829279
9697.000000;0.829165
9696.000000;0.829155
9695.000000;0.829397
9694.000000;0.830000
9693.000000;0.830733
9692.000000;0.831169
9691.000000;0.831144
9690.000000;0.830897
9689.000000;0.830698
9688.000000;0.830504
9687.000000;0.830099
9686.000000;0.829495
9685.000000;0.828994
9684.000000;0.828825
9683.000000;0.828892
9682.000000;0.828964
9681.000000;0.828972
9680.000000;0.828975
9679.000000;0.828940
9678.000000;0.828754
9677.000000;0.828447
9676.000000;0.828209
9675.000000;0.828144
9674.000000;0.828154
9673.000000;0.828138
9672.000000;0.828153
9671.000000;0.828280
9670.000000;0.828442
9669.000000;0.828515
9668.000000;0.828546
9667.000000;0.828713
9666.000000;0.829060
9665.000000;0.829377
9664.000000;0.829363
9663.000000;0.828883
9662.000000;0.828092
9661.000000;0.827375
9660.000000;0.827107
9659.000000;0.827369
9658.000000;0.827862
9657.000000;0.828189
9656.000000;0.828208
9655.000000;0.828061
9654.000000;0.827910
9653.000000;0.827793
9652.000000;0.827738
9651.000000;0.827838
9650.000000;0.828101
9649.000000;0.828331
9648.000000;0.828273
9647.000000;0.827893
9646.000000;0.827421
9645.000000;0.827130
9644.000000;0.827087
9643.000000;0.827100
9642.000000;0.826901
9641.000000;0.826398
9640.000000;0.825788
9639.000000;0.825378
9638.000000;0.825287
9637.000000;0.825353
9636.000000;0.825377
9635.000000;0.825399
9634.000000;0.825653
9633.000000;0.826247
9632.000000;0.826961
9631.000000;0.827392
9630.000000;0.827298
9629.000000;0.826781
9628.000000;0.826159
9627.000000;0.825697
9626.000000;0.825465
9625.000000;0.825372
9624.000000;0.825303
9623.000000;0.825184
9622.000000;0.824978
9621.000000;0.824695
9620.000000;0.824448
9619.000000;0.824444
9618.000000;0.824816
9617.000000;0.825434
9616.000000;0.825918
9615.000000;0.825922
9614.000000;0.825435
9613.000000;0.824790
9612.000000;0.824356
9611.000000;0.824246
9610.000000;0.824334
9609.000000;0.824453
9608.000000;0.824506
9607.000000;0.824461
9606.000000;0.824354
9605.000000;0.824325
9604.000000;0.824498
9603.000000;0.824786
9602.000000;0.824943
9601.000000;0.824897
9600.000000;0.824888
9599.000000;0.825115
9598.000000;0.825378
9597.000000;0.825283
9596.000000;0.824769
9595.000000;0.824172
9594.000000;0.823753
9593.000000;0.823428
9592.000000;0.823061
9591.000000;0.822793
9590.000000;0.822856
9589.000000;0.823199
9588.000000;0.823511
9587.000000;0.823612
9586.000000;0.823610
9585.000000;0.823685
9584.000000;0.823866
9583.000000;0.824060
9582.000000;0.824155
9581.000000;0.824043
9580.000000;0.823638
9579.000000;0.822952
9578.000000;0.822135
9577.000000;0.821396
9576.000000;0.820923
9575.000000;0.820846
9574.000000;0.821191
9573.000000;0.821813
9572.000000;0.822418
9571.000000;0.822733
9570.000000;0.822668
9569.000000;0.822333
9568.000000;0.821918
9567.000000;0.821567
9566.000000;0.821346
9565.000000;0.821262
9564.000000;0.821307
9563.000000;0.821445
9562.000000;0.821604
9561.000000;0.821701
9560.000000;0.821716
9559.000000;0.821677
9558.000000;0.821565
9557.000000;0.821292
9556.000000;0.820854
9555.000000;0.820452
9554.000000;0.820344
9553.000000;0.820563
9552.000000;0.820876
9551.000000;0.821034
9550.000000;0.821001
9549.000000;0.820921
9548.000000;0.820950
9547.000000;0.821147
9546.000000;0.821462
9545.000000;0.821727
9544.000000;0.821742
9543.000000;0.821428
9542.000000;0.820895
9541.000000;0.820340
9540.000000;0.819907
9539.000000;0.819619
9538.000000;0.819402
9537.000000;0.819166
9536.000000;0.818943
9535.000000;0.818936
9534.000000;0.819307
9533.000000;0.819884
9532.000000;0.820223
9531.000000;0.820062
9530.000000;0.819622
9529.000000;0.819305
9528.000000;0.819218
9527.000000;0.819167
9526.000000;0.819055
9525.000000;0.819050
9524.000000;0.819274
9523.000000;0.819538
9522.000000;0.819528
9521.000000;0.819168
9520.000000;0.818688
9519.000000;0.818341
9518.000000;0.818190
9517.000000;0.818145
9516.000000;0.818148
9515.000000;0.818251
9514.000000;0.818511
9513.000000;0.818842
9512.000000;0.819015
9511.000000;0.818871
9510.000000;0.818506
9509.000000;0.818169
9508.000000;0.818000
9507.000000;0.817924
9506.000000;0.817824
9505.000000;0.817709
9504.000000;0.817661
9503.000000;0.817678
9502.000000;0.817674
9501.000000;0.817602
9500.000000;0.817523
9499.000000;0.817536
9498.000000;0.817642
9497.000000;0.817697
9496.000000;0.817507
9495.000000;0.817040
9494.000000;0.816510
9493.000000;0.816183
9492.000000;0.816085
9491.000000;0.816005
9490.000000;0.815811
9489.000000;0.815634
9488.000000;0.815687
9487.000000;0.815992
9486.000000;0.816380
9485.000000;0.816693
9484.000000;0.816860
9483.000000;0.816858
9482.000000;0.816740
9481.000000;0.816676
9480.000000;0.816803
9479.000000;0.817015
9478.000000;0.817010
9477.000000;0.816617
9476.000000;0.815964
9475.000000;0.815289
9474.000000;0.814684
9473.000000;0.814126
9472.000000;0.813666
9471.000000;0.813457
9470.000000;0.813572
9469.000000;0.813892
9468.000000;0.814192
9467.000000;0.814328
9466.000000;0.814308
9465.000000;0.814227
9464.000000;0.814199
9463.000000;0.814314
9462.000000;0.814583
9461.000000;0.814861
9460.000000;0.814906
9459.000000;0.814621
9458.000000;0.814232
9457.000000;0.814105
9456.000000;0.814363
9455.000000;0.814763
9454.000000;0.815008
9453.000000;0.815064
9452.000000;0.815081
9451.000000;0.815129
9450.000000;0.815152
9449.000000;0.815140
9448.000000;0.815157
9447.000000;0.815184
9446.000000;0.815075
9445.000000;0.814734
9444.000000;0.814258
9443.000000;0.813867
9442.000000;0.813722
9441.000000;0.813791
9440.000000;0.813834
9439.000000;0.813591
9438.000000;0.813090
9437.000000;0.812710
9436.000000;0.812774
9435.000000;0.813110
9434.000000;0.813216
9433.000000;0.812904
9432.000000;0.812535
9431.000000;0.812522
9430.000000;0.812818
9429.000000;0.813089
9428.000000;0.813194
9427.000000;0.813262
9426.000000;0.813346
9425.000000;0.813282
9424.000000;0.812919
9423.000000;0.812348
9422.000000;0.811849
9421.000000;0.811695
9420.000000;0.812002
9419.000000;0.812609
9418.000000;0.813091
9417.000000;0.813047
9416.000000;0.812446
9415.000000;0.811660
9414.000000;0.811115
9413.000000;0.810982
9412.000000;0.811158
9411.000000;0.811416
9410.000000;0.811555
9409.000000;0.811499
9408.000000;0.811349
9407.000000;0.811278
9406.000000;0.811344
9405.000000;0.811440
9404.000000;0.811479
9403.000000;0.811538
9402.000000;0.811729
9401.000000;0.811971
9400.000000;0.811979
9399.000000;0.811511
9398.000000;0.810629
9397.000000;0.809716
9396.000000;0.809232
9395.000000;0.809384
9394.000000;0.809990
9393.000000;0.810634
9392.000000;0.810994
9391.000000;0.811024
9390.000000;0.810853
9389.000000;0.810588
9388.000000;0.810268
9387.000000;0.809937
9386.000000;0.809664
9385.000000;0.809480
9384.000000;0.809347
9383.000000;0.809218
9382.000000;0.809105
9381.000000;0.809055
9380.000000;0.809079
9379.000000;0.809143
9378.000000;0.809224
9377.000000;0.809337
9376.000000;0.809461
9375.000000;0.809499
9374.000000;0.809362
9373.000000;0.809088
9372.000000;0.808822
9371.000000;0.808636
9370.000000;0.808455
9369.000000;0.808214
9368.000000;0.807990
9367.000000;0.807904
9366.000000;0.807922
9365.000000;0.807886
9364.000000;0.807754
9363.000000;0.807684
9362.000000;0.807833
9361.000000;0.808150
9360.000000;0.808425
9359.000000;0.808494
9358.000000;0.808341
9357.000000;0.808077
9356.000000;0.807883
9355.000000;0.807896
9354.000000;0.808062
9353.000000;0.808143
9352.000000;0.807969
9351.000000;0.807635
9350.000000;0.807362
9349.000000;0.807206
9348.000000;0.807045
9347.000000;0.806832
9346.000000;0.806702
9345.000000;0.806774
9344.000000;0.806997
9343.000000;0.807243
9342.000000;0.807422
9341.000000;0.807426
9340.000000;0.807126
9339.000000;0.806599
9338.000000;0.806220
9337.000000;0.806323
9336.000000;0.806795
9335.000000;0.807200
9334.000000;0.807285
9333.000000;0.807182
9332.000000;0.807082
9331.000000;0.806961
9330.000000;0.806713
9329.000000;0.806383
9328.000000;0.806083
9327.000000;0.805826
9326.000000;0.805576
9325.000000;0.805402
9324.000000;0.805393
9323.000000;0.805504
9322.000000;0.805609
9321.000000;0.805689
9320.000000;0.805821
9319.000000;0.806003
9318.000000;0.806130
9317.000000;0.806120
9316.000000;0.805937
9315.000000;0.805522
9314.000000;0.804877
9313.000000;0.804220
9312.000000;0.803869
9311.000000;0.803907
9310.000000;0.804113
9309.000000;0.804274
9308.000000;0.804401
9307.000000;0.804565
9306.000000;0.804680
9305.000000;0.804628
9304.000000;0.804517
9303.000000;0.804612
9302.000000;0.805013
9301.000000;0.805498
9300.000000;0.805745
9299.000000;0.805623
9298.000000;0.805250
9297.000000;0.804831
9296.000000;0.804490
9295.000000;0.804253
9294.000000;0.804135
9293.000000;0.804173
9292.000000;0.804325
9291.000000;0.804417
9290.000000;0.804281
9289.000000;0.803948
9288.000000;0.803620
9287.000000;0.803454
9286.000000;0.803457
9285.000000;0.803562
9284.000000;0.803689
9283.000000;0.803724
9282.000000;0.803563
9281.000000;0.803263
9280.000000;0.802996
9279.000000;0.802823
9278.000000;0.802637
9277.000000;0.802399
9276.000000;0.802266
9275.000000;0.802370
9274.000000;0.802590
9273.000000;0.802697
9272.000000;0.802625
9271.000000;0.802452
9270.000000;0.802213
9269.000000;0.801941
9268.000000;0.801772
9267.000000;0.801822
9266.000000;0.801983
9265.000000;0.802075
9264.000000;0.802161
9263.000000;0.802459
9262.000000;0.802914
9261.000000;0.803108
9260.000000;0.802760
9259.000000;0.802127
9258.000000;0.801725
9257.000000;0.801766
9256.000000;0.802006
9255.000000;0.802082
9254.000000;0.801868
9253.000000;0.801515
9252.000000;0.801252
9251.000000;0.801172
9250.000000;0.801191
9249.000000;0.801200
9248.000000;0.801225
9247.000000;0.801377
9246.000000;0.801625
9245.000000;0.801760
9244.000000;0.801630
9243.000000;0.801316
9242.000000;0.800992
9241.000000;0.800713
9240.000000;0.800442
9239.000000;0.800220
9238.000000;0.800145
9237.000000;0.800201
9236.000000;0.800237
9235.000000;0.800124
9234.000000;0.799876
9233.000000;0.799584
9232.000000;0.799341
9231.000000;0.799232
9230.000000;0.799311
9229.000000;0.799516
9228.000000;0.799666
9227.000000;0.799635
9226.000000;0.799481
9225.000000;0.799373
9224.000000;0.799385
9223.000000;0.799433
9222.000000;0.799424
9221.000000;0.799386
9220.000000;0.799416
9219.000000;0.799502
9218.000000;0.799510
9217.000000;0.799357
9216.000000;0.799149
9215.000000;0.799069
9214.000000;0.799169
9213.000000;0.799322
9212.000000;0.799390
9211.000000;0.799364
9210.000000;0.799315
9209.000000;0.799263
9208.000000;0.799165
9207.000000;0.799012
9206.000000;0.798884
9205.000000;0.798862
9204.000000;0.798902
9203.000000;0.798847
9202.000000;0.798597
9201.000000;0.798225
9200.000000;0.797893
9199.000000;0.797675
9198.000000;0.797531
9197.000000;0.797446
9196.000000;0.797510
9195.000000;0.797754
9194.000000;0.798022
9193.000000;0.798082
9192.000000;0.797871
9191.000000;0.797509
9190.000000;0.797115
9189.000000;0.796727
9188.000000;0.796422
9187.000000;0.796353
9186.000000;0.796574
9185.000000;0.796912
9184.000000;0.797111
9183.000000;0.797078
9182.000000;0.796924
9181.000000;0.796821
9180.000000;0.796882
9179.000000;0.797120
9178.000000;0.797413
9177.000000;0.797559
9176.000000;0.797460
9175.000000;0.797252
9174.000000;0.797167
9173.000000;0.797243
9172.000000;0.797276
9171.000000;0.797082
9170.000000;0.796717
9169.000000;0.796413
9168.000000;0.796339
9167.000000;0.796482
9166.000000;0.796679
9165.000000;0.796724
9164.000000;0.796504
9163.000000;0.796134
9162.000000;0.795914
9161.000000;0.796051
9160.000000;0.796413
9159.000000;0.796630
9158.000000;0.796471
9157.000000;0.796073
9156.000000;0.795756
9155.000000;0.795669
9154.000000;0.795660
9153.000000;0.795466
9152.000000;0.794989
9151.000000;0.794412
9150.000000;0.794089
9149.000000;0.794266
9148.000000;0.794851
9147.000000;0.795459
9146.000000;0.795746
9145.000000;0.795714
9144.000000;0.795622
9143.000000;0.795636
9142.000000;0.795643
9141.000000;0.795455
9140.000000;0.795097
9139.000000;0.794797
9138.000000;0.794706
9137.000000;0.794720
9136.000000;0.794603
9135.000000;0.794255
9134.000000;0.793844
9133.000000;0.793667
9132.000000;0.793891
9131.000000;0.794378
9130.000000;0.794783
9129.000000;0.794813
9128.000000;0.794430
9127.000000;0.793828
9126.000000;0.793260
9125.000000;0.792895
9124.000000;0.792741
9123.000000;0.792678
9122.000000;0.792584
9121.000000;0.792477
9120.000000;0.792512
9119.000000;0.792783
9118.000000;0.793174
9117.000000;0.793439
9116.000000;0.793428
9115.000000;0.793193
9114.000000;0.792917
9113.000000;0.792785
9112.000000;0.792887
9111.000000;0.793165
9110.000000;0.793443
9109.000000;0.793568
9108.000000;0.793512
9107.000000;0.793317
9106.000000;0.792974
9105.000000;0.792468
9104.000000;0.791922
9103.000000;0.791565
9102.000000;0.791506
9101.000000;0.791622
9100.000000;0.791720
9099.000000;0.791770
9098.000000;0.791862
9097.000000;0.792006
9096.000000;0.792061
9095.000000;0.791899
9094.000000;0.791572
9093.000000;0.791284
9092.000000;0.791187
9091.000000;0.791247
9090.000000;0.791302
9089.000000;0.791249
9088.000000;0.791161
9087.000000;0.791195
9086.000000;0.791418
9085.000000;0.791755
9084.000000;0.792076
9083.000000;0.792282
9082.000000;0.792310
9081.000000;0.792127
9080.000000;0.791774
9079.000000;0.791365
9078.000000;0.791010
9077.000000;0.790759
9076.000000;0.790631
9075.000000;0.790646
9074.000000;0.790778
9073.000000;0.790913
9072.000000;0.790915
9071.000000;0.790760
9070.000000;0.790569
9069.000000;0.790518
9068.000000;0.790692
9067.000000;0.791007
9066.000000;0.791239
9065.000000;0.791160
9064.000000;0.790729
9063.000000;0.790159
9062.000000;0.789771
9061.000000;0.789740
9060.000000;0.789982
9059.000000;0.790256
9058.000000;0.790356
9057.000000;0.790220
9056.000000;0.789901
9055.000000;0.789507
9054.000000;0.789146
9053.000000;0.788887
