Criado como novo conjunto de dados;"2706_e01_daniel.spp","65345.2 Secs"
cm-1;Abs
10000.000000;0.713747
9999.000000;0.714235
9998.000000;0.714819
9997.000000;0.715087
9996.000000;0.714803
9995.000000;0.714095
9994.000000;0.713180
9993.000000;0.712153
9992.000000;0.711149
9991.000000;0.710469
9990.000000;0.710335
9989.000000;0.710592
9988.000000;0.710860
9987.000000;0.710938
9986.000000;0.710941
9985.000000;0.711048
9984.000000;0.711222
9983.000000;0.711216
9982.000000;0.710859
9981.000000;0.710327
9980.000000;0.710083
9979.000000;0.710470
9978.000000;0.711392
9977.000000;0.712391
9976.000000;0.713013
9975.000000;0.713062
9974.000000;0.712634
9973.000000;0.712048
9972.000000;0.711663
9971.000000;0.711563
9970.000000;0.711473
9969.000000;0.711129
9968.000000;0.710658
9967.000000;0.710340
9966.000000;0.710119
9965.000000;0.709669
9964.000000;0.708965
9963.000000;0.708412
9962.000000;0.708324
9961.000000;0.708562
9960.000000;0.708822
9959.000000;0.708950
9958.000000;0.708863
9957.000000;0.708481
9956.000000;0.708006
9955.000000;0.707945
9954.000000;0.708543
9953.000000;0.709391
9952.000000;0.709912
9951.000000;0.710032
9950.000000;0.710062
9949.000000;0.710083
9948.000000;0.709881
9947.000000;0.709400
9946.000000;0.708855
9945.000000;0.708384
9944.000000;0.707924
9943.000000;0.707470
9942.000000;0.707147
9941.000000;0.706972
9940.000000;0.706826
9939.000000;0.706714
9938.000000;0.706810
9937.000000;0.707171
9936.000000;0.707640
9935.000000;0.708068
9934.000000;0.708366
9933.000000;0.708310
9932.000000;0.707673
9931.000000;0.706689
9930.000000;0.706001
9929.000000;0.705906
9928.000000;0.705950
9927.000000;0.705583
9926.000000;0.704965
9925.000000;0.704746
9924.000000;0.705173
9923.000000;0.705811
9922.000000;0.706156
9921.000000;0.706146
9920.000000;0.706011
9919.000000;0.705895
9918.000000;0.705804
9917.000000;0.705709
9916.000000;0.705537
9915.000000;0.705176
9914.000000;0.704623
9913.000000;0.704050
9912.000000;0.703628
9911.000000;0.703351
9910.000000;0.703132
9909.000000;0.702953
9908.000000;0.702829
9907.000000;0.702675
9906.000000;0.702397
9905.000000;0.702092
9904.000000;0.702028
9903.000000;0.702340
9902.000000;0.702823
9901.000000;0.703086
9900.000000;0.702908
9899.000000;0.702424
9898.000000;0.701982
9897.000000;0.701851
9896.000000;0.702079
9895.000000;0.702563
9894.000000;0.703155
9893.000000;0.703655
9892.000000;0.703799
9891.000000;0.703416
9890.000000;0.702633
9889.000000;0.701837
9888.000000;0.701354
9887.000000;0.701216
9886.000000;0.701262
9885.000000;0.701392
9884.000000;0.701594
9883.000000;0.701791
9882.000000;0.701822
9881.000000;0.701644
9880.000000;0.701408
9879.000000;0.701272
9878.000000;0.701214
9877.000000;0.701132
9876.000000;0.701060
9875.000000;0.701144
9874.000000;0.701410
9873.000000;0.701658
9872.000000;0.701629
9871.000000;0.701257
9870.000000;0.700707
9869.000000;0.700195
9868.000000;0.699800
9867.000000;0.699462
9866.000000;0.699157
9865.000000;0.699005
9864.000000;0.699081
9863.000000;0.699195
9862.000000;0.699023
9861.000000;0.698560
9860.000000;0.698246
9859.000000;0.698481
9858.000000;0.699117
9857.000000;0.699634
9856.000000;0.699742
9855.000000;0.699589
9854.000000;0.699382
9853.000000;0.699117
9852.000000;0.698757
9851.000000;0.698432
9850.000000;0.698271
9849.000000;0.698177
9848.000000;0.697964
9847.000000;0.697636
9846.000000;0.697365
9845.000000;0.697264
9844.000000;0.697328
9843.000000;0.697511
9842.000000;0.697711
9841.000000;0.697720
9840.000000;0.697377
9839.000000;0.696806
9838.000000;0.696351
9837.000000;0.696222
9836.000000;0.696305
9835.000000;0.696358
9834.000000;0.696306
9833.000000;0.696251
9832.000000;0.696273
9831.000000;0.696306
9830.000000;0.696228
9829.000000;0.696009
9828.000000;0.695734
9827.000000;0.695480
9826.000000;0.695238
9825.000000;0.695026
9824.000000;0.695003
9823.000000;0.695359
9822.000000;0.696045
9821.000000;0.696729
9820.000000;0.697079
9819.000000;0.696998
9818.000000;0.696574
9817.000000;0.695954
9816.000000;0.695385
9815.000000;0.695149
9814.000000;0.695235
9813.000000;0.695206
9812.000000;0.694683
9811.000000;0.693915
9810.000000;0.693562
9809.000000;0.693869
9808.000000;0.694361
9807.000000;0.694475
9806.000000;0.694221
9805.000000;0.693993
9804.000000;0.693952
9803.000000;0.693881
9802.000000;0.693588
9801.000000;0.693146
9800.000000;0.692736
9799.000000;0.692444
9798.000000;0.692274
9797.000000;0.692194
9796.000000;0.692111
9795.000000;0.691955
9794.000000;0.691840
9793.000000;0.691996
9792.000000;0.692446
9791.000000;0.692862
9790.000000;0.692894
9789.000000;0.692562
9788.000000;0.692202
9787.000000;0.692075
9786.000000;0.692182
9785.000000;0.692417
9784.000000;0.692697
9783.000000;0.692882
9782.000000;0.692743
9781.000000;0.692190
9780.000000;0.691446
9779.000000;0.690854
9778.000000;0.690546
9777.000000;0.690418
9776.000000;0.690387
9775.000000;0.690491
9774.000000;0.690719
9773.000000;0.690913
9772.000000;0.690945
9771.000000;0.690885
9770.000000;0.690884
9769.000000;0.690986
9768.000000;0.691108
9767.000000;0.691151
9766.000000;0.691049
9765.000000;0.690816
9764.000000;0.690648
9763.000000;0.690845
9762.000000;0.691441
9761.000000;0.692004
9760.000000;0.692012
9759.000000;0.691412
9758.000000;0.690601
9757.000000;0.689855
9756.000000;0.689093
9755.000000;0.688270
9754.000000;0.687681
9753.000000;0.687597
9752.000000;0.687819
9751.000000;0.687881
9750.000000;0.687609
9749.000000;0.687220
9748.000000;0.686914
9747.000000;0.686705
9746.000000;0.686650
9745.000000;0.686926
9744.000000;0.687515
9743.000000;0.688046
9742.000000;0.688163
9741.000000;0.687900
9740.000000;0.687521
9739.000000;0.687141
9738.000000;0.686748
9737.000000;0.686482
9736.000000;0.686599
9735.000000;0.687110
9734.000000;0.687669
9733.000000;0.687912
9732.000000;0.687778
9731.000000;0.687428
9730.000000;0.686995
9729.000000;0.686548
9728.000000;0.686210
9727.000000;0.686146
9726.000000;0.686391
9725.000000;0.686724
9724.000000;0.686791
9723.000000;0.686429
9722.000000;0.685891
9721.000000;0.685657
9720.000000;0.685930
9719.000000;0.686376
9718.000000;0.686509
9717.000000;0.686273
9716.000000;0.686034
9715.000000;0.685988
9714.000000;0.685864
9713.000000;0.685358
9712.000000;0.684643
9711.000000;0.684203
9710.000000;0.684296
9709.000000;0.684794
9708.000000;0.685459
9707.000000;0.686096
9706.000000;0.686458
9705.000000;0.686299
9704.000000;0.685675
9703.000000;0.684985
9702.000000;0.684599
9701.000000;0.684522
9700.000000;0.684509
9699.000000;0.684371
9698.000000;0.684097
9697.000000;0.683762
9696.000000;0.683457
9695.000000;0.683273
9694.000000;0.683261
9693.000000;0.683437
9692.000000;0.683838
9691.000000;0.684466
9690.000000;0.685116
9689.000000;0.685380
9688.000000;0.684962
9687.000000;0.683985
9686.000000;0.682890
9685.000000;0.682058
9684.000000;0.681593
9683.000000;0.681433
9682.000000;0.681518
9681.000000;0.681814
9680.000000;0.682232
9679.000000;0.682594
9678.000000;0.682697
9677.000000;0.682453
9676.000000;0.681996
9675.000000;0.681631
9674.000000;0.681594
9673.000000;0.681843
9672.000000;0.682119
9671.000000;0.682193
9670.000000;0.682032
9669.000000;0.681746
9668.000000;0.681446
9667.000000;0.681188
9666.000000;0.680994
9665.000000;0.680882
9664.000000;0.680870
9663.000000;0.680970
9662.000000;0.681142
9661.000000;0.681278
9660.000000;0.681270
9659.000000;0.681122
9658.000000;0.680964
9657.000000;0.680931
9656.000000;0.681004
9655.000000;0.681013
9654.000000;0.680799
9653.000000;0.680381
9652.000000;0.679953
9651.000000;0.679702
9650.000000;0.679646
9649.000000;0.679645
9648.000000;0.679566
9647.000000;0.679405
9646.000000;0.679258
9645.000000;0.679197
9644.000000;0.679209
9643.000000;0.679237
9642.000000;0.679251
9641.000000;0.679259
9640.000000;0.679261
9639.000000;0.679211
9638.000000;0.679036
9637.000000;0.678716
9636.000000;0.678359
9635.000000;0.678186
9634.000000;0.678395
9633.000000;0.678966
9632.000000;0.679591
9631.000000;0.679856
9630.000000;0.679579
9629.000000;0.678947
9628.000000;0.678301
9627.000000;0.677832
9626.000000;0.677541
9625.000000;0.677419
9624.000000;0.677496
9623.000000;0.677701
9622.000000;0.677818
9621.000000;0.677700
9620.000000;0.677437
9619.000000;0.677203
9618.000000;0.677034
9617.000000;0.676852
9616.000000;0.676647
9615.000000;0.676503
9614.000000;0.676482
9613.000000;0.676596
9612.000000;0.676850
9611.000000;0.677154
9610.000000;0.677234
9609.000000;0.676838
9608.000000;0.676105
9607.000000;0.675546
9606.000000;0.675554
9605.000000;0.676005
9604.000000;0.676432
9603.000000;0.676501
9602.000000;0.676250
9601.000000;0.675936
9600.000000;0.675769
9599.000000;0.675767
9598.000000;0.675797
9597.000000;0.675758
9596.000000;0.675729
9595.000000;0.675884
9594.000000;0.676222
9593.000000;0.676481
9592.000000;0.676400
9591.000000;0.676012
9590.000000;0.675589
9589.000000;0.675344
9588.000000;0.675258
9587.000000;0.675180
9586.000000;0.674994
9585.000000;0.674699
9584.000000;0.674415
9583.000000;0.674305
9582.000000;0.674434
9581.000000;0.674667
9580.000000;0.674772
9579.000000;0.674646
9578.000000;0.674413
9577.000000;0.674284
9576.000000;0.674348
9575.000000;0.674507
9574.000000;0.674592
9573.000000;0.674508
9572.000000;0.674267
9571.000000;0.673903
9570.000000;0.673427
9569.000000;0.672905
9568.000000;0.672550
9567.000000;0.672588
9566.000000;0.672995
9565.000000;0.673434
9564.000000;0.673563
9563.000000;0.673368
9562.000000;0.673109
9561.000000;0.672966
9560.000000;0.672836
9559.000000;0.672525
9558.000000;0.672045
9557.000000;0.671637
9556.000000;0.671543
9555.000000;0.671810
9554.000000;0.672318
9553.000000;0.672894
9552.000000;0.673383
9551.000000;0.673663
9550.000000;0.673693
9549.000000;0.673563
9548.000000;0.673428
9547.000000;0.673355
9546.000000;0.673241
9545.000000;0.672924
9544.000000;0.672389
9543.000000;0.671840
9542.000000;0.671564
9541.000000;0.671652
9540.000000;0.671873
9539.000000;0.671865
9538.000000;0.671508
9537.000000;0.671059
9536.000000;0.670862
9535.000000;0.670945
9534.000000;0.671004
9533.000000;0.670752
9532.000000;0.670174
9531.000000;0.669440
9530.000000;0.668759
9529.000000;0.668364
9528.000000;0.668448
9527.000000;0.668953
9526.000000;0.669528
9525.000000;0.669855
9524.000000;0.669942
9523.000000;0.669991
9522.000000;0.670066
9521.000000;0.670052
9520.000000;0.669860
9519.000000;0.669496
9518.000000;0.668970
9517.000000;0.668355
9516.000000;0.667879
9515.000000;0.667753
9514.000000;0.667902
9513.000000;0.668051
9512.000000;0.668083
9511.000000;0.668112
9510.000000;0.668174
9509.000000;0.668117
9508.000000;0.667887
9507.000000;0.667690
9506.000000;0.667718
9505.000000;0.667859
9504.000000;0.667853
9503.000000;0.667643
9502.000000;0.667412
9501.000000;0.667342
9500.000000;0.667465
9499.000000;0.667690
9498.000000;0.667863
9497.000000;0.667852
9496.000000;0.667666
9495.000000;0.667459
9494.000000;0.667348
9493.000000;0.667263
9492.000000;0.667038
9491.000000;0.666617
9490.000000;0.666128
9489.000000;0.665809
9488.000000;0.665874
9487.000000;0.666343
9486.000000;0.666961
9485.000000;0.667356
9484.000000;0.667344
9483.000000;0.667013
9482.000000;0.666535
9481.000000;0.666027
9480.000000;0.665617
9479.000000;0.665447
9478.000000;0.665491
9477.000000;0.665529
9476.000000;0.665422
9475.000000;0.665285
9474.000000;0.665262
9473.000000;0.665276
9472.000000;0.665174
9471.000000;0.665007
9470.000000;0.664969
9469.000000;0.665111
9468.000000;0.665286
9467.000000;0.665345
9466.000000;0.665257
9465.000000;0.665072
9464.000000;0.664871
9463.000000;0.664724
9462.000000;0.664583
9461.000000;0.664290
9460.000000;0.663810
9459.000000;0.663400
9458.000000;0.663361
9457.000000;0.663673
9456.000000;0.664027
9455.000000;0.664195
9454.000000;0.664214
9453.000000;0.664221
9452.000000;0.664266
9451.000000;0.664318
9450.000000;0.664311
9449.000000;0.664166
9448.000000;0.663890
9447.000000;0.663667
9446.000000;0.663710
9445.000000;0.663988
9444.000000;0.664231
9443.000000;0.664233
9442.000000;0.664051
9441.000000;0.663852
9440.000000;0.663693
9439.000000;0.663492
9438.000000;0.663189
9437.000000;0.662851
9436.000000;0.662638
9435.000000;0.662641
9434.000000;0.662727
9433.000000;0.662628
9432.000000;0.662254
9431.000000;0.661851
9430.000000;0.661722
9429.000000;0.661853
9428.000000;0.661953
9427.000000;0.661830
9426.000000;0.661552
9425.000000;0.661250
9424.000000;0.660971
9423.000000;0.660783
9422.000000;0.660808
9421.000000;0.661046
9420.000000;0.661288
9419.000000;0.661327
9418.000000;0.661162
9417.000000;0.660914
9416.000000;0.660657
9415.000000;0.660443
9414.000000;0.660374
9413.000000;0.660504
9412.000000;0.660705
9411.000000;0.660784
9410.000000;0.660694
9409.000000;0.660552
9408.000000;0.660454
9407.000000;0.660389
9406.000000;0.660322
9405.000000;0.660242
9404.000000;0.660121
9403.000000;0.659902
9402.000000;0.659582
9401.000000;0.659268
9400.000000;0.659107
9399.000000;0.659155
9398.000000;0.659336
9397.000000;0.659498
9396.000000;0.659527
9395.000000;0.659432
9394.000000;0.659308
9393.000000;0.659222
9392.000000;0.659147
9391.000000;0.659012
9390.000000;0.658801
9389.000000;0.658568
9388.000000;0.658370
9387.000000;0.658228
9386.000000;0.658150
9385.000000;0.658141
9384.000000;0.658182
9383.000000;0.658231
9382.000000;0.658272
9381.000000;0.658315
9380.000000;0.658336
9379.000000;0.658242
9378.000000;0.657968
9377.000000;0.657605
9376.000000;0.657366
9375.000000;0.657373
9374.000000;0.657522
9373.000000;0.657583
9372.000000;0.657426
9371.000000;0.657098
9370.000000;0.656740
9369.000000;0.656495
9368.000000;0.656476
9367.000000;0.656702
9366.000000;0.657015
9365.000000;0.657179
9364.000000;0.657107
9363.000000;0.656939
9362.000000;0.656826
9361.000000;0.656725
9360.000000;0.656492
9359.000000;0.656128
9358.000000;0.655811
9357.000000;0.655686
9356.000000;0.655712
9355.000000;0.655739
9354.000000;0.655680
9353.000000;0.655574
9352.000000;0.655522
9351.000000;0.655593
9350.000000;0.655738
9349.000000;0.655814
9348.000000;0.655708
9347.000000;0.655456
9346.000000;0.655199
9345.000000;0.655042
9344.000000;0.654987
9343.000000;0.655010
9342.000000;0.655111
9341.000000;0.655274
9340.000000;0.655406
9339.000000;0.655389
9338.000000;0.655181
9337.000000;0.654858
9336.000000;0.654541
9335.000000;0.654318
9334.000000;0.654217
9333.000000;0.654214
9332.000000;0.654271
9331.000000;0.654338
9330.000000;0.654365
9329.000000;0.654313
9328.000000;0.654157
9327.000000;0.653894
9326.000000;0.653559
9325.000000;0.653234
9324.000000;0.653010
9323.000000;0.652918
9322.000000;0.652924
9321.000000;0.653006
9320.000000;0.653191
9319.000000;0.653462
9318.000000;0.653675
9317.000000;0.653674
9316.000000;0.653477
9315.000000;0.653249
9314.000000;0.653096
9313.000000;0.652983
9312.000000;0.652864
9311.000000;0.652774
9310.000000;0.652733
9309.000000;0.652667
9308.000000;0.652524
9307.000000;0.652388
9306.000000;0.652372
9305.000000;0.652462
9304.000000;0.652540
9303.000000;0.652537
9302.000000;0.652472
9301.000000;0.652383
9300.000000;0.652281
9299.000000;0.652153
9298.000000;0.651955
9297.000000;0.651619
9296.000000;0.651143
9295.000000;0.650661
9294.000000;0.650349
9293.000000;0.650258
9292.000000;0.650291
9291.000000;0.650322
9290.000000;0.650287
9289.000000;0.650181
9288.000000;0.650039
9287.000000;0.649930
9286.000000;0.649921
9285.000000;0.650026
9284.000000;0.650186
9283.000000;0.650312
9282.000000;0.650347
9281.000000;0.650331
9280.000000;0.650379
9279.000000;0.650553
9278.000000;0.650731
9277.000000;0.650688
9276.000000;0.650350
9275.000000;0.649898
9274.000000;0.649563
9273.000000;0.649392
9272.000000;0.649284
9271.000000;0.649143
9270.000000;0.648924
9269.000000;0.648601
9268.000000;0.648246
9267.000000;0.648047
9266.000000;0.648128
9265.000000;0.648347
9264.000000;0.648425
9263.000000;0.648272
9262.000000;0.648054
9261.000000;0.647947
9260.000000;0.647937
9259.000000;0.647902
9258.000000;0.647780
9257.000000;0.647601
9256.000000;0.647429
9255.000000;0.647317
9254.000000;0.647271
9253.000000;0.647227
9252.000000;0.647118
9251.000000;0.646967
9250.000000;0.646863
9249.000000;0.646837
9248.000000;0.646824
9247.000000;0.646765
9246.000000;0.646667
9245.000000;0.646548
9244.000000;0.646395
9243.000000;0.646206
9242.000000;0.646055
9241.000000;0.646061
9240.000000;0.646306
9239.000000;0.646760
9238.000000;0.647262
9237.000000;0.647579
9236.000000;0.647567
9235.000000;0.647275
9234.000000;0.646860
9233.000000;0.646427
9232.000000;0.646023
9231.000000;0.645727
9230.000000;0.645635
9229.000000;0.645692
9228.000000;0.645686
9227.000000;0.645468
9226.000000;0.645145
9225.000000;0.644954
9224.000000;0.644977
9223.000000;0.645045
9222.000000;0.644948
9221.000000;0.644683
9220.000000;0.644446
9219.000000;0.644387
9218.000000;0.644450
9217.000000;0.644474
9216.000000;0.644420
9215.000000;0.644382
9214.000000;0.644422
9213.000000;0.644496
9212.000000;0.644586
9211.000000;0.644749
9210.000000;0.644939
9209.000000;0.644907
9208.000000;0.644443
9207.000000;0.643691
9206.000000;0.643046
9205.000000;0.642765
9204.000000;0.642784
9203.000000;0.642902
9202.000000;0.642985
9201.000000;0.642973
9200.000000;0.642832
9199.000000;0.642616
9198.000000;0.642488
9197.000000;0.642581
9196.000000;0.642845
9195.000000;0.643057
9194.000000;0.642959
9193.000000;0.642443
9192.000000;0.641689
9191.000000;0.641123
9190.000000;0.641111
9189.000000;0.641624
9188.000000;0.642260
9187.000000;0.642648
9186.000000;0.642762
9185.000000;0.642798
9184.000000;0.642858
9183.000000;0.642828
9182.000000;0.642560
9181.000000;0.642076
9180.000000;0.641590
9179.000000;0.641346
9178.000000;0.641426
9177.000000;0.641706
9176.000000;0.641978
9175.000000;0.642111
9174.000000;0.642072
9173.000000;0.641868
9172.000000;0.641572
9171.000000;0.641340
9170.000000;0.641297
9169.000000;0.641374
9168.000000;0.641393
9167.000000;0.641295
9166.000000;0.641177
9165.000000;0.641057
9164.000000;0.640793
9163.000000;0.640329
9162.000000;0.639893
9161.000000;0.639787
9160.000000;0.640038
9159.000000;0.640368
9158.000000;0.640471
9157.000000;0.640233
9156.000000;0.639732
9155.000000;0.639182
9154.000000;0.638856
9153.000000;0.638920
9152.000000;0.639270
9151.000000;0.639607
9150.000000;0.639718
9149.000000;0.639617
9148.000000;0.639422
9147.000000;0.639201
9146.000000;0.638975
9145.000000;0.638790
9144.000000;0.638686
9143.000000;0.638626
9142.000000;0.638536
9141.000000;0.638407
9140.000000;0.638291
9139.000000;0.638218
9138.000000;0.638171
9137.000000;0.638146
9136.000000;0.638165
9135.000000;0.638216
9134.000000;0.638226
9133.000000;0.638139
9132.000000;0.637979
9131.000000;0.637812
9130.000000;0.637678
9129.000000;0.637587
9128.000000;0.637557
9127.000000;0.637594
9126.000000;0.637655
9125.000000;0.637681
9124.000000;0.637656
9123.000000;0.637572
9122.000000;0.637374
9121.000000;0.637031
9120.000000;0.636666
9119.000000;0.636500
9118.000000;0.636610
9117.000000;0.636824
9116.000000;0.636892
9115.000000;0.636731
9114.000000;0.636436
9113.000000;0.636153
9112.000000;0.636004
9111.000000;0.636060
9110.000000;0.636285
9109.000000;0.636528
9108.000000;0.636639
9107.000000;0.636579
9106.000000;0.636360
9105.000000;0.635994
9104.000000;0.635583
9103.000000;0.635353
9102.000000;0.635444
9101.000000;0.635682
9100.000000;0.635772
9099.000000;0.635665
9098.000000;0.635566
9097.000000;0.635558
9096.000000;0.635456
9095.000000;0.635114
9094.000000;0.634681
9093.000000;0.634396
9092.000000;0.634283
9091.000000;0.634196
9090.000000;0.634085
9089.000000;0.634035
9088.000000;0.634074
9087.000000;0.634122
9086.000000;0.634131
9085.000000;0.634159
9084.000000;0.634251
9083.000000;0.634341
9082.000000;0.634309
9081.000000;0.634098
9080.000000;0.633760
9079.000000;0.633424
9078.000000;0.633215
9077.000000;0.633152
9076.000000;0.633122
9075.000000;0.632997
9074.000000;0.632777
9073.000000;0.632585
9072.000000;0.632515
9071.000000;0.632534
9070.000000;0.632536
9069.000000;0.632471
9068.000000;0.632385
9067.000000;0.632358
9066.000000;0.632398
9065.000000;0.632407
9064.000000;0.632277
9063.000000;0.632009
9062.000000;0.631732
9061.000000;0.631572
9060.000000;0.631546
9059.000000;0.631595
9058.000000;0.631686
9057.000000;0.631828
9056.000000;0.632013
9055.000000;0.632186
9054.000000;0.632271
9053.000000;0.632208
