Criado como novo conjunto de dados;"2706_e01_daniel.spp","78126.2 Secs"
cm-1;Abs
10000.000000;0.792009
9999.000000;0.791731
9998.000000;0.791379
9997.000000;0.791070
9996.000000;0.790859
9995.000000;0.790729
9994.000000;0.790636
9993.000000;0.790481
9992.000000;0.790251
9991.000000;0.790031
9990.000000;0.789906
9989.000000;0.789834
9988.000000;0.789708
9987.000000;0.789479
9986.000000;0.789176
9985.000000;0.788840
9984.000000;0.788513
9983.000000;0.788294
9982.000000;0.788304
9981.000000;0.788522
9980.000000;0.788730
9979.000000;0.788721
9978.000000;0.788500
9977.000000;0.788161
9976.000000;0.787648
9975.000000;0.786856
9974.000000;0.785981
9973.000000;0.785493
9972.000000;0.785677
9971.000000;0.786348
9970.000000;0.787148
9969.000000;0.787898
9968.000000;0.788541
9967.000000;0.788919
9966.000000;0.788822
9965.000000;0.788157
9964.000000;0.786977
9963.000000;0.785503
9962.000000;0.784222
9961.000000;0.783665
9960.000000;0.783859
9959.000000;0.784247
9958.000000;0.784377
9957.000000;0.784448
9956.000000;0.784871
9955.000000;0.785546
9954.000000;0.785987
9953.000000;0.785995
9952.000000;0.785795
9951.000000;0.785610
9950.000000;0.785481
9949.000000;0.785440
9948.000000;0.785461
9947.000000;0.785304
9946.000000;0.784814
9945.000000;0.784328
9944.000000;0.784361
9943.000000;0.784908
9942.000000;0.785468
9941.000000;0.785757
9940.000000;0.785943
9939.000000;0.786090
9938.000000;0.785877
9937.000000;0.785080
9936.000000;0.783981
9935.000000;0.783051
9934.000000;0.782487
9933.000000;0.782202
9932.000000;0.782031
9931.000000;0.781790
9930.000000;0.781369
9929.000000;0.780930
9928.000000;0.780818
9927.000000;0.781136
9926.000000;0.781586
9925.000000;0.781835
9924.000000;0.781882
9923.000000;0.781944
9922.000000;0.782115
9921.000000;0.782251
9920.000000;0.782153
9919.000000;0.781803
9918.000000;0.781423
9917.000000;0.781234
9916.000000;0.781140
9915.000000;0.780859
9914.000000;0.780432
9913.000000;0.780319
9912.000000;0.780803
9911.000000;0.781537
9910.000000;0.781964
9909.000000;0.781954
9908.000000;0.781701
9907.000000;0.781246
9906.000000;0.780605
9905.000000;0.780122
9904.000000;0.780097
9903.000000;0.780184
9902.000000;0.779757
9901.000000;0.778892
9900.000000;0.778351
9899.000000;0.778522
9898.000000;0.778955
9897.000000;0.779110
9896.000000;0.779002
9895.000000;0.778835
9894.000000;0.778538
9893.000000;0.778028
9892.000000;0.777554
9891.000000;0.777411
9890.000000;0.777594
9889.000000;0.777939
9888.000000;0.778326
9887.000000;0.778552
9886.000000;0.778357
9885.000000;0.777830
9884.000000;0.777469
9883.000000;0.777547
9882.000000;0.777696
9881.000000;0.777428
9880.000000;0.776797
9879.000000;0.776255
9878.000000;0.776075
9877.000000;0.776230
9876.000000;0.776610
9875.000000;0.777035
9874.000000;0.777190
9873.000000;0.776907
9872.000000;0.776451
9871.000000;0.776238
9870.000000;0.776309
9869.000000;0.776305
9868.000000;0.775944
9867.000000;0.775334
9866.000000;0.774841
9865.000000;0.774779
9864.000000;0.775168
9863.000000;0.775694
9862.000000;0.775918
9861.000000;0.775683
9860.000000;0.775264
9859.000000;0.775076
9858.000000;0.775284
9857.000000;0.775720
9856.000000;0.776067
9855.000000;0.776064
9854.000000;0.775645
9853.000000;0.774989
9852.000000;0.774402
9851.000000;0.774072
9850.000000;0.773996
9849.000000;0.774103
9848.000000;0.774365
9847.000000;0.774732
9846.000000;0.775057
9845.000000;0.775112
9844.000000;0.774689
9843.000000;0.773796
9842.000000;0.772826
9841.000000;0.772369
9840.000000;0.772645
9839.000000;0.773198
9838.000000;0.773361
9837.000000;0.773009
9836.000000;0.772609
9835.000000;0.772584
9834.000000;0.772857
9833.000000;0.773045
9832.000000;0.772846
9831.000000;0.772233
9830.000000;0.771506
9829.000000;0.771146
9828.000000;0.771405
9827.000000;0.771983
9826.000000;0.772298
9825.000000;0.772110
9824.000000;0.771682
9823.000000;0.771341
9822.000000;0.771151
9821.000000;0.771030
9820.000000;0.770919
9819.000000;0.770752
9818.000000;0.770470
9817.000000;0.770170
9816.000000;0.770034
9815.000000;0.770065
9814.000000;0.770089
9813.000000;0.770037
9812.000000;0.770017
9811.000000;0.770066
9810.000000;0.770035
9809.000000;0.769813
9808.000000;0.769484
9807.000000;0.769194
9806.000000;0.769029
9805.000000;0.769045
9804.000000;0.769189
9803.000000;0.769196
9802.000000;0.768806
9801.000000;0.768152
9800.000000;0.767701
9799.000000;0.767716
9798.000000;0.767952
9797.000000;0.767938
9796.000000;0.767450
9795.000000;0.766682
9794.000000;0.766135
9793.000000;0.766287
9792.000000;0.767154
9791.000000;0.768131
9790.000000;0.768496
9789.000000;0.768161
9788.000000;0.767725
9787.000000;0.767755
9786.000000;0.768216
9785.000000;0.768658
9784.000000;0.768749
9783.000000;0.768547
9782.000000;0.768353
9781.000000;0.768372
9780.000000;0.768454
9779.000000;0.768251
9778.000000;0.767698
9777.000000;0.767175
9776.000000;0.767006
9775.000000;0.767051
9774.000000;0.767035
9773.000000;0.767046
9772.000000;0.767278
9771.000000;0.767492
9770.000000;0.767299
9769.000000;0.766879
9768.000000;0.766813
9767.000000;0.767142
9766.000000;0.767220
9765.000000;0.766691
9764.000000;0.766012
9763.000000;0.765715
9762.000000;0.765688
9761.000000;0.765590
9760.000000;0.765521
9759.000000;0.765755
9758.000000;0.766100
9757.000000;0.766030
9756.000000;0.765381
9755.000000;0.764518
9754.000000;0.763872
9753.000000;0.763630
9752.000000;0.763789
9751.000000;0.764185
9750.000000;0.764486
9749.000000;0.764461
9748.000000;0.764263
9747.000000;0.764215
9746.000000;0.764332
9745.000000;0.764304
9744.000000;0.763974
9743.000000;0.763582
9742.000000;0.763428
9741.000000;0.763469
9740.000000;0.763402
9739.000000;0.763066
9738.000000;0.762607
9737.000000;0.762274
9736.000000;0.762166
9735.000000;0.762255
9734.000000;0.762505
9733.000000;0.762830
9732.000000;0.762994
9731.000000;0.762775
9730.000000;0.762299
9729.000000;0.762010
9728.000000;0.762137
9727.000000;0.762392
9726.000000;0.762374
9725.000000;0.762135
9724.000000;0.762062
9723.000000;0.762309
9722.000000;0.762607
9721.000000;0.762639
9720.000000;0.762315
9719.000000;0.761677
9718.000000;0.760836
9717.000000;0.760058
9716.000000;0.759671
9715.000000;0.759767
9714.000000;0.760144
9713.000000;0.760607
9712.000000;0.761124
9711.000000;0.761641
9710.000000;0.761942
9709.000000;0.761849
9708.000000;0.761417
9707.000000;0.760820
9706.000000;0.760172
9705.000000;0.759537
9704.000000;0.759013
9703.000000;0.758666
9702.000000;0.758439
9701.000000;0.758192
9700.000000;0.757825
9699.000000;0.757343
9698.000000;0.756891
9697.000000;0.756725
9696.000000;0.757068
9695.000000;0.757904
9694.000000;0.758894
9693.000000;0.759544
9692.000000;0.759544
9691.000000;0.759034
9690.000000;0.758509
9689.000000;0.758372
9688.000000;0.758587
9687.000000;0.758852
9686.000000;0.759018
9685.000000;0.759123
9684.000000;0.759113
9683.000000;0.758888
9682.000000;0.758660
9681.000000;0.758818
9680.000000;0.759273
9679.000000;0.759356
9678.000000;0.758689
9677.000000;0.757767
9676.000000;0.757307
9675.000000;0.757353
9674.000000;0.757433
9673.000000;0.757328
9672.000000;0.757157
9671.000000;0.756901
9670.000000;0.756413
9669.000000;0.755846
9668.000000;0.755584
9667.000000;0.755727
9666.000000;0.756026
9665.000000;0.756312
9664.000000;0.756598
9663.000000;0.756810
9662.000000;0.756815
9661.000000;0.756685
9660.000000;0.756546
9659.000000;0.756262
9658.000000;0.755693
9657.000000;0.755156
9656.000000;0.755079
9655.000000;0.755248
9654.000000;0.755001
9653.000000;0.754273
9652.000000;0.753797
9651.000000;0.754070
9650.000000;0.754702
9649.000000;0.755059
9648.000000;0.755063
9647.000000;0.754985
9646.000000;0.754886
9645.000000;0.754705
9644.000000;0.754589
9643.000000;0.754721
9642.000000;0.754969
9641.000000;0.755031
9640.000000;0.754821
9639.000000;0.754471
9638.000000;0.754114
9637.000000;0.753845
9636.000000;0.753731
9635.000000;0.753667
9634.000000;0.753416
9633.000000;0.752978
9632.000000;0.752727
9631.000000;0.752920
9630.000000;0.753253
9629.000000;0.753179
9628.000000;0.752603
9627.000000;0.751992
9626.000000;0.751802
9625.000000;0.752020
9624.000000;0.752317
9623.000000;0.752468
9622.000000;0.752507
9621.000000;0.752528
9620.000000;0.752493
9619.000000;0.752370
9618.000000;0.752341
9617.000000;0.752620
9616.000000;0.753015
9615.000000;0.752968
9614.000000;0.752229
9613.000000;0.751279
9612.000000;0.750770
9611.000000;0.750743
9610.000000;0.750718
9609.000000;0.750412
9608.000000;0.749991
9607.000000;0.749679
9606.000000;0.749560
9605.000000;0.749731
9604.000000;0.750216
9603.000000;0.750682
9602.000000;0.750679
9601.000000;0.750278
9600.000000;0.750052
9599.000000;0.750275
9598.000000;0.750545
9597.000000;0.750399
9596.000000;0.749938
9595.000000;0.749593
9594.000000;0.749548
9593.000000;0.749676
9592.000000;0.749831
9591.000000;0.749928
9590.000000;0.749902
9589.000000;0.749781
9588.000000;0.749712
9587.000000;0.749742
9586.000000;0.749707
9585.000000;0.749428
9584.000000;0.748934
9583.000000;0.748409
9582.000000;0.748035
9581.000000;0.747905
9580.000000;0.747937
9579.000000;0.747880
9578.000000;0.747590
9577.000000;0.747289
9576.000000;0.747307
9575.000000;0.747610
9574.000000;0.747852
9573.000000;0.747864
9572.000000;0.747798
9571.000000;0.747776
9570.000000;0.747777
9569.000000;0.747895
9568.000000;0.748282
9567.000000;0.748711
9566.000000;0.748656
9565.000000;0.748006
9564.000000;0.747335
9563.000000;0.747178
9562.000000;0.747396
9561.000000;0.747506
9560.000000;0.747330
9559.000000;0.747020
9558.000000;0.746725
9557.000000;0.746557
9556.000000;0.746666
9555.000000;0.747035
9554.000000;0.747343
9553.000000;0.747295
9552.000000;0.746958
9551.000000;0.746545
9550.000000;0.746064
9549.000000;0.745457
9548.000000;0.744882
9547.000000;0.744581
9546.000000;0.744579
9545.000000;0.744746
9544.000000;0.745006
9543.000000;0.745252
9542.000000;0.745235
9541.000000;0.744840
9540.000000;0.744351
9539.000000;0.744146
9538.000000;0.744200
9537.000000;0.744186
9536.000000;0.743991
9535.000000;0.743811
9534.000000;0.743774
9533.000000;0.743782
9532.000000;0.743764
9531.000000;0.743805
9530.000000;0.743920
9529.000000;0.743944
9528.000000;0.743746
9527.000000;0.743418
9526.000000;0.743163
9525.000000;0.743102
9524.000000;0.743252
9523.000000;0.743568
9522.000000;0.743925
9521.000000;0.744146
9520.000000;0.744104
9519.000000;0.743809
9518.000000;0.743406
9517.000000;0.743114
9516.000000;0.743105
9515.000000;0.743338
9514.000000;0.743510
9513.000000;0.743286
9512.000000;0.742635
9511.000000;0.741898
9510.000000;0.741484
9509.000000;0.741505
9508.000000;0.741700
9507.000000;0.741713
9506.000000;0.741464
9505.000000;0.741205
9504.000000;0.741201
9503.000000;0.741426
9502.000000;0.741634
9501.000000;0.741671
9500.000000;0.741578
9499.000000;0.741404
9498.000000;0.741096
9497.000000;0.740644
9496.000000;0.740209
9495.000000;0.740016
9494.000000;0.740170
9493.000000;0.740589
9492.000000;0.741059
9491.000000;0.741302
9490.000000;0.741144
9489.000000;0.740707
9488.000000;0.740333
9487.000000;0.740231
9486.000000;0.740240
9485.000000;0.740051
9484.000000;0.739626
9483.000000;0.739274
9482.000000;0.739268
9481.000000;0.739498
9480.000000;0.739609
9479.000000;0.739474
9478.000000;0.739350
9477.000000;0.739472
9476.000000;0.739632
9475.000000;0.739420
9474.000000;0.738847
9473.000000;0.738417
9472.000000;0.738488
9471.000000;0.738815
9470.000000;0.738925
9469.000000;0.738690
9468.000000;0.738300
9467.000000;0.737872
9466.000000;0.737428
9465.000000;0.737116
9464.000000;0.737076
9463.000000;0.737130
9462.000000;0.736975
9461.000000;0.736656
9460.000000;0.736540
9459.000000;0.736759
9458.000000;0.737025
9457.000000;0.737072
9456.000000;0.736952
9455.000000;0.736795
9454.000000;0.736591
9453.000000;0.736344
9452.000000;0.736173
9451.000000;0.736087
9450.000000;0.735904
9449.000000;0.735586
9448.000000;0.735406
9447.000000;0.735569
9446.000000;0.735849
9445.000000;0.735862
9444.000000;0.735559
9443.000000;0.735244
9442.000000;0.735191
9441.000000;0.735409
9440.000000;0.735739
9439.000000;0.736005
9438.000000;0.736127
9437.000000;0.736175
9436.000000;0.736263
9435.000000;0.736323
9434.000000;0.736119
9433.000000;0.735577
9432.000000;0.734960
9431.000000;0.734598
9430.000000;0.734550
9429.000000;0.734658
9428.000000;0.734814
9427.000000;0.734989
9426.000000;0.735111
9425.000000;0.735085
9424.000000;0.734934
9423.000000;0.734765
9422.000000;0.734648
9421.000000;0.734623
9420.000000;0.734749
9419.000000;0.735013
9418.000000;0.735225
9417.000000;0.735173
9416.000000;0.734868
9415.000000;0.734516
9414.000000;0.734254
9413.000000;0.734040
9412.000000;0.733798
9411.000000;0.733539
9410.000000;0.733299
9409.000000;0.733065
9408.000000;0.732845
9407.000000;0.732704
9406.000000;0.732659
9405.000000;0.732570
9404.000000;0.732249
9403.000000;0.731708
9402.000000;0.731218
9401.000000;0.731075
9400.000000;0.731306
9399.000000;0.731677
9398.000000;0.731943
9397.000000;0.732021
9396.000000;0.731916
9395.000000;0.731608
9394.000000;0.731123
9393.000000;0.730621
9392.000000;0.730315
9391.000000;0.730286
9390.000000;0.730475
9389.000000;0.730807
9388.000000;0.731208
9387.000000;0.731515
9386.000000;0.731533
9385.000000;0.731243
9384.000000;0.730875
9383.000000;0.730686
9382.000000;0.730718
9381.000000;0.730799
9380.000000;0.730756
9379.000000;0.730574
9378.000000;0.730388
9377.000000;0.730352
9376.000000;0.730508
9375.000000;0.730741
9374.000000;0.730852
9373.000000;0.730689
9372.000000;0.730224
9371.000000;0.729566
9370.000000;0.728919
9369.000000;0.728496
9368.000000;0.728416
9367.000000;0.728644
9366.000000;0.729014
9365.000000;0.729312
9364.000000;0.729368
9363.000000;0.729137
9362.000000;0.728709
9361.000000;0.728217
9360.000000;0.727745
9359.000000;0.727368
9358.000000;0.727190
9357.000000;0.727251
9356.000000;0.727423
9355.000000;0.727553
9354.000000;0.727655
9353.000000;0.727792
9352.000000;0.727831
9351.000000;0.727583
9350.000000;0.727206
9349.000000;0.727138
9348.000000;0.727492
9347.000000;0.727822
9346.000000;0.727734
9345.000000;0.727447
9344.000000;0.727409
9343.000000;0.727562
9342.000000;0.727427
9341.000000;0.726850
9340.000000;0.726241
9339.000000;0.726022
9338.000000;0.726164
9337.000000;0.726402
9336.000000;0.726594
9335.000000;0.726722
9334.000000;0.726740
9333.000000;0.726650
9332.000000;0.726608
9331.000000;0.726733
9330.000000;0.726851
9329.000000;0.726602
9328.000000;0.725877
9327.000000;0.725061
9326.000000;0.724746
9325.000000;0.725155
9324.000000;0.725916
9323.000000;0.726462
9322.000000;0.726584
9321.000000;0.726487
9320.000000;0.726348
9319.000000;0.726085
9318.000000;0.725615
9317.000000;0.725095
9316.000000;0.724718
9315.000000;0.724470
9314.000000;0.724277
9313.000000;0.724217
9312.000000;0.724365
9311.000000;0.724588
9310.000000;0.724731
9309.000000;0.724871
9308.000000;0.725112
9307.000000;0.725263
9306.000000;0.725047
9305.000000;0.724566
9304.000000;0.724193
9303.000000;0.724020
9302.000000;0.723782
9301.000000;0.723387
9300.000000;0.723127
9299.000000;0.723186
9298.000000;0.723315
9297.000000;0.723245
9296.000000;0.723153
9295.000000;0.723381
9294.000000;0.723849
9293.000000;0.724070
9292.000000;0.723742
9291.000000;0.723061
9290.000000;0.722426
9289.000000;0.722053
9288.000000;0.721957
9287.000000;0.722114
9286.000000;0.722452
9285.000000;0.722754
9284.000000;0.722760
9283.000000;0.722425
9282.000000;0.721969
9281.000000;0.721615
9280.000000;0.721360
9279.000000;0.721088
9278.000000;0.720839
9277.000000;0.720790
9276.000000;0.720978
9275.000000;0.721208
9274.000000;0.721275
9273.000000;0.721161
9272.000000;0.720930
9271.000000;0.720624
9270.000000;0.720332
9269.000000;0.720236
9268.000000;0.720408
9267.000000;0.720670
9266.000000;0.720786
9265.000000;0.720734
9264.000000;0.720640
9263.000000;0.720521
9262.000000;0.720271
9261.000000;0.719871
9260.000000;0.719466
9259.000000;0.719218
9258.000000;0.719198
9257.000000;0.719378
9256.000000;0.719615
9255.000000;0.719688
9254.000000;0.719483
9253.000000;0.719132
9252.000000;0.718867
9251.000000;0.718763
9250.000000;0.718711
9249.000000;0.718619
9248.000000;0.718513
9247.000000;0.718446
9246.000000;0.718396
9245.000000;0.718309
9244.000000;0.718186
9243.000000;0.718091
9242.000000;0.718070
9241.000000;0.718060
9240.000000;0.717933
9239.000000;0.717686
9238.000000;0.717526
9237.000000;0.717632
9236.000000;0.717883
9235.000000;0.717971
9234.000000;0.717746
9233.000000;0.717270
9232.000000;0.716617
9231.000000;0.715907
9230.000000;0.715503
9229.000000;0.715744
9228.000000;0.716388
9227.000000;0.716718
9226.000000;0.716443
9225.000000;0.716112
9224.000000;0.716324
9223.000000;0.716892
9222.000000;0.717193
9221.000000;0.717038
9220.000000;0.716714
9219.000000;0.716358
9218.000000;0.715849
9217.000000;0.715299
9216.000000;0.715119
9215.000000;0.715467
9214.000000;0.716020
9213.000000;0.716407
9212.000000;0.716580
9211.000000;0.716631
9210.000000;0.716548
9209.000000;0.716294
9208.000000;0.715934
9207.000000;0.715553
9206.000000;0.715190
9205.000000;0.714922
9204.000000;0.714844
9203.000000;0.714878
9202.000000;0.714786
9201.000000;0.714454
9200.000000;0.714052
9199.000000;0.713828
9198.000000;0.713846
9197.000000;0.713957
9196.000000;0.713963
9195.000000;0.713771
9194.000000;0.713446
9193.000000;0.713131
9192.000000;0.712910
9191.000000;0.712793
9190.000000;0.712829
9189.000000;0.713067
9188.000000;0.713376
9187.000000;0.713472
9186.000000;0.713272
9185.000000;0.713038
9184.000000;0.712999
9183.000000;0.713019
9182.000000;0.712831
9181.000000;0.712443
9180.000000;0.712068
9179.000000;0.711819
9178.000000;0.711718
9177.000000;0.711855
9176.000000;0.712249
9175.000000;0.712633
9174.000000;0.712688
9173.000000;0.712413
9172.000000;0.712045
9171.000000;0.711698
9170.000000;0.711370
9169.000000;0.711173
9168.000000;0.711223
9167.000000;0.711371
9166.000000;0.711368
9165.000000;0.711238
9164.000000;0.711168
9163.000000;0.711126
9162.000000;0.710939
9161.000000;0.710687
9160.000000;0.710606
9159.000000;0.710613
9158.000000;0.710389
9157.000000;0.709963
9156.000000;0.709772
9155.000000;0.710017
9154.000000;0.710377
9153.000000;0.710500
9152.000000;0.710440
9151.000000;0.710424
9150.000000;0.710499
9149.000000;0.710594
9148.000000;0.710665
9147.000000;0.710623
9146.000000;0.710388
9145.000000;0.710139
9144.000000;0.710190
9143.000000;0.710494
9142.000000;0.710575
9141.000000;0.710153
9140.000000;0.709539
9139.000000;0.709208
9138.000000;0.709245
9137.000000;0.709445
9136.000000;0.709670
9135.000000;0.709841
9134.000000;0.709791
9133.000000;0.709455
9132.000000;0.709052
9131.000000;0.708834
9130.000000;0.708755
9129.000000;0.708615
9128.000000;0.708394
9127.000000;0.708220
9126.000000;0.708096
9125.000000;0.707923
9124.000000;0.707723
9123.000000;0.707611
9122.000000;0.707586
9121.000000;0.707522
9120.000000;0.707345
9119.000000;0.707093
9118.000000;0.706848
9117.000000;0.706734
9116.000000;0.706879
9115.000000;0.707245
9114.000000;0.707559
9113.000000;0.707586
9112.000000;0.707388
9111.000000;0.707183
9110.000000;0.707016
9109.000000;0.706761
9108.000000;0.706392
9107.000000;0.706044
9106.000000;0.705810
9105.000000;0.705643
9104.000000;0.705504
9103.000000;0.705461
9102.000000;0.705571
9101.000000;0.705767
9100.000000;0.705918
9099.000000;0.705960
9098.000000;0.705927
9097.000000;0.705875
9096.000000;0.705800
9095.000000;0.705643
9094.000000;0.705362
9093.000000;0.704990
9092.000000;0.704581
9091.000000;0.704158
9090.000000;0.703762
9089.000000;0.703536
9088.000000;0.703620
9087.000000;0.703955
9086.000000;0.704307
9085.000000;0.704515
9084.000000;0.704610
9083.000000;0.704631
9082.000000;0.704487
9081.000000;0.704129
9080.000000;0.703724
9079.000000;0.703498
9078.000000;0.703435
9077.000000;0.703318
9076.000000;0.703085
9075.000000;0.702963
9074.000000;0.703166
9073.000000;0.703578
9072.000000;0.703854
9071.000000;0.703785
9070.000000;0.703445
9069.000000;0.703003
9068.000000;0.702551
9067.000000;0.702186
9066.000000;0.702085
9065.000000;0.702340
9064.000000;0.702738
9063.000000;0.702922
9062.000000;0.702798
9061.000000;0.702635
9060.000000;0.702707
9059.000000;0.702943
9058.000000;0.703047
9057.000000;0.702837
9056.000000;0.702377
9055.000000;0.701868
9054.000000;0.701546
9053.000000;0.701577
