Criado como novo conjunto de dados;"2706_e01_daniel.spp","92706.9 Secs"
cm-1;Abs
10000.000000;0.853070
9999.000000;0.852512
9998.000000;0.851952
9997.000000;0.851397
9996.000000;0.850872
9995.000000;0.850693
9994.000000;0.851038
9993.000000;0.851510
9992.000000;0.851482
9991.000000;0.850680
9990.000000;0.849521
9989.000000;0.848743
9988.000000;0.848702
9987.000000;0.849065
9986.000000;0.849212
9985.000000;0.848881
9984.000000;0.848329
9983.000000;0.847909
9982.000000;0.847715
9981.000000;0.847699
9980.000000;0.847893
9979.000000;0.848309
9978.000000;0.848743
9977.000000;0.848888
9976.000000;0.848677
9975.000000;0.848387
9974.000000;0.848363
9973.000000;0.848725
9972.000000;0.849321
9971.000000;0.849857
9970.000000;0.850099
9969.000000;0.850017
9968.000000;0.849743
9967.000000;0.849375
9966.000000;0.848912
9965.000000;0.848434
9964.000000;0.848197
9963.000000;0.848379
9962.000000;0.848816
9961.000000;0.849161
9960.000000;0.849234
9959.000000;0.849053
9958.000000;0.848608
9957.000000;0.847889
9956.000000;0.847127
9955.000000;0.846731
9954.000000;0.846885
9953.000000;0.847395
9952.000000;0.847968
9951.000000;0.848457
9950.000000;0.848755
9949.000000;0.848699
9948.000000;0.848209
9947.000000;0.847427
9946.000000;0.846598
9945.000000;0.845951
9944.000000;0.845684
9943.000000;0.845863
9942.000000;0.846242
9941.000000;0.846399
9940.000000;0.846212
9939.000000;0.845998
9938.000000;0.846029
9937.000000;0.846120
9936.000000;0.845963
9935.000000;0.845706
9934.000000;0.845858
9933.000000;0.846627
9932.000000;0.847610
9931.000000;0.848213
9930.000000;0.848158
9929.000000;0.847522
9928.000000;0.846497
9927.000000;0.845291
9926.000000;0.844182
9925.000000;0.843486
9924.000000;0.843367
9923.000000;0.843677
9922.000000;0.844013
9921.000000;0.844031
9920.000000;0.843761
9919.000000;0.843544
9918.000000;0.843589
9917.000000;0.843692
9916.000000;0.843538
9915.000000;0.843211
9914.000000;0.843138
9913.000000;0.843508
9912.000000;0.843937
9911.000000;0.843884
9910.000000;0.843252
9909.000000;0.842400
9908.000000;0.841668
9907.000000;0.841126
9906.000000;0.840774
9905.000000;0.840770
9904.000000;0.841258
9903.000000;0.842090
9902.000000;0.842890
9901.000000;0.843425
9900.000000;0.843766
9899.000000;0.844048
9898.000000;0.844185
9897.000000;0.843951
9896.000000;0.843301
9895.000000;0.842495
9894.000000;0.841884
9893.000000;0.841648
9892.000000;0.841735
9891.000000;0.841951
9890.000000;0.842070
9889.000000;0.841933
9888.000000;0.841505
9887.000000;0.840851
9886.000000;0.840080
9885.000000;0.839350
9884.000000;0.838885
9883.000000;0.838877
9882.000000;0.839314
9881.000000;0.839964
9880.000000;0.840573
9879.000000;0.841007
9878.000000;0.841184
9877.000000;0.841004
9876.000000;0.840479
9875.000000;0.839823
9874.000000;0.839297
9873.000000;0.838962
9872.000000;0.838712
9871.000000;0.838529
9870.000000;0.838568
9869.000000;0.838940
9868.000000;0.839510
9867.000000;0.840004
9866.000000;0.840248
9865.000000;0.840249
9864.000000;0.840103
9863.000000;0.839912
9862.000000;0.839770
9861.000000;0.839719
9860.000000;0.839707
9859.000000;0.839646
9858.000000;0.839521
9857.000000;0.839367
9856.000000;0.839137
9855.000000;0.838751
9854.000000;0.838327
9853.000000;0.838224
9852.000000;0.838661
9851.000000;0.839341
9850.000000;0.839643
9849.000000;0.839231
9848.000000;0.838337
9847.000000;0.837448
9846.000000;0.836909
9845.000000;0.836880
9844.000000;0.837389
9843.000000;0.838198
9842.000000;0.838768
9841.000000;0.838672
9840.000000;0.838056
9839.000000;0.837501
9838.000000;0.837401
9837.000000;0.837647
9836.000000;0.837932
9835.000000;0.838188
9834.000000;0.838586
9833.000000;0.839205
9832.000000;0.839799
9831.000000;0.839931
9830.000000;0.839348
9829.000000;0.838267
9828.000000;0.837220
9827.000000;0.836565
9826.000000;0.836212
9825.000000;0.835916
9824.000000;0.835679
9823.000000;0.835677
9822.000000;0.835897
9821.000000;0.836123
9820.000000;0.836273
9819.000000;0.836433
9818.000000;0.836508
9817.000000;0.836174
9816.000000;0.835372
9815.000000;0.834594
9814.000000;0.834383
9813.000000;0.834721
9812.000000;0.835149
9811.000000;0.835398
9810.000000;0.835610
9809.000000;0.835932
9808.000000;0.836184
9807.000000;0.836019
9806.000000;0.835295
9805.000000;0.834228
9804.000000;0.833251
9803.000000;0.832749
9802.000000;0.832820
9801.000000;0.833226
9800.000000;0.833630
9799.000000;0.833891
9798.000000;0.834102
9797.000000;0.834359
9796.000000;0.834557
9795.000000;0.834441
9794.000000;0.833840
9793.000000;0.832888
9792.000000;0.832024
9791.000000;0.831675
9790.000000;0.831905
9789.000000;0.832392
9788.000000;0.832808
9787.000000;0.833127
9786.000000;0.833522
9785.000000;0.834062
9784.000000;0.834666
9783.000000;0.835256
9782.000000;0.835780
9781.000000;0.836085
9780.000000;0.835940
9779.000000;0.835248
9778.000000;0.834207
9777.000000;0.833221
9776.000000;0.832669
9775.000000;0.832689
9774.000000;0.833070
9773.000000;0.833380
9772.000000;0.833321
9771.000000;0.832978
9770.000000;0.832673
9769.000000;0.832578
9768.000000;0.832553
9767.000000;0.832347
9766.000000;0.831861
9765.000000;0.831221
9764.000000;0.830668
9763.000000;0.830402
9762.000000;0.830438
9761.000000;0.830615
9760.000000;0.830782
9759.000000;0.830969
9758.000000;0.831244
9757.000000;0.831457
9756.000000;0.831318
9755.000000;0.830809
9754.000000;0.830349
9753.000000;0.830366
9752.000000;0.830782
9751.000000;0.831074
9750.000000;0.830872
9749.000000;0.830371
9748.000000;0.830093
9747.000000;0.830290
9746.000000;0.830674
9745.000000;0.830745
9744.000000;0.830344
9743.000000;0.829828
9742.000000;0.829665
9741.000000;0.829954
9740.000000;0.830395
9739.000000;0.830677
9738.000000;0.830775
9737.000000;0.830833
9736.000000;0.830917
9735.000000;0.830971
9734.000000;0.830940
9733.000000;0.830836
9732.000000;0.830668
9731.000000;0.830432
9730.000000;0.830157
9729.000000;0.829897
9728.000000;0.829661
9727.000000;0.829422
9726.000000;0.829243
9725.000000;0.829295
9724.000000;0.829671
9723.000000;0.830202
9722.000000;0.830549
9721.000000;0.830514
9720.000000;0.830175
9719.000000;0.829703
9718.000000;0.829185
9717.000000;0.828667
9716.000000;0.828263
9715.000000;0.828056
9714.000000;0.827938
9713.000000;0.827726
9712.000000;0.827455
9711.000000;0.827379
9710.000000;0.827629
9709.000000;0.828006
9708.000000;0.828201
9707.000000;0.828102
9706.000000;0.827787
9705.000000;0.827350
9704.000000;0.826890
9703.000000;0.826559
9702.000000;0.826445
9701.000000;0.826445
9700.000000;0.826417
9699.000000;0.826407
9698.000000;0.826523
9697.000000;0.826639
9696.000000;0.826501
9695.000000;0.826186
9694.000000;0.826177
9693.000000;0.826801
9692.000000;0.827754
9691.000000;0.828376
9690.000000;0.828286
9689.000000;0.827593
9688.000000;0.826645
9687.000000;0.825803
9686.000000;0.825385
9685.000000;0.825543
9684.000000;0.826098
9683.000000;0.826640
9682.000000;0.826859
9681.000000;0.826696
9680.000000;0.826199
9679.000000;0.825452
9678.000000;0.824684
9677.000000;0.824229
9676.000000;0.824220
9675.000000;0.824434
9674.000000;0.824559
9673.000000;0.824522
9672.000000;0.824427
9671.000000;0.824314
9670.000000;0.824194
9669.000000;0.824211
9668.000000;0.824532
9667.000000;0.825045
9666.000000;0.825367
9665.000000;0.825263
9664.000000;0.824883
9663.000000;0.824548
9662.000000;0.824410
9661.000000;0.824407
9660.000000;0.824410
9659.000000;0.824327
9658.000000;0.824157
9657.000000;0.824027
9656.000000;0.824077
9655.000000;0.824234
9654.000000;0.824230
9653.000000;0.823965
9652.000000;0.823693
9651.000000;0.823675
9650.000000;0.823754
9649.000000;0.823523
9648.000000;0.822894
9647.000000;0.822238
9646.000000;0.821939
9645.000000;0.822014
9644.000000;0.822262
9643.000000;0.822557
9642.000000;0.822859
9641.000000;0.823093
9640.000000;0.823197
9639.000000;0.823222
9638.000000;0.823242
9637.000000;0.823234
9636.000000;0.823162
9635.000000;0.823099
9634.000000;0.823137
9633.000000;0.823212
9632.000000;0.823200
9631.000000;0.823161
9630.000000;0.823306
9629.000000;0.823647
9628.000000;0.823847
9627.000000;0.823532
9626.000000;0.822700
9625.000000;0.821736
9624.000000;0.821046
9623.000000;0.820776
9622.000000;0.820807
9621.000000;0.820916
9620.000000;0.820937
9619.000000;0.820866
9618.000000;0.820851
9617.000000;0.821053
9616.000000;0.821464
9615.000000;0.821898
9614.000000;0.822157
9613.000000;0.822185
9612.000000;0.822044
9611.000000;0.821827
9610.000000;0.821647
9609.000000;0.821619
9608.000000;0.821713
9607.000000;0.821693
9606.000000;0.821341
9605.000000;0.820778
9604.000000;0.820375
9603.000000;0.820281
9602.000000;0.820251
9601.000000;0.820033
9600.000000;0.819757
9599.000000;0.819737
9598.000000;0.820000
9597.000000;0.820282
9596.000000;0.820449
9595.000000;0.820625
9594.000000;0.820857
9593.000000;0.820883
9592.000000;0.820429
9591.000000;0.819586
9590.000000;0.818739
9589.000000;0.818190
9588.000000;0.817976
9587.000000;0.817990
9586.000000;0.818141
9585.000000;0.818376
9584.000000;0.818627
9583.000000;0.818783
9582.000000;0.818752
9581.000000;0.818584
9580.000000;0.818492
9579.000000;0.818616
9578.000000;0.818767
9577.000000;0.818595
9576.000000;0.818060
9575.000000;0.817595
9574.000000;0.817655
9573.000000;0.818204
9572.000000;0.818774
9571.000000;0.818954
9570.000000;0.818710
9569.000000;0.818282
9568.000000;0.817898
9567.000000;0.817620
9566.000000;0.817374
9565.000000;0.817150
9564.000000;0.817137
9563.000000;0.817555
9562.000000;0.818304
9561.000000;0.818900
9560.000000;0.818916
9559.000000;0.818392
9558.000000;0.817703
9557.000000;0.817161
9556.000000;0.816889
9555.000000;0.816976
9554.000000;0.817430
9553.000000;0.817973
9552.000000;0.818113
9551.000000;0.817598
9550.000000;0.816706
9549.000000;0.815991
9548.000000;0.815797
9547.000000;0.816034
9546.000000;0.816332
9545.000000;0.816379
9544.000000;0.816167
9543.000000;0.815956
9542.000000;0.815949
9541.000000;0.816068
9540.000000;0.816122
9539.000000;0.816140
9538.000000;0.816353
9537.000000;0.816812
9536.000000;0.817214
9535.000000;0.817220
9534.000000;0.816829
9533.000000;0.816337
9532.000000;0.815988
9531.000000;0.815781
9530.000000;0.815574
9529.000000;0.815272
9528.000000;0.814920
9527.000000;0.814702
9526.000000;0.814829
9525.000000;0.815366
9524.000000;0.816123
9523.000000;0.816757
9522.000000;0.817011
9521.000000;0.816872
9520.000000;0.816503
9519.000000;0.816060
9518.000000;0.815573
9517.000000;0.815026
9516.000000;0.814489
9515.000000;0.814118
9514.000000;0.813983
9513.000000;0.813967
9512.000000;0.813879
9511.000000;0.813629
9510.000000;0.813278
9509.000000;0.812952
9508.000000;0.812773
9507.000000;0.812819
9506.000000;0.813065
9505.000000;0.813361
9504.000000;0.813564
9503.000000;0.813676
9502.000000;0.813780
9501.000000;0.813881
9500.000000;0.813921
9499.000000;0.813945
9498.000000;0.814095
9497.000000;0.814406
9496.000000;0.814703
9495.000000;0.814783
9494.000000;0.814624
9493.000000;0.814358
9492.000000;0.814096
9491.000000;0.813849
9490.000000;0.813596
9489.000000;0.813367
9488.000000;0.813234
9487.000000;0.813235
9486.000000;0.813279
9485.000000;0.813200
9484.000000;0.812938
9483.000000;0.812650
9482.000000;0.812534
9481.000000;0.812562
9480.000000;0.812482
9479.000000;0.812121
9478.000000;0.811593
9477.000000;0.811174
9476.000000;0.811056
9475.000000;0.811235
9474.000000;0.811537
9473.000000;0.811723
9472.000000;0.811669
9471.000000;0.811493
9470.000000;0.811437
9469.000000;0.811580
9468.000000;0.811751
9467.000000;0.811760
9466.000000;0.811595
9465.000000;0.811337
9464.000000;0.811008
9463.000000;0.810647
9462.000000;0.810417
9461.000000;0.810485
9460.000000;0.810806
9459.000000;0.811155
9458.000000;0.811330
9457.000000;0.811257
9456.000000;0.810955
9455.000000;0.810532
9454.000000;0.810196
9453.000000;0.810101
9452.000000;0.810174
9451.000000;0.810181
9450.000000;0.810016
9449.000000;0.809795
9448.000000;0.809691
9447.000000;0.809771
9446.000000;0.810018
9445.000000;0.810375
9444.000000;0.810682
9443.000000;0.810709
9442.000000;0.810356
9441.000000;0.809787
9440.000000;0.809282
9439.000000;0.808988
9438.000000;0.808877
9437.000000;0.808876
9436.000000;0.808921
9435.000000;0.808942
9434.000000;0.808897
9433.000000;0.808857
9432.000000;0.808924
9431.000000;0.809059
9430.000000;0.809066
9429.000000;0.808828
9428.000000;0.808466
9427.000000;0.808183
9426.000000;0.808009
9425.000000;0.807836
9424.000000;0.807670
9423.000000;0.807703
9422.000000;0.808035
9421.000000;0.808456
9420.000000;0.808619
9419.000000;0.808430
9418.000000;0.808134
9417.000000;0.808013
9416.000000;0.808097
9415.000000;0.808229
9414.000000;0.808301
9413.000000;0.808327
9412.000000;0.808312
9411.000000;0.808143
9410.000000;0.807701
9409.000000;0.807059
9408.000000;0.806509
9407.000000;0.806332
9406.000000;0.806533
9405.000000;0.806846
9404.000000;0.807023
9403.000000;0.807062
9402.000000;0.807098
9401.000000;0.807144
9400.000000;0.807075
9399.000000;0.806864
9398.000000;0.806685
9397.000000;0.806702
9396.000000;0.806893
9395.000000;0.807140
9394.000000;0.807379
9393.000000;0.807547
9392.000000;0.807491
9391.000000;0.807114
9390.000000;0.806607
9389.000000;0.806330
9388.000000;0.806410
9387.000000;0.806589
9386.000000;0.806522
9385.000000;0.806157
9384.000000;0.805742
9383.000000;0.805543
9382.000000;0.805617
9381.000000;0.805829
9380.000000;0.806002
9379.000000;0.806044
9378.000000;0.805966
9377.000000;0.805814
9376.000000;0.805626
9375.000000;0.805470
9374.000000;0.805451
9373.000000;0.805593
9372.000000;0.805717
9371.000000;0.805589
9370.000000;0.805229
9369.000000;0.804968
9368.000000;0.805099
9367.000000;0.805548
9366.000000;0.805948
9365.000000;0.805982
9364.000000;0.805591
9363.000000;0.804936
9362.000000;0.804284
9361.000000;0.803888
9360.000000;0.803807
9359.000000;0.803825
9358.000000;0.803676
9357.000000;0.803375
9356.000000;0.803207
9355.000000;0.803346
9354.000000;0.803641
9353.000000;0.803869
9352.000000;0.804064
9351.000000;0.804426
9350.000000;0.804934
9349.000000;0.805261
9348.000000;0.805136
9347.000000;0.804680
9346.000000;0.804295
9345.000000;0.804271
9344.000000;0.804537
9343.000000;0.804770
9342.000000;0.804688
9341.000000;0.804290
9340.000000;0.803855
9339.000000;0.803695
9338.000000;0.803852
9337.000000;0.804047
9336.000000;0.803972
9335.000000;0.803592
9334.000000;0.803129
9333.000000;0.802774
9332.000000;0.802536
9331.000000;0.802356
9330.000000;0.802273
9329.000000;0.802352
9328.000000;0.802495
9327.000000;0.802482
9326.000000;0.802218
9325.000000;0.801891
9324.000000;0.801783
9323.000000;0.801966
9322.000000;0.802268
9321.000000;0.802510
9320.000000;0.802687
9319.000000;0.802864
9318.000000;0.802988
9317.000000;0.802911
9316.000000;0.802584
9315.000000;0.802148
9314.000000;0.801781
9313.000000;0.801540
9312.000000;0.801381
9311.000000;0.801294
9310.000000;0.801344
9309.000000;0.801558
9308.000000;0.801837
9307.000000;0.802016
9306.000000;0.801994
9305.000000;0.801794
9304.000000;0.801519
9303.000000;0.801286
9302.000000;0.801184
9301.000000;0.801259
9300.000000;0.801493
9299.000000;0.801794
9298.000000;0.802028
9297.000000;0.802079
9296.000000;0.801911
9295.000000;0.801582
9294.000000;0.801224
9293.000000;0.800970
9292.000000;0.800862
9291.000000;0.800820
9290.000000;0.800720
9289.000000;0.800501
9288.000000;0.800196
9287.000000;0.799865
9286.000000;0.799567
9285.000000;0.799375
9284.000000;0.799373
9283.000000;0.799575
9282.000000;0.799872
9281.000000;0.800122
9280.000000;0.800264
9279.000000;0.800325
9278.000000;0.800318
9277.000000;0.800217
9276.000000;0.800026
9275.000000;0.799808
9274.000000;0.799618
9273.000000;0.799453
9272.000000;0.799287
9271.000000;0.799112
9270.000000;0.798912
9269.000000;0.798653
9268.000000;0.798340
9267.000000;0.798059
9266.000000;0.797906
9265.000000;0.797910
9264.000000;0.798033
9263.000000;0.798220
9262.000000;0.798387
9261.000000;0.798402
9260.000000;0.798148
9259.000000;0.797663
9258.000000;0.797187
9257.000000;0.797010
9256.000000;0.797257
9255.000000;0.797759
9254.000000;0.798157
9253.000000;0.798168
9252.000000;0.797799
9251.000000;0.797334
9250.000000;0.797069
9249.000000;0.797080
9248.000000;0.797202
9247.000000;0.797228
9246.000000;0.797107
9245.000000;0.796994
9244.000000;0.797104
9243.000000;0.797457
9242.000000;0.797797
9241.000000;0.797813
9240.000000;0.797496
9239.000000;0.797184
9238.000000;0.797211
9237.000000;0.797525
9236.000000;0.797748
9235.000000;0.797567
9234.000000;0.797023
9233.000000;0.796431
9232.000000;0.796094
9231.000000;0.796098
9230.000000;0.796334
9229.000000;0.796654
9228.000000;0.796998
9227.000000;0.797339
9226.000000;0.797546
9225.000000;0.797425
9224.000000;0.796959
9223.000000;0.796405
9222.000000;0.796035
9221.000000;0.795861
9220.000000;0.795727
9219.000000;0.795615
9218.000000;0.795651
9217.000000;0.795825
9216.000000;0.795898
9215.000000;0.795701
9214.000000;0.795386
9213.000000;0.795249
9212.000000;0.795387
9211.000000;0.795644
9210.000000;0.795824
9209.000000;0.795859
9208.000000;0.795798
9207.000000;0.795733
9206.000000;0.795732
9205.000000;0.795762
9204.000000;0.795683
9203.000000;0.795401
9202.000000;0.794987
9201.000000;0.794592
9200.000000;0.794267
9199.000000;0.793964
9198.000000;0.793700
9197.000000;0.793610
9196.000000;0.793777
9195.000000;0.794074
9194.000000;0.794245
9193.000000;0.794115
9192.000000;0.793731
9191.000000;0.793328
9190.000000;0.793175
9189.000000;0.793406
9188.000000;0.793911
9187.000000;0.794394
9186.000000;0.794588
9185.000000;0.794441
9184.000000;0.794116
9183.000000;0.793815
9182.000000;0.793627
9181.000000;0.793527
9180.000000;0.793486
9179.000000;0.793519
9178.000000;0.793623
9177.000000;0.793711
9176.000000;0.793666
9175.000000;0.793459
9174.000000;0.793186
9173.000000;0.792971
9172.000000;0.792855
9171.000000;0.792792
9170.000000;0.792753
9169.000000;0.792778
9168.000000;0.792939
9167.000000;0.793232
9166.000000;0.793533
9165.000000;0.793643
9164.000000;0.793433
9163.000000;0.792967
9162.000000;0.792482
9161.000000;0.792214
9160.000000;0.792208
9159.000000;0.792293
9158.000000;0.792254
9157.000000;0.792032
9156.000000;0.791756
9155.000000;0.791595
9154.000000;0.791583
9153.000000;0.791622
9152.000000;0.791609
9151.000000;0.791531
9150.000000;0.791421
9149.000000;0.791317
9148.000000;0.791274
9147.000000;0.791368
9146.000000;0.791604
9145.000000;0.791858
9144.000000;0.791988
9143.000000;0.791974
9142.000000;0.791898
9141.000000;0.791798
9140.000000;0.791645
9139.000000;0.791452
9138.000000;0.791293
9137.000000;0.791188
9136.000000;0.791071
9135.000000;0.790944
9134.000000;0.790929
9133.000000;0.791087
9132.000000;0.791245
9131.000000;0.791159
9130.000000;0.790805
9129.000000;0.790426
9128.000000;0.790258
9127.000000;0.790333
9126.000000;0.790518
9125.000000;0.790655
9124.000000;0.790612
9123.000000;0.790328
9122.000000;0.789904
9121.000000;0.789612
9120.000000;0.789688
9119.000000;0.790093
9118.000000;0.790507
9117.000000;0.790591
9116.000000;0.790265
9115.000000;0.789739
9114.000000;0.789303
9113.000000;0.789087
9112.000000;0.789017
9111.000000;0.788959
9110.000000;0.788871
9109.000000;0.788826
9108.000000;0.788888
9107.000000;0.789023
9106.000000;0.789106
9105.000000;0.789019
9104.000000;0.788741
9103.000000;0.788383
9102.000000;0.788143
9101.000000;0.788194
9100.000000;0.788554
9099.000000;0.789035
9098.000000;0.789355
9097.000000;0.789340
9096.000000;0.789045
9095.000000;0.788678
9094.000000;0.788415
9093.000000;0.788284
9092.000000;0.788211
9091.000000;0.788128
9090.000000;0.788012
9089.000000;0.787881
9088.000000;0.787800
9087.000000;0.787876
9086.000000;0.788155
9085.000000;0.788502
9084.000000;0.788647
9083.000000;0.788396
9082.000000;0.787809
9081.000000;0.787155
9080.000000;0.786702
9079.000000;0.786523
9078.000000;0.786478
9077.000000;0.786370
9076.000000;0.786151
9075.000000;0.785977
9074.000000;0.786031
9073.000000;0.786306
9072.000000;0.786609
9071.000000;0.786773
9070.000000;0.786784
9069.000000;0.786720
9068.000000;0.786647
9067.000000;0.786610
9066.000000;0.786630
9065.000000;0.786647
9064.000000;0.786558
9063.000000;0.786361
9062.000000;0.786218
9061.000000;0.786276
9060.000000;0.786472
9059.000000;0.786604
9058.000000;0.786568
9057.000000;0.786434
9056.000000;0.786312
9055.000000;0.786218
9054.000000;0.786112
9053.000000;0.785993
