Criado como novo conjunto de dados;"2706_e01_daniel.spp","97386.9 Secs"
cm-1;Abs
10000.000000;0.863476
9999.000000;0.863137
9998.000000;0.862810
9997.000000;0.862583
9996.000000;0.862710
9995.000000;0.863252
9994.000000;0.863884
9993.000000;0.864214
9992.000000;0.864117
9991.000000;0.863683
9990.000000;0.862943
9989.000000;0.861946
9988.000000;0.861013
9987.000000;0.860633
9986.000000;0.860963
9985.000000;0.861631
9984.000000;0.862131
9983.000000;0.862270
9982.000000;0.862134
9981.000000;0.861845
9980.000000;0.861558
9979.000000;0.861487
9978.000000;0.861674
9977.000000;0.861782
9976.000000;0.861413
9975.000000;0.860631
9974.000000;0.859950
9973.000000;0.859758
9972.000000;0.859929
9971.000000;0.860066
9970.000000;0.859993
9969.000000;0.859926
9968.000000;0.860202
9967.000000;0.860886
9966.000000;0.861601
9965.000000;0.861797
9964.000000;0.861257
9963.000000;0.860306
9962.000000;0.859462
9961.000000;0.858966
9960.000000;0.858733
9959.000000;0.858629
9958.000000;0.858604
9957.000000;0.858632
9956.000000;0.858757
9955.000000;0.859158
9954.000000;0.859938
9953.000000;0.860813
9952.000000;0.861268
9951.000000;0.861094
9950.000000;0.860563
9949.000000;0.859960
9948.000000;0.859238
9947.000000;0.858304
9946.000000;0.857449
9945.000000;0.857140
9944.000000;0.857426
9943.000000;0.857801
9942.000000;0.857739
9941.000000;0.857252
9940.000000;0.856839
9939.000000;0.856953
9938.000000;0.857560
9937.000000;0.858176
9936.000000;0.858350
9935.000000;0.858067
9934.000000;0.857674
9933.000000;0.857445
9932.000000;0.857369
9931.000000;0.857348
9930.000000;0.857368
9929.000000;0.857327
9928.000000;0.856917
9927.000000;0.855976
9926.000000;0.854900
9925.000000;0.854416
9924.000000;0.854856
9923.000000;0.855846
9922.000000;0.856780
9921.000000;0.857382
9920.000000;0.857709
9919.000000;0.857820
9918.000000;0.857674
9917.000000;0.857305
9916.000000;0.856870
9915.000000;0.856513
9914.000000;0.856282
9913.000000;0.856177
9912.000000;0.856154
9911.000000;0.856110
9910.000000;0.855954
9909.000000;0.855716
9908.000000;0.855485
9907.000000;0.855274
9906.000000;0.855043
9905.000000;0.854800
9904.000000;0.854555
9903.000000;0.854190
9902.000000;0.853562
9901.000000;0.852786
9900.000000;0.852244
9899.000000;0.852219
9898.000000;0.852598
9897.000000;0.853041
9896.000000;0.853327
9895.000000;0.853455
9894.000000;0.853505
9893.000000;0.853501
9892.000000;0.853405
9891.000000;0.853160
9890.000000;0.852822
9889.000000;0.852675
9888.000000;0.853054
9887.000000;0.853903
9886.000000;0.854624
9885.000000;0.854588
9884.000000;0.853750
9883.000000;0.852646
9882.000000;0.851837
9881.000000;0.851561
9880.000000;0.851830
9879.000000;0.852512
9878.000000;0.853251
9877.000000;0.853614
9876.000000;0.853498
9875.000000;0.853252
9874.000000;0.853252
9873.000000;0.853504
9872.000000;0.853765
9871.000000;0.853835
9870.000000;0.853545
9869.000000;0.852724
9868.000000;0.851504
9867.000000;0.850526
9866.000000;0.850440
9865.000000;0.851158
9864.000000;0.851904
9863.000000;0.852094
9862.000000;0.851885
9861.000000;0.851738
9860.000000;0.851742
9859.000000;0.851654
9858.000000;0.851393
9857.000000;0.851135
9856.000000;0.850955
9855.000000;0.850705
9854.000000;0.850324
9853.000000;0.850020
9852.000000;0.849953
9851.000000;0.849931
9850.000000;0.849631
9849.000000;0.849084
9848.000000;0.848716
9847.000000;0.848868
9846.000000;0.849405
9845.000000;0.849864
9844.000000;0.849922
9843.000000;0.849655
9842.000000;0.849377
9841.000000;0.849306
9840.000000;0.849376
9839.000000;0.849365
9838.000000;0.849194
9837.000000;0.849061
9836.000000;0.849231
9835.000000;0.849642
9834.000000;0.849843
9833.000000;0.849414
9832.000000;0.848464
9831.000000;0.847603
9830.000000;0.847382
9829.000000;0.847789
9828.000000;0.848306
9827.000000;0.848436
9826.000000;0.848159
9825.000000;0.847864
9824.000000;0.847875
9823.000000;0.848104
9822.000000;0.848191
9821.000000;0.847957
9820.000000;0.847614
9819.000000;0.847481
9818.000000;0.847640
9817.000000;0.847941
9816.000000;0.848250
9815.000000;0.848500
9814.000000;0.848531
9813.000000;0.848136
9812.000000;0.847385
9811.000000;0.846745
9810.000000;0.846677
9809.000000;0.847159
9808.000000;0.847730
9807.000000;0.848003
9806.000000;0.848001
9805.000000;0.847955
9804.000000;0.847936
9803.000000;0.847782
9802.000000;0.847364
9801.000000;0.846811
9800.000000;0.846418
9799.000000;0.846362
9798.000000;0.846523
9797.000000;0.846633
9796.000000;0.846566
9795.000000;0.846446
9794.000000;0.846442
9793.000000;0.846518
9792.000000;0.846461
9791.000000;0.846150
9790.000000;0.845697
9789.000000;0.845327
9788.000000;0.845199
9787.000000;0.845406
9786.000000;0.846017
9785.000000;0.846954
9784.000000;0.847826
9783.000000;0.848069
9782.000000;0.847426
9781.000000;0.846259
9780.000000;0.845295
9779.000000;0.845007
9778.000000;0.845270
9777.000000;0.845601
9776.000000;0.845680
9775.000000;0.845623
9774.000000;0.845758
9773.000000;0.846158
9772.000000;0.846463
9771.000000;0.846229
9770.000000;0.845452
9769.000000;0.844626
9768.000000;0.844220
9767.000000;0.844223
9766.000000;0.844312
9765.000000;0.844338
9764.000000;0.844394
9763.000000;0.844438
9762.000000;0.844172
9761.000000;0.843481
9760.000000;0.842754
9759.000000;0.842537
9758.000000;0.842951
9757.000000;0.843621
9756.000000;0.844082
9755.000000;0.844089
9754.000000;0.843619
9753.000000;0.842838
9752.000000;0.842102
9751.000000;0.841780
9750.000000;0.841960
9749.000000;0.842420
9748.000000;0.842902
9747.000000;0.843296
9746.000000;0.843563
9745.000000;0.843640
9744.000000;0.843535
9743.000000;0.843393
9742.000000;0.843361
9741.000000;0.843449
9740.000000;0.843555
9739.000000;0.843552
9738.000000;0.843322
9737.000000;0.842810
9736.000000;0.842146
9735.000000;0.841624
9734.000000;0.841456
9733.000000;0.841584
9732.000000;0.841781
9731.000000;0.841874
9730.000000;0.841818
9729.000000;0.841635
9728.000000;0.841396
9727.000000;0.841201
9726.000000;0.841092
9725.000000;0.841019
9724.000000;0.840938
9723.000000;0.840912
9722.000000;0.841017
9721.000000;0.841162
9720.000000;0.841097
9719.000000;0.840640
9718.000000;0.839872
9717.000000;0.839141
9716.000000;0.838834
9715.000000;0.839068
9714.000000;0.839547
9713.000000;0.839805
9712.000000;0.839693
9711.000000;0.839521
9710.000000;0.839656
9709.000000;0.840048
9708.000000;0.840307
9707.000000;0.840205
9706.000000;0.839918
9705.000000;0.839733
9704.000000;0.839700
9703.000000;0.839679
9702.000000;0.839624
9701.000000;0.839672
9700.000000;0.839941
9699.000000;0.840335
9698.000000;0.840581
9697.000000;0.840431
9696.000000;0.839852
9695.000000;0.839066
9694.000000;0.838424
9693.000000;0.838190
9692.000000;0.838364
9691.000000;0.838690
9690.000000;0.838848
9689.000000;0.838682
9688.000000;0.838266
9687.000000;0.837804
9686.000000;0.837470
9685.000000;0.837330
9684.000000;0.837352
9683.000000;0.837447
9682.000000;0.837553
9681.000000;0.837706
9680.000000;0.838014
9679.000000;0.838504
9678.000000;0.838995
9677.000000;0.839192
9676.000000;0.838938
9675.000000;0.838354
9674.000000;0.837753
9673.000000;0.837401
9672.000000;0.837330
9671.000000;0.837340
9670.000000;0.837205
9669.000000;0.836921
9668.000000;0.836744
9667.000000;0.836910
9666.000000;0.837346
9665.000000;0.837713
9664.000000;0.837735
9663.000000;0.837436
9662.000000;0.837055
9661.000000;0.836811
9660.000000;0.836747
9659.000000;0.836728
9658.000000;0.836574
9657.000000;0.836263
9656.000000;0.836020
9655.000000;0.836103
9654.000000;0.836489
9653.000000;0.836868
9652.000000;0.836956
9651.000000;0.836707
9650.000000;0.836231
9649.000000;0.835663
9648.000000;0.835192
9647.000000;0.835053
9646.000000;0.835329
9645.000000;0.835820
9644.000000;0.836224
9643.000000;0.836399
9642.000000;0.836359
9641.000000;0.836124
9640.000000;0.835750
9639.000000;0.835459
9638.000000;0.835538
9637.000000;0.836033
9636.000000;0.836640
9635.000000;0.836950
9634.000000;0.836764
9633.000000;0.836193
9632.000000;0.835512
9631.000000;0.834959
9630.000000;0.834622
9629.000000;0.834485
9628.000000;0.834554
9627.000000;0.834841
9626.000000;0.835233
9625.000000;0.835486
9624.000000;0.835472
9623.000000;0.835351
9622.000000;0.835358
9621.000000;0.835468
9620.000000;0.835421
9619.000000;0.835071
9618.000000;0.834573
9617.000000;0.834168
9616.000000;0.833933
9615.000000;0.833810
9614.000000;0.833768
9613.000000;0.833828
9612.000000;0.833961
9611.000000;0.834053
9610.000000;0.833993
9609.000000;0.833796
9608.000000;0.833615
9607.000000;0.833600
9606.000000;0.833718
9605.000000;0.833748
9604.000000;0.833531
9603.000000;0.833139
9602.000000;0.832743
9601.000000;0.832388
9600.000000;0.832049
9599.000000;0.831865
9598.000000;0.832097
9597.000000;0.832762
9596.000000;0.833490
9595.000000;0.833864
9594.000000;0.833795
9593.000000;0.833469
9592.000000;0.833037
9591.000000;0.832529
9590.000000;0.831995
9589.000000;0.831557
9588.000000;0.831293
9587.000000;0.831198
9586.000000;0.831286
9585.000000;0.831608
9584.000000;0.832114
9583.000000;0.832568
9582.000000;0.832716
9581.000000;0.832510
9580.000000;0.832122
9579.000000;0.831733
9578.000000;0.831357
9577.000000;0.830905
9576.000000;0.830416
9575.000000;0.830136
9574.000000;0.830289
9573.000000;0.830768
9572.000000;0.831136
9571.000000;0.831014
9570.000000;0.830446
9569.000000;0.829838
9568.000000;0.829580
9567.000000;0.829754
9566.000000;0.830163
9565.000000;0.830531
9564.000000;0.830665
9563.000000;0.830511
9562.000000;0.830143
9561.000000;0.829717
9560.000000;0.829385
9559.000000;0.829205
9558.000000;0.829139
9557.000000;0.829141
9556.000000;0.829237
9555.000000;0.829473
9554.000000;0.829776
9553.000000;0.829928
9552.000000;0.829765
9551.000000;0.829402
9550.000000;0.829145
9549.000000;0.829164
9548.000000;0.829321
9547.000000;0.829368
9546.000000;0.829232
9545.000000;0.829059
9544.000000;0.829014
9543.000000;0.829132
9542.000000;0.829320
9541.000000;0.829444
9540.000000;0.829417
9539.000000;0.829255
9538.000000;0.829049
9537.000000;0.828859
9536.000000;0.828683
9535.000000;0.828519
9534.000000;0.828396
9533.000000;0.828301
9532.000000;0.828152
9531.000000;0.827933
9530.000000;0.827783
9529.000000;0.827823
9528.000000;0.827953
9527.000000;0.827950
9526.000000;0.827761
9525.000000;0.827551
9524.000000;0.827442
9523.000000;0.827370
9522.000000;0.827245
9521.000000;0.827113
9520.000000;0.827066
9519.000000;0.827064
9518.000000;0.826992
9517.000000;0.826860
9516.000000;0.826835
9515.000000;0.827064
9514.000000;0.827483
9513.000000;0.827814
9512.000000;0.827765
9511.000000;0.827284
9510.000000;0.826647
9509.000000;0.826237
9508.000000;0.826212
9507.000000;0.826421
9506.000000;0.826651
9505.000000;0.826840
9504.000000;0.826979
9503.000000;0.826914
9502.000000;0.826438
9501.000000;0.825609
9500.000000;0.824863
9499.000000;0.824717
9498.000000;0.825321
9497.000000;0.826295
9496.000000;0.827015
9495.000000;0.827103
9494.000000;0.826668
9493.000000;0.826098
9492.000000;0.825662
9491.000000;0.825387
9490.000000;0.825227
9489.000000;0.825193
9488.000000;0.825251
9487.000000;0.825263
9486.000000;0.825131
9485.000000;0.824935
9484.000000;0.824812
9483.000000;0.824767
9482.000000;0.824701
9481.000000;0.824570
9480.000000;0.824410
9479.000000;0.824251
9478.000000;0.824127
9477.000000;0.824120
9476.000000;0.824285
9475.000000;0.824507
9474.000000;0.824548
9473.000000;0.824246
9472.000000;0.823619
9471.000000;0.822853
9470.000000;0.822275
9469.000000;0.822231
9468.000000;0.822788
9467.000000;0.823547
9466.000000;0.823960
9465.000000;0.823879
9464.000000;0.823655
9463.000000;0.823637
9462.000000;0.823779
9461.000000;0.823804
9460.000000;0.823581
9459.000000;0.823213
9458.000000;0.822876
9457.000000;0.822718
9456.000000;0.822818
9455.000000;0.823099
9454.000000;0.823347
9453.000000;0.823415
9452.000000;0.823362
9451.000000;0.823307
9450.000000;0.823220
9449.000000;0.823022
9448.000000;0.822797
9447.000000;0.822711
9446.000000;0.822722
9445.000000;0.822581
9444.000000;0.822200
9443.000000;0.821851
9442.000000;0.821896
9441.000000;0.822372
9440.000000;0.822972
9439.000000;0.823393
9438.000000;0.823595
9437.000000;0.823727
9436.000000;0.823877
9435.000000;0.823979
9434.000000;0.823921
9433.000000;0.823663
9432.000000;0.823247
9431.000000;0.822722
9430.000000;0.822125
9429.000000;0.821499
9428.000000;0.820905
9427.000000;0.820420
9426.000000;0.820138
9425.000000;0.820121
9424.000000;0.820302
9423.000000;0.820475
9422.000000;0.820487
9421.000000;0.820404
9420.000000;0.820411
9419.000000;0.820527
9418.000000;0.820539
9417.000000;0.820258
9416.000000;0.819752
9415.000000;0.819292
9414.000000;0.819128
9413.000000;0.819326
9412.000000;0.819729
9411.000000;0.820048
9410.000000;0.820072
9409.000000;0.819868
9408.000000;0.819702
9407.000000;0.819734
9406.000000;0.819862
9405.000000;0.819910
9404.000000;0.819851
9403.000000;0.819777
9402.000000;0.819764
9401.000000;0.819864
9400.000000;0.820109
9399.000000;0.820414
9398.000000;0.820531
9397.000000;0.820266
9396.000000;0.819706
9395.000000;0.819123
9394.000000;0.818694
9393.000000;0.818438
9392.000000;0.818365
9391.000000;0.818510
9390.000000;0.818784
9389.000000;0.818948
9388.000000;0.818820
9387.000000;0.818464
9386.000000;0.818118
9385.000000;0.817976
9384.000000;0.818047
9383.000000;0.818169
9382.000000;0.818159
9381.000000;0.817957
9380.000000;0.817632
9379.000000;0.817284
9378.000000;0.817016
9377.000000;0.816972
9376.000000;0.817267
9375.000000;0.817788
9374.000000;0.818183
9373.000000;0.818175
9372.000000;0.817826
9371.000000;0.817397
9370.000000;0.817059
9369.000000;0.816885
9368.000000;0.816995
9367.000000;0.817418
9366.000000;0.817878
9365.000000;0.817959
9364.000000;0.817575
9363.000000;0.817070
9362.000000;0.816801
9361.000000;0.816807
9360.000000;0.816924
9359.000000;0.817002
9358.000000;0.816918
9357.000000;0.816560
9356.000000;0.815997
9355.000000;0.815533
9354.000000;0.815441
9353.000000;0.815676
9352.000000;0.815946
9351.000000;0.816011
9350.000000;0.815846
9349.000000;0.815575
9348.000000;0.815371
9347.000000;0.815371
9346.000000;0.815580
9345.000000;0.815870
9344.000000;0.816105
9343.000000;0.816215
9342.000000;0.816136
9341.000000;0.815791
9340.000000;0.815243
9339.000000;0.814769
9338.000000;0.814645
9337.000000;0.814886
9336.000000;0.815268
9335.000000;0.815563
9334.000000;0.815664
9333.000000;0.815563
9332.000000;0.815348
9331.000000;0.815195
9330.000000;0.815253
9329.000000;0.815479
9328.000000;0.815675
9327.000000;0.815686
9326.000000;0.815515
9325.000000;0.815270
9324.000000;0.815091
9323.000000;0.815087
9322.000000;0.815246
9321.000000;0.815386
9320.000000;0.815287
9319.000000;0.814918
9318.000000;0.814468
9317.000000;0.814127
9316.000000;0.813907
9315.000000;0.813736
9314.000000;0.813651
9313.000000;0.813791
9312.000000;0.814207
9311.000000;0.814713
9310.000000;0.814999
9309.000000;0.814889
9308.000000;0.814505
9307.000000;0.814155
9306.000000;0.814055
9305.000000;0.814154
9304.000000;0.814227
9303.000000;0.814110
9302.000000;0.813842
9301.000000;0.813603
9300.000000;0.813531
9299.000000;0.813594
9298.000000;0.813609
9297.000000;0.813412
9296.000000;0.813014
9295.000000;0.812586
9294.000000;0.812292
9293.000000;0.812141
9292.000000;0.812025
9291.000000;0.811858
9290.000000;0.811648
9289.000000;0.811471
9288.000000;0.811429
9287.000000;0.811613
9286.000000;0.812029
9285.000000;0.812529
9284.000000;0.812852
9283.000000;0.812813
9282.000000;0.812494
9281.000000;0.812193
9280.000000;0.812141
9279.000000;0.812288
9278.000000;0.812387
9277.000000;0.812294
9276.000000;0.812081
9275.000000;0.811854
9274.000000;0.811561
9273.000000;0.811097
9272.000000;0.810542
9271.000000;0.810156
9270.000000;0.810100
9269.000000;0.810256
9268.000000;0.810365
9267.000000;0.810298
9266.000000;0.810177
9265.000000;0.810255
9264.000000;0.810675
9263.000000;0.811275
9262.000000;0.811639
9261.000000;0.811448
9260.000000;0.810808
9259.000000;0.810184
9258.000000;0.809954
9257.000000;0.810123
9256.000000;0.810448
9255.000000;0.810731
9254.000000;0.810895
9253.000000;0.810907
9252.000000;0.810769
9251.000000;0.810571
9250.000000;0.810433
9249.000000;0.810380
9248.000000;0.810351
9247.000000;0.810293
9246.000000;0.810204
9245.000000;0.810084
9244.000000;0.809933
9243.000000;0.809791
9242.000000;0.809720
9241.000000;0.809734
9240.000000;0.809768
9239.000000;0.809740
9238.000000;0.809604
9237.000000;0.809366
9236.000000;0.809083
9235.000000;0.808844
9234.000000;0.808720
9233.000000;0.808712
9232.000000;0.808760
9231.000000;0.808786
9230.000000;0.808733
9229.000000;0.808607
9228.000000;0.808520
9227.000000;0.808625
9226.000000;0.808961
9225.000000;0.809377
9224.000000;0.809674
9223.000000;0.809787
9222.000000;0.809781
9221.000000;0.809702
9220.000000;0.809511
9219.000000;0.809136
9218.000000;0.808551
9217.000000;0.807839
9216.000000;0.807221
9215.000000;0.806956
9214.000000;0.807112
9213.000000;0.807450
9212.000000;0.807643
9211.000000;0.807595
9210.000000;0.807452
9209.000000;0.807362
9208.000000;0.807337
9207.000000;0.807369
9206.000000;0.807480
9205.000000;0.807610
9204.000000;0.807579
9203.000000;0.807281
9202.000000;0.806846
9201.000000;0.806506
9200.000000;0.806366
9199.000000;0.806378
9198.000000;0.806455
9197.000000;0.806542
9196.000000;0.806592
9195.000000;0.806572
9194.000000;0.806488
9193.000000;0.806359
9192.000000;0.806196
9191.000000;0.806049
9190.000000;0.806014
9189.000000;0.806132
9188.000000;0.806309
9187.000000;0.806437
9186.000000;0.806550
9185.000000;0.806750
9184.000000;0.806989
9183.000000;0.807038
9182.000000;0.806740
9181.000000;0.806202
9180.000000;0.805696
9179.000000;0.805417
9178.000000;0.805392
9177.000000;0.805551
9176.000000;0.805815
9175.000000;0.806112
9174.000000;0.806359
9173.000000;0.806475
9172.000000;0.806427
9171.000000;0.806249
9170.000000;0.805988
9169.000000;0.805649
9168.000000;0.805233
9167.000000;0.804817
9166.000000;0.804534
9165.000000;0.804405
9164.000000;0.804276
9163.000000;0.804024
9162.000000;0.803774
9161.000000;0.803752
9160.000000;0.803933
9159.000000;0.804007
9158.000000;0.803775
9157.000000;0.803439
9156.000000;0.803375
9155.000000;0.803689
9154.000000;0.804146
9153.000000;0.804467
9152.000000;0.804553
9151.000000;0.804425
9150.000000;0.804129
9149.000000;0.803756
9148.000000;0.803468
9147.000000;0.803393
9146.000000;0.803532
9145.000000;0.803778
9144.000000;0.803981
9143.000000;0.804015
9142.000000;0.803846
9141.000000;0.803585
9140.000000;0.803397
9139.000000;0.803328
9138.000000;0.803280
9137.000000;0.803186
9136.000000;0.803114
9135.000000;0.803159
9134.000000;0.803297
9133.000000;0.803438
9132.000000;0.803551
9131.000000;0.803631
9130.000000;0.803585
9129.000000;0.803299
9128.000000;0.802824
9127.000000;0.802395
9126.000000;0.802206
9125.000000;0.802211
9124.000000;0.802213
9123.000000;0.802090
9122.000000;0.801889
9121.000000;0.801736
9120.000000;0.801692
9119.000000;0.801706
9118.000000;0.801648
9117.000000;0.801424
9116.000000;0.801095
9115.000000;0.800865
9114.000000;0.800923
9113.000000;0.801246
9112.000000;0.801596
9111.000000;0.801732
9110.000000;0.801640
9109.000000;0.801512
9108.000000;0.801525
9107.000000;0.801642
9106.000000;0.801657
9105.000000;0.801412
9104.000000;0.800942
9103.000000;0.800440
9102.000000;0.800092
9101.000000;0.799960
9100.000000;0.799986
9099.000000;0.800091
9098.000000;0.800271
9097.000000;0.800559
9096.000000;0.800904
9095.000000;0.801143
9094.000000;0.801149
9093.000000;0.800983
9092.000000;0.800824
9091.000000;0.800754
9090.000000;0.800693
9089.000000;0.800564
9088.000000;0.800434
9087.000000;0.800437
9086.000000;0.800600
9085.000000;0.800809
9084.000000;0.800909
9083.000000;0.800817
9082.000000;0.800560
9081.000000;0.800231
9080.000000;0.799878
9079.000000;0.799441
9078.000000;0.798866
9077.000000;0.798270
9076.000000;0.797891
9075.000000;0.797819
9074.000000;0.797888
9073.000000;0.797921
9072.000000;0.797961
9071.000000;0.798129
9070.000000;0.798349
9069.000000;0.798408
9068.000000;0.798273
9067.000000;0.798156
9066.000000;0.798226
9065.000000;0.798403
9064.000000;0.798505
9063.000000;0.798476
9062.000000;0.798393
9061.000000;0.798322
9060.000000;0.798280
9059.000000;0.798273
9058.000000;0.798315
9057.000000;0.798410
9056.000000;0.798545
9055.000000;0.798668
9054.000000;0.798654
9053.000000;0.798386
