Criado como novo conjunto de dados;"2706_e01_daniel.spp","82626.4 Secs"
cm-1;Abs
10000.000000;0.786648
9999.000000;0.787607
9998.000000;0.788318
9997.000000;0.788544
9996.000000;0.788176
9995.000000;0.787273
9994.000000;0.786185
9993.000000;0.785398
9992.000000;0.785154
9991.000000;0.785287
9990.000000;0.785482
9989.000000;0.785564
9988.000000;0.785489
9987.000000;0.785235
9986.000000;0.784866
9985.000000;0.784589
9984.000000;0.784581
9983.000000;0.784790
9982.000000;0.784989
9981.000000;0.784915
9980.000000;0.784367
9979.000000;0.783380
9978.000000;0.782453
9977.000000;0.782304
9976.000000;0.783119
9975.000000;0.784196
9974.000000;0.784667
9973.000000;0.784487
9972.000000;0.784370
9971.000000;0.784820
9970.000000;0.785588
9969.000000;0.786131
9968.000000;0.786189
9967.000000;0.785755
9966.000000;0.784815
9965.000000;0.783445
9964.000000;0.782034
9963.000000;0.781156
9962.000000;0.781168
9961.000000;0.781934
9960.000000;0.782854
9959.000000;0.783188
9958.000000;0.782627
9957.000000;0.781644
9956.000000;0.781127
9955.000000;0.781523
9954.000000;0.782418
9953.000000;0.782965
9952.000000;0.782641
9951.000000;0.781594
9950.000000;0.780509
9949.000000;0.780217
9948.000000;0.781114
9947.000000;0.782686
9946.000000;0.783729
9945.000000;0.783381
9944.000000;0.781936
9943.000000;0.780429
9942.000000;0.779529
9941.000000;0.779136
9940.000000;0.778951
9939.000000;0.778985
9938.000000;0.779313
9937.000000;0.779654
9936.000000;0.779569
9935.000000;0.779008
9934.000000;0.778395
9933.000000;0.778107
9932.000000;0.778096
9931.000000;0.778090
9930.000000;0.778033
9929.000000;0.778119
9928.000000;0.778459
9927.000000;0.778828
9926.000000;0.778819
9925.000000;0.778208
9924.000000;0.777189
9923.000000;0.776311
9922.000000;0.776140
9921.000000;0.776839
9920.000000;0.778014
9919.000000;0.778990
9918.000000;0.779278
9917.000000;0.778795
9916.000000;0.777752
9915.000000;0.776498
9914.000000;0.775503
9913.000000;0.775252
9912.000000;0.775940
9911.000000;0.777261
9910.000000;0.778544
9909.000000;0.779108
9908.000000;0.778619
9907.000000;0.777313
9906.000000;0.775907
9905.000000;0.775096
9904.000000;0.774994
9903.000000;0.775171
9902.000000;0.775252
9901.000000;0.775296
9900.000000;0.775486
9899.000000;0.775689
9898.000000;0.775575
9897.000000;0.775089
9896.000000;0.774542
9895.000000;0.774248
9894.000000;0.774254
9893.000000;0.774475
9892.000000;0.774953
9891.000000;0.775834
9890.000000;0.777075
9889.000000;0.778191
9888.000000;0.778432
9887.000000;0.777435
9886.000000;0.775687
9885.000000;0.774162
9884.000000;0.773468
9883.000000;0.773457
9882.000000;0.773634
9881.000000;0.773682
9880.000000;0.773505
9879.000000;0.773099
9878.000000;0.772655
9877.000000;0.772552
9876.000000;0.772937
9875.000000;0.773449
9874.000000;0.773585
9873.000000;0.773250
9872.000000;0.772751
9871.000000;0.772426
9870.000000;0.772485
9869.000000;0.772989
9868.000000;0.773648
9867.000000;0.773805
9866.000000;0.773002
9865.000000;0.771525
9864.000000;0.770130
9863.000000;0.769318
9862.000000;0.769137
9861.000000;0.769454
9860.000000;0.770043
9859.000000;0.770496
9858.000000;0.770513
9857.000000;0.770287
9856.000000;0.770249
9855.000000;0.770465
9854.000000;0.770638
9853.000000;0.770648
9852.000000;0.770617
9851.000000;0.770448
9850.000000;0.769809
9849.000000;0.768758
9848.000000;0.767926
9847.000000;0.767838
9846.000000;0.768387
9845.000000;0.769130
9844.000000;0.769734
9843.000000;0.769932
9842.000000;0.769473
9841.000000;0.768494
9840.000000;0.767652
9839.000000;0.767474
9838.000000;0.767739
9837.000000;0.767804
9836.000000;0.767448
9835.000000;0.767079
9834.000000;0.767201
9833.000000;0.767929
9832.000000;0.768967
9831.000000;0.769770
9830.000000;0.769782
9829.000000;0.768812
9828.000000;0.767317
9827.000000;0.766191
9826.000000;0.766085
9825.000000;0.766852
9824.000000;0.767662
9823.000000;0.767735
9822.000000;0.767085
9821.000000;0.766508
9820.000000;0.766742
9819.000000;0.767691
9818.000000;0.768565
9817.000000;0.768686
9816.000000;0.768013
9815.000000;0.766935
9814.000000;0.765883
9813.000000;0.765263
9812.000000;0.765459
9811.000000;0.766509
9810.000000;0.767794
9809.000000;0.768350
9808.000000;0.767677
9807.000000;0.766220
9806.000000;0.765011
9805.000000;0.764857
9804.000000;0.765716
9803.000000;0.766780
9802.000000;0.767199
9801.000000;0.766804
9800.000000;0.766102
9799.000000;0.765663
9798.000000;0.765619
9797.000000;0.765704
9796.000000;0.765584
9795.000000;0.765115
9794.000000;0.764439
9793.000000;0.763898
9792.000000;0.763739
9791.000000;0.763830
9790.000000;0.763754
9789.000000;0.763251
9788.000000;0.762529
9787.000000;0.762079
9786.000000;0.762238
9785.000000;0.762930
9784.000000;0.763731
9783.000000;0.764195
9782.000000;0.764180
9781.000000;0.763878
9780.000000;0.763492
9779.000000;0.763014
9778.000000;0.762415
9777.000000;0.761865
9776.000000;0.761550
9775.000000;0.761389
9774.000000;0.761218
9773.000000;0.761135
9772.000000;0.761344
9771.000000;0.761682
9770.000000;0.761688
9769.000000;0.761184
9768.000000;0.760456
9767.000000;0.759809
9766.000000;0.759335
9765.000000;0.759193
9764.000000;0.759650
9763.000000;0.760582
9762.000000;0.761322
9761.000000;0.761369
9760.000000;0.760992
9759.000000;0.760773
9758.000000;0.760787
9757.000000;0.760666
9756.000000;0.760309
9755.000000;0.760051
9754.000000;0.760093
9753.000000;0.760172
9752.000000;0.759922
9751.000000;0.759315
9750.000000;0.758596
9749.000000;0.757974
9748.000000;0.757524
9747.000000;0.757284
9746.000000;0.757317
9745.000000;0.757686
9744.000000;0.758359
9743.000000;0.759117
9742.000000;0.759606
9741.000000;0.759611
9740.000000;0.759250
9739.000000;0.758803
9738.000000;0.758400
9737.000000;0.758013
9736.000000;0.757713
9735.000000;0.757721
9734.000000;0.758127
9733.000000;0.758680
9732.000000;0.758976
9731.000000;0.758837
9730.000000;0.758463
9729.000000;0.758237
9728.000000;0.758395
9727.000000;0.758860
9726.000000;0.759317
9725.000000;0.759463
9724.000000;0.759209
9723.000000;0.758736
9722.000000;0.758360
9721.000000;0.758311
9720.000000;0.758558
9719.000000;0.758822
9718.000000;0.758792
9717.000000;0.758343
9716.000000;0.757604
9715.000000;0.756850
9714.000000;0.756336
9713.000000;0.756119
9712.000000;0.755978
9711.000000;0.755612
9710.000000;0.754995
9709.000000;0.754479
9708.000000;0.754430
9707.000000;0.754857
9706.000000;0.755482
9705.000000;0.756033
9704.000000;0.756331
9703.000000;0.756218
9702.000000;0.755700
9701.000000;0.755129
9700.000000;0.754963
9699.000000;0.755258
9698.000000;0.755589
9697.000000;0.755549
9696.000000;0.755144
9695.000000;0.754668
9694.000000;0.754393
9693.000000;0.754462
9692.000000;0.754900
9691.000000;0.755553
9690.000000;0.756115
9689.000000;0.756321
9688.000000;0.756111
9687.000000;0.755592
9686.000000;0.754966
9685.000000;0.754461
9684.000000;0.754184
9683.000000;0.753988
9682.000000;0.753664
9681.000000;0.753270
9680.000000;0.753101
9679.000000;0.753280
9678.000000;0.753572
9677.000000;0.753668
9676.000000;0.753456
9675.000000;0.752958
9674.000000;0.752222
9673.000000;0.751406
9672.000000;0.750770
9671.000000;0.750448
9670.000000;0.750365
9669.000000;0.750495
9668.000000;0.750952
9667.000000;0.751675
9666.000000;0.752235
9665.000000;0.752248
9664.000000;0.751869
9663.000000;0.751593
9662.000000;0.751613
9661.000000;0.751628
9660.000000;0.751333
9659.000000;0.750878
9658.000000;0.750720
9657.000000;0.751118
9656.000000;0.751871
9655.000000;0.752524
9654.000000;0.752799
9653.000000;0.752793
9652.000000;0.752728
9651.000000;0.752627
9650.000000;0.752314
9649.000000;0.751701
9648.000000;0.750940
9647.000000;0.750268
9646.000000;0.749838
9645.000000;0.749715
9644.000000;0.749877
9643.000000;0.750157
9642.000000;0.750331
9641.000000;0.750344
9640.000000;0.750347
9639.000000;0.750457
9638.000000;0.750619
9637.000000;0.750729
9636.000000;0.750752
9635.000000;0.750643
9634.000000;0.750322
9633.000000;0.749807
9632.000000;0.749255
9631.000000;0.748808
9630.000000;0.748507
9629.000000;0.748397
9628.000000;0.748503
9627.000000;0.748642
9626.000000;0.748508
9625.000000;0.748067
9624.000000;0.747661
9623.000000;0.747566
9622.000000;0.747650
9621.000000;0.747647
9620.000000;0.747543
9619.000000;0.747500
9618.000000;0.747563
9617.000000;0.747689
9616.000000;0.747904
9615.000000;0.748168
9614.000000;0.748208
9613.000000;0.747762
9612.000000;0.746934
9611.000000;0.746075
9610.000000;0.745430
9609.000000;0.745112
9608.000000;0.745293
9607.000000;0.746042
9606.000000;0.746981
9605.000000;0.747468
9604.000000;0.747238
9603.000000;0.746617
9602.000000;0.746050
9601.000000;0.745682
9600.000000;0.745456
9599.000000;0.745323
9598.000000;0.745205
9597.000000;0.744958
9596.000000;0.744575
9595.000000;0.744313
9594.000000;0.744442
9593.000000;0.744930
9592.000000;0.745453
9591.000000;0.745687
9590.000000;0.745563
9589.000000;0.745333
9588.000000;0.745400
9587.000000;0.745949
9586.000000;0.746655
9585.000000;0.746876
9584.000000;0.746245
9583.000000;0.745003
9582.000000;0.743730
9581.000000;0.742911
9580.000000;0.742798
9579.000000;0.743415
9578.000000;0.744437
9577.000000;0.745193
9576.000000;0.745105
9575.000000;0.744247
9574.000000;0.743323
9573.000000;0.743000
9572.000000;0.743340
9571.000000;0.743887
9570.000000;0.744199
9569.000000;0.744178
9568.000000;0.743985
9567.000000;0.743767
9566.000000;0.743536
9565.000000;0.743217
9564.000000;0.742751
9563.000000;0.742170
9562.000000;0.741606
9561.000000;0.741243
9560.000000;0.741198
9559.000000;0.741437
9558.000000;0.741772
9557.000000;0.741945
9556.000000;0.741743
9555.000000;0.741094
9554.000000;0.740146
9553.000000;0.739251
9552.000000;0.738800
9551.000000;0.738990
9550.000000;0.739686
9549.000000;0.740511
9548.000000;0.741080
9547.000000;0.741235
9546.000000;0.741085
9545.000000;0.740876
9544.000000;0.740791
9543.000000;0.740857
9542.000000;0.740988
9541.000000;0.741082
9540.000000;0.741073
9539.000000;0.740943
9538.000000;0.740719
9537.000000;0.740434
9536.000000;0.740085
9535.000000;0.739637
9534.000000;0.739089
9533.000000;0.738512
9532.000000;0.738025
9531.000000;0.737789
9530.000000;0.737996
9529.000000;0.738714
9528.000000;0.739671
9527.000000;0.740312
9526.000000;0.740230
9525.000000;0.739532
9524.000000;0.738715
9523.000000;0.738222
9522.000000;0.738194
9521.000000;0.738546
9520.000000;0.739103
9519.000000;0.739677
9518.000000;0.740132
9517.000000;0.740429
9516.000000;0.740532
9515.000000;0.740305
9514.000000;0.739619
9513.000000;0.738586
9512.000000;0.737581
9511.000000;0.736978
9510.000000;0.736900
9509.000000;0.737201
9508.000000;0.737601
9507.000000;0.737856
9506.000000;0.737920
9505.000000;0.737961
9504.000000;0.738133
9503.000000;0.738348
9502.000000;0.738348
9501.000000;0.738027
9500.000000;0.737582
9499.000000;0.737301
9498.000000;0.737246
9497.000000;0.737204
9496.000000;0.736907
9495.000000;0.736310
9494.000000;0.735685
9493.000000;0.735424
9492.000000;0.735708
9491.000000;0.736373
9490.000000;0.737095
9489.000000;0.737610
9488.000000;0.737726
9487.000000;0.737267
9486.000000;0.736215
9485.000000;0.734901
9484.000000;0.733869
9483.000000;0.733501
9482.000000;0.733808
9481.000000;0.734521
9480.000000;0.735260
9479.000000;0.735672
9478.000000;0.735618
9477.000000;0.735271
9476.000000;0.734918
9475.000000;0.734656
9474.000000;0.734380
9473.000000;0.734038
9472.000000;0.733721
9471.000000;0.733520
9470.000000;0.733463
9469.000000;0.733604
9468.000000;0.733997
9467.000000;0.734511
9466.000000;0.734833
9465.000000;0.734727
9464.000000;0.734199
9463.000000;0.733411
9462.000000;0.732576
9461.000000;0.731956
9460.000000;0.731769
9459.000000;0.731982
9458.000000;0.732297
9457.000000;0.732425
9456.000000;0.732308
9455.000000;0.732085
9454.000000;0.731945
9453.000000;0.731993
9452.000000;0.732137
9451.000000;0.732133
9450.000000;0.731895
9449.000000;0.731690
9448.000000;0.731815
9447.000000;0.732117
9446.000000;0.732111
9445.000000;0.731612
9444.000000;0.730965
9443.000000;0.730606
9442.000000;0.730668
9441.000000;0.731100
9440.000000;0.731820
9439.000000;0.732571
9438.000000;0.732917
9437.000000;0.732652
9436.000000;0.732058
9435.000000;0.731533
9434.000000;0.731159
9433.000000;0.730825
9432.000000;0.730562
9431.000000;0.730480
9430.000000;0.730520
9429.000000;0.730544
9428.000000;0.730608
9427.000000;0.730855
9426.000000;0.731174
9425.000000;0.731211
9424.000000;0.730733
9423.000000;0.729848
9422.000000;0.728900
9421.000000;0.728269
9420.000000;0.728178
9419.000000;0.728498
9418.000000;0.728807
9417.000000;0.728825
9416.000000;0.728711
9415.000000;0.728801
9414.000000;0.729133
9413.000000;0.729438
9412.000000;0.729507
9411.000000;0.729350
9410.000000;0.729035
9409.000000;0.728660
9408.000000;0.728435
9407.000000;0.728503
9406.000000;0.728653
9405.000000;0.728483
9404.000000;0.727948
9403.000000;0.727514
9402.000000;0.727624
9401.000000;0.728187
9400.000000;0.728725
9399.000000;0.728870
9398.000000;0.728580
9397.000000;0.728016
9396.000000;0.727380
9395.000000;0.726838
9394.000000;0.726458
9393.000000;0.726195
9392.000000;0.725986
9391.000000;0.725822
9390.000000;0.725719
9389.000000;0.725671
9388.000000;0.725682
9387.000000;0.725778
9386.000000;0.725916
9385.000000;0.725969
9384.000000;0.725870
9383.000000;0.725730
9382.000000;0.725702
9381.000000;0.725765
9380.000000;0.725724
9379.000000;0.725456
9378.000000;0.725063
9377.000000;0.724736
9376.000000;0.724544
9375.000000;0.724452
9374.000000;0.724486
9373.000000;0.724734
9372.000000;0.725124
9371.000000;0.725342
9370.000000;0.725122
9369.000000;0.724593
9368.000000;0.724172
9367.000000;0.724101
9366.000000;0.724228
9365.000000;0.724291
9364.000000;0.724262
9363.000000;0.724301
9362.000000;0.724479
9361.000000;0.724692
9360.000000;0.724804
9359.000000;0.724710
9358.000000;0.724321
9357.000000;0.723657
9356.000000;0.723005
9355.000000;0.722793
9354.000000;0.723180
9353.000000;0.723809
9352.000000;0.724059
9351.000000;0.723582
9350.000000;0.722573
9349.000000;0.721578
9348.000000;0.721102
9347.000000;0.721341
9346.000000;0.722137
9345.000000;0.723079
9344.000000;0.723697
9343.000000;0.723725
9342.000000;0.723239
9341.000000;0.722564
9340.000000;0.722019
9339.000000;0.721733
9338.000000;0.721681
9337.000000;0.721776
9336.000000;0.721912
9335.000000;0.721966
9334.000000;0.721863
9333.000000;0.721634
9332.000000;0.721348
9331.000000;0.721023
9330.000000;0.720680
9329.000000;0.720435
9328.000000;0.720436
9327.000000;0.720695
9326.000000;0.721076
9325.000000;0.721441
9324.000000;0.721714
9323.000000;0.721813
9322.000000;0.721655
9321.000000;0.721277
9320.000000;0.720867
9319.000000;0.720579
9318.000000;0.720395
9317.000000;0.720198
9316.000000;0.719918
9315.000000;0.719558
9314.000000;0.719180
9313.000000;0.718913
9312.000000;0.718885
9311.000000;0.719051
9310.000000;0.719160
9309.000000;0.718993
9308.000000;0.718624
9307.000000;0.718374
9306.000000;0.718517
9305.000000;0.719045
9304.000000;0.719674
9303.000000;0.720029
9302.000000;0.719882
9301.000000;0.719323
9300.000000;0.718692
9299.000000;0.718294
9298.000000;0.718184
9297.000000;0.718219
9296.000000;0.718244
9295.000000;0.718202
9294.000000;0.718127
9293.000000;0.718109
9292.000000;0.718221
9291.000000;0.718420
9290.000000;0.718546
9289.000000;0.718455
9288.000000;0.718168
9287.000000;0.717869
9286.000000;0.717773
9285.000000;0.717978
9284.000000;0.718402
9283.000000;0.718809
9282.000000;0.718934
9281.000000;0.718620
9280.000000;0.717897
9279.000000;0.716971
9278.000000;0.716178
9277.000000;0.715840
9276.000000;0.716052
9275.000000;0.716570
9274.000000;0.717003
9273.000000;0.717114
9272.000000;0.716902
9271.000000;0.716462
9270.000000;0.715911
9269.000000;0.715449
9268.000000;0.715289
9267.000000;0.715455
9266.000000;0.715752
9265.000000;0.715994
9264.000000;0.716146
9263.000000;0.716195
9262.000000;0.716065
9261.000000;0.715759
9260.000000;0.715444
9259.000000;0.715236
9258.000000;0.715014
9257.000000;0.714614
9256.000000;0.714129
9255.000000;0.713830
9254.000000;0.713812
9253.000000;0.713883
9252.000000;0.713829
9251.000000;0.713652
9250.000000;0.713497
9249.000000;0.713429
9248.000000;0.713379
9247.000000;0.713284
9246.000000;0.713208
9245.000000;0.713277
9244.000000;0.713484
9243.000000;0.713613
9242.000000;0.713465
9241.000000;0.713130
9240.000000;0.712921
9239.000000;0.713009
9238.000000;0.713209
9237.000000;0.713191
9236.000000;0.712826
9235.000000;0.712269
9234.000000;0.711806
9233.000000;0.711689
9232.000000;0.712007
9231.000000;0.712567
9230.000000;0.712964
9229.000000;0.712898
9228.000000;0.712438
9227.000000;0.711920
9226.000000;0.711658
9225.000000;0.711766
9224.000000;0.712135
9223.000000;0.712448
9222.000000;0.712336
9221.000000;0.711731
9220.000000;0.711023
9219.000000;0.710714
9218.000000;0.710909
9217.000000;0.711242
9216.000000;0.711303
9215.000000;0.711007
9214.000000;0.710566
9213.000000;0.710267
9212.000000;0.710304
9211.000000;0.710661
9210.000000;0.711044
9209.000000;0.711054
9208.000000;0.710561
9207.000000;0.709863
9206.000000;0.709394
9205.000000;0.709328
9204.000000;0.709524
9203.000000;0.709756
9202.000000;0.709868
9201.000000;0.709743
9200.000000;0.709344
9199.000000;0.708873
9198.000000;0.708735
9197.000000;0.709174
9196.000000;0.709950
9195.000000;0.710481
9194.000000;0.710366
9193.000000;0.709711
9192.000000;0.708960
9191.000000;0.708483
9190.000000;0.708381
9189.000000;0.708548
9188.000000;0.708800
9187.000000;0.708972
9186.000000;0.708989
9185.000000;0.708890
9184.000000;0.708736
9183.000000;0.708539
9182.000000;0.708322
9181.000000;0.708178
9180.000000;0.708173
9179.000000;0.708221
9178.000000;0.708174
9177.000000;0.708036
9176.000000;0.707973
9175.000000;0.708085
9174.000000;0.708257
9173.000000;0.708284
9172.000000;0.708048
9171.000000;0.707536
9170.000000;0.706817
9169.000000;0.706101
9168.000000;0.705691
9167.000000;0.705745
9166.000000;0.706075
9165.000000;0.706274
9164.000000;0.706084
9163.000000;0.705613
9162.000000;0.705198
9161.000000;0.705082
9160.000000;0.705230
9159.000000;0.705425
9158.000000;0.705519
9157.000000;0.705559
9156.000000;0.705644
9155.000000;0.705749
9154.000000;0.705750
9153.000000;0.705607
9152.000000;0.705419
9151.000000;0.705304
9150.000000;0.705290
9149.000000;0.705311
9148.000000;0.705235
9147.000000;0.704926
9146.000000;0.704408
9145.000000;0.703962
9144.000000;0.703914
9143.000000;0.704260
9142.000000;0.704618
9141.000000;0.704623
9140.000000;0.704281
9139.000000;0.703863
9138.000000;0.703552
9137.000000;0.703301
9136.000000;0.702990
9135.000000;0.702641
9134.000000;0.702439
9133.000000;0.702572
9132.000000;0.703016
9131.000000;0.703490
9130.000000;0.703642
9129.000000;0.703335
9128.000000;0.702714
9127.000000;0.702052
9126.000000;0.701604
9125.000000;0.701540
9124.000000;0.701848
9123.000000;0.702262
9122.000000;0.702431
9121.000000;0.702257
9120.000000;0.701971
9119.000000;0.701849
9118.000000;0.701968
9117.000000;0.702273
9116.000000;0.702700
9115.000000;0.703115
9114.000000;0.703261
9113.000000;0.702943
9112.000000;0.702233
9111.000000;0.701427
9110.000000;0.700850
9109.000000;0.700713
9108.000000;0.701043
9107.000000;0.701638
9106.000000;0.702159
9105.000000;0.702362
9104.000000;0.702215
9103.000000;0.701788
9102.000000;0.701164
9101.000000;0.700532
9100.000000;0.700190
9099.000000;0.700313
9098.000000;0.700777
9097.000000;0.701303
9096.000000;0.701697
9095.000000;0.701828
9094.000000;0.701540
9093.000000;0.700770
9092.000000;0.699757
9091.000000;0.698955
9090.000000;0.698714
9089.000000;0.699086
9088.000000;0.699835
9087.000000;0.700551
9086.000000;0.700833
9085.000000;0.700536
9084.000000;0.699883
9083.000000;0.699251
9082.000000;0.698868
9081.000000;0.698742
9080.000000;0.698790
9079.000000;0.698911
9078.000000;0.698984
9077.000000;0.698944
9076.000000;0.698846
9075.000000;0.698753
9074.000000;0.698590
9073.000000;0.698223
9072.000000;0.697677
9071.000000;0.697188
9070.000000;0.697023
9069.000000;0.697317
9068.000000;0.698013
9067.000000;0.698813
9066.000000;0.699250
9065.000000;0.699001
9064.000000;0.698219
9063.000000;0.697448
9062.000000;0.697148
9061.000000;0.697358
9060.000000;0.697774
9059.000000;0.698054
9058.000000;0.698004
9057.000000;0.697620
9056.000000;0.697076
9055.000000;0.696646
9054.000000;0.696511
9053.000000;0.696607
