Criado como novo conjunto de dados;"2706_e01_daniel.spp","48604.3 Secs"
cm-1;Abs
10000.000000;0.921622
9999.000000;0.921938
9998.000000;0.921291
9997.000000;0.919661
9996.000000;0.917798
9995.000000;0.916686
9994.000000;0.917070
9993.000000;0.918456
9992.000000;0.919487
9991.000000;0.919165
9990.000000;0.917635
9989.000000;0.915628
9988.000000;0.913905
9987.000000;0.913255
9986.000000;0.914118
9985.000000;0.915837
9984.000000;0.916951
9983.000000;0.916686
9982.000000;0.915660
9981.000000;0.914907
9980.000000;0.914879
9979.000000;0.915545
9978.000000;0.916653
9977.000000;0.917577
9976.000000;0.917627
9975.000000;0.916901
9974.000000;0.916214
9973.000000;0.915927
9972.000000;0.915572
9971.000000;0.914926
9970.000000;0.914630
9969.000000;0.915212
9968.000000;0.916157
9967.000000;0.916553
9966.000000;0.916220
9965.000000;0.915661
9964.000000;0.915260
9963.000000;0.915037
9962.000000;0.914930
9961.000000;0.914936
9960.000000;0.915121
9959.000000;0.915604
9958.000000;0.916302
9957.000000;0.916683
9956.000000;0.916242
9955.000000;0.915279
9954.000000;0.914677
9953.000000;0.914827
9952.000000;0.915269
9951.000000;0.915456
9950.000000;0.915289
9949.000000;0.914828
9948.000000;0.914071
9947.000000;0.913205
9946.000000;0.912504
9945.000000;0.911849
9944.000000;0.910936
9943.000000;0.910089
9942.000000;0.910187
9941.000000;0.911526
9940.000000;0.913271
9939.000000;0.914301
9938.000000;0.914176
9937.000000;0.913121
9936.000000;0.911652
9935.000000;0.910461
9934.000000;0.910113
9933.000000;0.910509
9932.000000;0.911017
9931.000000;0.911289
9930.000000;0.911511
9929.000000;0.911807
9928.000000;0.911950
9927.000000;0.911819
9926.000000;0.911576
9925.000000;0.911213
9924.000000;0.910476
9923.000000;0.909450
9922.000000;0.908709
9921.000000;0.908646
9920.000000;0.909061
9919.000000;0.909556
9918.000000;0.909910
9917.000000;0.909984
9916.000000;0.909722
9915.000000;0.909378
9914.000000;0.909358
9913.000000;0.909749
9912.000000;0.910378
9911.000000;0.911157
9910.000000;0.911897
9909.000000;0.911957
9908.000000;0.910830
9907.000000;0.909028
9906.000000;0.907661
9905.000000;0.907191
9904.000000;0.907258
9903.000000;0.907613
9902.000000;0.908351
9901.000000;0.909192
9900.000000;0.909458
9899.000000;0.909024
9898.000000;0.908512
9897.000000;0.908314
9896.000000;0.908181
9895.000000;0.907960
9894.000000;0.907899
9893.000000;0.907905
9892.000000;0.907303
9891.000000;0.905787
9890.000000;0.904047
9889.000000;0.903050
9888.000000;0.903163
9887.000000;0.904162
9886.000000;0.905537
9885.000000;0.906611
9884.000000;0.906927
9883.000000;0.906717
9882.000000;0.906532
9881.000000;0.906394
9880.000000;0.905938
9879.000000;0.905343
9878.000000;0.905273
9877.000000;0.905747
9876.000000;0.905904
9875.000000;0.905191
9874.000000;0.904028
9873.000000;0.903001
9872.000000;0.902174
9871.000000;0.901513
9870.000000;0.901269
9869.000000;0.901567
9868.000000;0.902188
9867.000000;0.903035
9866.000000;0.904210
9865.000000;0.905410
9864.000000;0.905928
9863.000000;0.905547
9862.000000;0.904806
9861.000000;0.904105
9860.000000;0.903289
9859.000000;0.902381
9858.000000;0.901905
9857.000000;0.902073
9856.000000;0.902356
9855.000000;0.902316
9854.000000;0.902231
9853.000000;0.902408
9852.000000;0.902477
9851.000000;0.901932
9850.000000;0.900955
9849.000000;0.900197
9848.000000;0.900078
9847.000000;0.900606
9846.000000;0.901465
9845.000000;0.902008
9844.000000;0.901667
9843.000000;0.900660
9842.000000;0.899853
9841.000000;0.899691
9840.000000;0.899730
9839.000000;0.899414
9838.000000;0.898761
9837.000000;0.898035
9836.000000;0.897333
9835.000000;0.896823
9834.000000;0.896864
9833.000000;0.897516
9832.000000;0.898348
9831.000000;0.899013
9830.000000;0.899602
9829.000000;0.900218
9828.000000;0.900657
9827.000000;0.900765
9826.000000;0.900639
9825.000000;0.900278
9824.000000;0.899537
9823.000000;0.898615
9822.000000;0.898071
9821.000000;0.898137
9820.000000;0.898491
9819.000000;0.898872
9818.000000;0.899365
9817.000000;0.899906
9816.000000;0.900091
9815.000000;0.899753
9814.000000;0.899210
9813.000000;0.898684
9812.000000;0.898024
9811.000000;0.897261
9810.000000;0.896810
9809.000000;0.896820
9808.000000;0.896864
9807.000000;0.896625
9806.000000;0.896385
9805.000000;0.896539
9804.000000;0.897095
9803.000000;0.897903
9802.000000;0.898857
9801.000000;0.899576
9800.000000;0.899441
9799.000000;0.898310
9798.000000;0.896781
9797.000000;0.895517
9796.000000;0.894760
9795.000000;0.894597
9794.000000;0.895083
9793.000000;0.895862
9792.000000;0.896286
9791.000000;0.896210
9790.000000;0.896164
9789.000000;0.896456
9788.000000;0.896734
9787.000000;0.896709
9786.000000;0.896687
9785.000000;0.896941
9784.000000;0.897113
9783.000000;0.896662
9782.000000;0.895528
9781.000000;0.894017
9780.000000;0.892472
9779.000000;0.891317
9778.000000;0.890983
9777.000000;0.891447
9776.000000;0.892182
9775.000000;0.892793
9774.000000;0.893310
9773.000000;0.893742
9772.000000;0.893919
9771.000000;0.893976
9770.000000;0.894370
9769.000000;0.895083
9768.000000;0.895411
9767.000000;0.894910
9766.000000;0.894053
9765.000000;0.893571
9764.000000;0.893605
9763.000000;0.893857
9762.000000;0.894083
9761.000000;0.894067
9760.000000;0.893559
9759.000000;0.892624
9758.000000;0.891745
9757.000000;0.891314
9756.000000;0.891341
9755.000000;0.891800
9754.000000;0.892728
9753.000000;0.893759
9752.000000;0.894136
9751.000000;0.893558
9750.000000;0.892567
9749.000000;0.891835
9748.000000;0.891506
9747.000000;0.891482
9746.000000;0.891801
9745.000000;0.892389
9744.000000;0.892893
9743.000000;0.893093
9742.000000;0.893092
9741.000000;0.892872
9740.000000;0.892147
9739.000000;0.890947
9738.000000;0.889835
9737.000000;0.889230
9736.000000;0.888980
9735.000000;0.888863
9734.000000;0.889002
9733.000000;0.889438
9732.000000;0.889813
9731.000000;0.889871
9730.000000;0.889853
9729.000000;0.890001
9728.000000;0.890116
9727.000000;0.889957
9726.000000;0.889660
9725.000000;0.889384
9724.000000;0.888987
9723.000000;0.888428
9722.000000;0.888098
9721.000000;0.888339
9720.000000;0.888936
9719.000000;0.889421
9718.000000;0.889564
9717.000000;0.889317
9716.000000;0.888657
9715.000000;0.887765
9714.000000;0.887028
9713.000000;0.886601
9712.000000;0.886336
9711.000000;0.886307
9710.000000;0.886889
9709.000000;0.888038
9708.000000;0.889012
9707.000000;0.889222
9706.000000;0.888943
9705.000000;0.888765
9704.000000;0.888772
9703.000000;0.888653
9702.000000;0.888235
9701.000000;0.887510
9700.000000;0.886499
9699.000000;0.885489
9698.000000;0.885059
9697.000000;0.885476
9696.000000;0.886330
9695.000000;0.887051
9694.000000;0.887500
9693.000000;0.887761
9692.000000;0.887719
9691.000000;0.887270
9690.000000;0.886634
9689.000000;0.886094
9688.000000;0.885660
9687.000000;0.885277
9686.000000;0.885113
9685.000000;0.885357
9684.000000;0.885950
9683.000000;0.886710
9682.000000;0.887420
9681.000000;0.887674
9680.000000;0.887083
9679.000000;0.885911
9678.000000;0.885042
9677.000000;0.884966
9676.000000;0.885145
9675.000000;0.884728
9674.000000;0.883579
9673.000000;0.882242
9672.000000;0.881231
9671.000000;0.880762
9670.000000;0.880930
9669.000000;0.881680
9668.000000;0.882702
9667.000000;0.883621
9666.000000;0.884221
9665.000000;0.884355
9664.000000;0.883931
9663.000000;0.883191
9662.000000;0.882693
9661.000000;0.882755
9660.000000;0.883106
9659.000000;0.883284
9658.000000;0.883136
9657.000000;0.882753
9656.000000;0.882235
9655.000000;0.881709
9654.000000;0.881302
9653.000000;0.880920
9652.000000;0.880348
9651.000000;0.879740
9650.000000;0.879626
9649.000000;0.880212
9648.000000;0.880993
9647.000000;0.881306
9646.000000;0.880975
9645.000000;0.880217
9644.000000;0.879323
9643.000000;0.878717
9642.000000;0.878911
9641.000000;0.879929
9640.000000;0.880991
9639.000000;0.881179
9638.000000;0.880341
9637.000000;0.879116
9636.000000;0.878264
9635.000000;0.878205
9634.000000;0.878935
9633.000000;0.880045
9632.000000;0.880903
9631.000000;0.881078
9630.000000;0.880585
9629.000000;0.879713
9628.000000;0.878832
9627.000000;0.878375
9626.000000;0.878643
9625.000000;0.879448
9624.000000;0.880215
9623.000000;0.880561
9622.000000;0.880544
9621.000000;0.880296
9620.000000;0.879810
9619.000000;0.879185
9618.000000;0.878675
9617.000000;0.878317
9616.000000;0.877888
9615.000000;0.877383
9614.000000;0.877141
9613.000000;0.877283
9612.000000;0.877446
9611.000000;0.877351
9610.000000;0.877234
9609.000000;0.877390
9608.000000;0.877646
9607.000000;0.877670
9606.000000;0.877533
9605.000000;0.877555
9604.000000;0.877743
9603.000000;0.877736
9602.000000;0.877283
9601.000000;0.876508
9600.000000;0.875784
9599.000000;0.875479
9598.000000;0.875705
9597.000000;0.876201
9596.000000;0.876569
9595.000000;0.876649
9594.000000;0.876533
9593.000000;0.876254
9592.000000;0.875785
9591.000000;0.875335
9590.000000;0.875284
9589.000000;0.875678
9588.000000;0.876120
9587.000000;0.876266
9586.000000;0.876131
9585.000000;0.875812
9584.000000;0.875308
9583.000000;0.874771
9582.000000;0.874544
9581.000000;0.874737
9580.000000;0.875035
9579.000000;0.875100
9578.000000;0.874850
9577.000000;0.874260
9576.000000;0.873336
9575.000000;0.872501
9574.000000;0.872517
9573.000000;0.873644
9572.000000;0.875133
9571.000000;0.875908
9570.000000;0.875561
9569.000000;0.874452
9568.000000;0.873167
9567.000000;0.872238
9566.000000;0.872093
9565.000000;0.872764
9564.000000;0.873697
9563.000000;0.874147
9562.000000;0.873777
9561.000000;0.872796
9560.000000;0.871687
9559.000000;0.871003
9558.000000;0.871185
9557.000000;0.872280
9556.000000;0.873846
9555.000000;0.875235
9554.000000;0.875939
9553.000000;0.875717
9552.000000;0.874667
9551.000000;0.873291
9550.000000;0.872210
9549.000000;0.871677
9548.000000;0.871507
9547.000000;0.871507
9546.000000;0.871665
9545.000000;0.871838
9544.000000;0.871638
9543.000000;0.870901
9542.000000;0.870046
9541.000000;0.869694
9540.000000;0.870053
9539.000000;0.870800
9538.000000;0.871382
9537.000000;0.871329
9536.000000;0.870517
9535.000000;0.869309
9534.000000;0.868301
9533.000000;0.867821
9532.000000;0.867784
9531.000000;0.868014
9530.000000;0.868448
9529.000000;0.868973
9528.000000;0.869356
9527.000000;0.869482
9526.000000;0.869421
9525.000000;0.869163
9524.000000;0.868565
9523.000000;0.867711
9522.000000;0.867013
9521.000000;0.866769
9520.000000;0.866823
9519.000000;0.866845
9518.000000;0.866755
9517.000000;0.866712
9516.000000;0.866846
9515.000000;0.867159
9514.000000;0.867541
9513.000000;0.867785
9512.000000;0.867738
9511.000000;0.867548
9510.000000;0.867583
9509.000000;0.868023
9508.000000;0.868648
9507.000000;0.869092
9506.000000;0.869138
9505.000000;0.868756
9504.000000;0.868082
9503.000000;0.867454
9502.000000;0.867232
9501.000000;0.867492
9500.000000;0.867989
9499.000000;0.868427
9498.000000;0.868560
9497.000000;0.868122
9496.000000;0.867024
9495.000000;0.865703
9494.000000;0.864938
9493.000000;0.865103
9492.000000;0.865805
9491.000000;0.866361
9490.000000;0.866456
9489.000000;0.866264
9488.000000;0.866150
9487.000000;0.866391
9486.000000;0.867016
9485.000000;0.867724
9484.000000;0.868049
9483.000000;0.867710
9482.000000;0.866782
9481.000000;0.865576
9480.000000;0.864489
9479.000000;0.863851
9478.000000;0.863652
9477.000000;0.863499
9476.000000;0.863111
9475.000000;0.862800
9474.000000;0.863129
9473.000000;0.864094
9472.000000;0.865002
9471.000000;0.865254
9470.000000;0.864904
9469.000000;0.864348
9468.000000;0.863797
9467.000000;0.863266
9466.000000;0.862813
9465.000000;0.862559
9464.000000;0.862565
9463.000000;0.862784
9462.000000;0.863036
9461.000000;0.863041
9460.000000;0.862672
9459.000000;0.862159
9458.000000;0.861852
9457.000000;0.861791
9456.000000;0.861736
9455.000000;0.861608
9454.000000;0.861593
9453.000000;0.861789
9452.000000;0.862008
9451.000000;0.862011
9450.000000;0.861746
9449.000000;0.861323
9448.000000;0.860969
9447.000000;0.860984
9446.000000;0.861482
9445.000000;0.862136
9444.000000;0.862425
9443.000000;0.862187
9442.000000;0.861742
9441.000000;0.861481
9440.000000;0.861544
9439.000000;0.861841
9438.000000;0.862123
9437.000000;0.862030
9436.000000;0.861371
9435.000000;0.860415
9434.000000;0.859682
9433.000000;0.859437
9432.000000;0.859538
9431.000000;0.859704
9430.000000;0.859692
9429.000000;0.859359
9428.000000;0.858868
9427.000000;0.858747
9426.000000;0.859367
9425.000000;0.860371
9424.000000;0.860977
9423.000000;0.860855
9422.000000;0.860390
9421.000000;0.860065
9420.000000;0.859974
9419.000000;0.859993
9418.000000;0.860038
9417.000000;0.859990
9416.000000;0.859661
9415.000000;0.858972
9414.000000;0.858046
9413.000000;0.857112
9412.000000;0.856517
9411.000000;0.856672
9410.000000;0.857648
9409.000000;0.858825
9408.000000;0.859318
9407.000000;0.858848
9406.000000;0.857915
9405.000000;0.857143
9404.000000;0.856781
9403.000000;0.856830
9402.000000;0.857216
9401.000000;0.857693
9400.000000;0.857887
9399.000000;0.857584
9398.000000;0.856835
9397.000000;0.855810
9396.000000;0.854791
9395.000000;0.854231
9394.000000;0.854439
9393.000000;0.855156
9392.000000;0.855719
9391.000000;0.855723
9390.000000;0.855291
9389.000000;0.854779
9388.000000;0.854513
9387.000000;0.854766
9386.000000;0.855563
9385.000000;0.856448
9384.000000;0.856784
9383.000000;0.856384
9382.000000;0.855595
9381.000000;0.854802
9380.000000;0.854183
9379.000000;0.853909
9378.000000;0.854125
9377.000000;0.854642
9376.000000;0.854998
9375.000000;0.854951
9374.000000;0.854673
9373.000000;0.854444
9372.000000;0.854423
9371.000000;0.854694
9370.000000;0.855166
9369.000000;0.855455
9368.000000;0.855217
9367.000000;0.854620
9366.000000;0.854163
9365.000000;0.854050
9364.000000;0.854091
9363.000000;0.854161
9362.000000;0.854339
9361.000000;0.854573
9360.000000;0.854650
9359.000000;0.854576
9358.000000;0.854584
9357.000000;0.854705
9356.000000;0.854685
9355.000000;0.854393
9354.000000;0.853970
9353.000000;0.853542
9352.000000;0.853128
9351.000000;0.852844
9350.000000;0.852792
9349.000000;0.852757
9348.000000;0.852444
9347.000000;0.852002
9346.000000;0.851843
9345.000000;0.851936
9344.000000;0.851817
9343.000000;0.851401
9342.000000;0.851201
9341.000000;0.851530
9340.000000;0.852012
9339.000000;0.852160
9338.000000;0.852006
9337.000000;0.851863
9336.000000;0.851846
9335.000000;0.851942
9334.000000;0.852210
9333.000000;0.852603
9332.000000;0.852804
9331.000000;0.852524
9330.000000;0.851820
9329.000000;0.850964
9328.000000;0.850173
9327.000000;0.849581
9326.000000;0.849227
9325.000000;0.848981
9324.000000;0.848691
9323.000000;0.848444
9322.000000;0.848465
9321.000000;0.848755
9320.000000;0.849154
9319.000000;0.849706
9318.000000;0.850540
9317.000000;0.851342
9316.000000;0.851472
9315.000000;0.850771
9314.000000;0.849830
9313.000000;0.849269
9312.000000;0.849144
9311.000000;0.849260
9310.000000;0.849563
9309.000000;0.849943
9308.000000;0.850063
9307.000000;0.849778
9306.000000;0.849442
9305.000000;0.849420
9304.000000;0.849530
9303.000000;0.849317
9302.000000;0.848722
9301.000000;0.848111
9300.000000;0.847759
9299.000000;0.847584
9298.000000;0.847411
9297.000000;0.847238
9296.000000;0.847225
9295.000000;0.847473
9294.000000;0.847851
9293.000000;0.848071
9292.000000;0.848003
9291.000000;0.847832
9290.000000;0.847760
9289.000000;0.847671
9288.000000;0.847366
9287.000000;0.847014
9286.000000;0.847008
9285.000000;0.847354
9284.000000;0.847560
9283.000000;0.847224
9282.000000;0.846425
9281.000000;0.845503
9280.000000;0.844780
9279.000000;0.844574
9278.000000;0.845069
9277.000000;0.845963
9276.000000;0.846567
9275.000000;0.846454
9274.000000;0.845842
9273.000000;0.845195
9272.000000;0.844740
9271.000000;0.844478
9270.000000;0.844352
9269.000000;0.844211
9268.000000;0.843859
9267.000000;0.843368
9266.000000;0.843143
9265.000000;0.843504
9264.000000;0.844345
9263.000000;0.845292
9262.000000;0.846032
9261.000000;0.846393
9260.000000;0.846324
9259.000000;0.845940
9258.000000;0.845442
9257.000000;0.844868
9256.000000;0.844100
9255.000000;0.843177
9254.000000;0.842408
9253.000000;0.842080
9252.000000;0.842207
9251.000000;0.842578
9250.000000;0.842893
9249.000000;0.842848
9248.000000;0.842345
9247.000000;0.841646
9246.000000;0.841143
9245.000000;0.840973
9244.000000;0.841042
9243.000000;0.841343
9242.000000;0.841916
9241.000000;0.842558
9240.000000;0.842940
9239.000000;0.843057
9238.000000;0.843196
9237.000000;0.843381
9236.000000;0.843238
9235.000000;0.842540
9234.000000;0.841561
9233.000000;0.840746
9232.000000;0.840344
9231.000000;0.840445
9230.000000;0.841015
9229.000000;0.841701
9228.000000;0.841932
9227.000000;0.841484
9226.000000;0.840737
9225.000000;0.840222
9224.000000;0.840119
9223.000000;0.840325
9222.000000;0.840733
9221.000000;0.841220
9220.000000;0.841547
9219.000000;0.841478
9218.000000;0.840942
9217.000000;0.840030
9216.000000;0.839016
9215.000000;0.838375
9214.000000;0.838483
9213.000000;0.839181
9212.000000;0.839848
9211.000000;0.840030
9210.000000;0.839824
9209.000000;0.839573
9208.000000;0.839453
9207.000000;0.839455
9206.000000;0.839510
9205.000000;0.839487
9204.000000;0.839283
9203.000000;0.839020
9202.000000;0.838957
9201.000000;0.839096
9200.000000;0.839107
9199.000000;0.838741
9198.000000;0.838120
9197.000000;0.837503
9196.000000;0.837026
9195.000000;0.836775
9194.000000;0.836865
9193.000000;0.837251
9192.000000;0.837629
9191.000000;0.837697
9190.000000;0.837464
9189.000000;0.837227
9188.000000;0.837300
9187.000000;0.837767
9186.000000;0.838347
9185.000000;0.838553
9184.000000;0.838168
9183.000000;0.837543
9182.000000;0.837175
9181.000000;0.837063
9180.000000;0.836803
9179.000000;0.836284
9178.000000;0.835931
9177.000000;0.836126
9176.000000;0.836738
9175.000000;0.837318
9174.000000;0.837499
9173.000000;0.837094
9172.000000;0.836174
9171.000000;0.835215
9170.000000;0.834875
9169.000000;0.835381
9168.000000;0.836278
9167.000000;0.836922
9166.000000;0.837028
9165.000000;0.836637
9164.000000;0.835859
9163.000000;0.834894
9162.000000;0.834108
9161.000000;0.833812
9160.000000;0.833990
9159.000000;0.834359
9158.000000;0.834625
9157.000000;0.834654
9156.000000;0.834533
9155.000000;0.834522
9154.000000;0.834781
9153.000000;0.835093
9152.000000;0.835028
9151.000000;0.834449
9150.000000;0.833674
9149.000000;0.833089
9148.000000;0.832808
9147.000000;0.832735
9146.000000;0.832744
9145.000000;0.832695
9144.000000;0.832495
9143.000000;0.832240
9142.000000;0.832124
9141.000000;0.832117
9140.000000;0.831943
9139.000000;0.831472
9138.000000;0.830948
9137.000000;0.830715
9136.000000;0.830879
9135.000000;0.831310
9134.000000;0.831790
9133.000000;0.832080
9132.000000;0.832042
9131.000000;0.831818
9130.000000;0.831721
9129.000000;0.831865
9128.000000;0.832052
9127.000000;0.832095
9126.000000;0.832069
9125.000000;0.832104
9124.000000;0.832105
9123.000000;0.831866
9122.000000;0.831394
9121.000000;0.830981
9120.000000;0.830933
9119.000000;0.831268
9118.000000;0.831660
9117.000000;0.831708
9116.000000;0.831317
9115.000000;0.830749
9114.000000;0.830288
9113.000000;0.829974
9112.000000;0.829764
9111.000000;0.829744
9110.000000;0.829968
9109.000000;0.830220
9108.000000;0.830202
9107.000000;0.829867
9106.000000;0.829348
9105.000000;0.828684
9104.000000;0.827917
9103.000000;0.827381
9102.000000;0.827481
9101.000000;0.828150
9100.000000;0.828827
9099.000000;0.829047
9098.000000;0.828829
9097.000000;0.828471
9096.000000;0.828218
9095.000000;0.828169
9094.000000;0.828258
9093.000000;0.828266
9092.000000;0.828037
9091.000000;0.827704
9090.000000;0.827510
9089.000000;0.827467
9088.000000;0.827412
9087.000000;0.827351
9086.000000;0.827445
9085.000000;0.827703
9084.000000;0.827958
9083.000000;0.828130
9082.000000;0.828197
9081.000000;0.827977
9080.000000;0.827305
9079.000000;0.826450
9078.000000;0.825962
9077.000000;0.826034
9076.000000;0.826316
9075.000000;0.826444
9074.000000;0.826405
9073.000000;0.826294
9072.000000;0.826071
9071.000000;0.825716
9070.000000;0.825351
9069.000000;0.825050
9068.000000;0.824764
9067.000000;0.824553
9066.000000;0.824633
9065.000000;0.825083
9064.000000;0.825691
9063.000000;0.826191
9062.000000;0.826448
9061.000000;0.826401
9060.000000;0.826069
9059.000000;0.825669
9058.000000;0.825435
9057.000000;0.825292
9056.000000;0.824985
9055.000000;0.824557
9054.000000;0.824348
9053.000000;0.824424
