Criado como novo conjunto de dados;"2706_e01_daniel.spp","18902.7 Secs"
cm-1;Abs
10000.000000;0.666617
9999.000000;0.665512
9998.000000;0.664437
9997.000000;0.663305
9996.000000;0.662526
9995.000000;0.662351
9994.000000;0.662262
9993.000000;0.662181
9992.000000;0.662491
9991.000000;0.662984
9990.000000;0.662771
9989.000000;0.661474
9988.000000;0.659926
9987.000000;0.659462
9986.000000;0.660715
9985.000000;0.662921
9984.000000;0.664382
9983.000000;0.664088
9982.000000;0.662884
9981.000000;0.662406
9980.000000;0.663023
9979.000000;0.663702
9978.000000;0.663797
9977.000000;0.663752
9976.000000;0.663799
9975.000000;0.663404
9974.000000;0.662571
9973.000000;0.662298
9972.000000;0.662932
9971.000000;0.663305
9970.000000;0.662472
9969.000000;0.661166
9968.000000;0.660483
9967.000000;0.660257
9966.000000;0.659936
9965.000000;0.659976
9964.000000;0.660952
9963.000000;0.662064
9962.000000;0.662087
9961.000000;0.661361
9960.000000;0.661302
9959.000000;0.662162
9958.000000;0.662695
9957.000000;0.662110
9956.000000;0.661137
9955.000000;0.660855
9954.000000;0.661397
9953.000000;0.662193
9952.000000;0.662813
9951.000000;0.663176
9950.000000;0.663249
9949.000000;0.662915
9948.000000;0.662119
9947.000000;0.661113
9946.000000;0.660419
9945.000000;0.660283
9944.000000;0.660252
9943.000000;0.659762
9942.000000;0.659061
9941.000000;0.658950
9940.000000;0.659612
9939.000000;0.660380
9938.000000;0.660736
9937.000000;0.660770
9936.000000;0.660564
9935.000000;0.659994
9934.000000;0.659348
9933.000000;0.659220
9932.000000;0.659487
9931.000000;0.659262
9930.000000;0.658252
9929.000000;0.657295
9928.000000;0.657152
9927.000000;0.657670
9926.000000;0.658431
9925.000000;0.659260
9924.000000;0.659718
9923.000000;0.659134
9922.000000;0.657751
9921.000000;0.656866
9920.000000;0.657188
9919.000000;0.657907
9918.000000;0.657955
9917.000000;0.657319
9916.000000;0.656494
9915.000000;0.655551
9914.000000;0.654593
9913.000000;0.654324
9912.000000;0.655234
9911.000000;0.656665
9910.000000;0.657458
9909.000000;0.657237
9908.000000;0.656559
9907.000000;0.656106
9906.000000;0.656132
9905.000000;0.656318
9904.000000;0.656000
9903.000000;0.654964
9902.000000;0.653975
9901.000000;0.653834
9900.000000;0.654100
9899.000000;0.653704
9898.000000;0.652740
9897.000000;0.652338
9896.000000;0.652709
9895.000000;0.652824
9894.000000;0.652387
9893.000000;0.652505
9892.000000;0.653746
9891.000000;0.655025
9890.000000;0.655307
9889.000000;0.655070
9888.000000;0.654992
9887.000000;0.654578
9886.000000;0.653387
9885.000000;0.652485
9884.000000;0.653157
9883.000000;0.654886
9882.000000;0.655957
9881.000000;0.655700
9880.000000;0.654861
9879.000000;0.654121
9878.000000;0.653477
9877.000000;0.652964
9876.000000;0.652935
9875.000000;0.653510
9874.000000;0.654319
9873.000000;0.654854
9872.000000;0.654832
9871.000000;0.654403
9870.000000;0.654172
9869.000000;0.654578
9868.000000;0.655175
9867.000000;0.655111
9866.000000;0.654363
9865.000000;0.653671
9864.000000;0.653231
9863.000000;0.652535
9862.000000;0.651710
9861.000000;0.651762
9860.000000;0.652984
9859.000000;0.654306
9858.000000;0.654831
9857.000000;0.654907
9856.000000;0.654955
9855.000000;0.654502
9854.000000;0.653258
9853.000000;0.652050
9852.000000;0.651662
9851.000000;0.651705
9850.000000;0.651497
9849.000000;0.651185
9848.000000;0.651078
9847.000000;0.650863
9846.000000;0.650412
9845.000000;0.650417
9844.000000;0.651194
9843.000000;0.651762
9842.000000;0.651195
9841.000000;0.650098
9840.000000;0.649583
9839.000000;0.649572
9838.000000;0.649308
9837.000000;0.648823
9836.000000;0.648697
9835.000000;0.648943
9834.000000;0.649316
9833.000000;0.650099
9832.000000;0.651383
9831.000000;0.652102
9830.000000;0.651173
9829.000000;0.649264
9828.000000;0.648105
9827.000000;0.648298
9826.000000;0.649014
9825.000000;0.649563
9824.000000;0.649984
9823.000000;0.650104
9822.000000;0.649322
9821.000000;0.647692
9820.000000;0.646255
9819.000000;0.645932
9818.000000;0.646684
9817.000000;0.647815
9816.000000;0.648564
9815.000000;0.648403
9814.000000;0.647389
9813.000000;0.646350
9812.000000;0.646236
9811.000000;0.647221
9810.000000;0.648640
9809.000000;0.649659
9808.000000;0.649768
9807.000000;0.648891
9806.000000;0.647468
9805.000000;0.646349
9804.000000;0.646201
9803.000000;0.646981
9802.000000;0.648074
9801.000000;0.648789
9800.000000;0.648734
9799.000000;0.648096
9798.000000;0.647580
9797.000000;0.647726
9796.000000;0.648205
9795.000000;0.648291
9794.000000;0.648012
9793.000000;0.648132
9792.000000;0.648879
9791.000000;0.649492
9790.000000;0.649280
9789.000000;0.648357
9788.000000;0.647097
9787.000000;0.645750
9786.000000;0.644921
9785.000000;0.645388
9784.000000;0.646904
9783.000000;0.648027
9782.000000;0.647807
9781.000000;0.646902
9780.000000;0.646388
9779.000000;0.646389
9778.000000;0.646576
9777.000000;0.647041
9776.000000;0.647776
9775.000000;0.648038
9774.000000;0.647239
9773.000000;0.646021
9772.000000;0.645490
9771.000000;0.645846
9770.000000;0.646470
9769.000000;0.646896
9768.000000;0.646978
9767.000000;0.646538
9766.000000;0.645641
9765.000000;0.644922
9764.000000;0.644918
9763.000000;0.645301
9762.000000;0.645376
9761.000000;0.645061
9760.000000;0.644831
9759.000000;0.644936
9758.000000;0.645198
9757.000000;0.645333
9756.000000;0.645091
9755.000000;0.644414
9754.000000;0.643750
9753.000000;0.643769
9752.000000;0.644457
9751.000000;0.645009
9750.000000;0.644892
9749.000000;0.644423
9748.000000;0.643956
9747.000000;0.643326
9746.000000;0.642609
9745.000000;0.642581
9744.000000;0.643703
9743.000000;0.645266
9742.000000;0.646213
9741.000000;0.646258
9740.000000;0.645623
9739.000000;0.644459
9738.000000;0.643254
9737.000000;0.643025
9736.000000;0.644117
9735.000000;0.645345
9734.000000;0.645319
9733.000000;0.644206
9732.000000;0.643201
9731.000000;0.642759
9730.000000;0.642449
9729.000000;0.642140
9728.000000;0.642180
9727.000000;0.642454
9726.000000;0.642336
9725.000000;0.641711
9724.000000;0.641251
9723.000000;0.641470
9722.000000;0.642097
9721.000000;0.642538
9720.000000;0.642498
9719.000000;0.642060
9718.000000;0.641510
9717.000000;0.641156
9716.000000;0.641065
9715.000000;0.641006
9714.000000;0.640834
9713.000000;0.640724
9712.000000;0.640793
9711.000000;0.640734
9710.000000;0.640201
9709.000000;0.639364
9708.000000;0.638783
9707.000000;0.638848
9706.000000;0.639522
9705.000000;0.640433
9704.000000;0.641067
9703.000000;0.641118
9702.000000;0.640784
9701.000000;0.640481
9700.000000;0.640303
9699.000000;0.640111
9698.000000;0.640034
9697.000000;0.640282
9696.000000;0.640514
9695.000000;0.640130
9694.000000;0.639337
9693.000000;0.639072
9692.000000;0.639679
9691.000000;0.640486
9690.000000;0.640896
9689.000000;0.640942
9688.000000;0.640482
9687.000000;0.639033
9686.000000;0.637054
9685.000000;0.636204
9684.000000;0.637331
9683.000000;0.639079
9682.000000;0.639551
9681.000000;0.638783
9680.000000;0.638315
9679.000000;0.638774
9678.000000;0.639271
9677.000000;0.639042
9676.000000;0.638415
9675.000000;0.637942
9674.000000;0.637590
9673.000000;0.637132
9672.000000;0.636627
9671.000000;0.636184
9670.000000;0.635817
9669.000000;0.635751
9668.000000;0.636376
9667.000000;0.637589
9666.000000;0.638519
9665.000000;0.638261
9664.000000;0.636791
9663.000000;0.634955
9662.000000;0.633720
9661.000000;0.633577
9660.000000;0.634485
9659.000000;0.636073
9658.000000;0.637746
9657.000000;0.638749
9656.000000;0.638612
9655.000000;0.637729
9654.000000;0.637163
9653.000000;0.637511
9652.000000;0.638186
9651.000000;0.638217
9650.000000;0.637582
9649.000000;0.637109
9648.000000;0.637194
9647.000000;0.637363
9646.000000;0.637203
9645.000000;0.636980
9644.000000;0.637001
9643.000000;0.637022
9642.000000;0.636713
9641.000000;0.636305
9640.000000;0.636324
9639.000000;0.636912
9638.000000;0.637657
9637.000000;0.637911
9636.000000;0.637227
9635.000000;0.635810
9634.000000;0.634562
9633.000000;0.634349
9632.000000;0.635174
9631.000000;0.636251
9630.000000;0.636782
9629.000000;0.636385
9628.000000;0.635082
9627.000000;0.633495
9626.000000;0.632846
9625.000000;0.633930
9624.000000;0.636009
9623.000000;0.637370
9622.000000;0.637174
9621.000000;0.636156
9620.000000;0.635430
9619.000000;0.635411
9618.000000;0.635967
9617.000000;0.636742
9616.000000;0.637074
9615.000000;0.636331
9614.000000;0.634721
9613.000000;0.633238
9612.000000;0.632649
9611.000000;0.633006
9610.000000;0.634018
9609.000000;0.635159
9608.000000;0.635552
9607.000000;0.634712
9606.000000;0.633480
9605.000000;0.633230
9604.000000;0.634056
9603.000000;0.634720
9602.000000;0.634492
9601.000000;0.633926
9600.000000;0.633563
9599.000000;0.633172
9598.000000;0.632763
9597.000000;0.633067
9596.000000;0.634276
9595.000000;0.635333
9594.000000;0.635278
9593.000000;0.634511
9592.000000;0.633901
9591.000000;0.633528
9590.000000;0.633108
9589.000000;0.632863
9588.000000;0.633065
9587.000000;0.633385
9586.000000;0.633486
9585.000000;0.633683
9584.000000;0.634243
9583.000000;0.634657
9582.000000;0.634405
9581.000000;0.633867
9580.000000;0.633673
9579.000000;0.633697
9578.000000;0.633513
9577.000000;0.633315
9576.000000;0.633470
9575.000000;0.633632
9574.000000;0.633280
9573.000000;0.632819
9572.000000;0.633146
9571.000000;0.634223
9570.000000;0.634918
9569.000000;0.634286
9568.000000;0.632477
9567.000000;0.630390
9566.000000;0.628959
9565.000000;0.628771
9564.000000;0.629783
9563.000000;0.631271
9562.000000;0.632335
9561.000000;0.632506
9560.000000;0.631853
9559.000000;0.630860
9558.000000;0.630346
9557.000000;0.630937
9556.000000;0.632221
9555.000000;0.632855
9554.000000;0.632041
9553.000000;0.630536
9552.000000;0.629684
9551.000000;0.629867
9550.000000;0.630414
9549.000000;0.630655
9548.000000;0.630454
9547.000000;0.629909
9546.000000;0.629132
9545.000000;0.628378
9544.000000;0.627996
9543.000000;0.628158
9542.000000;0.628740
9541.000000;0.629365
9540.000000;0.629564
9539.000000;0.629165
9538.000000;0.628606
9537.000000;0.628539
9536.000000;0.629053
9535.000000;0.629620
9534.000000;0.629817
9533.000000;0.629614
9532.000000;0.628975
9531.000000;0.627868
9530.000000;0.626801
9529.000000;0.626635
9528.000000;0.627504
9527.000000;0.628566
9526.000000;0.629174
9525.000000;0.629636
9524.000000;0.630341
9523.000000;0.630868
9522.000000;0.630612
9521.000000;0.629757
9520.000000;0.628964
9519.000000;0.628517
9518.000000;0.628376
9517.000000;0.628647
9516.000000;0.629324
9515.000000;0.629842
9514.000000;0.629590
9513.000000;0.628760
9512.000000;0.628124
9511.000000;0.628102
9510.000000;0.628469
9509.000000;0.628854
9508.000000;0.629128
9507.000000;0.629323
9506.000000;0.629430
9505.000000;0.629336
9504.000000;0.628904
9503.000000;0.628238
9502.000000;0.627815
9501.000000;0.628026
9500.000000;0.628586
9499.000000;0.628822
9498.000000;0.628566
9497.000000;0.628245
9496.000000;0.628029
9495.000000;0.627581
9494.000000;0.626864
9493.000000;0.626482
9492.000000;0.626804
9491.000000;0.627318
9490.000000;0.627320
9489.000000;0.626835
9488.000000;0.626383
9487.000000;0.626235
9486.000000;0.626371
9485.000000;0.626804
9484.000000;0.627482
9483.000000;0.628081
9482.000000;0.628227
9481.000000;0.627785
9480.000000;0.626814
9479.000000;0.625582
9478.000000;0.624696
9477.000000;0.624715
9476.000000;0.625411
9475.000000;0.625930
9474.000000;0.625850
9473.000000;0.625575
9472.000000;0.625435
9471.000000;0.625141
9470.000000;0.624510
9469.000000;0.624060
9468.000000;0.624297
9467.000000;0.624880
9466.000000;0.625087
9465.000000;0.624768
9464.000000;0.624332
9463.000000;0.624109
9462.000000;0.624158
9461.000000;0.624413
9460.000000;0.624638
9459.000000;0.624509
9458.000000;0.624078
9457.000000;0.623793
9456.000000;0.623824
9455.000000;0.623819
9454.000000;0.623609
9453.000000;0.623615
9452.000000;0.624108
9451.000000;0.624609
9450.000000;0.624616
9449.000000;0.624442
9448.000000;0.624665
9447.000000;0.625050
9446.000000;0.624757
9445.000000;0.623534
9444.000000;0.622116
9443.000000;0.621429
9442.000000;0.621809
9441.000000;0.622886
9440.000000;0.623860
9439.000000;0.623969
9438.000000;0.623082
9437.000000;0.621836
9436.000000;0.621040
9435.000000;0.621019
9434.000000;0.621529
9433.000000;0.622076
9432.000000;0.622214
9431.000000;0.621832
9430.000000;0.621311
9429.000000;0.621138
9428.000000;0.621291
9427.000000;0.621323
9426.000000;0.621097
9425.000000;0.620980
9424.000000;0.621157
9423.000000;0.621286
9422.000000;0.621090
9421.000000;0.620777
9420.000000;0.620561
9419.000000;0.620264
9418.000000;0.619794
9417.000000;0.619557
9416.000000;0.619930
9415.000000;0.620641
9414.000000;0.621089
9413.000000;0.621037
9412.000000;0.620676
9411.000000;0.620308
9410.000000;0.620300
9409.000000;0.620905
9408.000000;0.621711
9407.000000;0.621659
9406.000000;0.620237
9405.000000;0.618411
9404.000000;0.617758
9403.000000;0.618804
9402.000000;0.620619
9401.000000;0.621885
9400.000000;0.621986
9399.000000;0.621117
9398.000000;0.619843
9397.000000;0.618781
9396.000000;0.618426
9395.000000;0.618930
9394.000000;0.619931
9393.000000;0.620695
9392.000000;0.620654
9391.000000;0.619979
9390.000000;0.619560
9389.000000;0.620137
9388.000000;0.621431
9387.000000;0.622351
9386.000000;0.622118
9385.000000;0.620986
9384.000000;0.619844
9383.000000;0.619414
9382.000000;0.619893
9381.000000;0.620938
9380.000000;0.621800
9379.000000;0.621815
9378.000000;0.621003
9377.000000;0.620033
9376.000000;0.619519
9375.000000;0.619488
9374.000000;0.619552
9373.000000;0.619398
9372.000000;0.619067
9371.000000;0.618907
9370.000000;0.619203
9369.000000;0.619751
9368.000000;0.619993
9367.000000;0.619768
9366.000000;0.619592
9365.000000;0.619835
9364.000000;0.620036
9363.000000;0.619610
9362.000000;0.618891
9361.000000;0.618658
9360.000000;0.618820
9359.000000;0.618531
9358.000000;0.617679
9357.000000;0.617282
9356.000000;0.618041
9355.000000;0.619286
9354.000000;0.619814
9353.000000;0.619283
9352.000000;0.618353
9351.000000;0.617820
9350.000000;0.617952
9349.000000;0.618339
9348.000000;0.618205
9347.000000;0.617243
9346.000000;0.616199
9345.000000;0.616162
9344.000000;0.617217
9343.000000;0.618341
9342.000000;0.618739
9341.000000;0.618618
9340.000000;0.618462
9339.000000;0.618302
9338.000000;0.618106
9337.000000;0.618184
9336.000000;0.618655
9335.000000;0.618959
9334.000000;0.618487
9333.000000;0.617397
9332.000000;0.616411
9331.000000;0.616060
9330.000000;0.616416
9329.000000;0.617233
9328.000000;0.618009
9327.000000;0.618197
9326.000000;0.617687
9325.000000;0.616910
9324.000000;0.616365
9323.000000;0.616302
9322.000000;0.616797
9321.000000;0.617627
9320.000000;0.618098
9319.000000;0.617612
9318.000000;0.616553
9317.000000;0.615948
9316.000000;0.616090
9315.000000;0.616223
9314.000000;0.615850
9313.000000;0.615508
9312.000000;0.615745
9311.000000;0.616128
9310.000000;0.615997
9309.000000;0.615611
9308.000000;0.615687
9307.000000;0.616183
9306.000000;0.616368
9305.000000;0.615971
9304.000000;0.615475
9303.000000;0.615243
9302.000000;0.614993
9301.000000;0.614371
9300.000000;0.613628
9299.000000;0.613445
9298.000000;0.614144
9297.000000;0.615209
9296.000000;0.615705
9295.000000;0.615237
9294.000000;0.614325
9293.000000;0.613621
9292.000000;0.613035
9291.000000;0.612172
9290.000000;0.611424
9289.000000;0.611800
9288.000000;0.613454
9287.000000;0.615101
9286.000000;0.615347
9285.000000;0.614126
9284.000000;0.612412
9283.000000;0.611068
9282.000000;0.610543
9281.000000;0.611121
9280.000000;0.612669
9279.000000;0.614300
9278.000000;0.615000
9277.000000;0.614657
9276.000000;0.614043
9275.000000;0.613799
9274.000000;0.613862
9273.000000;0.613834
9272.000000;0.613530
9271.000000;0.613124
9270.000000;0.612966
9269.000000;0.613258
9268.000000;0.613787
9267.000000;0.614039
9266.000000;0.613707
9265.000000;0.612957
9264.000000;0.612134
9263.000000;0.611473
9262.000000;0.611232
9261.000000;0.611745
9260.000000;0.612978
9259.000000;0.614182
9258.000000;0.614390
9257.000000;0.613369
9256.000000;0.611926
9255.000000;0.611174
9254.000000;0.611577
9253.000000;0.612575
9252.000000;0.613063
9251.000000;0.612459
9250.000000;0.611300
9249.000000;0.610591
9248.000000;0.610690
9247.000000;0.611114
9246.000000;0.611373
9245.000000;0.611511
9244.000000;0.611698
9243.000000;0.611768
9242.000000;0.611525
9241.000000;0.611196
9240.000000;0.611181
9239.000000;0.611524
9238.000000;0.611935
9237.000000;0.612216
9236.000000;0.612369
9235.000000;0.612348
9234.000000;0.612017
9233.000000;0.611425
9232.000000;0.610882
9231.000000;0.610643
9230.000000;0.610599
9229.000000;0.610449
9228.000000;0.610157
9227.000000;0.610087
9226.000000;0.610522
9225.000000;0.611177
9224.000000;0.611469
9223.000000;0.611283
9222.000000;0.611082
9221.000000;0.611150
9220.000000;0.611177
9219.000000;0.610891
9218.000000;0.610635
9217.000000;0.610833
9216.000000;0.611214
9215.000000;0.611181
9214.000000;0.610744
9213.000000;0.610427
9212.000000;0.610330
9211.000000;0.610030
9210.000000;0.609463
9209.000000;0.609211
9208.000000;0.609627
9207.000000;0.610215
9206.000000;0.610269
9205.000000;0.609730
9204.000000;0.609066
9203.000000;0.608576
9202.000000;0.608221
9201.000000;0.607981
9200.000000;0.608024
9199.000000;0.608482
9198.000000;0.609205
9197.000000;0.609817
9196.000000;0.609998
9195.000000;0.609748
9194.000000;0.609298
9193.000000;0.608783
9192.000000;0.608183
9191.000000;0.607653
9190.000000;0.607584
9189.000000;0.608089
9188.000000;0.608669
9187.000000;0.608730
9186.000000;0.608285
9185.000000;0.607825
9184.000000;0.607648
9183.000000;0.607663
9182.000000;0.607682
9181.000000;0.607550
9180.000000;0.607122
9179.000000;0.606489
9178.000000;0.606085
9177.000000;0.606202
9176.000000;0.606549
9175.000000;0.606672
9174.000000;0.606609
9173.000000;0.606696
9172.000000;0.606882
9171.000000;0.606784
9170.000000;0.606344
9169.000000;0.605905
9168.000000;0.605647
9167.000000;0.605422
9166.000000;0.605196
9165.000000;0.605211
9164.000000;0.605618
9163.000000;0.606244
9162.000000;0.606744
9161.000000;0.606765
9160.000000;0.606146
9159.000000;0.605215
9158.000000;0.604678
9157.000000;0.604874
9156.000000;0.605363
9155.000000;0.605614
9154.000000;0.605723
9153.000000;0.605960
9152.000000;0.606069
9151.000000;0.605730
9150.000000;0.605399
9149.000000;0.605794
9148.000000;0.606704
9147.000000;0.607164
9146.000000;0.606806
9145.000000;0.606198
9144.000000;0.605757
9143.000000;0.605242
9142.000000;0.604536
9141.000000;0.604095
9140.000000;0.604266
9139.000000;0.604774
9138.000000;0.605192
9137.000000;0.605401
9136.000000;0.605349
9135.000000;0.604895
9134.000000;0.604217
9133.000000;0.603906
9132.000000;0.604331
9131.000000;0.605214
9130.000000;0.605977
9129.000000;0.606200
9128.000000;0.605703
9127.000000;0.604655
9126.000000;0.603690
9125.000000;0.603447
9124.000000;0.603872
9123.000000;0.604381
9122.000000;0.604706
9121.000000;0.605014
9120.000000;0.605227
9119.000000;0.604924
9118.000000;0.604145
9117.000000;0.603574
9116.000000;0.603582
9115.000000;0.603694
9114.000000;0.603386
9113.000000;0.602877
9112.000000;0.602667
9111.000000;0.602708
9110.000000;0.602567
9109.000000;0.602182
9108.000000;0.601944
9107.000000;0.602076
9106.000000;0.602291
9105.000000;0.602115
9104.000000;0.601443
9103.000000;0.600713
9102.000000;0.600515
9101.000000;0.601004
9100.000000;0.601784
9099.000000;0.602385
9098.000000;0.602670
9097.000000;0.602663
9096.000000;0.602327
9095.000000;0.601792
9094.000000;0.601444
9093.000000;0.601385
9092.000000;0.601189
9091.000000;0.600644
9090.000000;0.600339
9089.000000;0.600854
9088.000000;0.601751
9087.000000;0.602135
9086.000000;0.601981
9085.000000;0.601975
9084.000000;0.602209
9083.000000;0.602057
9082.000000;0.601413
9081.000000;0.600992
9080.000000;0.601087
9079.000000;0.600988
9078.000000;0.600144
9077.000000;0.599119
9076.000000;0.598790
9075.000000;0.599170
9074.000000;0.599585
9073.000000;0.599679
9072.000000;0.599708
9071.000000;0.600034
9070.000000;0.600703
9069.000000;0.601426
9068.000000;0.601788
9067.000000;0.601617
9066.000000;0.601198
9065.000000;0.600918
9064.000000;0.600819
9063.000000;0.600798
9062.000000;0.601042
9061.000000;0.601683
9060.000000;0.602160
9059.000000;0.601689
9058.000000;0.600479
9057.000000;0.599690
9056.000000;0.599939
9055.000000;0.600535
9054.000000;0.600550
9053.000000;0.600040
