Criado como novo conjunto de dados;"2706_e01_daniel.spp","82986.3 Secs"
cm-1;Abs
10000.000000;0.799239
9999.000000;0.799346
9998.000000;0.799454
9997.000000;0.799562
9996.000000;0.799671
9995.000000;0.799778
9994.000000;0.799888
9993.000000;0.799992
9992.000000;0.800110
9991.000000;0.799952
9990.000000;0.799925
9989.000000;0.799738
9988.000000;0.798760
9987.000000;0.796846
9986.000000;0.794430
9985.000000;0.792195
9984.000000;0.790801
9983.000000;0.790661
9982.000000;0.791651
9981.000000;0.793144
9980.000000;0.794520
9979.000000;0.795632
9978.000000;0.796731
9977.000000;0.798008
9976.000000;0.799229
9975.000000;0.799743
9974.000000;0.798940
9973.000000;0.796926
9972.000000;0.794722
9971.000000;0.793550
9970.000000;0.793841
9969.000000;0.795028
9968.000000;0.796237
9967.000000;0.796968
9966.000000;0.797148
9965.000000;0.796859
9964.000000;0.796235
9963.000000;0.795463
9962.000000;0.794698
9961.000000;0.794013
9960.000000;0.793467
9959.000000;0.793113
9958.000000;0.792839
9957.000000;0.792366
9956.000000;0.791558
9955.000000;0.790668
9954.000000;0.790155
9953.000000;0.790227
9952.000000;0.790658
9951.000000;0.791135
9950.000000;0.791697
9949.000000;0.792618
9948.000000;0.793734
9947.000000;0.794166
9946.000000;0.793106
9945.000000;0.790944
9944.000000;0.789133
9943.000000;0.788721
9942.000000;0.789305
9941.000000;0.789726
9940.000000;0.789566
9939.000000;0.789565
9938.000000;0.790559
9937.000000;0.792365
9936.000000;0.793801
9935.000000;0.793684
9934.000000;0.791913
9933.000000;0.789669
9932.000000;0.788394
9931.000000;0.788434
9930.000000;0.788834
9929.000000;0.788628
9928.000000;0.788044
9927.000000;0.788045
9926.000000;0.788991
9925.000000;0.790312
9924.000000;0.791403
9923.000000;0.792163
9922.000000;0.792487
9921.000000;0.791938
9920.000000;0.790408
9919.000000;0.788686
9918.000000;0.787806
9917.000000;0.787917
9916.000000;0.788188
9915.000000;0.787907
9914.000000;0.787340
9913.000000;0.787283
9912.000000;0.787912
9911.000000;0.788423
9910.000000;0.787950
9909.000000;0.786676
9908.000000;0.785724
9907.000000;0.785901
9906.000000;0.786888
9905.000000;0.787804
9904.000000;0.788194
9903.000000;0.788215
9902.000000;0.788099
9901.000000;0.787891
9900.000000;0.787570
9899.000000;0.787030
9898.000000;0.786049
9897.000000;0.784660
9896.000000;0.783481
9895.000000;0.783252
9894.000000;0.784046
9893.000000;0.785277
9892.000000;0.786434
9891.000000;0.787331
9890.000000;0.787715
9889.000000;0.787304
9888.000000;0.786428
9887.000000;0.786029
9886.000000;0.786602
9885.000000;0.787503
9884.000000;0.787700
9883.000000;0.786952
9882.000000;0.785816
9881.000000;0.784779
9880.000000;0.783837
9879.000000;0.782884
9878.000000;0.782096
9877.000000;0.781816
9876.000000;0.782267
9875.000000;0.783411
9874.000000;0.784902
9873.000000;0.786204
9872.000000;0.786887
9871.000000;0.786870
9870.000000;0.786348
9869.000000;0.785620
9868.000000;0.784986
9867.000000;0.784568
9866.000000;0.784091
9865.000000;0.783073
9864.000000;0.781478
9863.000000;0.780043
9862.000000;0.779666
9861.000000;0.780552
9860.000000;0.782095
9859.000000;0.783403
9858.000000;0.783857
9857.000000;0.783397
9856.000000;0.782532
9855.000000;0.781912
9854.000000;0.781645
9853.000000;0.781163
9852.000000;0.779965
9851.000000;0.778327
9850.000000;0.777022
9849.000000;0.776548
9848.000000;0.776928
9847.000000;0.778064
9846.000000;0.779838
9845.000000;0.781874
9844.000000;0.783582
9843.000000;0.784562
9842.000000;0.784762
9841.000000;0.784229
9840.000000;0.783027
9839.000000;0.781457
9838.000000;0.780039
9837.000000;0.779072
9836.000000;0.778389
9835.000000;0.777738
9834.000000;0.777274
9833.000000;0.777459
9832.000000;0.778453
9831.000000;0.779731
9830.000000;0.780409
9829.000000;0.780077
9828.000000;0.779320
9827.000000;0.779217
9826.000000;0.780168
9825.000000;0.781360
9824.000000;0.781581
9823.000000;0.780472
9822.000000;0.778726
9821.000000;0.777205
9820.000000;0.776269
9819.000000;0.775944
9818.000000;0.776231
9817.000000;0.777029
9816.000000;0.778020
9815.000000;0.778886
9814.000000;0.779492
9813.000000;0.779769
9812.000000;0.779636
9811.000000;0.779207
9810.000000;0.778829
9809.000000;0.778690
9808.000000;0.778579
9807.000000;0.778268
9806.000000;0.777947
9805.000000;0.777953
9804.000000;0.778200
9803.000000;0.778209
9802.000000;0.777726
9801.000000;0.777025
9800.000000;0.776504
9799.000000;0.776252
9798.000000;0.776144
9797.000000;0.776137
9796.000000;0.776282
9795.000000;0.776536
9794.000000;0.776753
9793.000000;0.776836
9792.000000;0.776774
9791.000000;0.776486
9790.000000;0.775757
9789.000000;0.774442
9788.000000;0.772754
9787.000000;0.771282
9786.000000;0.770645
9785.000000;0.771090
9784.000000;0.772395
9783.000000;0.774084
9782.000000;0.775701
9781.000000;0.776883
9780.000000;0.777340
9779.000000;0.776918
9778.000000;0.775737
9777.000000;0.774181
9776.000000;0.772666
9775.000000;0.771437
9774.000000;0.770653
9773.000000;0.770581
9772.000000;0.771499
9771.000000;0.773242
9770.000000;0.774942
9769.000000;0.775545
9768.000000;0.774804
9767.000000;0.773586
9766.000000;0.773005
9765.000000;0.773368
9764.000000;0.774113
9763.000000;0.774610
9762.000000;0.774776
9761.000000;0.774846
9760.000000;0.774869
9759.000000;0.774628
9758.000000;0.773905
9757.000000;0.772633
9756.000000;0.770999
9755.000000;0.769494
9754.000000;0.768688
9753.000000;0.768735
9752.000000;0.769226
9751.000000;0.769697
9750.000000;0.770182
9749.000000;0.771028
9748.000000;0.772241
9747.000000;0.773265
9746.000000;0.773463
9745.000000;0.772680
9744.000000;0.771296
9743.000000;0.769865
9742.000000;0.768771
9741.000000;0.768105
9740.000000;0.767794
9739.000000;0.767830
9738.000000;0.768298
9737.000000;0.769098
9736.000000;0.769817
9735.000000;0.770076
9734.000000;0.769889
9733.000000;0.769500
9732.000000;0.769001
9731.000000;0.768393
9730.000000;0.767917
9729.000000;0.767907
9728.000000;0.768247
9727.000000;0.768343
9726.000000;0.767864
9725.000000;0.767231
9724.000000;0.767106
9723.000000;0.767582
9722.000000;0.768167
9721.000000;0.768443
9720.000000;0.768436
9719.000000;0.768337
9718.000000;0.768193
9717.000000;0.767995
9716.000000;0.767867
9715.000000;0.767943
9714.000000;0.768147
9713.000000;0.768275
9712.000000;0.768312
9711.000000;0.768495
9710.000000;0.768951
9709.000000;0.769365
9708.000000;0.769201
9707.000000;0.768301
9706.000000;0.767065
9705.000000;0.765930
9704.000000;0.764909
9703.000000;0.763904
9702.000000;0.763337
9701.000000;0.763978
9700.000000;0.765948
9699.000000;0.768227
9698.000000;0.769508
9697.000000;0.769476
9696.000000;0.768914
9695.000000;0.768585
9694.000000;0.768346
9693.000000;0.767539
9692.000000;0.766000
9691.000000;0.764369
9690.000000;0.763398
9689.000000;0.763181
9688.000000;0.763221
9687.000000;0.763163
9686.000000;0.763270
9685.000000;0.764036
9684.000000;0.765440
9683.000000;0.766772
9682.000000;0.767260
9681.000000;0.766749
9680.000000;0.765749
9679.000000;0.764916
9678.000000;0.764535
9677.000000;0.764363
9676.000000;0.763884
9675.000000;0.762838
9674.000000;0.761596
9673.000000;0.760923
9672.000000;0.761246
9671.000000;0.762221
9670.000000;0.763114
9669.000000;0.763577
9668.000000;0.763872
9667.000000;0.764331
9666.000000;0.764805
9665.000000;0.764814
9664.000000;0.764149
9663.000000;0.763174
9662.000000;0.762464
9661.000000;0.762210
9660.000000;0.762081
9659.000000;0.761633
9658.000000;0.760798
9657.000000;0.760005
9656.000000;0.759911
9655.000000;0.760948
9654.000000;0.762883
9653.000000;0.764723
9652.000000;0.765314
9651.000000;0.764395
9650.000000;0.762973
9649.000000;0.762331
9648.000000;0.762659
9647.000000;0.762942
9646.000000;0.762231
9645.000000;0.760713
9644.000000;0.759320
9643.000000;0.758624
9642.000000;0.758476
9641.000000;0.758549
9640.000000;0.758799
9639.000000;0.759359
9638.000000;0.760264
9637.000000;0.761374
9636.000000;0.762453
9635.000000;0.763198
9634.000000;0.763291
9633.000000;0.762615
9632.000000;0.761406
9631.000000;0.760142
9630.000000;0.759230
9629.000000;0.758778
9628.000000;0.758627
9627.000000;0.758620
9626.000000;0.758783
9625.000000;0.759204
9624.000000;0.759797
9623.000000;0.760299
9622.000000;0.760494
9621.000000;0.760332
9620.000000;0.759861
9619.000000;0.759213
9618.000000;0.758674
9617.000000;0.758529
9616.000000;0.758709
9615.000000;0.758812
9614.000000;0.758660
9613.000000;0.758626
9612.000000;0.759144
9611.000000;0.760033
9610.000000;0.760654
9609.000000;0.760698
9608.000000;0.760482
9607.000000;0.760395
9606.000000;0.760389
9605.000000;0.760225
9604.000000;0.759939
9603.000000;0.759723
9602.000000;0.759491
9601.000000;0.758934
9600.000000;0.758088
9599.000000;0.757516
9598.000000;0.757682
9597.000000;0.758322
9596.000000;0.758684
9595.000000;0.758412
9594.000000;0.757907
9593.000000;0.757709
9592.000000;0.757781
9591.000000;0.757640
9590.000000;0.757108
9589.000000;0.756614
9588.000000;0.756685
9587.000000;0.757340
9586.000000;0.758090
9585.000000;0.758414
9584.000000;0.758170
9583.000000;0.757626
9582.000000;0.757173
9581.000000;0.756950
9580.000000;0.756747
9579.000000;0.756344
9578.000000;0.755902
9577.000000;0.755836
9576.000000;0.756280
9575.000000;0.756872
9574.000000;0.757141
9573.000000;0.756876
9572.000000;0.756064
9571.000000;0.754794
9570.000000;0.753456
9569.000000;0.752757
9568.000000;0.753149
9567.000000;0.754298
9566.000000;0.755416
9565.000000;0.756107
9564.000000;0.756579
9563.000000;0.757047
9562.000000;0.757271
9561.000000;0.756829
9560.000000;0.755644
9559.000000;0.754043
9558.000000;0.752446
9557.000000;0.751173
9556.000000;0.750435
9555.000000;0.750327
9554.000000;0.750763
9553.000000;0.751522
9552.000000;0.752448
9551.000000;0.753618
9550.000000;0.755219
9549.000000;0.757140
9548.000000;0.758686
9547.000000;0.758943
9546.000000;0.757633
9545.000000;0.755481
9544.000000;0.753560
9543.000000;0.752339
9542.000000;0.751572
9541.000000;0.750977
9540.000000;0.750687
9539.000000;0.750951
9538.000000;0.751660
9537.000000;0.752412
9536.000000;0.752928
9535.000000;0.753206
9534.000000;0.753315
9533.000000;0.753220
9532.000000;0.752836
9531.000000;0.752123
9530.000000;0.751091
9529.000000;0.749819
9528.000000;0.748545
9527.000000;0.747668
9526.000000;0.747518
9525.000000;0.748020
9524.000000;0.748650
9523.000000;0.748873
9522.000000;0.748713
9521.000000;0.748779
9520.000000;0.749608
9519.000000;0.751025
9518.000000;0.752290
9517.000000;0.752824
9516.000000;0.752647
9515.000000;0.752099
9514.000000;0.751363
9513.000000;0.750404
9512.000000;0.749255
9511.000000;0.748162
9510.000000;0.747422
9509.000000;0.747162
9508.000000;0.747296
9507.000000;0.747658
9506.000000;0.748154
9505.000000;0.748831
9504.000000;0.749753
9503.000000;0.750792
9502.000000;0.751559
9501.000000;0.751609
9500.000000;0.750789
9499.000000;0.749384
9498.000000;0.747929
9497.000000;0.746882
9496.000000;0.746441
9495.000000;0.746535
9494.000000;0.746885
9493.000000;0.747120
9492.000000;0.747010
9491.000000;0.746671
9490.000000;0.746476
9489.000000;0.746657
9488.000000;0.747051
9487.000000;0.747327
9486.000000;0.747380
9485.000000;0.747371
9484.000000;0.747423
9483.000000;0.747457
9482.000000;0.747383
9481.000000;0.747254
9480.000000;0.747078
9479.000000;0.746624
9478.000000;0.745633
9477.000000;0.744258
9476.000000;0.743094
9475.000000;0.742680
9474.000000;0.743031
9473.000000;0.743719
9472.000000;0.744355
9471.000000;0.744864
9470.000000;0.745350
9469.000000;0.745898
9468.000000;0.746605
9467.000000;0.747569
9466.000000;0.748561
9465.000000;0.748853
9464.000000;0.747798
9463.000000;0.745680
9462.000000;0.743633
9461.000000;0.742539
9460.000000;0.742267
9459.000000;0.742177
9458.000000;0.742064
9457.000000;0.742261
9456.000000;0.743006
9455.000000;0.744153
9454.000000;0.745461
9453.000000;0.746737
9452.000000;0.747635
9451.000000;0.747769
9450.000000;0.747150
9449.000000;0.746151
9448.000000;0.744927
9447.000000;0.743292
9446.000000;0.741354
9445.000000;0.739812
9444.000000;0.739278
9443.000000;0.739622
9442.000000;0.740342
9441.000000;0.741318
9440.000000;0.742743
9439.000000;0.744392
9438.000000;0.745437
9437.000000;0.745200
9436.000000;0.743874
9435.000000;0.742332
9434.000000;0.741314
9433.000000;0.740899
9432.000000;0.740685
9431.000000;0.740402
9430.000000;0.740259
9429.000000;0.740621
9428.000000;0.741469
9427.000000;0.742376
9426.000000;0.742971
9425.000000;0.743137
9424.000000;0.742809
9423.000000;0.741944
9422.000000;0.740892
9421.000000;0.740350
9420.000000;0.740612
9419.000000;0.741144
9418.000000;0.741249
9417.000000;0.740931
9416.000000;0.740700
9415.000000;0.740741
9414.000000;0.740777
9413.000000;0.740687
9412.000000;0.740743
9411.000000;0.741136
9410.000000;0.741651
9409.000000;0.741966
9408.000000;0.742015
9407.000000;0.741866
9406.000000;0.741493
9405.000000;0.740786
9404.000000;0.739665
9403.000000;0.738165
9402.000000;0.736601
9401.000000;0.735639
9400.000000;0.735890
9399.000000;0.737296
9398.000000;0.739116
9397.000000;0.740658
9396.000000;0.741839
9395.000000;0.742862
9394.000000;0.743551
9393.000000;0.743327
9392.000000;0.741913
9391.000000;0.739837
9390.000000;0.738092
9389.000000;0.737304
9388.000000;0.737273
9387.000000;0.737324
9386.000000;0.737064
9385.000000;0.736722
9384.000000;0.736717
9383.000000;0.737055
9382.000000;0.737342
9381.000000;0.737333
9380.000000;0.737261
9379.000000;0.737546
9378.000000;0.738278
9377.000000;0.739058
9376.000000;0.739325
9375.000000;0.738846
9374.000000;0.737921
9373.000000;0.737048
9372.000000;0.736329
9371.000000;0.735380
9370.000000;0.733971
9369.000000;0.732597
9368.000000;0.732150
9367.000000;0.733024
9366.000000;0.734759
9365.000000;0.736520
9364.000000;0.737738
9363.000000;0.738234
9362.000000;0.738047
9361.000000;0.737356
9360.000000;0.736467
9359.000000;0.735701
9358.000000;0.735282
9357.000000;0.735299
9356.000000;0.735695
9355.000000;0.736245
9354.000000;0.736631
9353.000000;0.736631
9352.000000;0.736201
9351.000000;0.735412
9350.000000;0.734422
9349.000000;0.733532
9348.000000;0.733125
9347.000000;0.733402
9346.000000;0.734169
9345.000000;0.734968
9344.000000;0.735473
9343.000000;0.735765
9342.000000;0.736138
9341.000000;0.736590
9340.000000;0.736572
9339.000000;0.735505
9338.000000;0.733622
9337.000000;0.731979
9336.000000;0.731439
9335.000000;0.731816
9334.000000;0.732288
9333.000000;0.732482
9332.000000;0.732768
9331.000000;0.733493
9330.000000;0.734382
9329.000000;0.734875
9328.000000;0.734733
9327.000000;0.734112
9326.000000;0.733279
9325.000000;0.732498
9324.000000;0.732028
9323.000000;0.731970
9322.000000;0.732163
9321.000000;0.732370
9320.000000;0.732530
9319.000000;0.732675
9318.000000;0.732712
9317.000000;0.732475
9316.000000;0.731995
9315.000000;0.731539
9314.000000;0.731367
9313.000000;0.731525
9312.000000;0.731861
9311.000000;0.732130
9310.000000;0.732076
9309.000000;0.731584
9308.000000;0.730885
9307.000000;0.730540
9306.000000;0.731011
9305.000000;0.732123
9304.000000;0.733031
9303.000000;0.732962
9302.000000;0.732031
9301.000000;0.731146
9300.000000;0.730967
9299.000000;0.731123
9298.000000;0.730710
9297.000000;0.729478
9296.000000;0.728199
9295.000000;0.727776
9294.000000;0.728304
9293.000000;0.729187
9292.000000;0.729950
9291.000000;0.730641
9290.000000;0.731470
9289.000000;0.732328
9288.000000;0.732777
9287.000000;0.732386
9286.000000;0.731042
9285.000000;0.729107
9284.000000;0.727340
9283.000000;0.726485
9282.000000;0.726729
9281.000000;0.727533
9280.000000;0.728150
9279.000000;0.728361
9278.000000;0.728580
9277.000000;0.729208
9276.000000;0.730039
9275.000000;0.730473
9274.000000;0.730203
9273.000000;0.729463
9272.000000;0.728606
9271.000000;0.727756
9270.000000;0.726995
9269.000000;0.726582
9268.000000;0.726680
9267.000000;0.727018
9266.000000;0.727155
9265.000000;0.727062
9264.000000;0.727135
9263.000000;0.727561
9262.000000;0.727982
9261.000000;0.727936
9260.000000;0.727439
9259.000000;0.726934
9258.000000;0.726778
9257.000000;0.726946
9256.000000;0.727149
9255.000000;0.727073
9254.000000;0.726562
9253.000000;0.725733
9252.000000;0.724929
9251.000000;0.724447
9250.000000;0.724291
9249.000000;0.724249
9248.000000;0.724208
9247.000000;0.724300
9246.000000;0.724686
9245.000000;0.725311
9244.000000;0.725953
9243.000000;0.726482
9242.000000;0.726937
9241.000000;0.727329
9240.000000;0.727510
9239.000000;0.727340
9238.000000;0.726896
9237.000000;0.726343
9236.000000;0.725666
9235.000000;0.724722
9234.000000;0.723608
9233.000000;0.722740
9232.000000;0.722463
9231.000000;0.722736
9230.000000;0.723346
9229.000000;0.724230
9228.000000;0.725332
9227.000000;0.726291
9226.000000;0.726642
9225.000000;0.726333
9224.000000;0.725752
9223.000000;0.725149
9222.000000;0.724356
9221.000000;0.723213
9220.000000;0.721998
9219.000000;0.721170
9218.000000;0.720877
9217.000000;0.720951
9216.000000;0.721280
9215.000000;0.721914
9214.000000;0.722808
9213.000000;0.723702
9212.000000;0.724317
9211.000000;0.724489
9210.000000;0.724096
9209.000000;0.723104
9208.000000;0.721782
9207.000000;0.720682
9206.000000;0.720168
9205.000000;0.720110
9204.000000;0.720206
9203.000000;0.720465
9202.000000;0.721085
9201.000000;0.721907
9200.000000;0.722392
9199.000000;0.722286
9198.000000;0.722000
9197.000000;0.722032
9196.000000;0.722202
9195.000000;0.721870
9194.000000;0.720885
9193.000000;0.719910
9192.000000;0.719680
9191.000000;0.720239
9190.000000;0.721081
9189.000000;0.721777
9188.000000;0.722171
9187.000000;0.722176
9186.000000;0.721753
9185.000000;0.721104
9184.000000;0.720540
9183.000000;0.720083
9182.000000;0.719492
9181.000000;0.718774
9180.000000;0.718380
9179.000000;0.718669
9178.000000;0.719349
9177.000000;0.719747
9176.000000;0.719629
9175.000000;0.719441
9174.000000;0.719632
9173.000000;0.719959
9172.000000;0.719723
9171.000000;0.718655
9170.000000;0.717321
9169.000000;0.716541
9168.000000;0.716570
9167.000000;0.717000
9166.000000;0.717361
9165.000000;0.717602
9164.000000;0.717931
9163.000000;0.718366
9162.000000;0.718662
9161.000000;0.718614
9160.000000;0.718295
9159.000000;0.717938
9158.000000;0.717691
9157.000000;0.717562
9156.000000;0.717562
9155.000000;0.717788
9154.000000;0.718261
9153.000000;0.718727
9152.000000;0.718747
9151.000000;0.718129
9150.000000;0.717213
9149.000000;0.716593
9148.000000;0.716522
9147.000000;0.716701
9146.000000;0.716702
9145.000000;0.716495
9144.000000;0.716462
9143.000000;0.716931
9142.000000;0.717771
9141.000000;0.718440
9140.000000;0.718396
9139.000000;0.717556
9138.000000;0.716408
9137.000000;0.715621
9136.000000;0.715467
9135.000000;0.715621
9134.000000;0.715532
9133.000000;0.714985
9132.000000;0.714310
9131.000000;0.714097
9130.000000;0.714681
9129.000000;0.715809
9128.000000;0.716795
9127.000000;0.717119
9126.000000;0.716895
9125.000000;0.716643
9124.000000;0.716633
9123.000000;0.716631
9122.000000;0.716307
9121.000000;0.715648
9120.000000;0.714868
9119.000000;0.714139
9118.000000;0.713603
9117.000000;0.713468
9116.000000;0.713807
9115.000000;0.714342
9114.000000;0.714685
9113.000000;0.714789
9112.000000;0.714930
9111.000000;0.715215
9110.000000;0.715351
9109.000000;0.715005
9108.000000;0.714236
9107.000000;0.713431
9106.000000;0.712896
9105.000000;0.712615
9104.000000;0.712367
9103.000000;0.712001
9102.000000;0.711629
9101.000000;0.711540
9100.000000;0.711916
9099.000000;0.712658
9098.000000;0.713471
9097.000000;0.714075
9096.000000;0.714295
9095.000000;0.714054
9094.000000;0.713433
9093.000000;0.712696
9092.000000;0.712086
9091.000000;0.711606
9090.000000;0.711123
9089.000000;0.710696
9088.000000;0.710613
9087.000000;0.711031
9086.000000;0.711734
9085.000000;0.712362
9084.000000;0.712791
9083.000000;0.713105
9082.000000;0.713256
9081.000000;0.712966
9080.000000;0.712083
9079.000000;0.710904
9078.000000;0.709957
9077.000000;0.709480
9076.000000;0.709288
9075.000000;0.709200
9074.000000;0.709425
9073.000000;0.710306
9072.000000;0.711724
9071.000000;0.712990
9070.000000;0.713440
9069.000000;0.713006
9068.000000;0.712143
9067.000000;0.711316
9066.000000;0.710715
9065.000000;0.710327
9064.000000;0.710093
9063.000000;0.709989
9062.000000;0.710049
9061.000000;0.710322
9060.000000;0.710736
9059.000000;0.711037
9058.000000;0.710996
9057.000000;0.710653
9056.000000;0.710263
9055.000000;0.709979
9054.000000;0.709687
9053.000000;0.709211
