Criado como novo conjunto de dados;"2706_e01_daniel.spp","87126.6 Secs"
cm-1;Abs
10000.000000;0.635025
9999.000000;0.634532
9998.000000;0.634389
9997.000000;0.634647
9996.000000;0.635134
9995.000000;0.635602
9994.000000;0.635702
9993.000000;0.635251
9992.000000;0.634408
9991.000000;0.633590
9990.000000;0.633040
9989.000000;0.632651
9988.000000;0.632265
9987.000000;0.631984
9986.000000;0.632017
9985.000000;0.632306
9984.000000;0.632555
9983.000000;0.632666
9982.000000;0.632877
9981.000000;0.633312
9980.000000;0.633631
9979.000000;0.633427
9978.000000;0.632895
9977.000000;0.632770
9976.000000;0.633488
9975.000000;0.634693
9974.000000;0.635663
9973.000000;0.636000
9972.000000;0.635724
9971.000000;0.634956
9970.000000;0.633835
9969.000000;0.632705
9968.000000;0.632053
9967.000000;0.632123
9966.000000;0.632660
9965.000000;0.633057
9964.000000;0.632760
9963.000000;0.631680
9962.000000;0.630353
9961.000000;0.629596
9960.000000;0.629773
9959.000000;0.630401
9958.000000;0.630643
9957.000000;0.630181
9956.000000;0.629451
9955.000000;0.629029
9954.000000;0.629052
9953.000000;0.629265
9952.000000;0.629370
9951.000000;0.629188
9950.000000;0.628668
9949.000000;0.627950
9948.000000;0.627340
9947.000000;0.627072
9946.000000;0.627107
9945.000000;0.627231
9944.000000;0.627288
9943.000000;0.627260
9942.000000;0.627187
9941.000000;0.627142
9940.000000;0.627241
9939.000000;0.627569
9938.000000;0.628070
9937.000000;0.628580
9936.000000;0.628945
9935.000000;0.629083
9934.000000;0.628939
9933.000000;0.628477
9932.000000;0.627749
9931.000000;0.626977
9930.000000;0.626508
9929.000000;0.626580
9928.000000;0.627054
9927.000000;0.627426
9926.000000;0.627258
9925.000000;0.626623
9924.000000;0.626007
9923.000000;0.625774
9922.000000;0.625852
9921.000000;0.625983
9920.000000;0.626060
9919.000000;0.626102
9918.000000;0.626010
9917.000000;0.625620
9916.000000;0.625023
9915.000000;0.624638
9914.000000;0.624817
9913.000000;0.625447
9912.000000;0.626046
9911.000000;0.626288
9910.000000;0.626333
9909.000000;0.626580
9908.000000;0.627150
9907.000000;0.627726
9906.000000;0.627897
9905.000000;0.627569
9904.000000;0.626959
9903.000000;0.626314
9902.000000;0.625756
9901.000000;0.625331
9900.000000;0.625000
9899.000000;0.624562
9898.000000;0.623825
9897.000000;0.622951
9896.000000;0.622482
9895.000000;0.622828
9894.000000;0.623767
9893.000000;0.624606
9892.000000;0.624874
9891.000000;0.624729
9890.000000;0.624678
9889.000000;0.624978
9888.000000;0.625401
9887.000000;0.625511
9886.000000;0.625065
9885.000000;0.624168
9884.000000;0.623133
9883.000000;0.622293
9882.000000;0.621906
9881.000000;0.622123
9880.000000;0.622904
9879.000000;0.623942
9878.000000;0.624759
9877.000000;0.625006
9876.000000;0.624746
9875.000000;0.624353
9874.000000;0.624094
9873.000000;0.623815
9872.000000;0.623140
9871.000000;0.621974
9870.000000;0.620720
9869.000000;0.619974
9868.000000;0.620060
9867.000000;0.620867
9866.000000;0.621990
9865.000000;0.622891
9864.000000;0.623059
9863.000000;0.622323
9862.000000;0.621091
9861.000000;0.620108
9860.000000;0.619818
9859.000000;0.620005
9858.000000;0.620097
9857.000000;0.619791
9856.000000;0.619320
9855.000000;0.619192
9854.000000;0.619735
9853.000000;0.620839
9852.000000;0.622045
9851.000000;0.622886
9850.000000;0.623221
9849.000000;0.623236
9848.000000;0.623144
9847.000000;0.622964
9846.000000;0.622585
9845.000000;0.621940
9844.000000;0.621071
9843.000000;0.620137
9842.000000;0.619446
9841.000000;0.619323
9840.000000;0.619817
9839.000000;0.620595
9838.000000;0.621249
9837.000000;0.621659
9836.000000;0.621922
9835.000000;0.622027
9834.000000;0.621813
9833.000000;0.621203
9832.000000;0.620317
9831.000000;0.619328
9830.000000;0.618374
9829.000000;0.617604
9828.000000;0.617146
9827.000000;0.616982
9826.000000;0.616943
9825.000000;0.616882
9824.000000;0.616775
9823.000000;0.616644
9822.000000;0.616550
9821.000000;0.616647
9820.000000;0.617081
9819.000000;0.617731
9818.000000;0.618173
9817.000000;0.618029
9816.000000;0.617325
9815.000000;0.616455
9814.000000;0.615857
9813.000000;0.615720
9812.000000;0.615904
9811.000000;0.616095
9810.000000;0.616125
9809.000000;0.616155
9808.000000;0.616456
9807.000000;0.616978
9806.000000;0.617261
9805.000000;0.616860
9804.000000;0.615789
9803.000000;0.614540
9802.000000;0.613752
9801.000000;0.613863
9800.000000;0.614851
9799.000000;0.616165
9798.000000;0.617051
9797.000000;0.617142
9796.000000;0.616753
9795.000000;0.616509
9794.000000;0.616748
9793.000000;0.617298
9792.000000;0.617695
9791.000000;0.617501
9790.000000;0.616585
9789.000000;0.615315
9788.000000;0.614416
9787.000000;0.614399
9786.000000;0.615117
9785.000000;0.615993
9784.000000;0.616647
9783.000000;0.617105
9782.000000;0.617453
9781.000000;0.617565
9780.000000;0.617298
9779.000000;0.616734
9778.000000;0.616059
9777.000000;0.615354
9776.000000;0.614705
9775.000000;0.614377
9774.000000;0.614606
9773.000000;0.615206
9772.000000;0.615609
9771.000000;0.615406
9770.000000;0.614742
9769.000000;0.614100
9768.000000;0.613810
9767.000000;0.613846
9766.000000;0.613974
9765.000000;0.613924
9764.000000;0.613497
9763.000000;0.612719
9762.000000;0.611921
9761.000000;0.611536
9760.000000;0.611703
9759.000000;0.612146
9758.000000;0.612494
9757.000000;0.612686
9756.000000;0.612946
9755.000000;0.613387
9754.000000;0.613771
9753.000000;0.613768
9752.000000;0.613376
9751.000000;0.612947
9750.000000;0.612756
9749.000000;0.612660
9748.000000;0.612308
9747.000000;0.611685
9746.000000;0.611252
9745.000000;0.611421
9744.000000;0.611993
9743.000000;0.612314
9742.000000;0.611983
9741.000000;0.611266
9740.000000;0.610735
9739.000000;0.610673
9738.000000;0.610936
9737.000000;0.611230
9736.000000;0.611324
9735.000000;0.611080
9734.000000;0.610503
9733.000000;0.609817
9732.000000;0.609361
9731.000000;0.609343
9730.000000;0.609702
9729.000000;0.610225
9728.000000;0.610692
9727.000000;0.610920
9726.000000;0.610820
9725.000000;0.610473
9724.000000;0.610087
9723.000000;0.609766
9722.000000;0.609403
9721.000000;0.608884
9720.000000;0.608350
9719.000000;0.608119
9718.000000;0.608331
9717.000000;0.608787
9716.000000;0.609208
9715.000000;0.609568
9714.000000;0.610025
9713.000000;0.610538
9712.000000;0.610775
9711.000000;0.610504
9710.000000;0.609961
9709.000000;0.609594
9708.000000;0.609507
9707.000000;0.609390
9706.000000;0.609067
9705.000000;0.608866
9704.000000;0.609246
9703.000000;0.610161
9702.000000;0.611018
9701.000000;0.611282
9700.000000;0.610977
9699.000000;0.610530
9698.000000;0.610250
9697.000000;0.610078
9696.000000;0.609762
9695.000000;0.609178
9694.000000;0.608443
9693.000000;0.607785
9692.000000;0.607351
9691.000000;0.607186
9690.000000;0.607313
9689.000000;0.607729
9688.000000;0.608263
9687.000000;0.608573
9686.000000;0.608390
9685.000000;0.607773
9684.000000;0.607019
9683.000000;0.606377
9682.000000;0.605923
9681.000000;0.605670
9680.000000;0.605642
9679.000000;0.605808
9678.000000;0.606034
9677.000000;0.606150
9676.000000;0.606080
9675.000000;0.605926
9674.000000;0.605935
9673.000000;0.606276
9672.000000;0.606761
9671.000000;0.606879
9670.000000;0.606266
9669.000000;0.605155
9668.000000;0.604211
9667.000000;0.603931
9666.000000;0.604293
9665.000000;0.604945
9664.000000;0.605547
9663.000000;0.605889
9662.000000;0.605892
9661.000000;0.605633
9660.000000;0.605318
9659.000000;0.605096
9658.000000;0.604908
9657.000000;0.604563
9656.000000;0.603952
9655.000000;0.603177
9654.000000;0.602534
9653.000000;0.602331
9652.000000;0.602641
9651.000000;0.603171
9650.000000;0.603488
9649.000000;0.603436
9648.000000;0.603285
9647.000000;0.603420
9646.000000;0.603926
9645.000000;0.604514
9644.000000;0.604775
9643.000000;0.604501
9642.000000;0.603815
9641.000000;0.603034
9640.000000;0.602382
9639.000000;0.601853
9638.000000;0.601422
9637.000000;0.601305
9636.000000;0.601797
9635.000000;0.602800
9634.000000;0.603727
9633.000000;0.604048
9632.000000;0.603822
9631.000000;0.603500
9630.000000;0.603342
9629.000000;0.603223
9628.000000;0.602954
9627.000000;0.602572
9626.000000;0.602276
9625.000000;0.602208
9624.000000;0.602379
9623.000000;0.602724
9622.000000;0.603158
9621.000000;0.603628
9620.000000;0.604065
9619.000000;0.604251
9618.000000;0.603844
9617.000000;0.602746
9616.000000;0.601446
9615.000000;0.600729
9614.000000;0.600902
9613.000000;0.601421
9612.000000;0.601465
9611.000000;0.600850
9610.000000;0.600225
9609.000000;0.600332
9608.000000;0.601215
9607.000000;0.602189
9606.000000;0.602511
9605.000000;0.602022
9604.000000;0.601154
9603.000000;0.600451
9602.000000;0.600146
9601.000000;0.600124
9600.000000;0.600146
9599.000000;0.600042
9598.000000;0.599813
9597.000000;0.599611
9596.000000;0.599621
9595.000000;0.599858
9594.000000;0.600108
9593.000000;0.600139
9592.000000;0.599974
9591.000000;0.599869
9590.000000;0.599990
9589.000000;0.600219
9588.000000;0.600345
9587.000000;0.600366
9586.000000;0.600461
9585.000000;0.600676
9584.000000;0.600766
9583.000000;0.600440
9582.000000;0.599695
9581.000000;0.598846
9580.000000;0.598254
9579.000000;0.598073
9578.000000;0.598225
9577.000000;0.598507
9576.000000;0.598703
9575.000000;0.598690
9574.000000;0.598533
9573.000000;0.598470
9572.000000;0.598701
9571.000000;0.599143
9570.000000;0.599428
9569.000000;0.599243
9568.000000;0.598686
9567.000000;0.598210
9566.000000;0.598169
9565.000000;0.598493
9564.000000;0.598846
9563.000000;0.599013
9562.000000;0.599028
9561.000000;0.598939
9560.000000;0.598676
9559.000000;0.598264
9558.000000;0.597994
9557.000000;0.598147
9556.000000;0.598562
9555.000000;0.598679
9554.000000;0.598121
9553.000000;0.597112
9552.000000;0.596249
9551.000000;0.595954
9550.000000;0.596230
9549.000000;0.596784
9548.000000;0.597231
9547.000000;0.597260
9546.000000;0.596804
9545.000000;0.596143
9544.000000;0.595719
9543.000000;0.595744
9542.000000;0.596008
9541.000000;0.596112
9540.000000;0.595879
9539.000000;0.595513
9538.000000;0.595375
9537.000000;0.595635
9536.000000;0.596118
9535.000000;0.596421
9534.000000;0.596216
9533.000000;0.595512
9532.000000;0.594641
9531.000000;0.594004
9530.000000;0.593789
9529.000000;0.593899
9528.000000;0.594110
9527.000000;0.594287
9526.000000;0.594462
9525.000000;0.594762
9524.000000;0.595253
9523.000000;0.595817
9522.000000;0.596140
9521.000000;0.595886
9520.000000;0.594997
9519.000000;0.593843
9518.000000;0.593000
9517.000000;0.592806
9516.000000;0.593150
9515.000000;0.593719
9514.000000;0.594363
9513.000000;0.595129
9512.000000;0.595944
9511.000000;0.596479
9510.000000;0.596445
9509.000000;0.595935
9508.000000;0.595345
9507.000000;0.594965
9506.000000;0.594734
9505.000000;0.594411
9504.000000;0.593896
9503.000000;0.593355
9502.000000;0.593067
9501.000000;0.593205
9500.000000;0.593742
9499.000000;0.594463
9498.000000;0.595028
9497.000000;0.595105
9496.000000;0.594607
9495.000000;0.593820
9494.000000;0.593181
9493.000000;0.592835
9492.000000;0.592522
9491.000000;0.592014
9490.000000;0.591557
9489.000000;0.591664
9488.000000;0.592473
9487.000000;0.593535
9486.000000;0.594289
9485.000000;0.594568
9484.000000;0.594527
9483.000000;0.594262
9482.000000;0.593709
9481.000000;0.592847
9480.000000;0.591828
9479.000000;0.590895
9478.000000;0.590266
9477.000000;0.590064
9476.000000;0.590246
9475.000000;0.590597
9474.000000;0.590890
9473.000000;0.591049
9472.000000;0.591113
9471.000000;0.591090
9470.000000;0.590928
9469.000000;0.590615
9468.000000;0.590173
9467.000000;0.589620
9466.000000;0.589025
9465.000000;0.588587
9464.000000;0.588510
9463.000000;0.588775
9462.000000;0.589122
9461.000000;0.589287
9460.000000;0.589219
9459.000000;0.589093
9458.000000;0.589177
9457.000000;0.589650
9456.000000;0.590406
9455.000000;0.591034
9454.000000;0.591100
9453.000000;0.590513
9452.000000;0.589581
9451.000000;0.588737
9450.000000;0.588283
9449.000000;0.588323
9448.000000;0.588755
9447.000000;0.589283
9446.000000;0.589591
9445.000000;0.589608
9444.000000;0.589529
9443.000000;0.589533
9442.000000;0.589577
9441.000000;0.589477
9440.000000;0.589122
9439.000000;0.588563
9438.000000;0.587986
9437.000000;0.587633
9436.000000;0.587655
9435.000000;0.587951
9434.000000;0.588251
9433.000000;0.588390
9432.000000;0.588416
9431.000000;0.588384
9430.000000;0.588188
9429.000000;0.587736
9428.000000;0.587179
9427.000000;0.586808
9426.000000;0.586754
9425.000000;0.586908
9424.000000;0.587127
9423.000000;0.587350
9422.000000;0.587523
9421.000000;0.587545
9420.000000;0.587376
9419.000000;0.587129
9418.000000;0.586975
9417.000000;0.586979
9416.000000;0.587037
9415.000000;0.586953
9414.000000;0.586586
9413.000000;0.586001
9412.000000;0.585489
9411.000000;0.585368
9410.000000;0.585685
9409.000000;0.586176
9408.000000;0.586534
9407.000000;0.586683
9406.000000;0.586734
9405.000000;0.586750
9404.000000;0.586654
9403.000000;0.586373
9402.000000;0.585982
9401.000000;0.585639
9400.000000;0.585437
9399.000000;0.585372
9398.000000;0.585410
9397.000000;0.585527
9396.000000;0.585704
9395.000000;0.585916
9394.000000;0.586126
9393.000000;0.586271
9392.000000;0.586267
9391.000000;0.586104
9390.000000;0.585899
9389.000000;0.585795
9388.000000;0.585812
9387.000000;0.585857
9386.000000;0.585865
9385.000000;0.585825
9384.000000;0.585665
9383.000000;0.585236
9382.000000;0.584507
9381.000000;0.583684
9380.000000;0.583058
9379.000000;0.582769
9378.000000;0.582784
9377.000000;0.583012
9376.000000;0.583347
9375.000000;0.583644
9374.000000;0.583808
9373.000000;0.583888
9372.000000;0.583985
9371.000000;0.584076
9370.000000;0.584013
9369.000000;0.583725
9368.000000;0.583307
9367.000000;0.582921
9366.000000;0.582673
9365.000000;0.582607
9364.000000;0.582731
9363.000000;0.583004
9362.000000;0.583352
9361.000000;0.583686
9360.000000;0.583850
9359.000000;0.583625
9358.000000;0.582950
9357.000000;0.582140
9356.000000;0.581687
9355.000000;0.581730
9354.000000;0.581879
9353.000000;0.581662
9352.000000;0.581075
9351.000000;0.580550
9350.000000;0.580470
9349.000000;0.580846
9348.000000;0.581428
9347.000000;0.581949
9346.000000;0.582237
9345.000000;0.582241
9344.000000;0.582042
9343.000000;0.581779
9342.000000;0.581497
9341.000000;0.581119
9340.000000;0.580621
9339.000000;0.580199
9338.000000;0.580175
9337.000000;0.580701
9336.000000;0.581561
9335.000000;0.582311
9334.000000;0.582633
9333.000000;0.582549
9332.000000;0.582316
9331.000000;0.582141
9330.000000;0.582049
9329.000000;0.581959
9328.000000;0.581784
9327.000000;0.581455
9326.000000;0.580947
9325.000000;0.580355
9324.000000;0.579900
9323.000000;0.579768
9322.000000;0.579953
9321.000000;0.580271
9320.000000;0.580526
9319.000000;0.580647
9318.000000;0.580706
9317.000000;0.580821
9316.000000;0.580989
9315.000000;0.581017
9314.000000;0.580682
9313.000000;0.580027
9312.000000;0.579411
9311.000000;0.579171
9310.000000;0.579278
9309.000000;0.579429
9308.000000;0.579427
9307.000000;0.579372
9306.000000;0.579455
9305.000000;0.579697
9304.000000;0.579958
9303.000000;0.580115
9302.000000;0.580135
9301.000000;0.579991
9300.000000;0.579597
9299.000000;0.578905
9298.000000;0.578058
9297.000000;0.577403
9296.000000;0.577270
9295.000000;0.577676
9294.000000;0.578257
9293.000000;0.578545
9292.000000;0.578371
9291.000000;0.577998
9290.000000;0.577833
9289.000000;0.578044
9288.000000;0.578423
9287.000000;0.578593
9286.000000;0.578331
9285.000000;0.577735
9284.000000;0.577111
9283.000000;0.576710
9282.000000;0.576575
9281.000000;0.576592
9280.000000;0.576642
9279.000000;0.576700
9278.000000;0.576807
9277.000000;0.576994
9276.000000;0.577228
9275.000000;0.577413
9274.000000;0.577438
9273.000000;0.577254
9272.000000;0.576892
9271.000000;0.576423
9270.000000;0.575929
9269.000000;0.575524
9268.000000;0.575321
9267.000000;0.575322
9266.000000;0.575355
9265.000000;0.575231
9264.000000;0.574974
9263.000000;0.574822
9262.000000;0.574979
9261.000000;0.575405
9260.000000;0.575877
9259.000000;0.576184
9258.000000;0.576228
9257.000000;0.576029
9256.000000;0.575705
9255.000000;0.575425
9254.000000;0.575293
9253.000000;0.575298
9252.000000;0.575414
9251.000000;0.575688
9250.000000;0.576127
9249.000000;0.576550
9248.000000;0.576685
9247.000000;0.576466
9246.000000;0.576085
9245.000000;0.575720
9244.000000;0.575307
9243.000000;0.574710
9242.000000;0.574046
9241.000000;0.573668
9240.000000;0.573798
9239.000000;0.574232
9238.000000;0.574460
9237.000000;0.574105
9236.000000;0.573296
9235.000000;0.572623
9234.000000;0.572655
9233.000000;0.573411
9232.000000;0.574291
9231.000000;0.574623
9230.000000;0.574311
9229.000000;0.573848
9228.000000;0.573713
9227.000000;0.573852
9226.000000;0.573817
9225.000000;0.573309
9224.000000;0.572525
9223.000000;0.571984
9222.000000;0.572064
9221.000000;0.572672
9220.000000;0.573319
9219.000000;0.573527
9218.000000;0.573222
9217.000000;0.572715
9216.000000;0.572317
9215.000000;0.572080
9214.000000;0.571922
9213.000000;0.571855
9212.000000;0.571919
9211.000000;0.571974
9210.000000;0.571763
9209.000000;0.571268
9208.000000;0.570841
9207.000000;0.570881
9206.000000;0.571418
9205.000000;0.572113
9204.000000;0.572624
9203.000000;0.572873
9202.000000;0.572944
9201.000000;0.572864
9200.000000;0.572595
9199.000000;0.572205
9198.000000;0.571911
9197.000000;0.571859
9196.000000;0.571923
9195.000000;0.571819
9194.000000;0.571439
9193.000000;0.570981
9192.000000;0.570722
9191.000000;0.570730
9190.000000;0.570877
9189.000000;0.571045
9188.000000;0.571210
9187.000000;0.571323
9186.000000;0.571245
9185.000000;0.570875
9184.000000;0.570302
9183.000000;0.569748
9182.000000;0.569379
9181.000000;0.569197
9180.000000;0.569097
9179.000000;0.569009
9178.000000;0.568992
9177.000000;0.569206
9176.000000;0.569743
9175.000000;0.570483
9174.000000;0.571126
9173.000000;0.571416
9172.000000;0.571325
9171.000000;0.571002
9170.000000;0.570605
9169.000000;0.570235
9168.000000;0.570016
9167.000000;0.570075
9166.000000;0.570373
9165.000000;0.570633
9164.000000;0.570573
9163.000000;0.570254
9162.000000;0.570068
9161.000000;0.570300
9160.000000;0.570759
9159.000000;0.570920
9158.000000;0.570443
9157.000000;0.569476
9156.000000;0.568474
9155.000000;0.567811
9154.000000;0.567587
9153.000000;0.567672
9152.000000;0.567814
9151.000000;0.567773
9150.000000;0.567487
9149.000000;0.567159
9148.000000;0.567095
9147.000000;0.567400
9146.000000;0.567839
9145.000000;0.568023
9144.000000;0.567764
9143.000000;0.567247
9142.000000;0.566859
9141.000000;0.566851
9140.000000;0.567161
9139.000000;0.567521
9138.000000;0.567719
9137.000000;0.567720
9136.000000;0.567603
9135.000000;0.567440
9134.000000;0.567259
9133.000000;0.567043
9132.000000;0.566760
9131.000000;0.566432
9130.000000;0.566210
9129.000000;0.566283
9128.000000;0.566662
9127.000000;0.567086
9126.000000;0.567236
9125.000000;0.567033
9124.000000;0.566663
9123.000000;0.566354
9122.000000;0.566201
9121.000000;0.566154
9120.000000;0.566082
9119.000000;0.565829
9118.000000;0.565329
9117.000000;0.564705
9116.000000;0.564236
9115.000000;0.564151
9114.000000;0.564478
9113.000000;0.565048
9112.000000;0.565630
9111.000000;0.566057
9110.000000;0.566293
9109.000000;0.566423
9108.000000;0.566541
9107.000000;0.566637
9106.000000;0.566626
9105.000000;0.566477
9104.000000;0.566266
9103.000000;0.566084
9102.000000;0.565924
9101.000000;0.565698
9100.000000;0.565361
9099.000000;0.564990
9098.000000;0.564725
9097.000000;0.564629
9096.000000;0.564594
9095.000000;0.564445
9094.000000;0.564154
9093.000000;0.563892
9092.000000;0.563812
9091.000000;0.563854
9090.000000;0.563856
9089.000000;0.563823
9088.000000;0.563922
9087.000000;0.564203
9086.000000;0.564453
9085.000000;0.564418
9084.000000;0.564078
9083.000000;0.563627
9082.000000;0.563239
9081.000000;0.562965
9080.000000;0.562813
9079.000000;0.562803
9078.000000;0.562907
9077.000000;0.562992
9076.000000;0.562922
9075.000000;0.562704
9074.000000;0.562521
9073.000000;0.562566
9072.000000;0.562837
9071.000000;0.563107
9070.000000;0.563135
9069.000000;0.562908
9068.000000;0.562632
9067.000000;0.562505
9066.000000;0.562558
9065.000000;0.562706
9064.000000;0.562857
9063.000000;0.562937
9062.000000;0.562894
9061.000000;0.562784
9060.000000;0.562801
9059.000000;0.563100
9058.000000;0.563564
9057.000000;0.563836
9056.000000;0.563633
9055.000000;0.563004
9054.000000;0.562265
9053.000000;0.561736
