Criado como novo conjunto de dados;"2706_e01_daniel.spp","84246.2 Secs"
cm-1;Abs
10000.000000;0.784501
9999.000000;0.784534
9998.000000;0.784188
9997.000000;0.783489
9996.000000;0.782943
9995.000000;0.782809
9994.000000;0.782843
9993.000000;0.782749
9992.000000;0.782611
9991.000000;0.782571
9990.000000;0.782460
9989.000000;0.782091
9988.000000;0.781712
9987.000000;0.781750
9986.000000;0.782197
9985.000000;0.782589
9984.000000;0.782574
9983.000000;0.782211
9982.000000;0.781716
9981.000000;0.781207
9980.000000;0.780782
9979.000000;0.780587
9978.000000;0.780651
9977.000000;0.780781
9976.000000;0.780767
9975.000000;0.780650
9974.000000;0.780666
9973.000000;0.780908
9972.000000;0.781145
9971.000000;0.781073
9970.000000;0.780676
9969.000000;0.780219
9968.000000;0.779855
9967.000000;0.779469
9966.000000;0.779011
9965.000000;0.778756
9964.000000;0.778940
9963.000000;0.779279
9962.000000;0.779222
9961.000000;0.778702
9960.000000;0.778246
9959.000000;0.778268
9958.000000;0.778590
9957.000000;0.778833
9956.000000;0.778961
9955.000000;0.779135
9954.000000;0.779289
9953.000000;0.779184
9952.000000;0.778822
9951.000000;0.778488
9950.000000;0.778372
9949.000000;0.778330
9948.000000;0.778077
9947.000000;0.777508
9946.000000;0.776805
9945.000000;0.776308
9944.000000;0.776242
9943.000000;0.776502
9942.000000;0.776708
9941.000000;0.776530
9940.000000;0.775943
9939.000000;0.775204
9938.000000;0.774658
9937.000000;0.774572
9936.000000;0.774988
9935.000000;0.775647
9934.000000;0.776138
9933.000000;0.776198
9932.000000;0.775845
9931.000000;0.775214
9930.000000;0.774414
9929.000000;0.773609
9928.000000;0.773088
9927.000000;0.773085
9926.000000;0.773562
9925.000000;0.774225
9924.000000;0.774765
9923.000000;0.775064
9922.000000;0.775235
9921.000000;0.775466
9920.000000;0.775760
9919.000000;0.775828
9918.000000;0.775356
9917.000000;0.774413
9916.000000;0.773487
9915.000000;0.773068
9914.000000;0.773238
9913.000000;0.773706
9912.000000;0.774126
9911.000000;0.774349
9910.000000;0.774415
9909.000000;0.774399
9908.000000;0.774309
9907.000000;0.774154
9906.000000;0.774019
9905.000000;0.773930
9904.000000;0.773659
9903.000000;0.772884
9902.000000;0.771687
9901.000000;0.770653
9900.000000;0.770249
9899.000000;0.770288
9898.000000;0.770298
9897.000000;0.770253
9896.000000;0.770539
9895.000000;0.771229
9894.000000;0.771861
9893.000000;0.772035
9892.000000;0.771881
9891.000000;0.771742
9890.000000;0.771689
9889.000000;0.771582
9888.000000;0.771360
9887.000000;0.771056
9886.000000;0.770654
9885.000000;0.770158
9884.000000;0.769696
9883.000000;0.769410
9882.000000;0.769316
9881.000000;0.769392
9880.000000;0.769667
9879.000000;0.770138
9878.000000;0.770673
9877.000000;0.771098
9876.000000;0.771300
9875.000000;0.771196
9874.000000;0.770758
9873.000000;0.770151
9872.000000;0.769694
9871.000000;0.769596
9870.000000;0.769812
9869.000000;0.770182
9868.000000;0.770577
9867.000000;0.770834
9866.000000;0.770775
9865.000000;0.770430
9864.000000;0.770074
9863.000000;0.769876
9862.000000;0.769651
9861.000000;0.769173
9860.000000;0.768593
9859.000000;0.768281
9858.000000;0.768264
9857.000000;0.768115
9856.000000;0.767484
9855.000000;0.766592
9854.000000;0.766018
9853.000000;0.766074
9852.000000;0.766519
9851.000000;0.766881
9850.000000;0.766918
9849.000000;0.766682
9848.000000;0.766266
9847.000000;0.765717
9846.000000;0.765203
9845.000000;0.765022
9844.000000;0.765300
9843.000000;0.765824
9842.000000;0.766303
9841.000000;0.766658
9840.000000;0.766913
9839.000000;0.766956
9838.000000;0.766643
9837.000000;0.766088
9836.000000;0.765599
9835.000000;0.765368
9834.000000;0.765380
9833.000000;0.765546
9832.000000;0.765704
9831.000000;0.765613
9830.000000;0.765219
9829.000000;0.764870
9828.000000;0.764947
9827.000000;0.765294
9826.000000;0.765377
9825.000000;0.765039
9824.000000;0.764692
9823.000000;0.764653
9822.000000;0.764693
9821.000000;0.764491
9820.000000;0.764203
9819.000000;0.764214
9818.000000;0.764519
9817.000000;0.764685
9816.000000;0.764381
9815.000000;0.763703
9814.000000;0.762985
9813.000000;0.762510
9812.000000;0.762421
9811.000000;0.762761
9810.000000;0.763459
9809.000000;0.764305
9808.000000;0.764977
9807.000000;0.765180
9806.000000;0.764858
9805.000000;0.764281
9804.000000;0.763793
9803.000000;0.763466
9802.000000;0.763102
9801.000000;0.762560
9800.000000;0.761935
9799.000000;0.761428
9798.000000;0.761193
9797.000000;0.761331
9796.000000;0.761778
9795.000000;0.762161
9794.000000;0.762011
9793.000000;0.761312
9792.000000;0.760623
9791.000000;0.760490
9790.000000;0.760877
9789.000000;0.761356
9788.000000;0.761697
9787.000000;0.762008
9786.000000;0.762363
9785.000000;0.762605
9784.000000;0.762560
9783.000000;0.762254
9782.000000;0.761750
9781.000000;0.760941
9780.000000;0.759698
9779.000000;0.758263
9778.000000;0.757326
9777.000000;0.757492
9776.000000;0.758657
9775.000000;0.759997
9774.000000;0.760666
9773.000000;0.760458
9772.000000;0.759768
9771.000000;0.759085
9770.000000;0.758702
9769.000000;0.758725
9768.000000;0.759069
9767.000000;0.759419
9766.000000;0.759451
9765.000000;0.759148
9764.000000;0.758744
9763.000000;0.758352
9762.000000;0.757891
9761.000000;0.757398
9760.000000;0.757104
9759.000000;0.757095
9758.000000;0.757109
9757.000000;0.756887
9756.000000;0.756557
9755.000000;0.756475
9754.000000;0.756759
9753.000000;0.757180
9752.000000;0.757458
9751.000000;0.757485
9750.000000;0.757283
9749.000000;0.756923
9748.000000;0.756518
9747.000000;0.756187
9746.000000;0.755969
9745.000000;0.755809
9744.000000;0.755659
9743.000000;0.755562
9742.000000;0.755615
9741.000000;0.755833
9740.000000;0.756059
9739.000000;0.756059
9738.000000;0.755756
9737.000000;0.755360
9736.000000;0.755175
9735.000000;0.755263
9734.000000;0.755373
9733.000000;0.755255
9732.000000;0.754981
9731.000000;0.754883
9730.000000;0.755183
9729.000000;0.755735
9728.000000;0.756161
9727.000000;0.756232
9726.000000;0.756043
9725.000000;0.755807
9724.000000;0.755553
9723.000000;0.755160
9722.000000;0.754677
9721.000000;0.754388
9720.000000;0.754453
9719.000000;0.754630
9718.000000;0.754532
9717.000000;0.754094
9716.000000;0.753609
9715.000000;0.753318
9714.000000;0.753128
9713.000000;0.752771
9712.000000;0.752160
9711.000000;0.751553
9710.000000;0.751367
9709.000000;0.751774
9708.000000;0.752463
9707.000000;0.752903
9706.000000;0.752912
9705.000000;0.752801
9704.000000;0.752872
9703.000000;0.752970
9702.000000;0.752752
9701.000000;0.752239
9700.000000;0.751801
9699.000000;0.751648
9698.000000;0.751630
9697.000000;0.751535
9696.000000;0.751334
9695.000000;0.751091
9694.000000;0.750859
9693.000000;0.750760
9692.000000;0.750948
9691.000000;0.751389
9690.000000;0.751790
9689.000000;0.751846
9688.000000;0.751517
9687.000000;0.751018
9686.000000;0.750643
9685.000000;0.750593
9684.000000;0.750851
9683.000000;0.751175
9682.000000;0.751287
9681.000000;0.751114
9680.000000;0.750791
9679.000000;0.750514
9678.000000;0.750458
9677.000000;0.750722
9676.000000;0.751158
9675.000000;0.751330
9674.000000;0.750888
9673.000000;0.749995
9672.000000;0.749170
9671.000000;0.748716
9670.000000;0.748504
9669.000000;0.748356
9668.000000;0.748340
9667.000000;0.748559
9666.000000;0.748844
9665.000000;0.748885
9664.000000;0.748602
9663.000000;0.748240
9662.000000;0.748058
9661.000000;0.748028
9660.000000;0.747911
9659.000000;0.747628
9658.000000;0.747462
9657.000000;0.747749
9656.000000;0.748384
9655.000000;0.748848
9654.000000;0.748836
9653.000000;0.748657
9652.000000;0.748790
9651.000000;0.749199
9650.000000;0.749385
9649.000000;0.749046
9648.000000;0.748393
9647.000000;0.747790
9646.000000;0.747363
9645.000000;0.747042
9644.000000;0.746761
9643.000000;0.746519
9642.000000;0.746350
9641.000000;0.746277
9640.000000;0.746220
9639.000000;0.745980
9638.000000;0.745459
9637.000000;0.744868
9636.000000;0.744526
9635.000000;0.744501
9634.000000;0.744617
9633.000000;0.744782
9632.000000;0.745055
9631.000000;0.745399
9630.000000;0.745612
9629.000000;0.745579
9628.000000;0.745394
9627.000000;0.745196
9626.000000;0.745084
9625.000000;0.745195
9624.000000;0.745603
9623.000000;0.746068
9622.000000;0.746142
9621.000000;0.745673
9620.000000;0.745006
9619.000000;0.744543
9618.000000;0.744297
9617.000000;0.744021
9616.000000;0.743636
9615.000000;0.743343
9614.000000;0.743359
9613.000000;0.743690
9612.000000;0.744122
9611.000000;0.744392
9610.000000;0.744366
9609.000000;0.744071
9608.000000;0.743567
9607.000000;0.742908
9606.000000;0.742307
9605.000000;0.742156
9604.000000;0.742632
9603.000000;0.743360
9602.000000;0.743758
9601.000000;0.743720
9600.000000;0.743670
9599.000000;0.743909
9598.000000;0.744242
9597.000000;0.744358
9596.000000;0.744233
9595.000000;0.743990
9594.000000;0.743646
9593.000000;0.743242
9592.000000;0.743015
9591.000000;0.743146
9590.000000;0.743448
9589.000000;0.743531
9588.000000;0.743205
9587.000000;0.742571
9586.000000;0.741824
9585.000000;0.741173
9584.000000;0.740838
9583.000000;0.740884
9582.000000;0.741073
9581.000000;0.741094
9580.000000;0.740947
9579.000000;0.740927
9578.000000;0.741186
9577.000000;0.741517
9576.000000;0.741644
9575.000000;0.741591
9574.000000;0.741582
9573.000000;0.741661
9572.000000;0.741584
9571.000000;0.741174
9570.000000;0.740623
9569.000000;0.740313
9568.000000;0.740344
9567.000000;0.740450
9566.000000;0.740404
9565.000000;0.740339
9564.000000;0.740507
9563.000000;0.740864
9562.000000;0.741089
9561.000000;0.740979
9560.000000;0.740639
9559.000000;0.740282
9558.000000;0.740022
9557.000000;0.739867
9556.000000;0.739763
9555.000000;0.739599
9554.000000;0.739296
9553.000000;0.738954
9552.000000;0.738803
9551.000000;0.738953
9550.000000;0.739265
9549.000000;0.739486
9548.000000;0.739461
9547.000000;0.739215
9546.000000;0.738918
9545.000000;0.738734
9544.000000;0.738645
9543.000000;0.738463
9542.000000;0.738110
9541.000000;0.737790
9540.000000;0.737722
9539.000000;0.737792
9538.000000;0.737683
9537.000000;0.737334
9536.000000;0.737017
9535.000000;0.736924
9534.000000;0.736912
9533.000000;0.736741
9532.000000;0.736408
9531.000000;0.736097
9530.000000;0.735942
9529.000000;0.735939
9528.000000;0.736020
9527.000000;0.736128
9526.000000;0.736267
9525.000000;0.736500
9524.000000;0.736847
9523.000000;0.737178
9522.000000;0.737319
9521.000000;0.737227
9520.000000;0.736988
9519.000000;0.736676
9518.000000;0.736336
9517.000000;0.736063
9516.000000;0.735920
9515.000000;0.735773
9514.000000;0.735419
9513.000000;0.734901
9512.000000;0.734527
9511.000000;0.734511
9510.000000;0.734754
9509.000000;0.735039
9508.000000;0.735280
9507.000000;0.735500
9506.000000;0.735692
9505.000000;0.735796
9504.000000;0.735732
9503.000000;0.735429
9502.000000;0.734900
9501.000000;0.734320
9500.000000;0.733901
9499.000000;0.733661
9498.000000;0.733419
9497.000000;0.733063
9496.000000;0.732703
9495.000000;0.732528
9494.000000;0.732614
9493.000000;0.732862
9492.000000;0.733052
9491.000000;0.732978
9490.000000;0.732673
9489.000000;0.732474
9488.000000;0.732688
9487.000000;0.733215
9486.000000;0.733657
9485.000000;0.733792
9484.000000;0.733730
9483.000000;0.733603
9482.000000;0.733351
9481.000000;0.732908
9480.000000;0.732363
9479.000000;0.731840
9478.000000;0.731367
9477.000000;0.730989
9476.000000;0.730858
9475.000000;0.731066
9474.000000;0.731501
9473.000000;0.731922
9472.000000;0.732124
9471.000000;0.732011
9470.000000;0.731662
9469.000000;0.731345
9468.000000;0.731289
9467.000000;0.731389
9466.000000;0.731339
9465.000000;0.731085
9464.000000;0.730930
9463.000000;0.731055
9462.000000;0.731199
9461.000000;0.731009
9460.000000;0.730525
9459.000000;0.730086
9458.000000;0.729866
9457.000000;0.729741
9456.000000;0.729587
9455.000000;0.729495
9454.000000;0.729634
9453.000000;0.730009
9452.000000;0.730398
9451.000000;0.730513
9450.000000;0.730275
9449.000000;0.729910
9448.000000;0.729736
9447.000000;0.729836
9446.000000;0.730016
9445.000000;0.730080
9444.000000;0.729985
9443.000000;0.729713
9442.000000;0.729219
9441.000000;0.728596
9440.000000;0.728141
9439.000000;0.728080
9438.000000;0.728324
9437.000000;0.728613
9436.000000;0.728771
9435.000000;0.728735
9434.000000;0.728465
9433.000000;0.728021
9432.000000;0.727645
9431.000000;0.727574
9430.000000;0.727767
9429.000000;0.727947
9428.000000;0.727910
9427.000000;0.727685
9426.000000;0.727421
9425.000000;0.727231
9424.000000;0.727161
9423.000000;0.727208
9422.000000;0.727312
9421.000000;0.727381
9420.000000;0.727349
9419.000000;0.727178
9418.000000;0.726843
9417.000000;0.726368
9416.000000;0.725866
9415.000000;0.725473
9414.000000;0.725230
9413.000000;0.725071
9412.000000;0.724948
9411.000000;0.724929
9410.000000;0.725124
9409.000000;0.725510
9408.000000;0.725865
9407.000000;0.725956
9406.000000;0.725778
9405.000000;0.725545
9404.000000;0.725417
9403.000000;0.725345
9402.000000;0.725253
9401.000000;0.725229
9400.000000;0.725356
9399.000000;0.725456
9398.000000;0.725218
9397.000000;0.724612
9396.000000;0.723991
9395.000000;0.723714
9394.000000;0.723822
9393.000000;0.724117
9392.000000;0.724410
9391.000000;0.724587
9390.000000;0.724584
9389.000000;0.724434
9388.000000;0.724260
9387.000000;0.724153
9386.000000;0.724104
9385.000000;0.724090
9384.000000;0.724116
9383.000000;0.724102
9382.000000;0.723859
9381.000000;0.723321
9380.000000;0.722710
9379.000000;0.722355
9378.000000;0.722350
9377.000000;0.722527
9376.000000;0.722702
9375.000000;0.722834
9374.000000;0.722919
9373.000000;0.722879
9372.000000;0.722641
9371.000000;0.722281
9370.000000;0.721993
9369.000000;0.721921
9368.000000;0.722049
9367.000000;0.722255
9366.000000;0.722413
9365.000000;0.722426
9364.000000;0.722245
9363.000000;0.721930
9362.000000;0.721652
9361.000000;0.721533
9360.000000;0.721494
9359.000000;0.721368
9358.000000;0.721184
9357.000000;0.721161
9356.000000;0.721363
9355.000000;0.721517
9354.000000;0.721327
9353.000000;0.720861
9352.000000;0.720435
9351.000000;0.720184
9350.000000;0.719962
9349.000000;0.719669
9348.000000;0.719456
9347.000000;0.719528
9346.000000;0.719856
9345.000000;0.720160
9344.000000;0.720137
9343.000000;0.719711
9342.000000;0.719136
9341.000000;0.718819
9340.000000;0.718973
9339.000000;0.719416
9338.000000;0.719801
9337.000000;0.719969
9336.000000;0.720007
9335.000000;0.720005
9334.000000;0.719944
9333.000000;0.719803
9332.000000;0.719616
9331.000000;0.719389
9330.000000;0.719097
9329.000000;0.718802
9328.000000;0.718645
9327.000000;0.718655
9326.000000;0.718704
9325.000000;0.718693
9324.000000;0.718680
9323.000000;0.718755
9322.000000;0.718871
9321.000000;0.718883
9320.000000;0.718728
9319.000000;0.718498
9318.000000;0.718356
9317.000000;0.718353
9316.000000;0.718314
9315.000000;0.717976
9314.000000;0.717306
9313.000000;0.716651
9312.000000;0.716428
9311.000000;0.716690
9310.000000;0.717090
9309.000000;0.717274
9308.000000;0.717189
9307.000000;0.717028
9306.000000;0.716984
9305.000000;0.717101
9304.000000;0.717275
9303.000000;0.717352
9302.000000;0.717284
9301.000000;0.717166
9300.000000;0.717083
9299.000000;0.716974
9298.000000;0.716746
9297.000000;0.716456
9296.000000;0.716226
9295.000000;0.716026
9294.000000;0.715702
9293.000000;0.715213
9292.000000;0.714691
9291.000000;0.714271
9290.000000;0.714007
9289.000000;0.713945
9288.000000;0.714112
9287.000000;0.714410
9286.000000;0.714671
9285.000000;0.714839
9284.000000;0.714953
9283.000000;0.714953
9282.000000;0.714684
9281.000000;0.714138
9280.000000;0.713569
9279.000000;0.713275
9278.000000;0.713356
9277.000000;0.713673
9276.000000;0.713965
9275.000000;0.714018
9274.000000;0.713840
9273.000000;0.713654
9272.000000;0.713609
9271.000000;0.713566
9270.000000;0.713332
9269.000000;0.713010
9268.000000;0.712865
9267.000000;0.712881
9266.000000;0.712779
9265.000000;0.712487
9264.000000;0.712284
9263.000000;0.712337
9262.000000;0.712409
9261.000000;0.712231
9260.000000;0.711902
9259.000000;0.711708
9258.000000;0.711698
9257.000000;0.711690
9256.000000;0.711582
9255.000000;0.711426
9254.000000;0.711274
9253.000000;0.711136
9252.000000;0.711050
9251.000000;0.711047
9250.000000;0.711071
9249.000000;0.711066
9248.000000;0.711073
9247.000000;0.711137
9246.000000;0.711175
9245.000000;0.711060
9244.000000;0.710793
9243.000000;0.710481
9242.000000;0.710192
9241.000000;0.709941
9240.000000;0.709772
9239.000000;0.709742
9238.000000;0.709832
9237.000000;0.709938
9236.000000;0.709925
9235.000000;0.709691
9234.000000;0.709263
9233.000000;0.708878
9232.000000;0.708846
9231.000000;0.709223
9230.000000;0.709719
9229.000000;0.710042
9228.000000;0.710206
9227.000000;0.710364
9226.000000;0.710479
9225.000000;0.710370
9224.000000;0.710040
9223.000000;0.709705
9222.000000;0.709473
9221.000000;0.709216
9220.000000;0.708826
9219.000000;0.708424
9218.000000;0.708185
9217.000000;0.708112
9216.000000;0.708115
9215.000000;0.708203
9214.000000;0.708414
9213.000000;0.708617
9212.000000;0.708588
9211.000000;0.708336
9210.000000;0.708145
9209.000000;0.708187
9208.000000;0.708252
9207.000000;0.708050
9206.000000;0.707667
9205.000000;0.707478
9204.000000;0.707612
9203.000000;0.707766
9202.000000;0.707661
9201.000000;0.707450
9200.000000;0.707447
9199.000000;0.707640
9198.000000;0.707728
9197.000000;0.707584
9196.000000;0.707403
9195.000000;0.707345
9194.000000;0.707289
9193.000000;0.707066
9192.000000;0.706775
9191.000000;0.706700
9190.000000;0.706940
9189.000000;0.707249
9188.000000;0.707277
9187.000000;0.706934
9186.000000;0.706497
9185.000000;0.706324
9184.000000;0.706455
9183.000000;0.706562
9182.000000;0.706348
9181.000000;0.705902
9180.000000;0.705545
9179.000000;0.705412
9178.000000;0.705370
9177.000000;0.705328
9176.000000;0.705403
9175.000000;0.705690
9174.000000;0.706011
9173.000000;0.706059
9172.000000;0.705724
9171.000000;0.705218
9170.000000;0.704854
9169.000000;0.704751
9168.000000;0.704753
9167.000000;0.704626
9166.000000;0.704324
9165.000000;0.704009
9164.000000;0.703804
9163.000000;0.703656
9162.000000;0.703518
9161.000000;0.703511
9160.000000;0.703716
9159.000000;0.703934
9158.000000;0.703871
9157.000000;0.703571
9156.000000;0.703375
9155.000000;0.703429
9154.000000;0.703482
9153.000000;0.703289
9152.000000;0.703002
9151.000000;0.702960
9150.000000;0.703224
9149.000000;0.703502
9148.000000;0.703491
9147.000000;0.703150
9146.000000;0.702663
9145.000000;0.702227
9144.000000;0.701919
9143.000000;0.701701
9142.000000;0.701543
9141.000000;0.701518
9140.000000;0.701723
9139.000000;0.702085
9138.000000;0.702345
9137.000000;0.702276
9136.000000;0.701887
9135.000000;0.701405
9134.000000;0.701103
9133.000000;0.701128
9132.000000;0.701405
9131.000000;0.701682
9130.000000;0.701726
9129.000000;0.701523
9128.000000;0.701240
9127.000000;0.701026
9126.000000;0.700904
9125.000000;0.700837
9124.000000;0.700791
9123.000000;0.700734
9122.000000;0.700678
9121.000000;0.700718
9120.000000;0.700938
9119.000000;0.701271
9118.000000;0.701536
9117.000000;0.701590
9116.000000;0.701388
9115.000000;0.700940
9114.000000;0.700369
9113.000000;0.699947
9112.000000;0.699875
9111.000000;0.700022
9110.000000;0.700071
9109.000000;0.699952
9108.000000;0.699927
9107.000000;0.700180
9106.000000;0.700513
9105.000000;0.700576
9104.000000;0.700246
9103.000000;0.699667
9102.000000;0.699039
9101.000000;0.698518
9100.000000;0.698222
9099.000000;0.698184
9098.000000;0.698318
9097.000000;0.698484
9096.000000;0.698566
9095.000000;0.698475
9094.000000;0.698188
9093.000000;0.697828
9092.000000;0.697610
9091.000000;0.697630
9090.000000;0.697787
9089.000000;0.697954
9088.000000;0.698129
9087.000000;0.698351
9086.000000;0.698570
9085.000000;0.698677
9084.000000;0.698603
9083.000000;0.698332
9082.000000;0.697891
9081.000000;0.697391
9080.000000;0.696985
9079.000000;0.696732
9078.000000;0.696553
9077.000000;0.696382
9076.000000;0.696270
9075.000000;0.696268
9074.000000;0.696308
9073.000000;0.696265
9072.000000;0.696094
9071.000000;0.695856
9070.000000;0.695636
9069.000000;0.695487
9068.000000;0.695410
9067.000000;0.695366
9066.000000;0.695351
9065.000000;0.695428
9064.000000;0.695605
9063.000000;0.695743
9062.000000;0.695706
9061.000000;0.695579
9060.000000;0.695550
9059.000000;0.695594
9058.000000;0.695481
9057.000000;0.695158
9056.000000;0.694877
9055.000000;0.694837
9054.000000;0.694905
9053.000000;0.694866
