Criado como novo conjunto de dados;"2706_e01_daniel.spp","50404.7 Secs"
cm-1;Abs
10000.000000;0.631030
9999.000000;0.630747
9998.000000;0.630739
9997.000000;0.630985
9996.000000;0.631045
9995.000000;0.630641
9994.000000;0.629961
9993.000000;0.629339
9992.000000;0.628891
9991.000000;0.628602
9990.000000;0.628488
9989.000000;0.628491
9988.000000;0.628431
9987.000000;0.628266
9986.000000;0.628202
9985.000000;0.628373
9984.000000;0.628570
9983.000000;0.628505
9982.000000;0.628178
9981.000000;0.627759
9980.000000;0.627259
9979.000000;0.626600
9978.000000;0.625943
9977.000000;0.625633
9976.000000;0.625819
9975.000000;0.626324
9974.000000;0.626896
9973.000000;0.627386
9972.000000;0.627696
9971.000000;0.627781
9970.000000;0.627779
9969.000000;0.627899
9968.000000;0.628119
9967.000000;0.628144
9966.000000;0.627787
9965.000000;0.627245
9964.000000;0.626872
9963.000000;0.626798
9962.000000;0.626897
9961.000000;0.627007
9960.000000;0.627029
9959.000000;0.626863
9958.000000;0.626448
9957.000000;0.625887
9956.000000;0.625390
9955.000000;0.625075
9954.000000;0.624903
9953.000000;0.624809
9952.000000;0.624786
9951.000000;0.624835
9950.000000;0.624936
9949.000000;0.625124
9948.000000;0.625463
9947.000000;0.625867
9946.000000;0.626022
9945.000000;0.625649
9944.000000;0.624842
9943.000000;0.624040
9942.000000;0.623644
9941.000000;0.623712
9940.000000;0.624028
9939.000000;0.624356
9938.000000;0.624604
9937.000000;0.624808
9936.000000;0.625009
9935.000000;0.625132
9934.000000;0.624973
9933.000000;0.624356
9932.000000;0.623346
9931.000000;0.622282
9930.000000;0.621556
9929.000000;0.621359
9928.000000;0.621599
9927.000000;0.622014
9926.000000;0.622368
9925.000000;0.622618
9924.000000;0.622896
9923.000000;0.623302
9922.000000;0.623720
9921.000000;0.623914
9920.000000;0.623813
9919.000000;0.623599
9918.000000;0.623475
9917.000000;0.623440
9916.000000;0.623355
9915.000000;0.623147
9914.000000;0.622861
9913.000000;0.622577
9912.000000;0.622378
9911.000000;0.622342
9910.000000;0.622449
9909.000000;0.622545
9908.000000;0.622492
9907.000000;0.622339
9906.000000;0.622241
9905.000000;0.622228
9904.000000;0.622159
9903.000000;0.621911
9902.000000;0.621521
9901.000000;0.621127
9900.000000;0.620879
9899.000000;0.620904
9898.000000;0.621265
9897.000000;0.621874
9896.000000;0.622501
9895.000000;0.622882
9894.000000;0.622810
9893.000000;0.622204
9892.000000;0.621236
9891.000000;0.620372
9890.000000;0.620050
9889.000000;0.620238
9888.000000;0.620428
9887.000000;0.620200
9886.000000;0.619662
9885.000000;0.619203
9884.000000;0.618959
9883.000000;0.618753
9882.000000;0.618507
9881.000000;0.618397
9880.000000;0.618513
9879.000000;0.618605
9878.000000;0.618367
9877.000000;0.617895
9876.000000;0.617623
9875.000000;0.617797
9874.000000;0.618200
9873.000000;0.618431
9872.000000;0.618351
9871.000000;0.618152
9870.000000;0.618081
9869.000000;0.618219
9868.000000;0.618479
9867.000000;0.618700
9866.000000;0.618677
9865.000000;0.618257
9864.000000;0.617543
9863.000000;0.616981
9862.000000;0.617069
9861.000000;0.617858
9860.000000;0.618791
9859.000000;0.619146
9858.000000;0.618706
9857.000000;0.617938
9856.000000;0.617486
9855.000000;0.617572
9854.000000;0.617914
9853.000000;0.618109
9852.000000;0.617973
9851.000000;0.617552
9850.000000;0.616999
9849.000000;0.616508
9848.000000;0.616276
9847.000000;0.616395
9846.000000;0.616733
9845.000000;0.616991
9844.000000;0.616918
9843.000000;0.616505
9842.000000;0.615998
9841.000000;0.615699
9840.000000;0.615675
9839.000000;0.615667
9838.000000;0.615348
9837.000000;0.614711
9836.000000;0.614136
9835.000000;0.614032
9834.000000;0.614465
9833.000000;0.615149
9832.000000;0.615686
9831.000000;0.615784
9830.000000;0.615383
9829.000000;0.614704
9828.000000;0.614123
9827.000000;0.613860
9826.000000;0.613818
9825.000000;0.613800
9824.000000;0.613772
9823.000000;0.613790
9822.000000;0.613794
9821.000000;0.613683
9820.000000;0.613539
9819.000000;0.613559
9818.000000;0.613738
9817.000000;0.613846
9816.000000;0.613787
9815.000000;0.613751
9814.000000;0.613898
9813.000000;0.614085
9812.000000;0.614056
9811.000000;0.613795
9810.000000;0.613514
9809.000000;0.613401
9808.000000;0.613489
9807.000000;0.613702
9806.000000;0.613883
9805.000000;0.613841
9804.000000;0.613526
9803.000000;0.613139
9802.000000;0.612937
9801.000000;0.612960
9800.000000;0.613041
9799.000000;0.613039
9798.000000;0.612922
9797.000000;0.612674
9796.000000;0.612301
9795.000000;0.611952
9794.000000;0.611866
9793.000000;0.612080
9792.000000;0.612303
9791.000000;0.612192
9790.000000;0.611736
9789.000000;0.611289
9788.000000;0.611223
9787.000000;0.611588
9786.000000;0.612101
9785.000000;0.612424
9784.000000;0.612407
9783.000000;0.612092
9782.000000;0.611584
9781.000000;0.610991
9780.000000;0.610457
9779.000000;0.610128
9778.000000;0.610040
9777.000000;0.610108
9776.000000;0.610278
9775.000000;0.610608
9774.000000;0.611099
9773.000000;0.611525
9772.000000;0.611560
9771.000000;0.611124
9770.000000;0.610515
9769.000000;0.610154
9768.000000;0.610200
9767.000000;0.610421
9766.000000;0.610436
9765.000000;0.610081
9764.000000;0.609544
9763.000000;0.609159
9762.000000;0.609072
9761.000000;0.609153
9760.000000;0.609202
9759.000000;0.609163
9758.000000;0.609098
9757.000000;0.609053
9756.000000;0.609006
9755.000000;0.608907
9754.000000;0.608700
9753.000000;0.608368
9752.000000;0.608006
9751.000000;0.607794
9750.000000;0.607800
9749.000000;0.607845
9748.000000;0.607682
9747.000000;0.607304
9746.000000;0.606992
9745.000000;0.607020
9744.000000;0.607386
9743.000000;0.607821
9742.000000;0.607984
9741.000000;0.607673
9740.000000;0.606971
9739.000000;0.606237
9738.000000;0.605878
9737.000000;0.606034
9736.000000;0.606530
9735.000000;0.607115
9734.000000;0.607671
9733.000000;0.608117
9732.000000;0.608263
9731.000000;0.607959
9730.000000;0.607374
9729.000000;0.606954
9728.000000;0.606989
9727.000000;0.607305
9726.000000;0.607482
9725.000000;0.607326
9724.000000;0.607027
9723.000000;0.606863
9722.000000;0.606877
9721.000000;0.606889
9720.000000;0.606731
9719.000000;0.606364
9718.000000;0.605837
9717.000000;0.605246
9716.000000;0.604770
9715.000000;0.604630
9714.000000;0.604916
9713.000000;0.605453
9712.000000;0.605889
9711.000000;0.605983
9710.000000;0.605803
9709.000000;0.605620
9708.000000;0.605601
9707.000000;0.605637
9706.000000;0.605520
9705.000000;0.605236
9704.000000;0.604988
9703.000000;0.604920
9702.000000;0.604926
9701.000000;0.604808
9700.000000;0.604537
9699.000000;0.604266
9698.000000;0.604107
9697.000000;0.604027
9696.000000;0.603933
9695.000000;0.603780
9694.000000;0.603581
9693.000000;0.603414
9692.000000;0.603421
9691.000000;0.603672
9690.000000;0.603981
9689.000000;0.603973
9688.000000;0.603464
9687.000000;0.602739
9686.000000;0.602338
9685.000000;0.602568
9684.000000;0.603263
9683.000000;0.604002
9682.000000;0.604498
9681.000000;0.604731
9680.000000;0.604778
9679.000000;0.604617
9678.000000;0.604197
9677.000000;0.603643
9676.000000;0.603247
9675.000000;0.603187
9674.000000;0.603312
9673.000000;0.603310
9672.000000;0.603058
9671.000000;0.602723
9670.000000;0.602545
9669.000000;0.602606
9668.000000;0.602804
9667.000000;0.602944
9666.000000;0.602868
9665.000000;0.602603
9664.000000;0.602384
9663.000000;0.602440
9662.000000;0.602710
9661.000000;0.602889
9660.000000;0.602772
9659.000000;0.602452
9658.000000;0.602134
9657.000000;0.601890
9656.000000;0.601679
9655.000000;0.601507
9654.000000;0.601440
9653.000000;0.601526
9652.000000;0.601752
9651.000000;0.602042
9650.000000;0.602216
9649.000000;0.602040
9648.000000;0.601450
9647.000000;0.600703
9646.000000;0.600207
9645.000000;0.600138
9644.000000;0.600295
9643.000000;0.600319
9642.000000;0.600017
9641.000000;0.599494
9640.000000;0.599022
9639.000000;0.598844
9638.000000;0.599054
9637.000000;0.599577
9636.000000;0.600179
9635.000000;0.600524
9634.000000;0.600375
9633.000000;0.599836
9632.000000;0.599324
9631.000000;0.599185
9630.000000;0.599363
9629.000000;0.599536
9628.000000;0.599528
9627.000000;0.599424
9626.000000;0.599324
9625.000000;0.599216
9624.000000;0.599150
9623.000000;0.599286
9622.000000;0.599606
9621.000000;0.599736
9620.000000;0.599324
9619.000000;0.598524
9618.000000;0.597905
9617.000000;0.597843
9616.000000;0.598177
9615.000000;0.598456
9614.000000;0.598411
9613.000000;0.598143
9612.000000;0.597961
9611.000000;0.598073
9610.000000;0.598375
9609.000000;0.598497
9608.000000;0.598141
9607.000000;0.597406
9606.000000;0.596738
9605.000000;0.596538
9604.000000;0.596842
9603.000000;0.597370
9602.000000;0.597810
9601.000000;0.598011
9600.000000;0.597979
9599.000000;0.597784
9598.000000;0.597502
9597.000000;0.597220
9596.000000;0.597048
9595.000000;0.597043
9594.000000;0.597119
9593.000000;0.597070
9592.000000;0.596773
9591.000000;0.596373
9590.000000;0.596206
9589.000000;0.596497
9588.000000;0.597131
9587.000000;0.597722
9586.000000;0.597910
9585.000000;0.597592
9584.000000;0.596925
9583.000000;0.596178
9582.000000;0.595625
9581.000000;0.595497
9580.000000;0.595874
9579.000000;0.596550
9578.000000;0.597102
9577.000000;0.597243
9576.000000;0.597064
9575.000000;0.596872
9574.000000;0.596810
9573.000000;0.596749
9572.000000;0.596520
9571.000000;0.596097
9570.000000;0.595552
9569.000000;0.594977
9568.000000;0.594519
9567.000000;0.594342
9566.000000;0.594459
9565.000000;0.594665
9564.000000;0.594764
9563.000000;0.594782
9562.000000;0.594879
9561.000000;0.595082
9560.000000;0.595236
9559.000000;0.595177
9558.000000;0.594898
9557.000000;0.594528
9556.000000;0.594215
9555.000000;0.594016
9554.000000;0.593876
9553.000000;0.593729
9552.000000;0.593617
9551.000000;0.593648
9550.000000;0.593829
9549.000000;0.594027
9548.000000;0.594132
9547.000000;0.594162
9546.000000;0.594148
9545.000000;0.594030
9544.000000;0.593745
9543.000000;0.593363
9542.000000;0.593018
9541.000000;0.592776
9540.000000;0.592661
9539.000000;0.592740
9538.000000;0.593030
9537.000000;0.593356
9536.000000;0.593452
9535.000000;0.593233
9534.000000;0.592876
9533.000000;0.592599
9532.000000;0.592449
9531.000000;0.592335
9530.000000;0.592168
9529.000000;0.591932
9528.000000;0.591675
9527.000000;0.591484
9526.000000;0.591438
9525.000000;0.591552
9524.000000;0.591751
9523.000000;0.591905
9522.000000;0.591880
9521.000000;0.591619
9520.000000;0.591224
9519.000000;0.590928
9518.000000;0.590895
9517.000000;0.591069
9516.000000;0.591250
9515.000000;0.591323
9514.000000;0.591319
9513.000000;0.591285
9512.000000;0.591202
9511.000000;0.591061
9510.000000;0.590917
9509.000000;0.590795
9508.000000;0.590600
9507.000000;0.590221
9506.000000;0.589728
9505.000000;0.589362
9504.000000;0.589295
9503.000000;0.589442
9502.000000;0.589563
9501.000000;0.589542
9500.000000;0.589494
9499.000000;0.589606
9498.000000;0.589922
9497.000000;0.590317
9496.000000;0.590623
9495.000000;0.590724
9494.000000;0.590561
9493.000000;0.590149
9492.000000;0.589596
9491.000000;0.589047
9490.000000;0.588614
9489.000000;0.588385
9488.000000;0.588457
9487.000000;0.588843
9486.000000;0.589342
9485.000000;0.589637
9484.000000;0.589571
9483.000000;0.589283
9482.000000;0.589022
9481.000000;0.588911
9480.000000;0.588908
9479.000000;0.588894
9478.000000;0.588739
9477.000000;0.588391
9476.000000;0.587990
9475.000000;0.587818
9474.000000;0.588031
9473.000000;0.588449
9472.000000;0.588686
9471.000000;0.588475
9470.000000;0.587858
9469.000000;0.587147
9468.000000;0.586738
9467.000000;0.586854
9466.000000;0.587333
9465.000000;0.587727
9464.000000;0.587719
9463.000000;0.587438
9462.000000;0.587265
9461.000000;0.587393
9460.000000;0.587677
9459.000000;0.587891
9458.000000;0.587950
9457.000000;0.587858
9456.000000;0.587593
9455.000000;0.587149
9454.000000;0.586637
9453.000000;0.586243
9452.000000;0.586076
9451.000000;0.586068
9450.000000;0.586055
9449.000000;0.585956
9448.000000;0.585877
9447.000000;0.586004
9446.000000;0.586375
9445.000000;0.586792
9444.000000;0.586992
9443.000000;0.586875
9442.000000;0.586549
9441.000000;0.586188
9440.000000;0.585900
9439.000000;0.585704
9438.000000;0.585547
9437.000000;0.585369
9436.000000;0.585197
9435.000000;0.585157
9434.000000;0.585347
9433.000000;0.585695
9432.000000;0.586001
9431.000000;0.586103
9430.000000;0.585972
9429.000000;0.585682
9428.000000;0.585351
9427.000000;0.585112
9426.000000;0.585045
9425.000000;0.585132
9424.000000;0.585297
9423.000000;0.585466
9422.000000;0.585583
9421.000000;0.585571
9420.000000;0.585367
9419.000000;0.584991
9418.000000;0.584571
9417.000000;0.584249
9416.000000;0.584094
9415.000000;0.584062
9414.000000;0.584036
9413.000000;0.583920
9412.000000;0.583724
9411.000000;0.583529
9410.000000;0.583381
9409.000000;0.583268
9408.000000;0.583226
9407.000000;0.583341
9406.000000;0.583600
9405.000000;0.583801
9404.000000;0.583725
9403.000000;0.583382
9402.000000;0.583019
9401.000000;0.582887
9400.000000;0.583021
9399.000000;0.583218
9398.000000;0.583180
9397.000000;0.582764
9396.000000;0.582153
9395.000000;0.581737
9394.000000;0.581742
9393.000000;0.582030
9392.000000;0.582319
9391.000000;0.582529
9390.000000;0.582777
9389.000000;0.583074
9388.000000;0.583206
9387.000000;0.582953
9386.000000;0.582347
9385.000000;0.581674
9384.000000;0.581263
9383.000000;0.581257
9382.000000;0.581498
9381.000000;0.581647
9380.000000;0.581518
9379.000000;0.581295
9378.000000;0.581335
9377.000000;0.581715
9376.000000;0.582099
9375.000000;0.582094
9374.000000;0.581652
9373.000000;0.581084
9372.000000;0.580743
9371.000000;0.580763
9370.000000;0.581020
9369.000000;0.581256
9368.000000;0.581254
9367.000000;0.580984
9366.000000;0.580603
9365.000000;0.580335
9364.000000;0.580341
9363.000000;0.580652
9362.000000;0.581135
9361.000000;0.581513
9360.000000;0.581506
9359.000000;0.581022
9358.000000;0.580207
9357.000000;0.579350
9356.000000;0.578755
9355.000000;0.578621
9354.000000;0.578909
9353.000000;0.579315
9352.000000;0.579509
9351.000000;0.579468
9350.000000;0.579456
9349.000000;0.579619
9348.000000;0.579754
9347.000000;0.579585
9346.000000;0.579166
9345.000000;0.578840
9344.000000;0.578832
9343.000000;0.579019
9342.000000;0.579120
9341.000000;0.578985
9340.000000;0.578681
9339.000000;0.578416
9338.000000;0.578386
9337.000000;0.578613
9336.000000;0.578885
9335.000000;0.578925
9334.000000;0.578669
9333.000000;0.578294
9332.000000;0.577976
9331.000000;0.577728
9330.000000;0.577525
9329.000000;0.577455
9328.000000;0.577609
9327.000000;0.577891
9326.000000;0.578098
9325.000000;0.578188
9324.000000;0.578324
9323.000000;0.578607
9322.000000;0.578891
9321.000000;0.578929
9320.000000;0.578637
9319.000000;0.578147
9318.000000;0.577674
9317.000000;0.577400
9316.000000;0.577402
9315.000000;0.577604
9314.000000;0.577779
9313.000000;0.577685
9312.000000;0.577259
9311.000000;0.576675
9310.000000;0.576225
9309.000000;0.576126
9308.000000;0.576388
9307.000000;0.576809
9306.000000;0.577106
9305.000000;0.577116
9304.000000;0.576867
9303.000000;0.576493
9302.000000;0.576144
9301.000000;0.575968
9300.000000;0.576059
9299.000000;0.576329
9298.000000;0.576509
9297.000000;0.576378
9296.000000;0.575983
9295.000000;0.575549
9294.000000;0.575241
9293.000000;0.575097
9292.000000;0.575114
9291.000000;0.575246
9290.000000;0.575360
9289.000000;0.575336
9288.000000;0.575253
9287.000000;0.575315
9286.000000;0.575569
9285.000000;0.575818
9284.000000;0.575861
9283.000000;0.575695
9282.000000;0.575452
9281.000000;0.575257
9280.000000;0.575225
9279.000000;0.575420
9278.000000;0.575713
9277.000000;0.575784
9276.000000;0.575419
9275.000000;0.574784
9274.000000;0.574285
9273.000000;0.574175
9272.000000;0.574361
9271.000000;0.574559
9270.000000;0.574560
9269.000000;0.574379
9268.000000;0.574207
9267.000000;0.574220
9266.000000;0.574377
9265.000000;0.574447
9264.000000;0.574273
9263.000000;0.573948
9262.000000;0.573699
9261.000000;0.573628
9260.000000;0.573656
9259.000000;0.573641
9258.000000;0.573499
9257.000000;0.573259
9256.000000;0.573068
9255.000000;0.573081
9254.000000;0.573282
9253.000000;0.573439
9252.000000;0.573344
9251.000000;0.573037
9250.000000;0.572739
9249.000000;0.572592
9248.000000;0.572560
9247.000000;0.572543
9246.000000;0.572475
9245.000000;0.572317
9244.000000;0.572072
9243.000000;0.571815
9242.000000;0.571660
9241.000000;0.571678
9240.000000;0.571890
9239.000000;0.572274
9238.000000;0.572703
9237.000000;0.572921
9236.000000;0.572709
9235.000000;0.572108
9234.000000;0.571390
9233.000000;0.570807
9232.000000;0.570454
9231.000000;0.570330
9230.000000;0.570414
9229.000000;0.570629
9228.000000;0.570852
9227.000000;0.571016
9226.000000;0.571146
9225.000000;0.571255
9224.000000;0.571280
9223.000000;0.571177
9222.000000;0.571013
9221.000000;0.570912
9220.000000;0.570918
9219.000000;0.570958
9218.000000;0.570915
9217.000000;0.570717
9216.000000;0.570401
9215.000000;0.570118
9214.000000;0.570051
9213.000000;0.570262
9212.000000;0.570605
9211.000000;0.570817
9210.000000;0.570708
9209.000000;0.570297
9208.000000;0.569796
9207.000000;0.569465
9206.000000;0.569440
9205.000000;0.569667
9204.000000;0.569959
9203.000000;0.570126
9202.000000;0.570075
9201.000000;0.569832
9200.000000;0.569521
9199.000000;0.569275
9198.000000;0.569141
9197.000000;0.569053
9196.000000;0.568901
9195.000000;0.568630
9194.000000;0.568274
9193.000000;0.567924
9192.000000;0.567700
9191.000000;0.567688
9190.000000;0.567885
9189.000000;0.568205
9188.000000;0.568558
9187.000000;0.568880
9186.000000;0.569083
9185.000000;0.569062
9184.000000;0.568823
9183.000000;0.568548
9182.000000;0.568437
9181.000000;0.568509
9180.000000;0.568630
9179.000000;0.568672
9178.000000;0.568594
9177.000000;0.568413
9176.000000;0.568215
9175.000000;0.568152
9174.000000;0.568297
9173.000000;0.568493
9172.000000;0.568488
9171.000000;0.568206
9170.000000;0.567796
9169.000000;0.567411
9168.000000;0.567099
9167.000000;0.566913
9166.000000;0.566921
9165.000000;0.567036
9164.000000;0.566994
9163.000000;0.566678
9162.000000;0.566346
9161.000000;0.566367
9160.000000;0.566782
9159.000000;0.567263
9158.000000;0.567462
9157.000000;0.567276
9156.000000;0.566808
9155.000000;0.566255
9154.000000;0.565851
9153.000000;0.565771
9152.000000;0.565987
9151.000000;0.566272
9150.000000;0.566412
9149.000000;0.566351
9148.000000;0.566142
9147.000000;0.565850
9146.000000;0.565559
9145.000000;0.565385
9144.000000;0.565387
9143.000000;0.565484
9142.000000;0.565531
9141.000000;0.565461
9140.000000;0.565311
9139.000000;0.565144
9138.000000;0.565008
9137.000000;0.564935
9136.000000;0.564921
9135.000000;0.564903
9134.000000;0.564821
9133.000000;0.564701
9132.000000;0.564633
9131.000000;0.564657
9130.000000;0.564699
9129.000000;0.564644
9128.000000;0.564446
9127.000000;0.564156
9126.000000;0.563896
9125.000000;0.563788
9124.000000;0.563861
9123.000000;0.564018
9122.000000;0.564114
9121.000000;0.564091
9120.000000;0.564008
9119.000000;0.563921
9118.000000;0.563829
9117.000000;0.563733
9116.000000;0.563693
9115.000000;0.563751
9114.000000;0.563836
9113.000000;0.563839
9112.000000;0.563759
9111.000000;0.563690
9110.000000;0.563679
9109.000000;0.563679
9108.000000;0.563650
9107.000000;0.563621
9106.000000;0.563605
9105.000000;0.563537
9104.000000;0.563347
9103.000000;0.563055
9102.000000;0.562738
9101.000000;0.562438
9100.000000;0.562173
9099.000000;0.561990
9098.000000;0.561932
9097.000000;0.561956
9096.000000;0.561951
9095.000000;0.561841
9094.000000;0.561645
9093.000000;0.561432
9092.000000;0.561276
9091.000000;0.561255
9090.000000;0.561410
9089.000000;0.561649
9088.000000;0.561751
9087.000000;0.561537
9086.000000;0.561070
9085.000000;0.560640
9084.000000;0.560527
9083.000000;0.560782
9082.000000;0.561205
9081.000000;0.561517
9080.000000;0.561532
9079.000000;0.561258
9078.000000;0.560884
9077.000000;0.560666
9076.000000;0.560755
9075.000000;0.561083
9074.000000;0.561420
9073.000000;0.561564
9072.000000;0.561461
9071.000000;0.561171
9070.000000;0.560790
9069.000000;0.560445
9068.000000;0.560286
9067.000000;0.560374
9066.000000;0.560585
9065.000000;0.560701
9064.000000;0.560619
9063.000000;0.560426
9062.000000;0.560277
9061.000000;0.560241
9060.000000;0.560287
9059.000000;0.560336
9058.000000;0.560306
9057.000000;0.560150
9056.000000;0.559916
9055.000000;0.559716
9054.000000;0.559616
9053.000000;0.559572
