Criado como novo conjunto de dados;"2706_e01_daniel.spp","101887.4 Secs"
cm-1;Abs
10000.000000;0.869204
9999.000000;0.868316
9998.000000;0.867429
9997.000000;0.866544
9996.000000;0.865661
9995.000000;0.864780
9994.000000;0.863900
9993.000000;0.863023
9992.000000;0.862144
9991.000000;0.861379
9990.000000;0.860782
9989.000000;0.860559
9988.000000;0.860865
9987.000000;0.861518
9986.000000;0.862066
9985.000000;0.862160
9984.000000;0.861833
9983.000000;0.861447
9982.000000;0.861366
9981.000000;0.861667
9980.000000;0.862129
9979.000000;0.862480
9978.000000;0.862608
9977.000000;0.862567
9976.000000;0.862487
9975.000000;0.862510
9974.000000;0.862686
9973.000000;0.862876
9972.000000;0.862856
9971.000000;0.862597
9970.000000;0.862336
9969.000000;0.862280
9968.000000;0.862342
9967.000000;0.862304
9966.000000;0.862167
9965.000000;0.862177
9964.000000;0.862497
9963.000000;0.862955
9962.000000;0.863168
9961.000000;0.862886
9960.000000;0.862245
9959.000000;0.861688
9958.000000;0.861542
9957.000000;0.861659
9956.000000;0.861572
9955.000000;0.861047
9954.000000;0.860338
9953.000000;0.859856
9952.000000;0.859758
9951.000000;0.859937
9950.000000;0.860222
9949.000000;0.860421
9948.000000;0.860340
9947.000000;0.859965
9946.000000;0.859546
9945.000000;0.859340
9944.000000;0.859320
9943.000000;0.859306
9942.000000;0.859259
9941.000000;0.859290
9940.000000;0.859437
9939.000000;0.859643
9938.000000;0.859884
9937.000000;0.860104
9936.000000;0.860070
9935.000000;0.859568
9934.000000;0.858772
9933.000000;0.858180
9932.000000;0.858088
9931.000000;0.858308
9930.000000;0.858479
9929.000000;0.858469
9928.000000;0.858359
9927.000000;0.858192
9926.000000;0.857924
9925.000000;0.857591
9924.000000;0.857366
9923.000000;0.857414
9922.000000;0.857710
9921.000000;0.858030
9920.000000;0.858146
9919.000000;0.858051
9918.000000;0.857960
9917.000000;0.858030
9916.000000;0.858166
9915.000000;0.858174
9914.000000;0.858009
9913.000000;0.857731
9912.000000;0.857306
9911.000000;0.856666
9910.000000;0.855975
9909.000000;0.855634
9908.000000;0.855904
9907.000000;0.856624
9906.000000;0.857336
9905.000000;0.857633
9904.000000;0.857393
9903.000000;0.856806
9902.000000;0.856212
9901.000000;0.855818
9900.000000;0.855549
9899.000000;0.855277
9898.000000;0.855155
9897.000000;0.855482
9896.000000;0.856166
9895.000000;0.856609
9894.000000;0.856326
9893.000000;0.855576
9892.000000;0.855119
9891.000000;0.855392
9890.000000;0.856073
9889.000000;0.856485
9888.000000;0.856280
9887.000000;0.855721
9886.000000;0.855384
9885.000000;0.855614
9884.000000;0.856195
9883.000000;0.856518
9882.000000;0.856161
9881.000000;0.855326
9880.000000;0.854640
9879.000000;0.854521
9878.000000;0.854822
9877.000000;0.855077
9876.000000;0.855034
9875.000000;0.854888
9874.000000;0.855007
9873.000000;0.855487
9872.000000;0.855976
9871.000000;0.855941
9870.000000;0.855174
9869.000000;0.854058
9868.000000;0.853299
9867.000000;0.853332
9866.000000;0.853971
9865.000000;0.854627
9864.000000;0.854830
9863.000000;0.854545
9862.000000;0.854034
9861.000000;0.853545
9860.000000;0.853190
9859.000000;0.853024
9858.000000;0.853037
9857.000000;0.853044
9856.000000;0.852756
9855.000000;0.852099
9854.000000;0.851405
9853.000000;0.851113
9852.000000;0.851285
9851.000000;0.851561
9850.000000;0.851628
9849.000000;0.851583
9848.000000;0.851717
9847.000000;0.852047
9846.000000;0.852243
9845.000000;0.852015
9844.000000;0.851440
9843.000000;0.850876
9842.000000;0.850606
9841.000000;0.850617
9840.000000;0.850701
9839.000000;0.850722
9838.000000;0.850785
9837.000000;0.851112
9836.000000;0.851751
9835.000000;0.852442
9834.000000;0.852838
9833.000000;0.852834
9832.000000;0.852606
9831.000000;0.852338
9830.000000;0.852025
9829.000000;0.851564
9828.000000;0.850968
9827.000000;0.850394
9826.000000;0.850006
9825.000000;0.849854
9824.000000;0.849842
9823.000000;0.849756
9822.000000;0.849426
9821.000000;0.848969
9820.000000;0.848778
9819.000000;0.849115
9818.000000;0.849730
9817.000000;0.850061
9816.000000;0.849844
9815.000000;0.849342
9814.000000;0.848923
9813.000000;0.848644
9812.000000;0.848428
9811.000000;0.848395
9810.000000;0.848750
9809.000000;0.849396
9808.000000;0.850001
9807.000000;0.850431
9806.000000;0.850832
9805.000000;0.851190
9804.000000;0.851130
9803.000000;0.850371
9802.000000;0.849197
9801.000000;0.848237
9800.000000;0.847854
9799.000000;0.847942
9798.000000;0.848256
9797.000000;0.848705
9796.000000;0.849296
9795.000000;0.849970
9794.000000;0.850550
9793.000000;0.850777
9792.000000;0.850403
9791.000000;0.849385
9790.000000;0.848047
9789.000000;0.846943
9788.000000;0.846457
9787.000000;0.846554
9786.000000;0.846894
9785.000000;0.847145
9784.000000;0.847177
9783.000000;0.847059
9782.000000;0.846968
9781.000000;0.847063
9780.000000;0.847384
9779.000000;0.847802
9778.000000;0.848080
9777.000000;0.848020
9776.000000;0.847623
9775.000000;0.847130
9774.000000;0.846841
9773.000000;0.846850
9772.000000;0.846955
9771.000000;0.846910
9770.000000;0.846726
9769.000000;0.846644
9768.000000;0.846792
9767.000000;0.846996
9766.000000;0.846982
9765.000000;0.846714
9764.000000;0.846402
9763.000000;0.846184
9762.000000;0.845948
9761.000000;0.845539
9760.000000;0.845073
9759.000000;0.844898
9758.000000;0.845185
9757.000000;0.845682
9756.000000;0.845945
9755.000000;0.845768
9754.000000;0.845303
9753.000000;0.844831
9752.000000;0.844531
9751.000000;0.844428
9750.000000;0.844392
9749.000000;0.844186
9748.000000;0.843695
9747.000000;0.843163
9746.000000;0.843049
9745.000000;0.843532
9744.000000;0.844287
9743.000000;0.844823
9742.000000;0.844942
9741.000000;0.844750
9740.000000;0.844388
9739.000000;0.843957
9738.000000;0.843630
9737.000000;0.843586
9736.000000;0.843808
9735.000000;0.844087
9734.000000;0.844255
9733.000000;0.844301
9732.000000;0.844253
9731.000000;0.844085
9730.000000;0.843785
9729.000000;0.843455
9728.000000;0.843264
9727.000000;0.843319
9726.000000;0.843535
9725.000000;0.843657
9724.000000;0.843520
9723.000000;0.843326
9722.000000;0.843483
9721.000000;0.844046
9720.000000;0.844484
9719.000000;0.844249
9718.000000;0.843477
9717.000000;0.842853
9716.000000;0.842829
9715.000000;0.843261
9714.000000;0.843789
9713.000000;0.844256
9712.000000;0.844630
9711.000000;0.844796
9710.000000;0.844652
9709.000000;0.844280
9708.000000;0.843874
9707.000000;0.843565
9706.000000;0.843384
9705.000000;0.843285
9704.000000;0.843120
9703.000000;0.842743
9702.000000;0.842205
9701.000000;0.841740
9700.000000;0.841486
9699.000000;0.841350
9698.000000;0.841223
9697.000000;0.841155
9696.000000;0.841236
9695.000000;0.841431
9694.000000;0.841623
9693.000000;0.841707
9692.000000;0.841554
9691.000000;0.841099
9690.000000;0.840540
9689.000000;0.840263
9688.000000;0.840416
9687.000000;0.840714
9686.000000;0.840842
9685.000000;0.840837
9684.000000;0.840875
9683.000000;0.840889
9682.000000;0.840693
9681.000000;0.840350
9680.000000;0.840086
9679.000000;0.839906
9678.000000;0.839607
9677.000000;0.839156
9676.000000;0.838750
9675.000000;0.838503
9674.000000;0.838329
9673.000000;0.838169
9672.000000;0.838079
9671.000000;0.838029
9670.000000;0.837897
9669.000000;0.837722
9668.000000;0.837717
9667.000000;0.837922
9666.000000;0.838097
9665.000000;0.838097
9664.000000;0.838131
9663.000000;0.838446
9662.000000;0.838954
9661.000000;0.839374
9660.000000;0.839611
9659.000000;0.839805
9658.000000;0.840077
9657.000000;0.840409
9656.000000;0.840712
9655.000000;0.840842
9654.000000;0.840633
9653.000000;0.840081
9652.000000;0.839463
9651.000000;0.839082
9650.000000;0.838907
9649.000000;0.838627
9648.000000;0.838081
9647.000000;0.837494
9646.000000;0.837220
9645.000000;0.837357
9644.000000;0.837695
9643.000000;0.837982
9642.000000;0.838139
9641.000000;0.838231
9640.000000;0.838294
9639.000000;0.838253
9638.000000;0.838013
9637.000000;0.837614
9636.000000;0.837257
9635.000000;0.837138
9634.000000;0.837284
9633.000000;0.837527
9632.000000;0.837639
9631.000000;0.837504
9630.000000;0.837203
9629.000000;0.836953
9628.000000;0.836912
9627.000000;0.837045
9626.000000;0.837183
9625.000000;0.837223
9624.000000;0.837216
9623.000000;0.837260
9622.000000;0.837353
9621.000000;0.837369
9620.000000;0.837176
9619.000000;0.836776
9618.000000;0.836363
9617.000000;0.836191
9616.000000;0.836308
9615.000000;0.836469
9614.000000;0.836411
9613.000000;0.836195
9612.000000;0.836117
9611.000000;0.836286
9610.000000;0.836470
9609.000000;0.836416
9608.000000;0.836188
9607.000000;0.836048
9606.000000;0.836117
9605.000000;0.836260
9604.000000;0.836264
9603.000000;0.836015
9602.000000;0.835562
9601.000000;0.835083
9600.000000;0.834743
9599.000000;0.834541
9598.000000;0.834366
9597.000000;0.834252
9596.000000;0.834431
9595.000000;0.834994
9594.000000;0.835640
9593.000000;0.835940
9592.000000;0.835810
9591.000000;0.835531
9590.000000;0.835370
9589.000000;0.835364
9588.000000;0.835424
9587.000000;0.835430
9586.000000;0.835187
9585.000000;0.834572
9584.000000;0.833811
9583.000000;0.833384
9582.000000;0.833511
9581.000000;0.833874
9580.000000;0.834018
9579.000000;0.833878
9578.000000;0.833743
9577.000000;0.833801
9576.000000;0.833952
9575.000000;0.834046
9574.000000;0.834079
9573.000000;0.834103
9572.000000;0.834099
9571.000000;0.834040
9570.000000;0.833972
9569.000000;0.833944
9568.000000;0.833910
9567.000000;0.833778
9566.000000;0.833532
9565.000000;0.833268
9564.000000;0.833112
9563.000000;0.833127
9562.000000;0.833252
9561.000000;0.833309
9560.000000;0.833124
9559.000000;0.832695
9558.000000;0.832231
9557.000000;0.832011
9556.000000;0.832183
9555.000000;0.832669
9554.000000;0.833205
9553.000000;0.833457
9552.000000;0.833248
9551.000000;0.832742
9550.000000;0.832351
9549.000000;0.832317
9548.000000;0.832440
9547.000000;0.832325
9546.000000;0.831898
9545.000000;0.831510
9544.000000;0.831505
9543.000000;0.831835
9542.000000;0.832174
9541.000000;0.832255
9540.000000;0.831985
9539.000000;0.831370
9538.000000;0.830507
9537.000000;0.829651
9536.000000;0.829117
9535.000000;0.829073
9534.000000;0.829467
9533.000000;0.830095
9532.000000;0.830665
9531.000000;0.830895
9530.000000;0.830724
9529.000000;0.830410
9528.000000;0.830240
9527.000000;0.830177
9526.000000;0.829978
9525.000000;0.829648
9524.000000;0.829513
9523.000000;0.829747
9522.000000;0.830064
9521.000000;0.830080
9520.000000;0.829781
9519.000000;0.829409
9518.000000;0.829022
9517.000000;0.828476
9516.000000;0.827834
9515.000000;0.827495
9514.000000;0.827772
9513.000000;0.828496
9512.000000;0.829167
9511.000000;0.829418
9510.000000;0.829283
9509.000000;0.829043
9508.000000;0.828911
9507.000000;0.828854
9506.000000;0.828690
9505.000000;0.828338
9504.000000;0.827945
9503.000000;0.827759
9502.000000;0.827909
9501.000000;0.828327
9500.000000;0.828835
9499.000000;0.829252
9498.000000;0.829447
9497.000000;0.829387
9496.000000;0.829132
9495.000000;0.828735
9494.000000;0.828197
9493.000000;0.827589
9492.000000;0.827163
9491.000000;0.827180
9490.000000;0.827587
9489.000000;0.827974
9488.000000;0.827946
9487.000000;0.827505
9486.000000;0.827006
9485.000000;0.826752
9484.000000;0.826718
9483.000000;0.826682
9482.000000;0.826574
9481.000000;0.826607
9480.000000;0.826991
9479.000000;0.827580
9478.000000;0.827931
9477.000000;0.827770
9476.000000;0.827275
9475.000000;0.826810
9474.000000;0.826508
9473.000000;0.826233
9472.000000;0.825876
9471.000000;0.825506
9470.000000;0.825243
9469.000000;0.825171
9468.000000;0.825375
9467.000000;0.825866
9466.000000;0.826412
9465.000000;0.826612
9464.000000;0.826288
9463.000000;0.825719
9462.000000;0.825337
9461.000000;0.825282
9460.000000;0.825335
9459.000000;0.825285
9458.000000;0.825187
9457.000000;0.825220
9456.000000;0.825383
9455.000000;0.825449
9454.000000;0.825231
9453.000000;0.824830
9452.000000;0.824523
9451.000000;0.824413
9450.000000;0.824356
9449.000000;0.824253
9448.000000;0.824273
9447.000000;0.824588
9446.000000;0.824992
9445.000000;0.825062
9444.000000;0.824723
9443.000000;0.824416
9442.000000;0.824537
9441.000000;0.824904
9440.000000;0.824969
9439.000000;0.824476
9438.000000;0.823725
9437.000000;0.823195
9436.000000;0.823062
9435.000000;0.823146
9434.000000;0.823198
9433.000000;0.823164
9432.000000;0.823181
9431.000000;0.823368
9430.000000;0.823647
9429.000000;0.823778
9428.000000;0.823587
9427.000000;0.823141
9426.000000;0.822715
9425.000000;0.822601
9424.000000;0.822922
9423.000000;0.823544
9422.000000;0.824141
9421.000000;0.824409
9420.000000;0.824269
9419.000000;0.823869
9418.000000;0.823414
9417.000000;0.823049
9416.000000;0.822835
9415.000000;0.822726
9414.000000;0.822565
9413.000000;0.822237
9412.000000;0.821849
9411.000000;0.821652
9410.000000;0.821747
9409.000000;0.821985
9408.000000;0.822205
9407.000000;0.822423
9406.000000;0.822695
9405.000000;0.822931
9404.000000;0.822985
9403.000000;0.822850
9402.000000;0.822651
9401.000000;0.822465
9400.000000;0.822279
9399.000000;0.822092
9398.000000;0.821960
9397.000000;0.821953
9396.000000;0.822096
9395.000000;0.822315
9394.000000;0.822390
9393.000000;0.822084
9392.000000;0.821438
9391.000000;0.820863
9390.000000;0.820797
9389.000000;0.821258
9388.000000;0.821843
9387.000000;0.822123
9386.000000;0.821954
9385.000000;0.821431
9384.000000;0.820730
9383.000000;0.820066
9382.000000;0.819662
9381.000000;0.819653
9380.000000;0.819975
9379.000000;0.820400
9378.000000;0.820696
9377.000000;0.820792
9376.000000;0.820787
9375.000000;0.820757
9374.000000;0.820594
9373.000000;0.820132
9372.000000;0.819451
9371.000000;0.818915
9370.000000;0.818789
9369.000000;0.818964
9368.000000;0.819146
9367.000000;0.819226
9366.000000;0.819296
9365.000000;0.819384
9364.000000;0.819389
9363.000000;0.819283
9362.000000;0.819195
9361.000000;0.819258
9360.000000;0.819467
9359.000000;0.819705
9358.000000;0.819804
9357.000000;0.819615
9356.000000;0.819155
9355.000000;0.818679
9354.000000;0.818471
9353.000000;0.818566
9352.000000;0.818783
9351.000000;0.818984
9350.000000;0.819156
9349.000000;0.819240
9348.000000;0.819099
9347.000000;0.818731
9346.000000;0.818345
9345.000000;0.818143
9344.000000;0.818136
9343.000000;0.818221
9342.000000;0.818307
9341.000000;0.818307
9340.000000;0.818178
9339.000000;0.818046
9338.000000;0.818128
9337.000000;0.818432
9336.000000;0.818669
9335.000000;0.818580
9334.000000;0.818246
9333.000000;0.817943
9332.000000;0.817797
9331.000000;0.817736
9330.000000;0.817666
9329.000000;0.817537
9328.000000;0.817271
9327.000000;0.816814
9326.000000;0.816283
9325.000000;0.815917
9324.000000;0.815851
9323.000000;0.816014
9322.000000;0.816276
9321.000000;0.816604
9320.000000;0.817021
9319.000000;0.817452
9318.000000;0.817696
9317.000000;0.817575
9316.000000;0.817139
9315.000000;0.816684
9314.000000;0.816502
9313.000000;0.816598
9312.000000;0.816699
9311.000000;0.816567
9310.000000;0.816230
9309.000000;0.815899
9308.000000;0.815740
9307.000000;0.815784
9306.000000;0.815943
9305.000000;0.816050
9304.000000;0.815949
9303.000000;0.815643
9302.000000;0.815318
9301.000000;0.815157
9300.000000;0.815181
9299.000000;0.815301
9298.000000;0.815471
9297.000000;0.815699
9296.000000;0.815938
9295.000000;0.816081
9294.000000;0.816032
9293.000000;0.815762
9292.000000;0.815310
9291.000000;0.814807
9290.000000;0.814433
9289.000000;0.814288
9288.000000;0.814317
9287.000000;0.814408
9286.000000;0.814493
9285.000000;0.814514
9284.000000;0.814370
9283.000000;0.814027
9282.000000;0.813634
9281.000000;0.813425
9280.000000;0.813496
9279.000000;0.813745
9278.000000;0.814022
9277.000000;0.814250
9276.000000;0.814403
9275.000000;0.814475
9274.000000;0.814481
9273.000000;0.814432
9272.000000;0.814288
9271.000000;0.813986
9270.000000;0.813533
9269.000000;0.813039
9268.000000;0.812661
9267.000000;0.812515
9266.000000;0.812594
9265.000000;0.812745
9264.000000;0.812778
9263.000000;0.812636
9262.000000;0.812427
9261.000000;0.812262
9260.000000;0.812165
9259.000000;0.812163
9258.000000;0.812352
9257.000000;0.812744
9256.000000;0.813145
9255.000000;0.813331
9254.000000;0.813301
9253.000000;0.813210
9252.000000;0.813091
9251.000000;0.812825
9250.000000;0.812390
9249.000000;0.811956
9248.000000;0.811675
9247.000000;0.811517
9246.000000;0.811388
9245.000000;0.811311
9244.000000;0.811361
9243.000000;0.811505
9242.000000;0.811594
9241.000000;0.811536
9240.000000;0.811411
9239.000000;0.811408
9238.000000;0.811629
9237.000000;0.811952
9236.000000;0.812121
9235.000000;0.812022
9234.000000;0.811805
9233.000000;0.811668
9232.000000;0.811572
9231.000000;0.811300
9230.000000;0.810792
9229.000000;0.810284
9228.000000;0.810049
9227.000000;0.810125
9226.000000;0.810354
9225.000000;0.810579
9224.000000;0.810725
9223.000000;0.810739
9222.000000;0.810569
9221.000000;0.810246
9220.000000;0.809936
9219.000000;0.809859
9218.000000;0.810098
9217.000000;0.810459
9216.000000;0.810593
9215.000000;0.810346
9214.000000;0.809964
9213.000000;0.809836
9212.000000;0.810054
9211.000000;0.810329
9210.000000;0.810355
9209.000000;0.810115
9208.000000;0.809795
9207.000000;0.809534
9206.000000;0.809375
9205.000000;0.809352
9204.000000;0.809484
9203.000000;0.809681
9202.000000;0.809779
9201.000000;0.809701
9200.000000;0.809539
9199.000000;0.809469
9198.000000;0.809575
9197.000000;0.809777
9196.000000;0.809909
9195.000000;0.809874
9194.000000;0.809702
9193.000000;0.809454
9192.000000;0.809128
9191.000000;0.808721
9190.000000;0.808326
9189.000000;0.808051
9188.000000;0.807870
9187.000000;0.807669
9186.000000;0.807456
9185.000000;0.807393
9184.000000;0.807543
9183.000000;0.807716
9182.000000;0.807682
9181.000000;0.807458
9180.000000;0.807286
9179.000000;0.807381
9178.000000;0.807757
9177.000000;0.808234
9176.000000;0.808526
9175.000000;0.808389
9174.000000;0.807825
9173.000000;0.807151
9172.000000;0.806751
9171.000000;0.806737
9170.000000;0.806911
9169.000000;0.807041
9168.000000;0.807105
9167.000000;0.807234
9166.000000;0.807489
9165.000000;0.807762
9164.000000;0.807875
9163.000000;0.807740
9162.000000;0.807414
9161.000000;0.807031
9160.000000;0.806680
9159.000000;0.806352
9158.000000;0.805983
9157.000000;0.805551
9156.000000;0.805145
9155.000000;0.804924
9154.000000;0.804982
9153.000000;0.805228
9152.000000;0.805433
9151.000000;0.805449
9150.000000;0.805366
9149.000000;0.805392
9148.000000;0.805605
9147.000000;0.805873
9146.000000;0.806019
9145.000000;0.806001
9144.000000;0.805923
9143.000000;0.805931
9142.000000;0.806092
9141.000000;0.806302
9140.000000;0.806340
9139.000000;0.806089
9138.000000;0.805710
9137.000000;0.805490
9136.000000;0.805513
9135.000000;0.805598
9134.000000;0.805589
9133.000000;0.805544
9132.000000;0.805564
9131.000000;0.805570
9130.000000;0.805423
9129.000000;0.805172
9128.000000;0.805012
9127.000000;0.804999
9126.000000;0.804955
9125.000000;0.804709
9124.000000;0.804319
9123.000000;0.804026
9122.000000;0.804024
9121.000000;0.804289
9120.000000;0.804607
9119.000000;0.804757
9118.000000;0.804696
9117.000000;0.804541
9116.000000;0.804397
9115.000000;0.804251
9114.000000;0.804075
9113.000000;0.803934
9112.000000;0.803921
9111.000000;0.804015
9110.000000;0.804097
9109.000000;0.804075
9108.000000;0.803957
9107.000000;0.803789
9106.000000;0.803611
9105.000000;0.803444
9104.000000;0.803295
9103.000000;0.803167
9102.000000;0.803087
9101.000000;0.803065
9100.000000;0.803023
9099.000000;0.802858
9098.000000;0.802611
9097.000000;0.802470
9096.000000;0.802518
9095.000000;0.802600
9094.000000;0.802550
9093.000000;0.802434
9092.000000;0.802418
9091.000000;0.802461
9090.000000;0.802368
9089.000000;0.802109
9088.000000;0.801888
9087.000000;0.801835
9086.000000;0.801835
9085.000000;0.801732
9084.000000;0.801547
9083.000000;0.801387
9082.000000;0.801273
9081.000000;0.801159
9080.000000;0.801057
9079.000000;0.801019
9078.000000;0.801047
9077.000000;0.801117
9076.000000;0.801244
9075.000000;0.801456
9074.000000;0.801704
9073.000000;0.801885
9072.000000;0.801910
9071.000000;0.801725
9070.000000;0.801312
9069.000000;0.800747
9068.000000;0.800248
9067.000000;0.800051
9066.000000;0.800224
9065.000000;0.800616
9064.000000;0.800988
9063.000000;0.801173
9062.000000;0.801140
9061.000000;0.800966
9060.000000;0.800764
9059.000000;0.800611
9058.000000;0.800521
9057.000000;0.800464
9056.000000;0.800398
9055.000000;0.800293
9054.000000;0.800151
9053.000000;0.800021
