Criado como novo conjunto de dados;"2706_e01_daniel.spp","43204.3 Secs"
cm-1;Abs
10000.000000;0.866348
9999.000000;0.865572
9998.000000;0.864791
9997.000000;0.864026
9996.000000;0.863198
9995.000000;0.862330
9994.000000;0.861442
9993.000000;0.860631
9992.000000;0.860267
9991.000000;0.860654
9990.000000;0.861729
9989.000000;0.863044
9988.000000;0.864069
9987.000000;0.864451
9986.000000;0.864147
9985.000000;0.863426
9984.000000;0.862663
9983.000000;0.862048
9982.000000;0.861517
9981.000000;0.861015
9980.000000;0.860699
9979.000000;0.860772
9978.000000;0.861168
9977.000000;0.861571
9976.000000;0.861741
9975.000000;0.861705
9974.000000;0.861617
9973.000000;0.861546
9972.000000;0.861481
9971.000000;0.861485
9970.000000;0.861718
9969.000000;0.862222
9968.000000;0.862698
9967.000000;0.862609
9966.000000;0.861679
9965.000000;0.860313
9964.000000;0.859335
9963.000000;0.859262
9962.000000;0.859904
9961.000000;0.860697
9960.000000;0.861256
9959.000000;0.861494
9958.000000;0.861381
9957.000000;0.860904
9956.000000;0.860249
9955.000000;0.859748
9954.000000;0.859518
9953.000000;0.859345
9952.000000;0.859018
9951.000000;0.858650
9950.000000;0.858470
9949.000000;0.858393
9948.000000;0.858030
9947.000000;0.857251
9946.000000;0.856558
9945.000000;0.856666
9944.000000;0.857650
9943.000000;0.858704
9942.000000;0.858918
9941.000000;0.858210
9940.000000;0.857273
9939.000000;0.856706
9938.000000;0.856543
9937.000000;0.856656
9936.000000;0.857154
9935.000000;0.858048
9934.000000;0.858834
9933.000000;0.858879
9932.000000;0.858158
9931.000000;0.857227
9930.000000;0.856501
9929.000000;0.855980
9928.000000;0.855695
9927.000000;0.855886
9926.000000;0.856530
9925.000000;0.857069
9924.000000;0.857007
9923.000000;0.856543
9922.000000;0.856272
9921.000000;0.856380
9920.000000;0.856502
9919.000000;0.856309
9918.000000;0.855927
9917.000000;0.855675
9916.000000;0.855654
9915.000000;0.855708
9914.000000;0.855667
9913.000000;0.855483
9912.000000;0.855179
9911.000000;0.854803
9910.000000;0.854471
9909.000000;0.854393
9908.000000;0.854716
9907.000000;0.855245
9906.000000;0.855459
9905.000000;0.855020
9904.000000;0.854258
9903.000000;0.853872
9902.000000;0.854116
9901.000000;0.854501
9900.000000;0.854459
9899.000000;0.854066
9898.000000;0.853865
9897.000000;0.854152
9896.000000;0.854706
9895.000000;0.855144
9894.000000;0.855272
9893.000000;0.855109
9892.000000;0.854786
9891.000000;0.854414
9890.000000;0.853944
9889.000000;0.853240
9888.000000;0.852420
9887.000000;0.851964
9886.000000;0.852219
9885.000000;0.852913
9884.000000;0.853423
9883.000000;0.853494
9882.000000;0.853392
9881.000000;0.853380
9880.000000;0.853394
9879.000000;0.853268
9878.000000;0.852961
9877.000000;0.852469
9876.000000;0.851827
9875.000000;0.851287
9874.000000;0.851171
9873.000000;0.851351
9872.000000;0.851199
9871.000000;0.850295
9870.000000;0.849014
9869.000000;0.848156
9868.000000;0.848138
9867.000000;0.848742
9866.000000;0.849471
9865.000000;0.849925
9864.000000;0.849979
9863.000000;0.849855
9862.000000;0.849987
9861.000000;0.850585
9860.000000;0.851329
9859.000000;0.851666
9858.000000;0.851403
9857.000000;0.850864
9856.000000;0.850498
9855.000000;0.850509
9854.000000;0.850816
9853.000000;0.851163
9852.000000;0.851256
9851.000000;0.850948
9850.000000;0.850400
9849.000000;0.850004
9848.000000;0.850075
9847.000000;0.850586
9846.000000;0.851159
9845.000000;0.851315
9844.000000;0.850883
9843.000000;0.850229
9842.000000;0.849967
9841.000000;0.850306
9840.000000;0.850749
9839.000000;0.850592
9838.000000;0.849671
9837.000000;0.848496
9836.000000;0.847685
9835.000000;0.847483
9834.000000;0.847766
9833.000000;0.848254
9832.000000;0.848619
9831.000000;0.848560
9830.000000;0.847991
9829.000000;0.847139
9828.000000;0.846380
9827.000000;0.845988
9826.000000;0.846022
9825.000000;0.846392
9824.000000;0.846930
9823.000000;0.847442
9822.000000;0.847755
9821.000000;0.847794
9820.000000;0.847615
9819.000000;0.847337
9818.000000;0.847027
9817.000000;0.846632
9816.000000;0.846077
9815.000000;0.845439
9814.000000;0.844969
9813.000000;0.844893
9812.000000;0.845222
9811.000000;0.845772
9810.000000;0.846329
9809.000000;0.846767
9808.000000;0.847045
9807.000000;0.847166
9806.000000;0.847162
9805.000000;0.847085
9804.000000;0.847012
9803.000000;0.846990
9802.000000;0.846937
9801.000000;0.846666
9800.000000;0.846120
9799.000000;0.845554
9798.000000;0.845279
9797.000000;0.845239
9796.000000;0.845048
9795.000000;0.844536
9794.000000;0.844038
9793.000000;0.843962
9792.000000;0.844243
9791.000000;0.844478
9790.000000;0.844477
9789.000000;0.844411
9788.000000;0.844441
9787.000000;0.844472
9786.000000;0.844329
9785.000000;0.844012
9784.000000;0.843662
9783.000000;0.843407
9782.000000;0.843287
9781.000000;0.843217
9780.000000;0.843024
9779.000000;0.842620
9778.000000;0.842190
9777.000000;0.842086
9776.000000;0.842469
9775.000000;0.843146
9774.000000;0.843771
9773.000000;0.844129
9772.000000;0.844187
9771.000000;0.844004
9770.000000;0.843679
9769.000000;0.843319
9768.000000;0.843015
9767.000000;0.842859
9766.000000;0.842946
9765.000000;0.843286
9764.000000;0.843708
9763.000000;0.843961
9762.000000;0.843905
9761.000000;0.843528
9760.000000;0.842801
9759.000000;0.841749
9758.000000;0.840705
9757.000000;0.840238
9756.000000;0.840614
9755.000000;0.841404
9754.000000;0.841838
9753.000000;0.841541
9752.000000;0.840848
9751.000000;0.840411
9750.000000;0.840604
9749.000000;0.841265
9748.000000;0.841869
9747.000000;0.841934
9746.000000;0.841365
9745.000000;0.840510
9744.000000;0.839874
9743.000000;0.839777
9742.000000;0.840210
9741.000000;0.840904
9740.000000;0.841467
9739.000000;0.841550
9738.000000;0.841033
9737.000000;0.840152
9736.000000;0.839396
9735.000000;0.839209
9734.000000;0.839693
9733.000000;0.840477
9732.000000;0.840881
9731.000000;0.840400
9730.000000;0.839183
9729.000000;0.837996
9728.000000;0.837554
9727.000000;0.837868
9726.000000;0.838341
9725.000000;0.838471
9724.000000;0.838318
9723.000000;0.838254
9722.000000;0.838460
9721.000000;0.838852
9720.000000;0.839337
9719.000000;0.839891
9718.000000;0.840340
9717.000000;0.840318
9716.000000;0.839637
9715.000000;0.838615
9714.000000;0.837881
9713.000000;0.837839
9712.000000;0.838383
9711.000000;0.839061
9710.000000;0.839410
9709.000000;0.839162
9708.000000;0.838328
9707.000000;0.837217
9706.000000;0.836282
9705.000000;0.835834
9704.000000;0.835855
9703.000000;0.836107
9702.000000;0.836371
9701.000000;0.836559
9700.000000;0.836661
9699.000000;0.836685
9698.000000;0.836644
9697.000000;0.836560
9696.000000;0.836489
9695.000000;0.836539
9694.000000;0.836798
9693.000000;0.837170
9692.000000;0.837364
9691.000000;0.837154
9690.000000;0.836644
9689.000000;0.836185
9688.000000;0.836036
9687.000000;0.836200
9686.000000;0.836549
9685.000000;0.836956
9684.000000;0.837276
9683.000000;0.837363
9682.000000;0.837230
9681.000000;0.837089
9680.000000;0.837096
9679.000000;0.837103
9678.000000;0.836786
9677.000000;0.836068
9676.000000;0.835280
9675.000000;0.834869
9674.000000;0.834948
9673.000000;0.835235
9672.000000;0.835391
9671.000000;0.835355
9670.000000;0.835273
9669.000000;0.835212
9668.000000;0.835087
9667.000000;0.834893
9666.000000;0.834810
9665.000000;0.834947
9664.000000;0.835135
9663.000000;0.835131
9662.000000;0.834971
9661.000000;0.834892
9660.000000;0.834925
9659.000000;0.834822
9658.000000;0.834456
9657.000000;0.834049
9656.000000;0.833844
9655.000000;0.833744
9654.000000;0.833506
9653.000000;0.833185
9652.000000;0.833099
9651.000000;0.833332
9650.000000;0.833514
9649.000000;0.833212
9648.000000;0.832457
9647.000000;0.831753
9646.000000;0.831586
9645.000000;0.831975
9644.000000;0.832487
9643.000000;0.832665
9642.000000;0.832452
9641.000000;0.832168
9640.000000;0.832126
9639.000000;0.832329
9638.000000;0.832578
9637.000000;0.832750
9636.000000;0.832850
9635.000000;0.832869
9634.000000;0.832761
9633.000000;0.832560
9632.000000;0.832383
9631.000000;0.832270
9630.000000;0.832128
9629.000000;0.831889
9628.000000;0.831613
9627.000000;0.831388
9626.000000;0.831211
9625.000000;0.831021
9624.000000;0.830807
9623.000000;0.830605
9622.000000;0.830459
9621.000000;0.830434
9620.000000;0.830604
9619.000000;0.830955
9618.000000;0.831304
9617.000000;0.831387
9616.000000;0.831065
9615.000000;0.830458
9614.000000;0.829908
9613.000000;0.829791
9612.000000;0.830233
9611.000000;0.830931
9610.000000;0.831329
9609.000000;0.831079
9608.000000;0.830349
9607.000000;0.829642
9606.000000;0.829348
9605.000000;0.829492
9604.000000;0.829817
9603.000000;0.830004
9602.000000;0.829879
9601.000000;0.829523
9600.000000;0.829184
9599.000000;0.829012
9598.000000;0.828901
9597.000000;0.828681
9596.000000;0.828421
9595.000000;0.828369
9594.000000;0.828591
9593.000000;0.828846
9592.000000;0.828877
9591.000000;0.828706
9590.000000;0.828494
9589.000000;0.828243
9588.000000;0.827818
9587.000000;0.827250
9586.000000;0.826857
9585.000000;0.826970
9584.000000;0.827594
9583.000000;0.828381
9582.000000;0.828903
9581.000000;0.828940
9580.000000;0.828553
9579.000000;0.827946
9578.000000;0.827315
9577.000000;0.826825
9576.000000;0.826656
9575.000000;0.826941
9574.000000;0.827608
9573.000000;0.828342
9572.000000;0.828804
9571.000000;0.828884
9570.000000;0.828730
9569.000000;0.828519
9568.000000;0.828264
9567.000000;0.827855
9566.000000;0.827258
9565.000000;0.826647
9564.000000;0.826315
9563.000000;0.826418
9562.000000;0.826812
9561.000000;0.827164
9560.000000;0.827225
9559.000000;0.826978
9558.000000;0.826554
9557.000000;0.826090
9556.000000;0.825692
9555.000000;0.825444
9554.000000;0.825362
9553.000000;0.825384
9552.000000;0.825458
9551.000000;0.825584
9550.000000;0.825726
9549.000000;0.825740
9548.000000;0.825526
9547.000000;0.825214
9546.000000;0.825083
9545.000000;0.825250
9544.000000;0.825514
9543.000000;0.825572
9542.000000;0.825315
9541.000000;0.824894
9540.000000;0.824545
9539.000000;0.824395
9538.000000;0.824407
9537.000000;0.824456
9536.000000;0.824425
9535.000000;0.824276
9534.000000;0.824053
9533.000000;0.823871
9532.000000;0.823864
9531.000000;0.824064
9530.000000;0.824298
9529.000000;0.824273
9528.000000;0.823867
9527.000000;0.823307
9526.000000;0.822969
9525.000000;0.823002
9524.000000;0.823230
9523.000000;0.823402
9522.000000;0.823431
9521.000000;0.823362
9520.000000;0.823221
9519.000000;0.822991
9518.000000;0.822692
9517.000000;0.822405
9516.000000;0.822191
9515.000000;0.822044
9514.000000;0.821928
9513.000000;0.821831
9512.000000;0.821769
9511.000000;0.821743
9510.000000;0.821739
9509.000000;0.821785
9508.000000;0.821978
9507.000000;0.822375
9506.000000;0.822830
9505.000000;0.823027
9504.000000;0.822759
9503.000000;0.822156
9502.000000;0.821580
9501.000000;0.821316
9500.000000;0.821397
9499.000000;0.821654
9498.000000;0.821863
9497.000000;0.821890
9496.000000;0.821788
9495.000000;0.821699
9494.000000;0.821597
9493.000000;0.821254
9492.000000;0.820618
9491.000000;0.820103
9490.000000;0.820222
9489.000000;0.820928
9488.000000;0.821597
9487.000000;0.821764
9486.000000;0.821602
9485.000000;0.821535
9484.000000;0.821638
9483.000000;0.821664
9482.000000;0.821493
9481.000000;0.821241
9480.000000;0.820989
9479.000000;0.820682
9478.000000;0.820312
9477.000000;0.819979
9476.000000;0.819727
9475.000000;0.819494
9474.000000;0.819262
9473.000000;0.819119
9472.000000;0.819120
9471.000000;0.819221
9470.000000;0.819385
9469.000000;0.819611
9468.000000;0.819793
9467.000000;0.819698
9466.000000;0.819195
9465.000000;0.818446
9464.000000;0.817792
9463.000000;0.817485
9462.000000;0.817556
9461.000000;0.817858
9460.000000;0.818163
9459.000000;0.818287
9458.000000;0.818200
9457.000000;0.818006
9456.000000;0.817811
9455.000000;0.817676
9454.000000;0.817683
9453.000000;0.817917
9452.000000;0.818308
9451.000000;0.818598
9450.000000;0.818568
9449.000000;0.818257
9448.000000;0.817874
9447.000000;0.817556
9446.000000;0.817313
9445.000000;0.817153
9444.000000;0.817112
9443.000000;0.817142
9442.000000;0.817107
9441.000000;0.816937
9440.000000;0.816733
9439.000000;0.816652
9438.000000;0.816733
9437.000000;0.816885
9436.000000;0.817017
9435.000000;0.817130
9434.000000;0.817271
9433.000000;0.817418
9432.000000;0.817436
9431.000000;0.817195
9430.000000;0.816735
9429.000000;0.816270
9428.000000;0.815996
9427.000000;0.815907
9426.000000;0.815842
9425.000000;0.815667
9424.000000;0.815375
9423.000000;0.815036
9422.000000;0.814753
9421.000000;0.814661
9420.000000;0.814850
9419.000000;0.815238
9418.000000;0.815601
9417.000000;0.815782
9416.000000;0.815800
9415.000000;0.815735
9414.000000;0.815587
9413.000000;0.815356
9412.000000;0.815145
9411.000000;0.815038
9410.000000;0.814915
9409.000000;0.814573
9408.000000;0.814050
9407.000000;0.813686
9406.000000;0.813779
9405.000000;0.814276
9404.000000;0.814886
9403.000000;0.815372
9402.000000;0.815633
9401.000000;0.815602
9400.000000;0.815248
9399.000000;0.814680
9398.000000;0.814104
9397.000000;0.813643
9396.000000;0.813289
9395.000000;0.813033
9394.000000;0.812945
9393.000000;0.813081
9392.000000;0.813389
9391.000000;0.813736
9390.000000;0.813982
9389.000000;0.814020
9388.000000;0.813825
9387.000000;0.813519
9386.000000;0.813292
9385.000000;0.813193
9384.000000;0.813069
9383.000000;0.812777
9382.000000;0.812411
9381.000000;0.812219
9380.000000;0.812314
9379.000000;0.812556
9378.000000;0.812713
9377.000000;0.812685
9376.000000;0.812535
9375.000000;0.812378
9374.000000;0.812279
9373.000000;0.812245
9372.000000;0.812258
9371.000000;0.812284
9370.000000;0.812258
9369.000000;0.812112
9368.000000;0.811890
9367.000000;0.811780
9366.000000;0.811946
9365.000000;0.812294
9364.000000;0.812515
9363.000000;0.812427
9362.000000;0.812191
9361.000000;0.812061
9360.000000;0.812002
9359.000000;0.811727
9358.000000;0.811136
9357.000000;0.810531
9356.000000;0.810289
9355.000000;0.810440
9354.000000;0.810710
9353.000000;0.810907
9352.000000;0.811088
9351.000000;0.811325
9350.000000;0.811464
9349.000000;0.811253
9348.000000;0.810680
9347.000000;0.810056
9346.000000;0.809751
9345.000000;0.809866
9344.000000;0.810169
9343.000000;0.810319
9342.000000;0.810148
9341.000000;0.809762
9340.000000;0.809410
9339.000000;0.809275
9338.000000;0.809358
9337.000000;0.809549
9336.000000;0.809727
9335.000000;0.809796
9334.000000;0.809670
9333.000000;0.809346
9332.000000;0.808976
9331.000000;0.808794
9330.000000;0.808885
9329.000000;0.809087
9328.000000;0.809161
9327.000000;0.809030
9326.000000;0.808802
9325.000000;0.808606
9324.000000;0.808493
9323.000000;0.808474
9322.000000;0.808548
9321.000000;0.808659
9320.000000;0.808730
9319.000000;0.808786
9318.000000;0.808960
9317.000000;0.809307
9316.000000;0.809655
9315.000000;0.809749
9314.000000;0.809510
9313.000000;0.809082
9312.000000;0.808639
9311.000000;0.808220
9310.000000;0.807778
9309.000000;0.807321
9308.000000;0.806953
9307.000000;0.806801
9306.000000;0.806910
9305.000000;0.807178
9304.000000;0.807397
9303.000000;0.807415
9302.000000;0.807313
9301.000000;0.807364
9300.000000;0.807745
9299.000000;0.808277
9298.000000;0.808527
9297.000000;0.808203
9296.000000;0.807435
9295.000000;0.806642
9294.000000;0.806152
9293.000000;0.805972
9292.000000;0.805885
9291.000000;0.805741
9290.000000;0.805612
9289.000000;0.805680
9288.000000;0.806001
9287.000000;0.806406
9286.000000;0.806666
9285.000000;0.806705
9284.000000;0.806592
9283.000000;0.806354
9282.000000;0.805914
9281.000000;0.805281
9280.000000;0.804683
9279.000000;0.804419
9278.000000;0.804570
9277.000000;0.804944
9276.000000;0.805262
9275.000000;0.805351
9274.000000;0.805200
9273.000000;0.804957
9272.000000;0.804862
9271.000000;0.805036
9270.000000;0.805291
9269.000000;0.805281
9268.000000;0.804883
9267.000000;0.804322
9266.000000;0.803866
9265.000000;0.803559
9264.000000;0.803340
9263.000000;0.803276
9262.000000;0.803478
9261.000000;0.803859
9260.000000;0.804164
9259.000000;0.804243
9258.000000;0.804145
9257.000000;0.803967
9256.000000;0.803753
9255.000000;0.803559
9254.000000;0.803466
9253.000000;0.803488
9252.000000;0.803545
9251.000000;0.803579
9250.000000;0.803579
9249.000000;0.803469
9248.000000;0.803130
9247.000000;0.802613
9246.000000;0.802216
9245.000000;0.802218
9244.000000;0.802591
9243.000000;0.803038
9242.000000;0.803284
9241.000000;0.803263
9240.000000;0.803068
9239.000000;0.802834
9238.000000;0.802670
9237.000000;0.802622
9236.000000;0.802647
9235.000000;0.802658
9234.000000;0.802589
9233.000000;0.802431
9232.000000;0.802231
9231.000000;0.802090
9230.000000;0.802089
9229.000000;0.802193
9228.000000;0.802229
9227.000000;0.802033
9226.000000;0.801614
9225.000000;0.801175
9224.000000;0.800936
9223.000000;0.800933
9222.000000;0.801003
9221.000000;0.800968
9220.000000;0.800825
9219.000000;0.800721
9218.000000;0.800732
9217.000000;0.800751
9216.000000;0.800647
9215.000000;0.800463
9214.000000;0.800352
9213.000000;0.800357
9212.000000;0.800363
9211.000000;0.800261
9210.000000;0.800045
9209.000000;0.799751
9208.000000;0.799431
9207.000000;0.799230
9206.000000;0.799331
9205.000000;0.799724
9204.000000;0.800132
9203.000000;0.800297
9202.000000;0.800259
9201.000000;0.800256
9200.000000;0.800387
9199.000000;0.800493
9198.000000;0.800375
9197.000000;0.800012
9196.000000;0.799568
9195.000000;0.799236
9194.000000;0.799105
9193.000000;0.799104
9192.000000;0.799078
9191.000000;0.798936
9190.000000;0.798744
9189.000000;0.798626
9188.000000;0.798611
9187.000000;0.798614
9186.000000;0.798564
9185.000000;0.798492
9184.000000;0.798464
9183.000000;0.798484
9182.000000;0.798482
9181.000000;0.798420
9180.000000;0.798372
9179.000000;0.798484
9178.000000;0.798811
9177.000000;0.799214
9176.000000;0.799457
9175.000000;0.799430
9174.000000;0.799231
9173.000000;0.799011
9172.000000;0.798801
9171.000000;0.798543
9170.000000;0.798203
9169.000000;0.797811
9168.000000;0.797405
9167.000000;0.797031
9166.000000;0.796761
9165.000000;0.796649
9164.000000;0.796655
9163.000000;0.796670
9162.000000;0.796633
9161.000000;0.796559
9160.000000;0.796457
9159.000000;0.796289
9158.000000;0.796047
9157.000000;0.795828
9156.000000;0.795774
9155.000000;0.795960
9154.000000;0.796344
9153.000000;0.796805
9152.000000;0.797187
9151.000000;0.797330
9150.000000;0.797153
9149.000000;0.796749
9148.000000;0.796355
9147.000000;0.796142
9146.000000;0.796021
9145.000000;0.795733
9144.000000;0.795161
9143.000000;0.794504
9142.000000;0.794079
9141.000000;0.794008
9140.000000;0.794184
9139.000000;0.794476
9138.000000;0.794840
9137.000000;0.795192
9136.000000;0.795326
9135.000000;0.795081
9134.000000;0.794557
9133.000000;0.794064
9132.000000;0.793849
9131.000000;0.793918
9130.000000;0.794092
9129.000000;0.794190
9128.000000;0.794135
9127.000000;0.793938
9126.000000;0.793647
9125.000000;0.793328
9124.000000;0.793080
9123.000000;0.793005
9122.000000;0.793115
9121.000000;0.793315
9120.000000;0.793512
9119.000000;0.793717
9118.000000;0.793967
9117.000000;0.794168
9116.000000;0.794134
9115.000000;0.793812
9114.000000;0.793387
9113.000000;0.793106
9112.000000;0.793041
9111.000000;0.793075
9110.000000;0.793059
9109.000000;0.792937
9108.000000;0.792761
9107.000000;0.792645
9106.000000;0.792681
9105.000000;0.792856
9104.000000;0.793052
9103.000000;0.793146
9102.000000;0.793112
9101.000000;0.793022
9100.000000;0.792969
9099.000000;0.792995
9098.000000;0.793031
9097.000000;0.792906
9096.000000;0.792505
9095.000000;0.791939
9094.000000;0.791494
9093.000000;0.791353
9092.000000;0.791423
9091.000000;0.791482
9090.000000;0.791455
9089.000000;0.791456
9088.000000;0.791592
9087.000000;0.791811
9086.000000;0.791942
9085.000000;0.791854
9084.000000;0.791547
9083.000000;0.791155
9082.000000;0.790856
9081.000000;0.790768
9080.000000;0.790880
9079.000000;0.791051
9078.000000;0.791070
9077.000000;0.790811
9076.000000;0.790379
9075.000000;0.790077
9074.000000;0.790109
9073.000000;0.790337
9072.000000;0.790430
9071.000000;0.790261
9070.000000;0.790019
9069.000000;0.789910
9068.000000;0.789912
9067.000000;0.789911
9066.000000;0.789918
9065.000000;0.790013
9064.000000;0.790154
9063.000000;0.790212
9062.000000;0.790137
9061.000000;0.789970
9060.000000;0.789727
9059.000000;0.789419
9058.000000;0.789150
9057.000000;0.789070
9056.000000;0.789192
9055.000000;0.789370
9054.000000;0.789473
9053.000000;0.789479
