Criado como novo conjunto de dados;"2706_e01_daniel.spp","79386.1 Secs"
cm-1;Abs
10000.000000;0.784383
9999.000000;0.784155
9998.000000;0.783956
9997.000000;0.783694
9996.000000;0.783795
9995.000000;0.784547
9994.000000;0.785455
9993.000000;0.786005
9992.000000;0.786201
9991.000000;0.786279
9990.000000;0.786018
9989.000000;0.784977
9988.000000;0.783202
9987.000000;0.781353
9986.000000;0.780173
9985.000000;0.780031
9984.000000;0.780806
9983.000000;0.781992
9982.000000;0.783018
9981.000000;0.783669
9980.000000;0.784094
9979.000000;0.784331
9978.000000;0.784093
9977.000000;0.783210
9976.000000;0.782049
9975.000000;0.781226
9974.000000;0.781055
9973.000000;0.781444
9972.000000;0.782126
9971.000000;0.782753
9970.000000;0.782994
9969.000000;0.782838
9968.000000;0.782720
9967.000000;0.783037
9966.000000;0.783607
9965.000000;0.783846
9964.000000;0.783448
9963.000000;0.782717
9962.000000;0.782231
9961.000000;0.782292
9960.000000;0.782633
9959.000000;0.782588
9958.000000;0.781731
9957.000000;0.780436
9956.000000;0.779579
9955.000000;0.779545
9954.000000;0.779820
9953.000000;0.779783
9952.000000;0.779565
9951.000000;0.779741
9950.000000;0.780366
9949.000000;0.780845
9948.000000;0.780735
9947.000000;0.780244
9946.000000;0.779791
9945.000000;0.779437
9944.000000;0.778972
9943.000000;0.778343
9942.000000;0.777768
9941.000000;0.777480
9940.000000;0.777507
9939.000000;0.777680
9938.000000;0.777801
9937.000000;0.777832
9936.000000;0.777938
9935.000000;0.778312
9934.000000;0.778937
9933.000000;0.779537
9932.000000;0.779791
9931.000000;0.779559
9930.000000;0.778908
9929.000000;0.777976
9928.000000;0.776894
9927.000000;0.775868
9926.000000;0.775285
9925.000000;0.775577
9924.000000;0.776804
9923.000000;0.778389
9922.000000;0.779446
9921.000000;0.779452
9920.000000;0.778568
9919.000000;0.777266
9918.000000;0.775853
9917.000000;0.774468
9916.000000;0.773390
9915.000000;0.773081
9914.000000;0.773804
9913.000000;0.775254
9912.000000;0.776645
9911.000000;0.777257
9910.000000;0.776942
9909.000000;0.776121
9908.000000;0.775310
9907.000000;0.774711
9906.000000;0.774254
9905.000000;0.773873
9904.000000;0.773566
9903.000000;0.773264
9902.000000;0.772849
9901.000000;0.772331
9900.000000;0.771888
9899.000000;0.771703
9898.000000;0.771889
9897.000000;0.772525
9896.000000;0.773604
9895.000000;0.774875
9894.000000;0.775878
9893.000000;0.776229
9892.000000;0.775823
9891.000000;0.774829
9890.000000;0.773607
9889.000000;0.772594
9888.000000;0.772049
9887.000000;0.771822
9886.000000;0.771506
9885.000000;0.770909
9884.000000;0.770269
9883.000000;0.770006
9882.000000;0.770342
9881.000000;0.771166
9880.000000;0.772113
9879.000000;0.772718
9878.000000;0.772654
9877.000000;0.771925
9876.000000;0.770825
9875.000000;0.769750
9874.000000;0.769069
9873.000000;0.769022
9872.000000;0.769532
9871.000000;0.770163
9870.000000;0.770491
9869.000000;0.770545
9868.000000;0.770682
9867.000000;0.771047
9866.000000;0.771363
9865.000000;0.771290
9864.000000;0.770744
9863.000000;0.769830
9862.000000;0.768694
9861.000000;0.767572
9860.000000;0.766799
9859.000000;0.766622
9858.000000;0.767051
9857.000000;0.767909
9856.000000;0.768871
9855.000000;0.769488
9854.000000;0.769448
9853.000000;0.768984
9852.000000;0.768771
9851.000000;0.769250
9850.000000;0.770127
9849.000000;0.770672
9848.000000;0.770423
9847.000000;0.769494
9846.000000;0.768342
9845.000000;0.767384
9844.000000;0.766827
9843.000000;0.766647
9842.000000;0.766678
9841.000000;0.766708
9840.000000;0.766562
9839.000000;0.766174
9838.000000;0.765654
9837.000000;0.765240
9836.000000;0.765102
9835.000000;0.765233
9834.000000;0.765576
9833.000000;0.766102
9832.000000;0.766639
9831.000000;0.766764
9830.000000;0.766175
9829.000000;0.765105
9828.000000;0.764127
9827.000000;0.763569
9826.000000;0.763374
9825.000000;0.763474
9824.000000;0.763928
9823.000000;0.764609
9822.000000;0.765119
9821.000000;0.765213
9820.000000;0.765062
9819.000000;0.764923
9818.000000;0.764767
9817.000000;0.764451
9816.000000;0.764050
9815.000000;0.763774
9814.000000;0.763653
9813.000000;0.763496
9812.000000;0.763147
9811.000000;0.762648
9810.000000;0.762200
9809.000000;0.762039
9808.000000;0.762301
9807.000000;0.762925
9806.000000;0.763691
9805.000000;0.764335
9804.000000;0.764621
9803.000000;0.764396
9802.000000;0.763731
9801.000000;0.762972
9800.000000;0.762506
9799.000000;0.762485
9798.000000;0.762870
9797.000000;0.763612
9796.000000;0.764525
9795.000000;0.765049
9794.000000;0.764546
9793.000000;0.762984
9792.000000;0.761103
9791.000000;0.759777
9790.000000;0.759380
9789.000000;0.759765
9788.000000;0.760575
9787.000000;0.761463
9786.000000;0.762254
9785.000000;0.763018
9784.000000;0.763831
9783.000000;0.764410
9782.000000;0.764228
9781.000000;0.763117
9780.000000;0.761542
9779.000000;0.760187
9778.000000;0.759479
9777.000000;0.759538
9776.000000;0.760236
9775.000000;0.761094
9774.000000;0.761450
9773.000000;0.761048
9772.000000;0.760311
9771.000000;0.759842
9770.000000;0.759810
9769.000000;0.759996
9768.000000;0.760216
9767.000000;0.760439
9766.000000;0.760638
9765.000000;0.760755
9764.000000;0.760743
9763.000000;0.760485
9762.000000;0.759845
9761.000000;0.758982
9760.000000;0.758437
9759.000000;0.758623
9758.000000;0.759319
9757.000000;0.759882
9756.000000;0.759914
9755.000000;0.759520
9754.000000;0.759032
9753.000000;0.758729
9752.000000;0.758761
9751.000000;0.759044
9750.000000;0.759223
9749.000000;0.758976
9748.000000;0.758408
9747.000000;0.757963
9746.000000;0.757937
9745.000000;0.758206
9744.000000;0.758420
9743.000000;0.758310
9742.000000;0.757795
9741.000000;0.756981
9740.000000;0.756146
9739.000000;0.755602
9738.000000;0.755499
9737.000000;0.755789
9736.000000;0.756334
9735.000000;0.756978
9734.000000;0.757527
9733.000000;0.757792
9732.000000;0.757680
9731.000000;0.757229
9730.000000;0.756579
9729.000000;0.755938
9728.000000;0.755498
9727.000000;0.755277
9726.000000;0.755099
9725.000000;0.754845
9724.000000;0.754656
9723.000000;0.754767
9722.000000;0.755179
9721.000000;0.755623
9720.000000;0.755837
9719.000000;0.755751
9718.000000;0.755448
9717.000000;0.755076
9716.000000;0.754821
9715.000000;0.754824
9714.000000;0.755053
9713.000000;0.755326
9712.000000;0.755448
9711.000000;0.755256
9710.000000;0.754601
9709.000000;0.753482
9708.000000;0.752235
9707.000000;0.751418
9706.000000;0.751363
9705.000000;0.751916
9704.000000;0.752642
9703.000000;0.753186
9702.000000;0.753374
9701.000000;0.753117
9700.000000;0.752481
9699.000000;0.751814
9698.000000;0.751571
9697.000000;0.751901
9696.000000;0.752524
9695.000000;0.753075
9694.000000;0.753450
9693.000000;0.753721
9692.000000;0.753842
9691.000000;0.753656
9690.000000;0.753159
9689.000000;0.752573
9688.000000;0.752137
9687.000000;0.751937
9686.000000;0.751963
9685.000000;0.752156
9684.000000;0.752339
9683.000000;0.752267
9682.000000;0.751876
9681.000000;0.751376
9680.000000;0.750988
9679.000000;0.750723
9678.000000;0.750498
9677.000000;0.750366
9676.000000;0.750466
9675.000000;0.750798
9674.000000;0.751164
9673.000000;0.751320
9672.000000;0.751109
9671.000000;0.750519
9670.000000;0.749740
9669.000000;0.749085
9668.000000;0.748715
9667.000000;0.748482
9666.000000;0.748195
9665.000000;0.747975
9664.000000;0.748145
9663.000000;0.748767
9662.000000;0.749480
9661.000000;0.749892
9660.000000;0.750025
9659.000000;0.750259
9658.000000;0.750845
9657.000000;0.751555
9656.000000;0.751791
9655.000000;0.751109
9654.000000;0.749664
9653.000000;0.748132
9652.000000;0.747172
9651.000000;0.746980
9650.000000;0.747337
9649.000000;0.747943
9648.000000;0.748578
9647.000000;0.749053
9646.000000;0.749191
9645.000000;0.748947
9644.000000;0.748459
9643.000000;0.747960
9642.000000;0.747656
9641.000000;0.747613
9640.000000;0.747698
9639.000000;0.747671
9638.000000;0.747415
9637.000000;0.747042
9636.000000;0.746750
9635.000000;0.746661
9634.000000;0.746839
9633.000000;0.747302
9632.000000;0.747890
9631.000000;0.748213
9630.000000;0.747942
9629.000000;0.747140
9628.000000;0.746214
9627.000000;0.745581
9626.000000;0.745446
9625.000000;0.745747
9624.000000;0.746175
9623.000000;0.746342
9622.000000;0.746119
9621.000000;0.745767
9620.000000;0.745600
9619.000000;0.745617
9618.000000;0.745598
9617.000000;0.745437
9616.000000;0.745194
9615.000000;0.744942
9614.000000;0.744771
9613.000000;0.744850
9612.000000;0.745252
9611.000000;0.745738
9610.000000;0.745933
9609.000000;0.745698
9608.000000;0.745145
9607.000000;0.744387
9606.000000;0.743538
9605.000000;0.742900
9604.000000;0.742811
9603.000000;0.743223
9602.000000;0.743686
9601.000000;0.743855
9600.000000;0.743821
9599.000000;0.743860
9598.000000;0.744032
9597.000000;0.744145
9596.000000;0.743992
9595.000000;0.743542
9594.000000;0.742980
9593.000000;0.742573
9592.000000;0.742418
9591.000000;0.742359
9590.000000;0.742237
9589.000000;0.742142
9588.000000;0.742245
9587.000000;0.742499
9586.000000;0.742742
9585.000000;0.743026
9584.000000;0.743544
9583.000000;0.744217
9582.000000;0.744652
9581.000000;0.744607
9580.000000;0.744240
9579.000000;0.743803
9578.000000;0.743302
9577.000000;0.742609
9576.000000;0.741756
9575.000000;0.740995
9574.000000;0.740629
9573.000000;0.740810
9572.000000;0.741387
9571.000000;0.741937
9570.000000;0.742101
9569.000000;0.741900
9568.000000;0.741646
9567.000000;0.741554
9566.000000;0.741614
9565.000000;0.741719
9564.000000;0.741704
9563.000000;0.741334
9562.000000;0.740552
9561.000000;0.739724
9560.000000;0.739342
9559.000000;0.739447
9558.000000;0.739647
9557.000000;0.739708
9556.000000;0.739791
9555.000000;0.740042
9554.000000;0.740307
9553.000000;0.740398
9552.000000;0.740336
9551.000000;0.740161
9550.000000;0.739823
9549.000000;0.739486
9548.000000;0.739593
9547.000000;0.740322
9546.000000;0.741182
9545.000000;0.741448
9544.000000;0.740884
9543.000000;0.739818
9542.000000;0.738682
9541.000000;0.737773
9540.000000;0.737315
9539.000000;0.737389
9538.000000;0.737769
9537.000000;0.738069
9536.000000;0.738111
9535.000000;0.738017
9534.000000;0.737965
9533.000000;0.738001
9532.000000;0.738061
9531.000000;0.738062
9530.000000;0.737927
9529.000000;0.737637
9528.000000;0.737239
9527.000000;0.736813
9526.000000;0.736468
9525.000000;0.736389
9524.000000;0.736725
9523.000000;0.737341
9522.000000;0.737841
9521.000000;0.737952
9520.000000;0.737784
9519.000000;0.737593
9518.000000;0.737435
9517.000000;0.737225
9516.000000;0.736994
9515.000000;0.736850
9514.000000;0.736736
9513.000000;0.736455
9512.000000;0.735935
9511.000000;0.735298
9510.000000;0.734662
9509.000000;0.734041
9508.000000;0.733488
9507.000000;0.733194
9506.000000;0.733365
9505.000000;0.734049
9504.000000;0.735095
9503.000000;0.736226
9502.000000;0.737133
9501.000000;0.737600
9500.000000;0.737598
9499.000000;0.737224
9498.000000;0.736568
9497.000000;0.735690
9496.000000;0.734725
9495.000000;0.733910
9494.000000;0.733422
9493.000000;0.733231
9492.000000;0.733179
9491.000000;0.733218
9490.000000;0.733479
9489.000000;0.734059
9488.000000;0.734789
9487.000000;0.735315
9486.000000;0.735427
9485.000000;0.735207
9484.000000;0.734831
9483.000000;0.734349
9482.000000;0.733749
9481.000000;0.733127
9480.000000;0.732607
9479.000000;0.732167
9478.000000;0.731700
9477.000000;0.731247
9476.000000;0.731028
9475.000000;0.731196
9474.000000;0.731645
9473.000000;0.732103
9472.000000;0.732332
9471.000000;0.732269
9470.000000;0.732061
9469.000000;0.731937
9468.000000;0.731944
9467.000000;0.731854
9466.000000;0.731461
9465.000000;0.730933
9464.000000;0.730670
9463.000000;0.730801
9462.000000;0.730995
9461.000000;0.730852
9460.000000;0.730346
9459.000000;0.729808
9458.000000;0.729599
9457.000000;0.729875
9456.000000;0.730525
9455.000000;0.731228
9454.000000;0.731638
9453.000000;0.731625
9452.000000;0.731327
9451.000000;0.730977
9450.000000;0.730740
9449.000000;0.730688
9448.000000;0.730788
9447.000000;0.730865
9446.000000;0.730681
9445.000000;0.730143
9444.000000;0.729406
9443.000000;0.728766
9442.000000;0.728499
9441.000000;0.728744
9440.000000;0.729380
9439.000000;0.729986
9438.000000;0.730120
9437.000000;0.729717
9436.000000;0.729132
9435.000000;0.728727
9434.000000;0.728534
9433.000000;0.728381
9432.000000;0.728184
9431.000000;0.728005
9430.000000;0.727896
9429.000000;0.727814
9428.000000;0.727691
9427.000000;0.727483
9426.000000;0.727184
9425.000000;0.726836
9424.000000;0.726527
9423.000000;0.726370
9422.000000;0.726472
9421.000000;0.726881
9420.000000;0.727486
9419.000000;0.728036
9418.000000;0.728314
9417.000000;0.728311
9416.000000;0.728147
9415.000000;0.727869
9414.000000;0.727431
9413.000000;0.726868
9412.000000;0.726353
9411.000000;0.726058
9410.000000;0.726019
9409.000000;0.726155
9408.000000;0.726319
9407.000000;0.726326
9406.000000;0.726059
9405.000000;0.725595
9404.000000;0.725152
9403.000000;0.724907
9402.000000;0.724924
9401.000000;0.725210
9400.000000;0.725700
9399.000000;0.726195
9398.000000;0.726473
9397.000000;0.726510
9396.000000;0.726471
9395.000000;0.726450
9394.000000;0.726354
9393.000000;0.726091
9392.000000;0.725750
9391.000000;0.725521
9390.000000;0.725501
9389.000000;0.725621
9388.000000;0.725697
9387.000000;0.725545
9386.000000;0.725112
9385.000000;0.724536
9384.000000;0.724014
9383.000000;0.723645
9382.000000;0.723470
9381.000000;0.723563
9380.000000;0.723909
9379.000000;0.724229
9378.000000;0.724144
9377.000000;0.723605
9376.000000;0.722977
9375.000000;0.722650
9374.000000;0.722671
9373.000000;0.722816
9372.000000;0.722863
9371.000000;0.722751
9370.000000;0.722580
9369.000000;0.722537
9368.000000;0.722713
9367.000000;0.722983
9366.000000;0.723149
9365.000000;0.723216
9364.000000;0.723379
9363.000000;0.723704
9362.000000;0.723978
9361.000000;0.723899
9360.000000;0.723297
9359.000000;0.722199
9358.000000;0.720901
9357.000000;0.720023
9356.000000;0.720164
9355.000000;0.721306
9354.000000;0.722712
9353.000000;0.723581
9352.000000;0.723713
9351.000000;0.723386
9350.000000;0.722813
9349.000000;0.721987
9348.000000;0.720982
9347.000000;0.720103
9346.000000;0.719672
9345.000000;0.719789
9344.000000;0.720299
9343.000000;0.720906
9342.000000;0.721319
9341.000000;0.721409
9340.000000;0.721253
9339.000000;0.721019
9338.000000;0.720837
9337.000000;0.720799
9336.000000;0.720959
9335.000000;0.721213
9334.000000;0.721263
9333.000000;0.720862
9332.000000;0.720105
9331.000000;0.719385
9330.000000;0.719030
9329.000000;0.719048
9328.000000;0.719197
9327.000000;0.719233
9326.000000;0.719076
9325.000000;0.718822
9324.000000;0.718651
9323.000000;0.718685
9322.000000;0.718897
9321.000000;0.719115
9320.000000;0.719111
9319.000000;0.718741
9318.000000;0.718083
9317.000000;0.717450
9316.000000;0.717172
9315.000000;0.717350
9314.000000;0.717824
9313.000000;0.718358
9312.000000;0.718755
9311.000000;0.718833
9310.000000;0.718486
9309.000000;0.717855
9308.000000;0.717331
9307.000000;0.717217
9306.000000;0.717444
9305.000000;0.717692
9304.000000;0.717749
9303.000000;0.717614
9302.000000;0.717333
9301.000000;0.716896
9300.000000;0.716358
9299.000000;0.715906
9298.000000;0.715713
9297.000000;0.715793
9296.000000;0.716064
9295.000000;0.716484
9294.000000;0.717003
9293.000000;0.717423
9292.000000;0.717452
9291.000000;0.716973
9290.000000;0.716198
9289.000000;0.715465
9288.000000;0.714931
9287.000000;0.714537
9286.000000;0.714245
9285.000000;0.714166
9284.000000;0.714406
9283.000000;0.714865
9282.000000;0.715275
9281.000000;0.715408
9280.000000;0.715236
9279.000000;0.714932
9278.000000;0.714749
9277.000000;0.714826
9276.000000;0.715051
9275.000000;0.715156
9274.000000;0.714991
9273.000000;0.714659
9272.000000;0.714360
9271.000000;0.714176
9270.000000;0.714061
9269.000000;0.713976
9268.000000;0.713939
9267.000000;0.713965
9266.000000;0.714012
9265.000000;0.713992
9264.000000;0.713794
9263.000000;0.713356
9262.000000;0.712754
9261.000000;0.712205
9260.000000;0.711914
9259.000000;0.711950
9258.000000;0.712247
9257.000000;0.712666
9256.000000;0.713023
9255.000000;0.713204
9254.000000;0.713278
9253.000000;0.713399
9252.000000;0.713542
9251.000000;0.713474
9250.000000;0.713061
9249.000000;0.712457
9248.000000;0.711890
9247.000000;0.711418
9246.000000;0.711037
9245.000000;0.710883
9244.000000;0.711118
9243.000000;0.711685
9242.000000;0.712346
9241.000000;0.712897
9240.000000;0.713202
9239.000000;0.713138
9238.000000;0.712711
9237.000000;0.712164
9236.000000;0.711749
9235.000000;0.711433
9234.000000;0.711021
9233.000000;0.710536
9232.000000;0.710254
9231.000000;0.710345
9230.000000;0.710680
9229.000000;0.711023
9228.000000;0.711239
9227.000000;0.711264
9226.000000;0.711061
9225.000000;0.710684
9224.000000;0.710246
9223.000000;0.709787
9222.000000;0.709272
9221.000000;0.708762
9220.000000;0.708460
9219.000000;0.708530
9218.000000;0.708953
9217.000000;0.709552
9216.000000;0.710065
9215.000000;0.710207
9214.000000;0.709841
9213.000000;0.709126
9212.000000;0.708430
9211.000000;0.708067
9210.000000;0.708169
9209.000000;0.708726
9208.000000;0.709567
9207.000000;0.710316
9206.000000;0.710568
9205.000000;0.710200
9204.000000;0.709415
9203.000000;0.708485
9202.000000;0.707592
9201.000000;0.706880
9200.000000;0.706490
9199.000000;0.706462
9198.000000;0.706728
9197.000000;0.707223
9196.000000;0.707890
9195.000000;0.708573
9194.000000;0.709034
9193.000000;0.709121
9192.000000;0.708836
9191.000000;0.708252
9190.000000;0.707515
9189.000000;0.706906
9188.000000;0.706706
9187.000000;0.706904
9186.000000;0.707163
9185.000000;0.707122
9184.000000;0.706682
9183.000000;0.705997
9182.000000;0.705325
9181.000000;0.704930
9180.000000;0.704982
9179.000000;0.705462
9178.000000;0.706174
9177.000000;0.706857
9176.000000;0.707227
9175.000000;0.707041
9174.000000;0.706292
9173.000000;0.705321
9172.000000;0.704553
9171.000000;0.704093
9170.000000;0.703775
9169.000000;0.703581
9168.000000;0.703762
9167.000000;0.704454
9166.000000;0.705347
9165.000000;0.705899
9164.000000;0.705791
9163.000000;0.705124
9162.000000;0.704278
9161.000000;0.703643
9160.000000;0.703381
9159.000000;0.703329
9158.000000;0.703207
9157.000000;0.702963
9156.000000;0.702839
9155.000000;0.703064
9154.000000;0.703575
9153.000000;0.704094
9152.000000;0.704425
9151.000000;0.704565
9150.000000;0.704600
9149.000000;0.704549
9148.000000;0.704325
9147.000000;0.703845
9146.000000;0.703223
9145.000000;0.702765
9144.000000;0.702680
9143.000000;0.702834
9142.000000;0.702891
9141.000000;0.702678
9140.000000;0.702300
9139.000000;0.701928
9138.000000;0.701622
9137.000000;0.701350
9136.000000;0.701055
9135.000000;0.700698
9134.000000;0.700351
9133.000000;0.700240
9132.000000;0.700516
9131.000000;0.701007
9130.000000;0.701348
9129.000000;0.701388
9128.000000;0.701331
9127.000000;0.701452
9126.000000;0.701793
9125.000000;0.702163
9124.000000;0.702287
9123.000000;0.701979
9122.000000;0.701309
9121.000000;0.700612
9120.000000;0.700183
9119.000000;0.699982
9118.000000;0.699804
9117.000000;0.699693
9116.000000;0.699939
9115.000000;0.700639
9114.000000;0.701484
9113.000000;0.702093
9112.000000;0.702335
9111.000000;0.702254
9110.000000;0.701897
9109.000000;0.701366
9108.000000;0.700844
9107.000000;0.700410
9106.000000;0.699940
9105.000000;0.699329
9104.000000;0.698710
9103.000000;0.698330
9102.000000;0.698309
9101.000000;0.698590
9100.000000;0.699012
9099.000000;0.699363
9098.000000;0.699484
9097.000000;0.699446
9096.000000;0.699485
9095.000000;0.699687
9094.000000;0.699849
9093.000000;0.699720
9092.000000;0.699271
9091.000000;0.698650
9090.000000;0.698009
9089.000000;0.697492
9088.000000;0.697249
9087.000000;0.697315
9086.000000;0.697538
9085.000000;0.697739
9084.000000;0.697871
9083.000000;0.697956
9082.000000;0.697988
9081.000000;0.697969
9080.000000;0.697951
9079.000000;0.697910
9078.000000;0.697711
9077.000000;0.697322
9076.000000;0.696976
9075.000000;0.696958
9074.000000;0.697273
9073.000000;0.697640
9072.000000;0.697765
9071.000000;0.697527
9070.000000;0.696971
9069.000000;0.696249
9068.000000;0.695568
9067.000000;0.695081
9066.000000;0.694809
9065.000000;0.694714
9064.000000;0.694802
9063.000000;0.695111
9062.000000;0.695630
9061.000000;0.696277
9060.000000;0.696906
9059.000000;0.697321
9058.000000;0.697348
9057.000000;0.696969
9056.000000;0.696336
9055.000000;0.695609
9054.000000;0.694856
9053.000000;0.694139
