Criado como novo conjunto de dados;"2706_e01_daniel.spp","50044.6 Secs"
cm-1;Abs
10000.000000;0.675543
9999.000000;0.675395
9998.000000;0.674841
9997.000000;0.673970
9996.000000;0.673257
9995.000000;0.673066
9994.000000;0.673230
9993.000000;0.673247
9992.000000;0.672902
9991.000000;0.672509
9990.000000;0.672432
9989.000000;0.672540
9988.000000;0.672405
9987.000000;0.671937
9986.000000;0.671510
9985.000000;0.671411
9984.000000;0.671475
9983.000000;0.671418
9982.000000;0.671282
9981.000000;0.671294
9980.000000;0.671449
9979.000000;0.671506
9978.000000;0.671352
9977.000000;0.671118
9976.000000;0.670921
9975.000000;0.670725
9974.000000;0.670548
9973.000000;0.670620
9972.000000;0.671155
9971.000000;0.672014
9970.000000;0.672746
9969.000000;0.672992
9968.000000;0.672769
9967.000000;0.672320
9966.000000;0.671795
9965.000000;0.671193
9964.000000;0.670570
9963.000000;0.670104
9962.000000;0.669869
9961.000000;0.669687
9960.000000;0.669349
9959.000000;0.668914
9958.000000;0.668636
9957.000000;0.668651
9956.000000;0.668858
9955.000000;0.669087
9954.000000;0.669231
9953.000000;0.669223
9952.000000;0.669067
9951.000000;0.668913
9950.000000;0.668947
9949.000000;0.669134
9948.000000;0.669203
9947.000000;0.668962
9946.000000;0.668521
9945.000000;0.668141
9944.000000;0.667964
9943.000000;0.667971
9942.000000;0.668068
9941.000000;0.668144
9940.000000;0.668134
9939.000000;0.668104
9938.000000;0.668181
9937.000000;0.668319
9936.000000;0.668252
9935.000000;0.667777
9934.000000;0.667052
9933.000000;0.666513
9932.000000;0.666499
9931.000000;0.666982
9930.000000;0.667565
9929.000000;0.667751
9928.000000;0.667329
9927.000000;0.666585
9926.000000;0.666070
9925.000000;0.666091
9924.000000;0.666473
9923.000000;0.666840
9922.000000;0.667013
9921.000000;0.667053
9920.000000;0.667035
9919.000000;0.666910
9918.000000;0.666596
9917.000000;0.666138
9916.000000;0.665742
9915.000000;0.665594
9914.000000;0.665630
9913.000000;0.665534
9912.000000;0.665095
9911.000000;0.664504
9910.000000;0.664157
9909.000000;0.664189
9908.000000;0.664345
9907.000000;0.664313
9906.000000;0.664028
9905.000000;0.663629
9904.000000;0.663304
9903.000000;0.663209
9902.000000;0.663388
9901.000000;0.663683
9900.000000;0.663893
9899.000000;0.664035
9898.000000;0.664279
9897.000000;0.664615
9896.000000;0.664842
9895.000000;0.664946
9894.000000;0.665145
9893.000000;0.665419
9892.000000;0.665317
9891.000000;0.664553
9890.000000;0.663544
9889.000000;0.662996
9888.000000;0.663078
9887.000000;0.663330
9886.000000;0.663338
9885.000000;0.663157
9884.000000;0.663054
9883.000000;0.663113
9882.000000;0.663192
9881.000000;0.663100
9880.000000;0.662724
9879.000000;0.662112
9878.000000;0.661484
9877.000000;0.661091
9876.000000;0.661046
9875.000000;0.661308
9874.000000;0.661759
9873.000000;0.662205
9872.000000;0.662401
9871.000000;0.662224
9870.000000;0.661809
9869.000000;0.661423
9868.000000;0.661237
9867.000000;0.661278
9866.000000;0.661483
9865.000000;0.661684
9864.000000;0.661650
9863.000000;0.661328
9862.000000;0.660972
9861.000000;0.660862
9860.000000;0.660973
9859.000000;0.661061
9858.000000;0.661021
9857.000000;0.660978
9856.000000;0.661047
9855.000000;0.661196
9854.000000;0.661327
9853.000000;0.661343
9852.000000;0.661161
9851.000000;0.660812
9850.000000;0.660480
9849.000000;0.660292
9848.000000;0.660143
9847.000000;0.659882
9846.000000;0.659605
9845.000000;0.659528
9844.000000;0.659641
9843.000000;0.659717
9842.000000;0.659634
9841.000000;0.659430
9840.000000;0.659080
9839.000000;0.658521
9838.000000;0.657942
9837.000000;0.657731
9836.000000;0.657996
9835.000000;0.658407
9834.000000;0.658619
9833.000000;0.658610
9832.000000;0.658474
9831.000000;0.658175
9830.000000;0.657742
9829.000000;0.657479
9828.000000;0.657644
9827.000000;0.658043
9826.000000;0.658233
9825.000000;0.658098
9824.000000;0.657947
9823.000000;0.658033
9822.000000;0.658250
9821.000000;0.658360
9820.000000;0.658305
9819.000000;0.658156
9818.000000;0.657936
9817.000000;0.657658
9816.000000;0.657449
9815.000000;0.657440
9814.000000;0.657544
9813.000000;0.657491
9812.000000;0.657147
9811.000000;0.656711
9810.000000;0.656522
9809.000000;0.656714
9808.000000;0.657088
9807.000000;0.657289
9806.000000;0.657059
9805.000000;0.656368
9804.000000;0.655414
9803.000000;0.654520
9802.000000;0.653959
9801.000000;0.653824
9800.000000;0.654054
9799.000000;0.654541
9798.000000;0.655129
9797.000000;0.655553
9796.000000;0.655565
9795.000000;0.655189
9794.000000;0.654753
9793.000000;0.654555
9792.000000;0.654572
9791.000000;0.654590
9790.000000;0.654535
9789.000000;0.654553
9788.000000;0.654795
9787.000000;0.655210
9786.000000;0.655575
9785.000000;0.655668
9784.000000;0.655443
9783.000000;0.655077
9782.000000;0.654791
9781.000000;0.654634
9780.000000;0.654502
9779.000000;0.654368
9778.000000;0.654327
9777.000000;0.654340
9776.000000;0.654145
9775.000000;0.653630
9774.000000;0.653117
9773.000000;0.653025
9772.000000;0.653323
9771.000000;0.653580
9770.000000;0.653535
9769.000000;0.653334
9768.000000;0.653179
9767.000000;0.653029
9766.000000;0.652791
9765.000000;0.652571
9764.000000;0.652548
9763.000000;0.652725
9762.000000;0.652958
9761.000000;0.653163
9760.000000;0.653335
9759.000000;0.653440
9758.000000;0.653419
9757.000000;0.653282
9756.000000;0.653108
9755.000000;0.652962
9754.000000;0.652857
9753.000000;0.652784
9752.000000;0.652721
9751.000000;0.652670
9750.000000;0.652691
9749.000000;0.652855
9748.000000;0.653094
9747.000000;0.653152
9746.000000;0.652791
9745.000000;0.652044
9744.000000;0.651222
9743.000000;0.650663
9742.000000;0.650491
9741.000000;0.650597
9740.000000;0.650800
9739.000000;0.650997
9738.000000;0.651172
9737.000000;0.651304
9736.000000;0.651352
9735.000000;0.651333
9734.000000;0.651338
9733.000000;0.651373
9732.000000;0.651273
9731.000000;0.650885
9730.000000;0.650315
9729.000000;0.649874
9728.000000;0.649743
9727.000000;0.649780
9726.000000;0.649692
9725.000000;0.649317
9724.000000;0.648753
9723.000000;0.648278
9722.000000;0.648201
9721.000000;0.648669
9720.000000;0.649496
9719.000000;0.650217
9718.000000;0.650396
9717.000000;0.649968
9716.000000;0.649288
9715.000000;0.648815
9714.000000;0.648734
9713.000000;0.648868
9712.000000;0.648933
9711.000000;0.648800
9710.000000;0.648496
9709.000000;0.648051
9708.000000;0.647518
9707.000000;0.647114
9706.000000;0.647125
9705.000000;0.647577
9704.000000;0.648146
9703.000000;0.648499
9702.000000;0.648561
9701.000000;0.648388
9700.000000;0.647970
9699.000000;0.647378
9698.000000;0.646926
9697.000000;0.646859
9696.000000;0.646965
9695.000000;0.646763
9694.000000;0.646136
9693.000000;0.645499
9692.000000;0.645302
9691.000000;0.645585
9690.000000;0.646088
9689.000000;0.646577
9688.000000;0.646946
9687.000000;0.647175
9686.000000;0.647300
9685.000000;0.647345
9684.000000;0.647201
9683.000000;0.646721
9682.000000;0.645982
9681.000000;0.645325
9680.000000;0.645019
9679.000000;0.645014
9678.000000;0.645086
9677.000000;0.645088
9676.000000;0.644984
9675.000000;0.644755
9674.000000;0.644442
9673.000000;0.644195
9672.000000;0.644179
9671.000000;0.644456
9670.000000;0.644982
9669.000000;0.645596
9668.000000;0.645986
9667.000000;0.645829
9666.000000;0.645133
9665.000000;0.644338
9664.000000;0.643924
9663.000000;0.643969
9662.000000;0.644167
9661.000000;0.644222
9660.000000;0.644120
9659.000000;0.644053
9658.000000;0.644193
9657.000000;0.644540
9656.000000;0.644893
9655.000000;0.644976
9654.000000;0.644684
9653.000000;0.644198
9652.000000;0.643824
9651.000000;0.643713
9650.000000;0.643769
9649.000000;0.643772
9648.000000;0.643560
9647.000000;0.643119
9646.000000;0.642558
9645.000000;0.642006
9644.000000;0.641556
9643.000000;0.641317
9642.000000;0.641442
9641.000000;0.641963
9640.000000;0.642629
9639.000000;0.643063
9638.000000;0.643131
9637.000000;0.643016
9636.000000;0.642905
9635.000000;0.642755
9634.000000;0.642458
9633.000000;0.642069
9632.000000;0.641728
9631.000000;0.641462
9630.000000;0.641205
9629.000000;0.640929
9628.000000;0.640652
9627.000000;0.640371
9626.000000;0.640113
9625.000000;0.639988
9624.000000;0.640080
9623.000000;0.640332
9622.000000;0.640640
9621.000000;0.640973
9620.000000;0.641302
9619.000000;0.641486
9618.000000;0.641389
9617.000000;0.641072
9616.000000;0.640759
9615.000000;0.640616
9614.000000;0.640662
9613.000000;0.640838
9612.000000;0.641031
9611.000000;0.641081
9610.000000;0.640901
9609.000000;0.640586
9608.000000;0.640310
9607.000000;0.640122
9606.000000;0.639972
9605.000000;0.639875
9604.000000;0.639875
9603.000000;0.639867
9602.000000;0.639647
9601.000000;0.639196
9600.000000;0.638770
9599.000000;0.638603
9598.000000;0.638649
9597.000000;0.638690
9596.000000;0.638632
9595.000000;0.638577
9594.000000;0.638659
9593.000000;0.638898
9592.000000;0.639223
9591.000000;0.639558
9590.000000;0.639860
9589.000000;0.640074
9588.000000;0.640075
9587.000000;0.639727
9586.000000;0.639063
9585.000000;0.638380
9584.000000;0.638041
9583.000000;0.638128
9582.000000;0.638363
9581.000000;0.638415
9580.000000;0.638244
9579.000000;0.638068
9578.000000;0.638056
9577.000000;0.638156
9576.000000;0.638242
9575.000000;0.638299
9574.000000;0.638384
9573.000000;0.638463
9572.000000;0.638426
9571.000000;0.638264
9570.000000;0.638094
9569.000000;0.637956
9568.000000;0.637695
9567.000000;0.637170
9566.000000;0.636514
9565.000000;0.636031
9564.000000;0.635864
9563.000000;0.635881
9562.000000;0.635913
9561.000000;0.635943
9560.000000;0.636015
9559.000000;0.636128
9558.000000;0.636283
9557.000000;0.636514
9556.000000;0.636768
9555.000000;0.636878
9554.000000;0.636777
9553.000000;0.636630
9552.000000;0.636624
9551.000000;0.636699
9550.000000;0.636622
9549.000000;0.636292
9548.000000;0.635830
9547.000000;0.635399
9546.000000;0.635078
9545.000000;0.634923
9544.000000;0.635009
9543.000000;0.635350
9542.000000;0.635832
9541.000000;0.636251
9540.000000;0.636379
9539.000000;0.636080
9538.000000;0.635457
9537.000000;0.634853
9536.000000;0.634583
9535.000000;0.634639
9534.000000;0.634752
9533.000000;0.634721
9532.000000;0.634581
9531.000000;0.634462
9530.000000;0.634404
9529.000000;0.634375
9528.000000;0.634336
9527.000000;0.634246
9526.000000;0.634068
9525.000000;0.633837
9524.000000;0.633655
9523.000000;0.633582
9522.000000;0.633590
9521.000000;0.633626
9520.000000;0.633663
9519.000000;0.633629
9518.000000;0.633390
9517.000000;0.632879
9516.000000;0.632261
9515.000000;0.631894
9514.000000;0.632053
9513.000000;0.632661
9512.000000;0.633269
9511.000000;0.633381
9510.000000;0.632892
9509.000000;0.632185
9508.000000;0.631760
9507.000000;0.631780
9506.000000;0.632022
9505.000000;0.632219
9504.000000;0.632288
9503.000000;0.632248
9502.000000;0.632081
9501.000000;0.631824
9500.000000;0.631678
9499.000000;0.631878
9498.000000;0.632408
9497.000000;0.632935
9496.000000;0.633049
9495.000000;0.632584
9494.000000;0.631711
9493.000000;0.630798
9492.000000;0.630179
9491.000000;0.630005
9490.000000;0.630190
9489.000000;0.630465
9488.000000;0.630539
9487.000000;0.630345
9486.000000;0.630133
9485.000000;0.630240
9484.000000;0.630694
9483.000000;0.631128
9482.000000;0.631166
9481.000000;0.630843
9480.000000;0.630526
9479.000000;0.630454
9478.000000;0.630527
9477.000000;0.630528
9476.000000;0.630416
9475.000000;0.630311
9474.000000;0.630286
9473.000000;0.630273
9472.000000;0.630162
9471.000000;0.629936
9470.000000;0.629704
9469.000000;0.629604
9468.000000;0.629655
9467.000000;0.629737
9466.000000;0.629733
9465.000000;0.629656
9464.000000;0.629560
9463.000000;0.629404
9462.000000;0.629129
9461.000000;0.628840
9460.000000;0.628735
9459.000000;0.628810
9458.000000;0.628812
9457.000000;0.628554
9456.000000;0.628155
9455.000000;0.627857
9454.000000;0.627704
9453.000000;0.627561
9452.000000;0.627379
9451.000000;0.627296
9450.000000;0.627456
9449.000000;0.627819
9448.000000;0.628171
9447.000000;0.628286
9446.000000;0.628095
9445.000000;0.627760
9444.000000;0.627549
9443.000000;0.627617
9442.000000;0.627884
9441.000000;0.628139
9440.000000;0.628225
9439.000000;0.628102
9438.000000;0.627834
9437.000000;0.627548
9436.000000;0.627362
9435.000000;0.627290
9434.000000;0.627235
9433.000000;0.627099
9432.000000;0.626862
9431.000000;0.626545
9430.000000;0.626211
9429.000000;0.626047
9428.000000;0.626273
9427.000000;0.626832
9426.000000;0.627290
9425.000000;0.627211
9424.000000;0.626618
9423.000000;0.625922
9422.000000;0.625478
9421.000000;0.625355
9420.000000;0.625476
9419.000000;0.625730
9418.000000;0.625914
9417.000000;0.625799
9416.000000;0.625362
9415.000000;0.624826
9414.000000;0.624401
9413.000000;0.624126
9412.000000;0.624013
9411.000000;0.624114
9410.000000;0.624357
9409.000000;0.624494
9408.000000;0.624437
9407.000000;0.624451
9406.000000;0.624793
9405.000000;0.625253
9404.000000;0.625364
9403.000000;0.625038
9402.000000;0.624701
9401.000000;0.624710
9400.000000;0.624902
9399.000000;0.624883
9398.000000;0.624572
9397.000000;0.624246
9396.000000;0.624153
9395.000000;0.624270
9394.000000;0.624400
9393.000000;0.624342
9392.000000;0.623988
9391.000000;0.623398
9390.000000;0.622821
9389.000000;0.622535
9388.000000;0.622597
9387.000000;0.622828
9386.000000;0.623035
9385.000000;0.623188
9384.000000;0.623340
9383.000000;0.623471
9382.000000;0.623463
9381.000000;0.623202
9380.000000;0.622691
9379.000000;0.622089
9378.000000;0.621667
9377.000000;0.621625
9376.000000;0.621895
9375.000000;0.622164
9374.000000;0.622182
9373.000000;0.622016
9372.000000;0.621952
9371.000000;0.622125
9370.000000;0.622353
9369.000000;0.622369
9368.000000;0.622143
9367.000000;0.621901
9366.000000;0.621826
9365.000000;0.621837
9364.000000;0.621719
9363.000000;0.621443
9362.000000;0.621263
9361.000000;0.621434
9360.000000;0.621882
9359.000000;0.622220
9358.000000;0.622129
9357.000000;0.621669
9356.000000;0.621161
9355.000000;0.620836
9354.000000;0.620635
9353.000000;0.620355
9352.000000;0.619923
9351.000000;0.619495
9350.000000;0.619318
9349.000000;0.619502
9348.000000;0.619922
9347.000000;0.620339
9346.000000;0.620605
9345.000000;0.620722
9344.000000;0.620733
9343.000000;0.620628
9342.000000;0.620391
9341.000000;0.620099
9340.000000;0.619881
9339.000000;0.619817
9338.000000;0.619883
9337.000000;0.619999
9336.000000;0.620062
9335.000000;0.619988
9334.000000;0.619788
9333.000000;0.619595
9332.000000;0.619546
9331.000000;0.619615
9330.000000;0.619650
9329.000000;0.619553
9328.000000;0.619347
9327.000000;0.619062
9326.000000;0.618682
9325.000000;0.618246
9324.000000;0.617909
9323.000000;0.617785
9322.000000;0.617801
9321.000000;0.617813
9320.000000;0.617811
9319.000000;0.617922
9318.000000;0.618196
9317.000000;0.618478
9316.000000;0.618530
9315.000000;0.618243
9314.000000;0.617723
9313.000000;0.617224
9312.000000;0.616990
9311.000000;0.617092
9310.000000;0.617399
9309.000000;0.617708
9308.000000;0.617921
9307.000000;0.618047
9306.000000;0.618077
9305.000000;0.617940
9304.000000;0.617608
9303.000000;0.617200
9302.000000;0.616901
9301.000000;0.616791
9300.000000;0.616796
9299.000000;0.616780
9298.000000;0.616662
9297.000000;0.616435
9296.000000;0.616137
9295.000000;0.615807
9294.000000;0.615469
9293.000000;0.615139
9292.000000;0.614851
9291.000000;0.614674
9290.000000;0.614680
9289.000000;0.614861
9288.000000;0.615092
9287.000000;0.615208
9286.000000;0.615148
9285.000000;0.615007
9284.000000;0.614918
9283.000000;0.614917
9282.000000;0.614949
9281.000000;0.614988
9280.000000;0.615071
9279.000000;0.615233
9278.000000;0.615453
9277.000000;0.615668
9276.000000;0.615785
9275.000000;0.615680
9274.000000;0.615292
9273.000000;0.614752
9272.000000;0.614325
9271.000000;0.614138
9270.000000;0.614074
9269.000000;0.613995
9268.000000;0.613971
9267.000000;0.614152
9266.000000;0.614487
9265.000000;0.614734
9264.000000;0.614743
9263.000000;0.614577
9262.000000;0.614330
9261.000000;0.614013
9260.000000;0.613683
9259.000000;0.613507
9258.000000;0.613567
9257.000000;0.613704
9256.000000;0.613695
9255.000000;0.613546
9254.000000;0.613461
9253.000000;0.613549
9252.000000;0.613691
9251.000000;0.613708
9250.000000;0.613549
9249.000000;0.613264
9248.000000;0.612892
9247.000000;0.612470
9246.000000;0.612108
9245.000000;0.611974
9244.000000;0.612144
9243.000000;0.612470
9242.000000;0.612673
9241.000000;0.612586
9240.000000;0.612303
9239.000000;0.612053
9238.000000;0.611940
9237.000000;0.611882
9236.000000;0.611791
9235.000000;0.611700
9234.000000;0.611655
9233.000000;0.611591
9232.000000;0.611432
9231.000000;0.611253
9230.000000;0.611212
9229.000000;0.611324
9228.000000;0.611435
9227.000000;0.611434
9226.000000;0.611373
9225.000000;0.611322
9224.000000;0.611221
9223.000000;0.610961
9222.000000;0.610559
9221.000000;0.610162
9220.000000;0.609921
9219.000000;0.609922
9218.000000;0.610178
9217.000000;0.610583
9216.000000;0.610909
9215.000000;0.610958
9214.000000;0.610765
9213.000000;0.610546
9212.000000;0.610424
9211.000000;0.610303
9210.000000;0.610056
9209.000000;0.609735
9208.000000;0.609489
9207.000000;0.609345
9206.000000;0.609233
9205.000000;0.609187
9204.000000;0.609353
9203.000000;0.609724
9202.000000;0.610017
9201.000000;0.609951
9200.000000;0.609564
9199.000000;0.609160
9198.000000;0.608969
9197.000000;0.608987
9196.000000;0.609076
9195.000000;0.609098
9194.000000;0.608949
9193.000000;0.608614
9192.000000;0.608239
9191.000000;0.608019
9190.000000;0.607977
9189.000000;0.607959
9188.000000;0.607869
9187.000000;0.607808
9186.000000;0.607899
9185.000000;0.608102
9184.000000;0.608299
9183.000000;0.608453
9182.000000;0.608583
9181.000000;0.608654
9180.000000;0.608632
9179.000000;0.608569
9178.000000;0.608504
9177.000000;0.608339
9176.000000;0.607977
9175.000000;0.607551
9174.000000;0.607343
9173.000000;0.607447
9172.000000;0.607652
9171.000000;0.607708
9170.000000;0.607562
9169.000000;0.607309
9168.000000;0.607030
9167.000000;0.606795
9166.000000;0.606688
9165.000000;0.606731
9164.000000;0.606827
9163.000000;0.606870
9162.000000;0.606839
9161.000000;0.606749
9160.000000;0.606570
9159.000000;0.606285
9158.000000;0.605959
9157.000000;0.605676
9156.000000;0.605456
9155.000000;0.605298
9154.000000;0.605259
9153.000000;0.605379
9152.000000;0.605585
9151.000000;0.605748
9150.000000;0.605817
9149.000000;0.605798
9148.000000;0.605665
9147.000000;0.605416
9146.000000;0.605196
9145.000000;0.605200
9144.000000;0.605398
9143.000000;0.605486
9142.000000;0.605213
9141.000000;0.604688
9140.000000;0.604265
9139.000000;0.604165
9138.000000;0.604298
9137.000000;0.604445
9136.000000;0.604498
9135.000000;0.604489
9134.000000;0.604464
9133.000000;0.604394
9132.000000;0.604232
9131.000000;0.603981
9130.000000;0.603704
9129.000000;0.603473
9128.000000;0.603355
9127.000000;0.603420
9126.000000;0.603696
9125.000000;0.604084
9124.000000;0.604358
9123.000000;0.604333
9122.000000;0.604051
9121.000000;0.603740
9120.000000;0.603581
9119.000000;0.603549
9118.000000;0.603496
9117.000000;0.603339
9116.000000;0.603121
9115.000000;0.602926
9114.000000;0.602789
9113.000000;0.602701
9112.000000;0.602658
9111.000000;0.602669
9110.000000;0.602735
9109.000000;0.602832
9108.000000;0.602934
9107.000000;0.603018
9106.000000;0.603057
9105.000000;0.602997
9104.000000;0.602781
9103.000000;0.602426
9102.000000;0.602070
9101.000000;0.601910
9100.000000;0.602035
9099.000000;0.602328
9098.000000;0.602545
9097.000000;0.602517
9096.000000;0.602265
9095.000000;0.601931
9094.000000;0.601632
9093.000000;0.601409
9092.000000;0.601275
9091.000000;0.601251
9090.000000;0.601346
9089.000000;0.601511
9088.000000;0.601647
9087.000000;0.601647
9086.000000;0.601454
9085.000000;0.601112
9084.000000;0.600749
9083.000000;0.600471
9082.000000;0.600258
9081.000000;0.600004
9080.000000;0.599692
9079.000000;0.599462
9078.000000;0.599452
9077.000000;0.599618
9076.000000;0.599750
9075.000000;0.599697
9074.000000;0.599503
9073.000000;0.599330
9072.000000;0.599291
9071.000000;0.599386
9070.000000;0.599526
9069.000000;0.599597
9068.000000;0.599506
9067.000000;0.599259
9066.000000;0.598979
9065.000000;0.598831
9064.000000;0.598894
9063.000000;0.599111
9062.000000;0.599349
9061.000000;0.599514
9060.000000;0.599600
9059.000000;0.599636
9058.000000;0.599615
9057.000000;0.599482
9056.000000;0.599207
9055.000000;0.598838
9054.000000;0.598477
9053.000000;0.598214
