Criado como novo conjunto de dados;"2706_e01_daniel.spp","98647.2 Secs"
cm-1;Abs
10000.000000;0.865375
9999.000000;0.864870
9998.000000;0.864114
9997.000000;0.863317
9996.000000;0.862678
9995.000000;0.862392
9994.000000;0.862744
9993.000000;0.863658
9992.000000;0.864666
9991.000000;0.865322
9990.000000;0.865645
9989.000000;0.865859
9988.000000;0.865919
9987.000000;0.865558
9986.000000;0.864713
9985.000000;0.863638
9984.000000;0.862679
9983.000000;0.862136
9982.000000;0.862221
9981.000000;0.862813
9980.000000;0.863302
9979.000000;0.863041
9978.000000;0.862077
9977.000000;0.861169
9976.000000;0.860985
9975.000000;0.861475
9974.000000;0.862090
9973.000000;0.862348
9972.000000;0.862070
9971.000000;0.861317
9970.000000;0.860387
9969.000000;0.859826
9968.000000;0.860128
9967.000000;0.861278
9966.000000;0.862598
9965.000000;0.863188
9964.000000;0.862671
9963.000000;0.861564
9962.000000;0.860817
9961.000000;0.860902
9960.000000;0.861421
9959.000000;0.861640
9958.000000;0.861298
9957.000000;0.860737
9956.000000;0.860370
9955.000000;0.860303
9954.000000;0.860442
9953.000000;0.860662
9952.000000;0.860763
9951.000000;0.860510
9950.000000;0.859848
9949.000000;0.858969
9948.000000;0.858126
9947.000000;0.857541
9946.000000;0.857495
9945.000000;0.858171
9944.000000;0.859256
9943.000000;0.859993
9942.000000;0.859895
9941.000000;0.859249
9940.000000;0.858698
9939.000000;0.858488
9938.000000;0.858397
9937.000000;0.858257
9936.000000;0.858206
9935.000000;0.858401
9934.000000;0.858778
9933.000000;0.859197
9932.000000;0.859610
9931.000000;0.859955
9930.000000;0.860010
9929.000000;0.859528
9928.000000;0.858520
9927.000000;0.857366
9926.000000;0.856607
9925.000000;0.856586
9924.000000;0.857230
9923.000000;0.858119
9922.000000;0.858800
9921.000000;0.859034
9920.000000;0.858817
9919.000000;0.858294
9918.000000;0.857699
9917.000000;0.857263
9916.000000;0.857043
9915.000000;0.856907
9914.000000;0.856762
9913.000000;0.856702
9912.000000;0.856829
9911.000000;0.857020
9910.000000;0.857023
9909.000000;0.856753
9908.000000;0.856351
9907.000000;0.855960
9906.000000;0.855595
9905.000000;0.855236
9904.000000;0.854939
9903.000000;0.854806
9902.000000;0.854874
9901.000000;0.855072
9900.000000;0.855244
9899.000000;0.855266
9898.000000;0.855191
9897.000000;0.855237
9896.000000;0.855545
9895.000000;0.856001
9894.000000;0.856371
9893.000000;0.856547
9892.000000;0.856560
9891.000000;0.856433
9890.000000;0.856167
9889.000000;0.855819
9888.000000;0.855447
9887.000000;0.855022
9886.000000;0.854537
9885.000000;0.854150
9884.000000;0.854019
9883.000000;0.854005
9882.000000;0.853781
9881.000000;0.853324
9880.000000;0.853046
9879.000000;0.853287
9878.000000;0.853844
9877.000000;0.854190
9876.000000;0.854086
9875.000000;0.853797
9874.000000;0.853685
9873.000000;0.853779
9872.000000;0.853788
9871.000000;0.853462
9870.000000;0.852840
9869.000000;0.852186
9868.000000;0.851762
9867.000000;0.851712
9866.000000;0.852058
9865.000000;0.852659
9864.000000;0.853173
9863.000000;0.853222
9862.000000;0.852756
9861.000000;0.852154
9860.000000;0.851843
9859.000000;0.851864
9858.000000;0.851956
9857.000000;0.851988
9856.000000;0.852080
9855.000000;0.852288
9854.000000;0.852422
9853.000000;0.852287
9852.000000;0.851954
9851.000000;0.851655
9850.000000;0.851526
9849.000000;0.851572
9848.000000;0.851777
9847.000000;0.852070
9846.000000;0.852263
9845.000000;0.852190
9844.000000;0.851945
9843.000000;0.851834
9842.000000;0.852035
9841.000000;0.852371
9840.000000;0.852476
9839.000000;0.852167
9838.000000;0.851606
9837.000000;0.851118
9836.000000;0.850906
9835.000000;0.850984
9834.000000;0.851302
9833.000000;0.851785
9832.000000;0.852213
9831.000000;0.852229
9830.000000;0.851664
9829.000000;0.850831
9828.000000;0.850309
9827.000000;0.850387
9826.000000;0.850845
9825.000000;0.851271
9824.000000;0.851419
9823.000000;0.851219
9822.000000;0.850649
9821.000000;0.849806
9820.000000;0.849008
9819.000000;0.848607
9818.000000;0.848646
9817.000000;0.848807
9816.000000;0.848750
9815.000000;0.848453
9814.000000;0.848186
9813.000000;0.848200
9812.000000;0.848469
9811.000000;0.848773
9810.000000;0.849008
9809.000000;0.849335
9808.000000;0.849928
9807.000000;0.850587
9806.000000;0.850799
9805.000000;0.850304
9804.000000;0.849505
9803.000000;0.849133
9802.000000;0.849513
9801.000000;0.850240
9800.000000;0.850622
9799.000000;0.850354
9798.000000;0.849726
9797.000000;0.849227
9796.000000;0.849042
9795.000000;0.848997
9794.000000;0.848891
9793.000000;0.848742
9792.000000;0.848627
9791.000000;0.848454
9790.000000;0.848080
9789.000000;0.847628
9788.000000;0.847437
9787.000000;0.847611
9786.000000;0.847847
9785.000000;0.847851
9784.000000;0.847745
9783.000000;0.847848
9782.000000;0.848148
9781.000000;0.848250
9780.000000;0.847837
9779.000000;0.847012
9778.000000;0.846161
9777.000000;0.845660
9776.000000;0.845719
9775.000000;0.846331
9774.000000;0.847245
9773.000000;0.848070
9772.000000;0.848500
9771.000000;0.848444
9770.000000;0.848004
9769.000000;0.847421
9768.000000;0.846986
9767.000000;0.846833
9766.000000;0.846783
9765.000000;0.846536
9764.000000;0.846042
9763.000000;0.845534
9762.000000;0.845202
9761.000000;0.845007
9760.000000;0.844901
9759.000000;0.844992
9758.000000;0.845352
9757.000000;0.845789
9756.000000;0.846026
9755.000000;0.846025
9754.000000;0.845948
9753.000000;0.845850
9752.000000;0.845619
9751.000000;0.845201
9750.000000;0.844721
9749.000000;0.844365
9748.000000;0.844248
9747.000000;0.844424
9746.000000;0.844860
9745.000000;0.845379
9744.000000;0.845762
9743.000000;0.845949
9742.000000;0.846053
9741.000000;0.846139
9740.000000;0.846098
9739.000000;0.845790
9738.000000;0.845223
9737.000000;0.844543
9736.000000;0.843925
9735.000000;0.843512
9734.000000;0.843347
9733.000000;0.843310
9732.000000;0.843223
9731.000000;0.843083
9730.000000;0.843073
9729.000000;0.843262
9728.000000;0.843433
9727.000000;0.843346
9726.000000;0.843082
9725.000000;0.842936
9724.000000;0.843024
9723.000000;0.843175
9722.000000;0.843210
9721.000000;0.843137
9720.000000;0.843025
9719.000000;0.842850
9718.000000;0.842559
9717.000000;0.842195
9716.000000;0.841845
9715.000000;0.841537
9714.000000;0.841262
9713.000000;0.841077
9712.000000;0.841066
9711.000000;0.841225
9710.000000;0.841447
9709.000000;0.841661
9708.000000;0.841899
9707.000000;0.842195
9706.000000;0.842455
9705.000000;0.842526
9704.000000;0.842382
9703.000000;0.842174
9702.000000;0.842034
9701.000000;0.841870
9700.000000;0.841490
9699.000000;0.840918
9698.000000;0.840492
9697.000000;0.840560
9696.000000;0.841126
9695.000000;0.841834
9694.000000;0.842262
9693.000000;0.842207
9692.000000;0.841766
9691.000000;0.841262
9690.000000;0.841034
9689.000000;0.841161
9688.000000;0.841361
9687.000000;0.841225
9686.000000;0.840597
9685.000000;0.839701
9684.000000;0.838938
9683.000000;0.838622
9682.000000;0.838799
9681.000000;0.839185
9680.000000;0.839310
9679.000000;0.838891
9678.000000;0.838135
9677.000000;0.837561
9676.000000;0.837501
9675.000000;0.837853
9674.000000;0.838300
9673.000000;0.838615
9672.000000;0.838756
9671.000000;0.838862
9670.000000;0.839194
9669.000000;0.839882
9668.000000;0.840612
9667.000000;0.840782
9666.000000;0.840151
9665.000000;0.839195
9664.000000;0.838603
9663.000000;0.838562
9662.000000;0.838726
9661.000000;0.838776
9660.000000;0.838763
9659.000000;0.838893
9658.000000;0.839233
9657.000000;0.839700
9656.000000;0.840167
9655.000000;0.840474
9654.000000;0.840469
9653.000000;0.840144
9652.000000;0.839661
9651.000000;0.839184
9650.000000;0.838739
9649.000000;0.838289
9648.000000;0.837855
9647.000000;0.837516
9646.000000;0.837326
9645.000000;0.837307
9644.000000;0.837473
9643.000000;0.837779
9642.000000;0.838077
9641.000000;0.838191
9640.000000;0.838034
9639.000000;0.837641
9638.000000;0.837077
9637.000000;0.836387
9636.000000;0.835683
9635.000000;0.835234
9634.000000;0.835346
9633.000000;0.836051
9632.000000;0.836940
9631.000000;0.837436
9630.000000;0.837269
9629.000000;0.836631
9628.000000;0.835876
9627.000000;0.835197
9626.000000;0.834642
9625.000000;0.834291
9624.000000;0.834250
9623.000000;0.834496
9622.000000;0.834856
9621.000000;0.835129
9620.000000;0.835182
9619.000000;0.834991
9618.000000;0.834708
9617.000000;0.834629
9616.000000;0.834981
9615.000000;0.835669
9614.000000;0.836337
9613.000000;0.836682
9612.000000;0.836672
9611.000000;0.836454
9610.000000;0.836152
9609.000000;0.835797
9608.000000;0.835382
9607.000000;0.834973
9606.000000;0.834751
9605.000000;0.834915
9604.000000;0.835434
9603.000000;0.835960
9602.000000;0.836080
9601.000000;0.835676
9600.000000;0.834979
9599.000000;0.834286
9598.000000;0.833773
9597.000000;0.833549
9596.000000;0.833693
9595.000000;0.834113
9594.000000;0.834486
9593.000000;0.834499
9592.000000;0.834140
9591.000000;0.833672
9590.000000;0.833340
9589.000000;0.833172
9588.000000;0.833053
9587.000000;0.832912
9586.000000;0.832782
9585.000000;0.832720
9584.000000;0.832727
9583.000000;0.832767
9582.000000;0.832821
9581.000000;0.832882
9580.000000;0.832918
9579.000000;0.832903
9578.000000;0.832913
9577.000000;0.833126
9576.000000;0.833628
9575.000000;0.834246
9574.000000;0.834640
9573.000000;0.834585
9572.000000;0.834144
9571.000000;0.833572
9570.000000;0.833123
9569.000000;0.832919
9568.000000;0.832933
9567.000000;0.833006
9566.000000;0.832945
9565.000000;0.832643
9564.000000;0.832140
9563.000000;0.831583
9562.000000;0.831120
9561.000000;0.830827
9560.000000;0.830706
9559.000000;0.830723
9558.000000;0.830829
9557.000000;0.830935
9556.000000;0.830932
9555.000000;0.830812
9554.000000;0.830744
9553.000000;0.830915
9552.000000;0.831283
9551.000000;0.831606
9550.000000;0.831747
9549.000000;0.831840
9548.000000;0.832048
9547.000000;0.832276
9546.000000;0.832252
9545.000000;0.831868
9544.000000;0.831305
9543.000000;0.830848
9542.000000;0.830666
9541.000000;0.830751
9540.000000;0.830953
9539.000000;0.831084
9538.000000;0.831053
9537.000000;0.830931
9536.000000;0.830845
9535.000000;0.830838
9534.000000;0.830875
9533.000000;0.830945
9532.000000;0.831050
9531.000000;0.831139
9530.000000;0.831095
9529.000000;0.830801
9528.000000;0.830202
9527.000000;0.829383
9526.000000;0.828643
9525.000000;0.828331
9524.000000;0.828489
9523.000000;0.828745
9522.000000;0.828728
9521.000000;0.828493
9520.000000;0.828381
9519.000000;0.828494
9518.000000;0.828550
9517.000000;0.828278
9516.000000;0.827738
9515.000000;0.827195
9514.000000;0.826848
9513.000000;0.826785
9512.000000;0.827033
9511.000000;0.827549
9510.000000;0.828186
9509.000000;0.828757
9508.000000;0.829087
9507.000000;0.829033
9506.000000;0.828581
9505.000000;0.827938
9504.000000;0.827398
9503.000000;0.827080
9502.000000;0.826904
9501.000000;0.826824
9500.000000;0.826942
9499.000000;0.827312
9498.000000;0.827771
9497.000000;0.828092
9496.000000;0.828202
9495.000000;0.828148
9494.000000;0.827955
9493.000000;0.827625
9492.000000;0.827257
9491.000000;0.827018
9490.000000;0.826973
9489.000000;0.826992
9488.000000;0.826864
9487.000000;0.826518
9486.000000;0.826135
9485.000000;0.826011
9484.000000;0.826246
9483.000000;0.826597
9482.000000;0.826705
9481.000000;0.826451
9480.000000;0.826019
9479.000000;0.825641
9478.000000;0.825399
9477.000000;0.825275
9476.000000;0.825257
9475.000000;0.825307
9474.000000;0.825333
9473.000000;0.825270
9472.000000;0.825153
9471.000000;0.825071
9470.000000;0.825098
9469.000000;0.825274
9468.000000;0.825587
9467.000000;0.825925
9466.000000;0.826113
9465.000000;0.826042
9464.000000;0.825757
9463.000000;0.825419
9462.000000;0.825227
9461.000000;0.825306
9460.000000;0.825610
9459.000000;0.825943
9458.000000;0.826146
9457.000000;0.826217
9456.000000;0.826164
9455.000000;0.825856
9454.000000;0.825218
9453.000000;0.824498
9452.000000;0.824133
9451.000000;0.824280
9450.000000;0.824675
9449.000000;0.824961
9448.000000;0.824995
9447.000000;0.824823
9446.000000;0.824540
9445.000000;0.824266
9444.000000;0.824089
9443.000000;0.823955
9442.000000;0.823733
9441.000000;0.823465
9440.000000;0.823356
9439.000000;0.823465
9438.000000;0.823571
9437.000000;0.823470
9436.000000;0.823230
9435.000000;0.823036
9434.000000;0.822928
9433.000000;0.822845
9432.000000;0.822799
9431.000000;0.822836
9430.000000;0.822900
9429.000000;0.822875
9428.000000;0.822706
9427.000000;0.822435
9426.000000;0.822180
9425.000000;0.822105
9424.000000;0.822263
9423.000000;0.822413
9422.000000;0.822228
9421.000000;0.821768
9420.000000;0.821521
9419.000000;0.821784
9418.000000;0.822224
9417.000000;0.822294
9416.000000;0.821917
9415.000000;0.821469
9414.000000;0.821240
9413.000000;0.821218
9412.000000;0.821368
9411.000000;0.821734
9410.000000;0.822210
9409.000000;0.822492
9408.000000;0.822430
9407.000000;0.822217
9406.000000;0.822094
9405.000000;0.822003
9404.000000;0.821692
9403.000000;0.821103
9402.000000;0.820525
9401.000000;0.820320
9400.000000;0.820550
9399.000000;0.820895
9398.000000;0.820967
9397.000000;0.820711
9396.000000;0.820424
9395.000000;0.820389
9394.000000;0.820593
9393.000000;0.820870
9392.000000;0.821162
9391.000000;0.821492
9390.000000;0.821761
9389.000000;0.821767
9388.000000;0.821436
9387.000000;0.820920
9386.000000;0.820445
9385.000000;0.820154
9384.000000;0.820048
9383.000000;0.819997
9382.000000;0.819797
9381.000000;0.819355
9380.000000;0.818811
9379.000000;0.818424
9378.000000;0.818360
9377.000000;0.818615
9376.000000;0.819064
9375.000000;0.819465
9374.000000;0.819538
9373.000000;0.819218
9372.000000;0.818807
9371.000000;0.818685
9370.000000;0.818879
9369.000000;0.819072
9368.000000;0.819031
9367.000000;0.818848
9366.000000;0.818724
9365.000000;0.818693
9364.000000;0.818654
9363.000000;0.818524
9362.000000;0.818290
9361.000000;0.818011
9360.000000;0.817821
9359.000000;0.817852
9358.000000;0.818058
9357.000000;0.818221
9356.000000;0.818205
9355.000000;0.818116
9354.000000;0.818123
9353.000000;0.818207
9352.000000;0.818200
9351.000000;0.818028
9350.000000;0.817791
9349.000000;0.817585
9348.000000;0.817356
9347.000000;0.817013
9346.000000;0.816636
9345.000000;0.816471
9344.000000;0.816656
9343.000000;0.817010
9342.000000;0.817178
9341.000000;0.816998
9340.000000;0.816661
9339.000000;0.816484
9338.000000;0.816569
9337.000000;0.816735
9336.000000;0.816736
9335.000000;0.816495
9334.000000;0.816146
9333.000000;0.815898
9332.000000;0.815864
9331.000000;0.815997
9330.000000;0.816199
9329.000000;0.816428
9328.000000;0.816643
9327.000000;0.816698
9326.000000;0.816427
9325.000000;0.815893
9324.000000;0.815426
9323.000000;0.815320
9322.000000;0.815605
9321.000000;0.816120
9320.000000;0.816674
9319.000000;0.817039
9318.000000;0.816964
9317.000000;0.816396
9316.000000;0.815629
9315.000000;0.815056
9314.000000;0.814803
9313.000000;0.814742
9312.000000;0.814781
9311.000000;0.814947
9310.000000;0.815224
9309.000000;0.815493
9308.000000;0.815672
9307.000000;0.815778
9306.000000;0.815796
9305.000000;0.815648
9304.000000;0.815331
9303.000000;0.814993
9302.000000;0.814805
9301.000000;0.814801
9300.000000;0.814876
9299.000000;0.814868
9298.000000;0.814671
9297.000000;0.814327
9296.000000;0.814017
9295.000000;0.813895
9294.000000;0.813943
9293.000000;0.814033
9292.000000;0.814084
9291.000000;0.814089
9290.000000;0.814039
9289.000000;0.813947
9288.000000;0.813899
9287.000000;0.813958
9286.000000;0.814043
9285.000000;0.814001
9284.000000;0.813793
9283.000000;0.813492
9282.000000;0.813157
9281.000000;0.812826
9280.000000;0.812612
9279.000000;0.812642
9278.000000;0.812877
9277.000000;0.813114
9276.000000;0.813172
9275.000000;0.813002
9274.000000;0.812672
9273.000000;0.812350
9272.000000;0.812250
9271.000000;0.812408
9270.000000;0.812576
9269.000000;0.812487
9268.000000;0.812209
9267.000000;0.812031
9266.000000;0.812036
9265.000000;0.812043
9264.000000;0.811967
9263.000000;0.811961
9262.000000;0.812107
9261.000000;0.812214
9260.000000;0.812082
9259.000000;0.811777
9258.000000;0.811528
9257.000000;0.811470
9256.000000;0.811626
9255.000000;0.811956
9254.000000;0.812297
9253.000000;0.812374
9252.000000;0.812056
9251.000000;0.811515
9250.000000;0.811038
9249.000000;0.810774
9248.000000;0.810737
9247.000000;0.810908
9246.000000;0.811183
9245.000000;0.811345
9244.000000;0.811258
9243.000000;0.811050
9242.000000;0.810954
9241.000000;0.811037
9240.000000;0.811187
9239.000000;0.811294
9238.000000;0.811308
9237.000000;0.811191
9236.000000;0.810953
9235.000000;0.810692
9234.000000;0.810492
9233.000000;0.810323
9232.000000;0.810124
9231.000000;0.809924
9230.000000;0.809785
9229.000000;0.809676
9228.000000;0.809536
9227.000000;0.809397
9226.000000;0.809328
9225.000000;0.809305
9224.000000;0.809260
9223.000000;0.809214
9222.000000;0.809238
9221.000000;0.809314
9220.000000;0.809358
9219.000000;0.809329
9218.000000;0.809235
9217.000000;0.809052
9216.000000;0.808785
9215.000000;0.808558
9214.000000;0.808507
9213.000000;0.808608
9212.000000;0.808721
9211.000000;0.808782
9210.000000;0.808831
9209.000000;0.808842
9208.000000;0.808723
9207.000000;0.808501
9206.000000;0.808383
9205.000000;0.808536
9204.000000;0.808884
9203.000000;0.809158
9202.000000;0.809130
9201.000000;0.808776
9200.000000;0.808304
9199.000000;0.808013
9198.000000;0.808055
9197.000000;0.808301
9196.000000;0.808483
9195.000000;0.808440
9194.000000;0.808175
9193.000000;0.807744
9192.000000;0.807246
9191.000000;0.806914
9190.000000;0.807015
9189.000000;0.807549
9188.000000;0.808133
9187.000000;0.808324
9186.000000;0.808033
9185.000000;0.807582
9184.000000;0.807352
9183.000000;0.807431
9182.000000;0.807585
9181.000000;0.807533
9180.000000;0.807217
9179.000000;0.806811
9178.000000;0.806493
9177.000000;0.806290
9176.000000;0.806174
9175.000000;0.806192
9174.000000;0.806372
9173.000000;0.806577
9172.000000;0.806581
9171.000000;0.806321
9170.000000;0.805968
9169.000000;0.805731
9168.000000;0.805702
9167.000000;0.805886
9166.000000;0.806231
9165.000000;0.806580
9164.000000;0.806704
9163.000000;0.806520
9162.000000;0.806188
9161.000000;0.805930
9160.000000;0.805807
9159.000000;0.805738
9158.000000;0.805659
9157.000000;0.805577
9156.000000;0.805526
9155.000000;0.805540
9154.000000;0.805622
9153.000000;0.805684
9152.000000;0.805576
9151.000000;0.805270
9150.000000;0.804959
9149.000000;0.804890
9148.000000;0.805094
9147.000000;0.805375
9146.000000;0.805526
9145.000000;0.805481
9144.000000;0.805298
9143.000000;0.805071
9142.000000;0.804870
9141.000000;0.804689
9140.000000;0.804456
9139.000000;0.804171
9138.000000;0.803989
9137.000000;0.804092
9136.000000;0.804463
9135.000000;0.804886
9134.000000;0.805165
9133.000000;0.805250
9132.000000;0.805156
9131.000000;0.804884
9130.000000;0.804488
9129.000000;0.804101
9128.000000;0.803833
9127.000000;0.803698
9126.000000;0.803690
9125.000000;0.803829
9124.000000;0.804028
9123.000000;0.804034
9122.000000;0.803663
9121.000000;0.803083
9120.000000;0.802684
9119.000000;0.802660
9118.000000;0.802824
9117.000000;0.802893
9116.000000;0.802813
9115.000000;0.802717
9114.000000;0.802671
9113.000000;0.802607
9112.000000;0.802487
9111.000000;0.802392
9110.000000;0.802400
9109.000000;0.802475
9108.000000;0.802529
9107.000000;0.802528
9106.000000;0.802480
9105.000000;0.802357
9104.000000;0.802128
9103.000000;0.801854
9102.000000;0.801694
9101.000000;0.801762
9100.000000;0.802022
9099.000000;0.802334
9098.000000;0.802563
9097.000000;0.802598
9096.000000;0.802341
9095.000000;0.801798
9094.000000;0.801176
9093.000000;0.800785
9092.000000;0.800766
9091.000000;0.800961
9090.000000;0.801121
9089.000000;0.801194
9088.000000;0.801328
9087.000000;0.801614
9086.000000;0.801912
9085.000000;0.801969
9084.000000;0.801677
9083.000000;0.801193
9082.000000;0.800811
9081.000000;0.800707
9080.000000;0.800780
9079.000000;0.800765
9078.000000;0.800528
9077.000000;0.800204
9076.000000;0.799992
9075.000000;0.799885
9074.000000;0.799732
9073.000000;0.799526
9072.000000;0.799462
9071.000000;0.799641
9070.000000;0.799892
9069.000000;0.800007
9068.000000;0.800051
9067.000000;0.800251
9066.000000;0.800629
9065.000000;0.800919
9064.000000;0.800890
9063.000000;0.800604
9062.000000;0.800315
9061.000000;0.800201
9060.000000;0.800283
9059.000000;0.800494
9058.000000;0.800741
9057.000000;0.800914
9056.000000;0.800924
9055.000000;0.800738
9054.000000;0.800380
9053.000000;0.799896
