Criado como novo conjunto de dados;"2706_e01_daniel.spp","32763.7 Secs"
cm-1;Abs
10000.000000;0.784569
9999.000000;0.783513
9998.000000;0.782767
9997.000000;0.782665
9996.000000;0.783017
9995.000000;0.783393
9994.000000;0.783545
9993.000000;0.783356
9992.000000;0.782719
9991.000000;0.781776
9990.000000;0.781092
9989.000000;0.781144
9988.000000;0.781735
9987.000000;0.782176
9986.000000;0.782065
9985.000000;0.781619
9984.000000;0.781338
9983.000000;0.781550
9982.000000;0.782221
9981.000000;0.782934
9980.000000;0.783097
9979.000000;0.782428
9978.000000;0.781259
9977.000000;0.780217
9976.000000;0.779631
9975.000000;0.779385
9974.000000;0.779240
9973.000000;0.779098
9972.000000;0.778998
9971.000000;0.779063
9970.000000;0.779467
9969.000000;0.780262
9968.000000;0.781178
9967.000000;0.781708
9966.000000;0.781496
9965.000000;0.780662
9964.000000;0.779735
9963.000000;0.779235
9962.000000;0.779291
9961.000000;0.779642
9960.000000;0.779964
9959.000000;0.780114
9958.000000;0.780048
9957.000000;0.779678
9956.000000;0.779000
9955.000000;0.778258
9954.000000;0.777759
9953.000000;0.777560
9952.000000;0.777520
9951.000000;0.777599
9950.000000;0.777873
9949.000000;0.778274
9948.000000;0.778588
9947.000000;0.778741
9946.000000;0.778828
9945.000000;0.778853
9944.000000;0.778689
9943.000000;0.778346
9942.000000;0.778004
9941.000000;0.777724
9940.000000;0.777418
9939.000000;0.777183
9938.000000;0.777328
9937.000000;0.777906
9936.000000;0.778503
9935.000000;0.778691
9934.000000;0.778470
9933.000000;0.778071
9932.000000;0.777557
9931.000000;0.776850
9930.000000;0.776014
9929.000000;0.775300
9928.000000;0.774975
9927.000000;0.775197
9926.000000;0.775889
9925.000000;0.776649
9924.000000;0.776989
9923.000000;0.776840
9922.000000;0.776631
9921.000000;0.776732
9920.000000;0.777014
9919.000000;0.777094
9918.000000;0.776832
9917.000000;0.776392
9916.000000;0.775947
9915.000000;0.775542
9914.000000;0.775165
9913.000000;0.774779
9912.000000;0.774354
9911.000000;0.773987
9910.000000;0.773893
9909.000000;0.774145
9908.000000;0.774525
9907.000000;0.774754
9906.000000;0.774776
9905.000000;0.774721
9904.000000;0.774680
9903.000000;0.774640
9902.000000;0.774573
9901.000000;0.774475
9900.000000;0.774374
9899.000000;0.774349
9898.000000;0.774441
9897.000000;0.774521
9896.000000;0.774360
9895.000000;0.773894
9894.000000;0.773305
9893.000000;0.772812
9892.000000;0.772508
9891.000000;0.772390
9890.000000;0.772380
9889.000000;0.772299
9888.000000;0.772007
9887.000000;0.771616
9886.000000;0.771403
9885.000000;0.771459
9884.000000;0.771628
9883.000000;0.771800
9882.000000;0.772012
9881.000000;0.772199
9880.000000;0.772155
9879.000000;0.771903
9878.000000;0.771812
9877.000000;0.772151
9876.000000;0.772696
9875.000000;0.772965
9874.000000;0.772670
9873.000000;0.771806
9872.000000;0.770540
9871.000000;0.769250
9870.000000;0.768465
9869.000000;0.768466
9868.000000;0.768998
9867.000000;0.769579
9866.000000;0.770047
9865.000000;0.770609
9864.000000;0.771423
9863.000000;0.772299
9862.000000;0.772823
9861.000000;0.772686
9860.000000;0.771956
9859.000000;0.771090
9858.000000;0.770576
9857.000000;0.770474
9856.000000;0.770390
9855.000000;0.769980
9854.000000;0.769328
9853.000000;0.768743
9852.000000;0.768379
9851.000000;0.768214
9850.000000;0.768208
9849.000000;0.768295
9848.000000;0.768319
9847.000000;0.768202
9846.000000;0.768088
9845.000000;0.768138
9844.000000;0.768275
9843.000000;0.768301
9842.000000;0.768186
9841.000000;0.768065
9840.000000;0.768016
9839.000000;0.768014
9838.000000;0.768067
9837.000000;0.768226
9836.000000;0.768483
9835.000000;0.768771
9834.000000;0.769003
9833.000000;0.769029
9832.000000;0.768643
9831.000000;0.767854
9830.000000;0.767100
9829.000000;0.766918
9828.000000;0.767298
9827.000000;0.767580
9826.000000;0.767151
9825.000000;0.766164
9824.000000;0.765408
9823.000000;0.765495
9822.000000;0.766292
9821.000000;0.767124
9820.000000;0.767405
9819.000000;0.767016
9818.000000;0.766250
9817.000000;0.765560
9816.000000;0.765324
9815.000000;0.765605
9814.000000;0.766030
9813.000000;0.766072
9812.000000;0.765592
9811.000000;0.765025
9810.000000;0.764907
9809.000000;0.765301
9808.000000;0.765810
9807.000000;0.766048
9806.000000;0.765910
9805.000000;0.765476
9804.000000;0.764916
9803.000000;0.764477
9802.000000;0.764325
9801.000000;0.764353
9800.000000;0.764297
9799.000000;0.764078
9798.000000;0.763867
9797.000000;0.763821
9796.000000;0.763948
9795.000000;0.764239
9794.000000;0.764704
9793.000000;0.765213
9792.000000;0.765486
9791.000000;0.765361
9790.000000;0.764954
9789.000000;0.764509
9788.000000;0.764208
9787.000000;0.764141
9786.000000;0.764268
9785.000000;0.764399
9784.000000;0.764346
9783.000000;0.764125
9782.000000;0.763867
9781.000000;0.763578
9780.000000;0.763207
9779.000000;0.762909
9778.000000;0.762956
9777.000000;0.763315
9776.000000;0.763587
9775.000000;0.763483
9774.000000;0.763132
9773.000000;0.762818
9772.000000;0.762636
9771.000000;0.762539
9770.000000;0.762503
9769.000000;0.762478
9768.000000;0.762335
9767.000000;0.762032
9766.000000;0.761738
9765.000000;0.761700
9764.000000;0.762046
9763.000000;0.762710
9762.000000;0.763383
9761.000000;0.763590
9760.000000;0.763081
9759.000000;0.762197
9758.000000;0.761584
9757.000000;0.761479
9756.000000;0.761558
9755.000000;0.761541
9754.000000;0.761551
9753.000000;0.761691
9752.000000;0.761642
9751.000000;0.761053
9750.000000;0.760101
9749.000000;0.759310
9748.000000;0.758935
9747.000000;0.758862
9746.000000;0.758959
9745.000000;0.759215
9744.000000;0.759554
9743.000000;0.759806
9742.000000;0.759919
9741.000000;0.759992
9740.000000;0.760058
9739.000000;0.759988
9738.000000;0.759628
9737.000000;0.758963
9736.000000;0.758199
9735.000000;0.757725
9734.000000;0.757877
9733.000000;0.758545
9732.000000;0.759124
9731.000000;0.759045
9730.000000;0.758347
9729.000000;0.757606
9728.000000;0.757370
9727.000000;0.757759
9726.000000;0.758480
9725.000000;0.759030
9724.000000;0.759013
9723.000000;0.758503
9722.000000;0.758058
9721.000000;0.758190
9720.000000;0.758822
9719.000000;0.759406
9718.000000;0.759538
9717.000000;0.759249
9716.000000;0.758748
9715.000000;0.758157
9714.000000;0.757591
9713.000000;0.757272
9712.000000;0.757360
9711.000000;0.757726
9710.000000;0.758009
9709.000000;0.757928
9708.000000;0.757509
9707.000000;0.757035
9706.000000;0.756779
9705.000000;0.756782
9704.000000;0.756848
9703.000000;0.756762
9702.000000;0.756461
9701.000000;0.756031
9700.000000;0.755598
9699.000000;0.755293
9698.000000;0.755257
9697.000000;0.755570
9696.000000;0.756133
9695.000000;0.756653
9694.000000;0.756820
9693.000000;0.756569
9692.000000;0.756206
9691.000000;0.756168
9690.000000;0.756557
9689.000000;0.756958
9688.000000;0.756852
9687.000000;0.756203
9686.000000;0.755491
9685.000000;0.755158
9684.000000;0.755208
9683.000000;0.755376
9682.000000;0.755462
9681.000000;0.755387
9680.000000;0.755096
9679.000000;0.754617
9678.000000;0.754114
9677.000000;0.753766
9676.000000;0.753616
9675.000000;0.753650
9674.000000;0.753889
9673.000000;0.754288
9672.000000;0.754609
9671.000000;0.754598
9670.000000;0.754292
9669.000000;0.754001
9668.000000;0.753951
9667.000000;0.754050
9666.000000;0.754031
9665.000000;0.753777
9664.000000;0.753449
9663.000000;0.753321
9662.000000;0.753514
9661.000000;0.753904
9660.000000;0.754277
9659.000000;0.754531
9658.000000;0.754658
9657.000000;0.754583
9656.000000;0.754166
9655.000000;0.753448
9654.000000;0.752778
9653.000000;0.752593
9652.000000;0.753022
9651.000000;0.753739
9650.000000;0.754169
9649.000000;0.753886
9648.000000;0.752926
9647.000000;0.751773
9646.000000;0.750985
9645.000000;0.750774
9644.000000;0.750946
9643.000000;0.751212
9642.000000;0.751442
9641.000000;0.751628
9640.000000;0.751727
9639.000000;0.751665
9638.000000;0.751449
9637.000000;0.751200
9636.000000;0.751080
9635.000000;0.751192
9634.000000;0.751476
9633.000000;0.751704
9632.000000;0.751648
9631.000000;0.751318
9630.000000;0.750972
9629.000000;0.750832
9628.000000;0.750843
9627.000000;0.750789
9626.000000;0.750601
9625.000000;0.750484
9624.000000;0.750719
9623.000000;0.751357
9622.000000;0.752135
9621.000000;0.752686
9620.000000;0.752815
9619.000000;0.752522
9618.000000;0.751858
9617.000000;0.750909
9616.000000;0.749954
9615.000000;0.749419
9614.000000;0.749491
9613.000000;0.749858
9612.000000;0.749997
9611.000000;0.749686
9610.000000;0.749081
9609.000000;0.748412
9608.000000;0.747821
9607.000000;0.747491
9606.000000;0.747619
9605.000000;0.748174
9604.000000;0.748840
9603.000000;0.749318
9602.000000;0.749581
9601.000000;0.749769
9600.000000;0.749944
9599.000000;0.750038
9598.000000;0.749938
9597.000000;0.749594
9596.000000;0.749122
9595.000000;0.748781
9594.000000;0.748740
9593.000000;0.748869
9592.000000;0.748902
9591.000000;0.748787
9590.000000;0.748671
9589.000000;0.748550
9588.000000;0.748194
9587.000000;0.747542
9586.000000;0.746953
9585.000000;0.746878
9584.000000;0.747375
9583.000000;0.748076
9582.000000;0.748526
9581.000000;0.748442
9580.000000;0.747801
9579.000000;0.746843
9578.000000;0.745990
9577.000000;0.745584
9576.000000;0.745659
9575.000000;0.745993
9574.000000;0.746332
9573.000000;0.746543
9572.000000;0.746643
9571.000000;0.746735
9570.000000;0.746899
9569.000000;0.747068
9568.000000;0.747071
9567.000000;0.746833
9566.000000;0.746498
9565.000000;0.746305
9564.000000;0.746368
9563.000000;0.746585
9562.000000;0.746684
9561.000000;0.746388
9560.000000;0.745670
9559.000000;0.744866
9558.000000;0.744432
9557.000000;0.744545
9556.000000;0.744982
9555.000000;0.745405
9554.000000;0.745633
9553.000000;0.745629
9552.000000;0.745402
9551.000000;0.745029
9550.000000;0.744668
9549.000000;0.744440
9548.000000;0.744351
9547.000000;0.744387
9546.000000;0.744588
9545.000000;0.744933
9544.000000;0.745244
9543.000000;0.745300
9542.000000;0.745038
9541.000000;0.744597
9540.000000;0.744212
9539.000000;0.744073
9538.000000;0.744195
9537.000000;0.744365
9536.000000;0.744305
9535.000000;0.743948
9534.000000;0.743495
9533.000000;0.743152
9532.000000;0.742911
9531.000000;0.742637
9530.000000;0.742282
9529.000000;0.741941
9528.000000;0.741767
9527.000000;0.741891
9526.000000;0.742357
9525.000000;0.743013
9524.000000;0.743547
9523.000000;0.743701
9522.000000;0.743468
9521.000000;0.743026
9520.000000;0.742561
9519.000000;0.742178
9518.000000;0.741888
9517.000000;0.741598
9516.000000;0.741181
9515.000000;0.740664
9514.000000;0.740276
9513.000000;0.740214
9512.000000;0.740393
9511.000000;0.740558
9510.000000;0.740618
9509.000000;0.740731
9508.000000;0.741044
9507.000000;0.741468
9506.000000;0.741802
9505.000000;0.741978
9504.000000;0.742050
9503.000000;0.742003
9502.000000;0.741731
9501.000000;0.741256
9500.000000;0.740834
9499.000000;0.740707
9498.000000;0.740852
9497.000000;0.741069
9496.000000;0.741256
9495.000000;0.741406
9494.000000;0.741412
9493.000000;0.741087
9492.000000;0.740451
9491.000000;0.739795
9490.000000;0.739370
9489.000000;0.739188
9488.000000;0.739194
9487.000000;0.739410
9486.000000;0.739761
9485.000000;0.739962
9484.000000;0.739806
9483.000000;0.739445
9482.000000;0.739166
9481.000000;0.739003
9480.000000;0.738779
9479.000000;0.738449
9478.000000;0.738141
9477.000000;0.737920
9476.000000;0.737754
9475.000000;0.737713
9474.000000;0.737954
9473.000000;0.738485
9472.000000;0.739110
9471.000000;0.739617
9470.000000;0.739866
9469.000000;0.739744
9468.000000;0.739278
9467.000000;0.738785
9466.000000;0.738653
9465.000000;0.738926
9464.000000;0.739289
9463.000000;0.739461
9462.000000;0.739371
9461.000000;0.738964
9460.000000;0.738198
9459.000000;0.737340
9458.000000;0.736945
9457.000000;0.737288
9456.000000;0.737988
9455.000000;0.738388
9454.000000;0.738216
9453.000000;0.737719
9452.000000;0.737285
9451.000000;0.737107
9450.000000;0.737121
9449.000000;0.737108
9448.000000;0.736876
9447.000000;0.736484
9446.000000;0.736246
9445.000000;0.736416
9444.000000;0.736906
9443.000000;0.737368
9442.000000;0.737509
9441.000000;0.737254
9440.000000;0.736703
9439.000000;0.736052
9438.000000;0.735539
9437.000000;0.735353
9436.000000;0.735519
9435.000000;0.735872
9434.000000;0.736138
9433.000000;0.736099
9432.000000;0.735773
9431.000000;0.735414
9430.000000;0.735275
9429.000000;0.735375
9428.000000;0.735558
9427.000000;0.735707
9426.000000;0.735801
9425.000000;0.735801
9424.000000;0.735655
9423.000000;0.735429
9422.000000;0.735295
9421.000000;0.735334
9420.000000;0.735456
9419.000000;0.735525
9418.000000;0.735444
9417.000000;0.735149
9416.000000;0.734681
9415.000000;0.734273
9414.000000;0.734178
9413.000000;0.734381
9412.000000;0.734610
9411.000000;0.734682
9410.000000;0.734643
9409.000000;0.734561
9408.000000;0.734399
9407.000000;0.734166
9406.000000;0.733967
9405.000000;0.733779
9404.000000;0.733396
9403.000000;0.732778
9402.000000;0.732269
9401.000000;0.732259
9400.000000;0.732699
9399.000000;0.733154
9398.000000;0.733291
9397.000000;0.733142
9396.000000;0.732931
9395.000000;0.732801
9394.000000;0.732752
9393.000000;0.732730
9392.000000;0.732700
9391.000000;0.732672
9390.000000;0.732671
9389.000000;0.732688
9388.000000;0.732694
9387.000000;0.732700
9386.000000;0.732726
9385.000000;0.732727
9384.000000;0.732642
9383.000000;0.732524
9382.000000;0.732503
9381.000000;0.732600
9380.000000;0.732693
9379.000000;0.732725
9378.000000;0.732817
9377.000000;0.733066
9376.000000;0.733339
9375.000000;0.733348
9374.000000;0.732903
9373.000000;0.732045
9372.000000;0.731041
9371.000000;0.730287
9370.000000;0.730087
9369.000000;0.730413
9368.000000;0.730895
9367.000000;0.731161
9366.000000;0.731146
9365.000000;0.731038
9364.000000;0.730999
9363.000000;0.731033
9362.000000;0.731051
9361.000000;0.730969
9360.000000;0.730727
9359.000000;0.730307
9358.000000;0.729751
9357.000000;0.729170
9356.000000;0.728721
9355.000000;0.728556
9354.000000;0.728700
9353.000000;0.728991
9352.000000;0.729203
9351.000000;0.729253
9350.000000;0.729229
9349.000000;0.729219
9348.000000;0.729193
9347.000000;0.729084
9346.000000;0.728892
9345.000000;0.728692
9344.000000;0.728604
9343.000000;0.728712
9342.000000;0.728944
9341.000000;0.729035
9340.000000;0.728764
9339.000000;0.728243
9338.000000;0.727853
9337.000000;0.727829
9336.000000;0.728050
9335.000000;0.728261
9334.000000;0.728354
9333.000000;0.728349
9332.000000;0.728230
9331.000000;0.727956
9330.000000;0.727582
9329.000000;0.727263
9328.000000;0.727136
9327.000000;0.727259
9326.000000;0.727613
9325.000000;0.728102
9324.000000;0.728562
9323.000000;0.728815
9322.000000;0.728754
9321.000000;0.728403
9320.000000;0.727943
9319.000000;0.727627
9318.000000;0.727563
9317.000000;0.727581
9316.000000;0.727395
9315.000000;0.726926
9314.000000;0.726400
9313.000000;0.726118
9312.000000;0.726214
9311.000000;0.726605
9310.000000;0.727064
9309.000000;0.727326
9308.000000;0.727243
9307.000000;0.726896
9306.000000;0.726489
9305.000000;0.726144
9304.000000;0.725862
9303.000000;0.725649
9302.000000;0.725526
9301.000000;0.725424
9300.000000;0.725211
9299.000000;0.724873
9298.000000;0.724562
9297.000000;0.724442
9296.000000;0.724589
9295.000000;0.725013
9294.000000;0.725617
9293.000000;0.726118
9292.000000;0.726202
9291.000000;0.725822
9290.000000;0.725250
9289.000000;0.724783
9288.000000;0.724545
9287.000000;0.724547
9286.000000;0.724767
9285.000000;0.725082
9284.000000;0.725313
9283.000000;0.725413
9282.000000;0.725495
9281.000000;0.725576
9280.000000;0.725497
9279.000000;0.725191
9278.000000;0.724873
9277.000000;0.724787
9276.000000;0.724882
9275.000000;0.724871
9274.000000;0.724566
9273.000000;0.724014
9272.000000;0.723401
9271.000000;0.722930
9270.000000;0.722752
9269.000000;0.722885
9268.000000;0.723207
9267.000000;0.723550
9266.000000;0.723777
9265.000000;0.723769
9264.000000;0.723448
9263.000000;0.722909
9262.000000;0.722399
9261.000000;0.722107
9260.000000;0.722028
9259.000000;0.722086
9258.000000;0.722260
9257.000000;0.722523
9256.000000;0.722760
9255.000000;0.722861
9254.000000;0.722831
9253.000000;0.722732
9252.000000;0.722581
9251.000000;0.722377
9250.000000;0.722129
9249.000000;0.721819
9248.000000;0.721417
9247.000000;0.721011
9246.000000;0.720821
9245.000000;0.720966
9244.000000;0.721298
9243.000000;0.721567
9242.000000;0.721674
9241.000000;0.721690
9240.000000;0.721708
9239.000000;0.721772
9238.000000;0.721869
9237.000000;0.721898
9236.000000;0.721730
9235.000000;0.721384
9234.000000;0.721075
9233.000000;0.720963
9232.000000;0.720957
9231.000000;0.720876
9230.000000;0.720711
9229.000000;0.720571
9228.000000;0.720432
9227.000000;0.720134
9226.000000;0.719655
9225.000000;0.719230
9224.000000;0.719112
9223.000000;0.719274
9222.000000;0.719427
9221.000000;0.719331
9220.000000;0.719067
9219.000000;0.718958
9218.000000;0.719208
9217.000000;0.719632
9216.000000;0.719833
9215.000000;0.719636
9214.000000;0.719258
9213.000000;0.719012
9212.000000;0.718965
9211.000000;0.718950
9210.000000;0.718829
9209.000000;0.718624
9208.000000;0.718437
9207.000000;0.718325
9206.000000;0.718277
9205.000000;0.718287
9204.000000;0.718414
9203.000000;0.718727
9202.000000;0.719120
9201.000000;0.719284
9200.000000;0.719013
9199.000000;0.718517
9198.000000;0.718246
9197.000000;0.718372
9196.000000;0.718612
9195.000000;0.718647
9194.000000;0.718515
9193.000000;0.718455
9192.000000;0.718522
9191.000000;0.718536
9190.000000;0.718329
9189.000000;0.717898
9188.000000;0.717377
9187.000000;0.716964
9186.000000;0.716832
9185.000000;0.716956
9184.000000;0.717086
9183.000000;0.717004
9182.000000;0.716777
9181.000000;0.716656
9180.000000;0.716772
9179.000000;0.717036
9178.000000;0.717284
9177.000000;0.717414
9176.000000;0.717406
9175.000000;0.717315
9174.000000;0.717234
9173.000000;0.717194
9172.000000;0.717134
9171.000000;0.717012
9170.000000;0.716873
9169.000000;0.716751
9168.000000;0.716592
9167.000000;0.716377
9166.000000;0.716222
9165.000000;0.716208
9164.000000;0.716196
9163.000000;0.715980
9162.000000;0.715594
9161.000000;0.715306
9160.000000;0.715307
9159.000000;0.715524
9158.000000;0.715734
9157.000000;0.715730
9156.000000;0.715427
9155.000000;0.714952
9154.000000;0.714629
9153.000000;0.714722
9152.000000;0.715126
9151.000000;0.715450
9150.000000;0.715449
9149.000000;0.715247
9148.000000;0.715075
9147.000000;0.714966
9146.000000;0.714827
9145.000000;0.714680
9144.000000;0.714654
9143.000000;0.714755
9142.000000;0.714801
9141.000000;0.714642
9140.000000;0.714329
9139.000000;0.714016
9138.000000;0.713769
9137.000000;0.713552
9136.000000;0.713341
9135.000000;0.713155
9134.000000;0.712994
9133.000000;0.712835
9132.000000;0.712731
9131.000000;0.712810
9130.000000;0.713085
9129.000000;0.713350
9128.000000;0.713359
9127.000000;0.713113
9126.000000;0.712872
9125.000000;0.712864
9124.000000;0.713053
9123.000000;0.713199
9122.000000;0.713085
9121.000000;0.712698
9120.000000;0.712259
9119.000000;0.712069
9118.000000;0.712246
9117.000000;0.712598
9116.000000;0.712816
9115.000000;0.712789
9114.000000;0.712658
9113.000000;0.712579
9112.000000;0.712566
9111.000000;0.712561
9110.000000;0.712529
9109.000000;0.712424
9108.000000;0.712227
9107.000000;0.712054
9106.000000;0.712091
9105.000000;0.712328
9104.000000;0.712493
9103.000000;0.712353
9102.000000;0.711992
9101.000000;0.711660
9100.000000;0.711460
9099.000000;0.711321
9098.000000;0.711193
9097.000000;0.711105
9096.000000;0.711076
9095.000000;0.711088
9094.000000;0.711142
9093.000000;0.711221
9092.000000;0.711222
9091.000000;0.711056
9090.000000;0.710801
9089.000000;0.710644
9088.000000;0.710667
9087.000000;0.710791
9086.000000;0.710893
9085.000000;0.710880
9084.000000;0.710677
9083.000000;0.710271
9082.000000;0.709795
9081.000000;0.709457
9080.000000;0.709359
9079.000000;0.709444
9078.000000;0.709604
9077.000000;0.709733
9076.000000;0.709710
9075.000000;0.709475
9074.000000;0.709167
9073.000000;0.709032
9072.000000;0.709127
9071.000000;0.709223
9070.000000;0.709079
9069.000000;0.708714
9068.000000;0.708346
9067.000000;0.708139
9066.000000;0.708123
9065.000000;0.708286
9064.000000;0.708598
9063.000000;0.708929
9062.000000;0.709065
9061.000000;0.708882
9060.000000;0.708483
9059.000000;0.708134
9058.000000;0.708049
9057.000000;0.708213
9056.000000;0.708379
9055.000000;0.708278
9054.000000;0.707854
9053.000000;0.707325
