Criado como novo conjunto de dados;"2706_e01_daniel.spp","53464.8 Secs"
cm-1;Abs
10000.000000;0.645970
9999.000000;0.646018
9998.000000;0.646045
9997.000000;0.645688
9996.000000;0.644851
9995.000000;0.643946
9994.000000;0.643539
9993.000000;0.643809
9992.000000;0.644449
9991.000000;0.645040
9990.000000;0.645389
9989.000000;0.645538
9988.000000;0.645600
9987.000000;0.645683
9986.000000;0.645874
9985.000000;0.646164
9984.000000;0.646357
9983.000000;0.646179
9982.000000;0.645562
9981.000000;0.644774
9980.000000;0.644193
9979.000000;0.643978
9978.000000;0.644007
9977.000000;0.644107
9976.000000;0.644210
9975.000000;0.644296
9974.000000;0.644307
9973.000000;0.644184
9972.000000;0.643901
9971.000000;0.643434
9970.000000;0.642797
9969.000000;0.642163
9968.000000;0.641837
9967.000000;0.641985
9966.000000;0.642392
9965.000000;0.642633
9964.000000;0.642488
9963.000000;0.642144
9962.000000;0.641957
9961.000000;0.642077
9960.000000;0.642305
9959.000000;0.642322
9958.000000;0.642012
9957.000000;0.641577
9956.000000;0.641321
9955.000000;0.641348
9954.000000;0.641499
9953.000000;0.641561
9952.000000;0.641481
9951.000000;0.641344
9950.000000;0.641208
9949.000000;0.641038
9948.000000;0.640808
9947.000000;0.640602
9946.000000;0.640574
9945.000000;0.640783
9944.000000;0.641090
9943.000000;0.641247
9942.000000;0.641140
9941.000000;0.640913
9940.000000;0.640821
9939.000000;0.640948
9938.000000;0.641084
9937.000000;0.640904
9936.000000;0.640306
9935.000000;0.639557
9934.000000;0.639086
9933.000000;0.639093
9932.000000;0.639382
9931.000000;0.639586
9930.000000;0.639501
9929.000000;0.639183
9928.000000;0.638771
9927.000000;0.638383
9926.000000;0.638152
9925.000000;0.638220
9924.000000;0.638583
9923.000000;0.639068
9922.000000;0.639490
9921.000000;0.639752
9920.000000;0.639768
9919.000000;0.639459
9918.000000;0.638922
9917.000000;0.638459
9916.000000;0.638298
9915.000000;0.638379
9914.000000;0.638493
9913.000000;0.638531
9912.000000;0.638495
9911.000000;0.638415
9910.000000;0.638387
9909.000000;0.638522
9908.000000;0.638709
9907.000000;0.638575
9906.000000;0.637909
9905.000000;0.637015
9904.000000;0.636408
9903.000000;0.636215
9902.000000;0.636139
9901.000000;0.635957
9900.000000;0.635787
9899.000000;0.635826
9898.000000;0.636095
9897.000000;0.636498
9896.000000;0.636938
9895.000000;0.637286
9894.000000;0.637393
9893.000000;0.637231
9892.000000;0.636881
9891.000000;0.636388
9890.000000;0.635798
9889.000000;0.635366
9888.000000;0.635466
9887.000000;0.636132
9886.000000;0.636858
9885.000000;0.637034
9884.000000;0.636520
9883.000000;0.635687
9882.000000;0.634984
9881.000000;0.634596
9880.000000;0.634477
9879.000000;0.634515
9878.000000;0.634621
9877.000000;0.634733
9876.000000;0.634803
9875.000000;0.634776
9874.000000;0.634605
9873.000000;0.634320
9872.000000;0.634055
9871.000000;0.633965
9870.000000;0.634074
9869.000000;0.634226
9868.000000;0.634232
9867.000000;0.634105
9866.000000;0.634077
9865.000000;0.634295
9864.000000;0.634576
9863.000000;0.634610
9862.000000;0.634371
9861.000000;0.634137
9860.000000;0.634068
9859.000000;0.634019
9858.000000;0.633851
9857.000000;0.633671
9856.000000;0.633561
9855.000000;0.633298
9854.000000;0.632647
9853.000000;0.631805
9852.000000;0.631276
9851.000000;0.631337
9850.000000;0.631847
9849.000000;0.632503
9848.000000;0.633047
9847.000000;0.633264
9846.000000;0.633071
9845.000000;0.632664
9844.000000;0.632337
9843.000000;0.632159
9842.000000;0.632018
9841.000000;0.631937
9840.000000;0.632059
9839.000000;0.632294
9838.000000;0.632294
9837.000000;0.631889
9836.000000;0.631322
9835.000000;0.630914
9834.000000;0.630715
9833.000000;0.630595
9832.000000;0.630501
9831.000000;0.630471
9830.000000;0.630516
9829.000000;0.630587
9828.000000;0.630580
9827.000000;0.630335
9826.000000;0.629777
9825.000000;0.629118
9824.000000;0.628745
9823.000000;0.628818
9822.000000;0.629118
9821.000000;0.629353
9820.000000;0.629460
9819.000000;0.629515
9818.000000;0.629505
9817.000000;0.629372
9816.000000;0.629159
9815.000000;0.628970
9814.000000;0.628816
9813.000000;0.628632
9812.000000;0.628418
9811.000000;0.628286
9810.000000;0.628371
9809.000000;0.628698
9808.000000;0.629105
9807.000000;0.629322
9806.000000;0.629208
9805.000000;0.628895
9804.000000;0.628624
9803.000000;0.628450
9802.000000;0.628260
9801.000000;0.628058
9800.000000;0.628036
9799.000000;0.628278
9798.000000;0.628560
9797.000000;0.628582
9796.000000;0.628295
9795.000000;0.627904
9794.000000;0.627623
9793.000000;0.627507
9792.000000;0.627465
9791.000000;0.627375
9790.000000;0.627192
9789.000000;0.626984
9788.000000;0.626840
9787.000000;0.626769
9786.000000;0.626752
9785.000000;0.626829
9784.000000;0.627000
9783.000000;0.627077
9782.000000;0.626821
9781.000000;0.626244
9780.000000;0.625631
9779.000000;0.625239
9778.000000;0.625126
9777.000000;0.625262
9776.000000;0.625601
9775.000000;0.625976
9774.000000;0.626115
9773.000000;0.625905
9772.000000;0.625523
9771.000000;0.625243
9770.000000;0.625209
9769.000000;0.625422
9768.000000;0.625761
9767.000000;0.625934
9766.000000;0.625651
9765.000000;0.624984
9764.000000;0.624407
9763.000000;0.624310
9762.000000;0.624621
9761.000000;0.625034
9760.000000;0.625387
9759.000000;0.625621
9758.000000;0.625546
9757.000000;0.625006
9756.000000;0.624220
9755.000000;0.623652
9754.000000;0.623486
9753.000000;0.623493
9752.000000;0.623442
9751.000000;0.623413
9750.000000;0.623571
9749.000000;0.623824
9748.000000;0.623894
9747.000000;0.623651
9746.000000;0.623234
9745.000000;0.622897
9744.000000;0.622834
9743.000000;0.623126
9742.000000;0.623692
9741.000000;0.624286
9740.000000;0.624622
9739.000000;0.624566
9738.000000;0.624196
9737.000000;0.623685
9736.000000;0.623177
9735.000000;0.622767
9734.000000;0.622530
9733.000000;0.622513
9732.000000;0.622703
9731.000000;0.623014
9730.000000;0.623301
9729.000000;0.623405
9728.000000;0.623237
9727.000000;0.622874
9726.000000;0.622504
9725.000000;0.622232
9724.000000;0.621975
9723.000000;0.621631
9722.000000;0.621298
9721.000000;0.621204
9720.000000;0.621402
9719.000000;0.621659
9718.000000;0.621725
9717.000000;0.621600
9716.000000;0.621478
9715.000000;0.621480
9714.000000;0.621529
9713.000000;0.621440
9712.000000;0.621061
9711.000000;0.620391
9710.000000;0.619675
9709.000000;0.619323
9708.000000;0.619596
9707.000000;0.620346
9706.000000;0.621115
9705.000000;0.621502
9704.000000;0.621391
9703.000000;0.620879
9702.000000;0.620134
9701.000000;0.619367
9700.000000;0.618844
9699.000000;0.618757
9698.000000;0.619048
9697.000000;0.619392
9696.000000;0.619449
9695.000000;0.619164
9694.000000;0.618794
9693.000000;0.618602
9692.000000;0.618585
9691.000000;0.618582
9690.000000;0.618553
9689.000000;0.618581
9688.000000;0.618610
9687.000000;0.618436
9686.000000;0.618050
9685.000000;0.617806
9684.000000;0.618028
9683.000000;0.618584
9682.000000;0.619004
9681.000000;0.618985
9680.000000;0.618611
9679.000000;0.618164
9678.000000;0.617875
9677.000000;0.617851
9676.000000;0.618044
9675.000000;0.618242
9674.000000;0.618238
9673.000000;0.618041
9672.000000;0.617836
9671.000000;0.617713
9670.000000;0.617561
9669.000000;0.617290
9668.000000;0.617038
9667.000000;0.617061
9666.000000;0.617438
9665.000000;0.617927
9664.000000;0.618149
9663.000000;0.617936
9662.000000;0.617509
9661.000000;0.617278
9660.000000;0.617452
9659.000000;0.617874
9658.000000;0.618232
9657.000000;0.618336
9656.000000;0.618169
9655.000000;0.617808
9654.000000;0.617379
9653.000000;0.617013
9652.000000;0.616704
9651.000000;0.616313
9650.000000;0.615811
9649.000000;0.615415
9648.000000;0.615339
9647.000000;0.615482
9646.000000;0.615554
9645.000000;0.615468
9644.000000;0.615418
9643.000000;0.615540
9642.000000;0.615702
9641.000000;0.615688
9640.000000;0.615464
9639.000000;0.615186
9638.000000;0.614996
9637.000000;0.614875
9636.000000;0.614653
9635.000000;0.614188
9634.000000;0.613560
9633.000000;0.613068
9632.000000;0.612932
9631.000000;0.613064
9630.000000;0.613213
9629.000000;0.613304
9628.000000;0.613478
9627.000000;0.613823
9626.000000;0.614203
9625.000000;0.614388
9624.000000;0.614264
9623.000000;0.613913
9622.000000;0.613568
9621.000000;0.613483
9620.000000;0.613712
9619.000000;0.614022
9618.000000;0.614099
9617.000000;0.613876
9616.000000;0.613560
9615.000000;0.613375
9614.000000;0.613384
9613.000000;0.613547
9612.000000;0.613797
9611.000000;0.614020
9610.000000;0.614112
9609.000000;0.614077
9608.000000;0.613993
9607.000000;0.613874
9606.000000;0.613674
9605.000000;0.613416
9604.000000;0.613173
9603.000000;0.612919
9602.000000;0.612559
9601.000000;0.612157
9600.000000;0.611932
9599.000000;0.611947
9598.000000;0.611969
9597.000000;0.611800
9596.000000;0.611626
9595.000000;0.611829
9594.000000;0.612474
9593.000000;0.613157
9592.000000;0.613396
9591.000000;0.613097
9590.000000;0.612565
9589.000000;0.612152
9588.000000;0.611957
9587.000000;0.611855
9586.000000;0.611724
9585.000000;0.611582
9584.000000;0.611500
9583.000000;0.611447
9582.000000;0.611296
9581.000000;0.610983
9580.000000;0.610614
9579.000000;0.610382
9578.000000;0.610389
9577.000000;0.610554
9576.000000;0.610699
9575.000000;0.610722
9574.000000;0.610688
9573.000000;0.610738
9572.000000;0.610911
9571.000000;0.611068
9570.000000;0.610988
9569.000000;0.610556
9568.000000;0.609884
9567.000000;0.609295
9566.000000;0.609123
9565.000000;0.609436
9564.000000;0.609925
9563.000000;0.610172
9562.000000;0.610060
9561.000000;0.609831
9560.000000;0.609734
9559.000000;0.609744
9558.000000;0.609710
9557.000000;0.609630
9556.000000;0.609641
9555.000000;0.609808
9554.000000;0.610036
9553.000000;0.610175
9552.000000;0.610117
9551.000000;0.609838
9550.000000;0.609439
9549.000000;0.609121
9548.000000;0.609025
9547.000000;0.609108
9546.000000;0.609224
9545.000000;0.609296
9544.000000;0.609349
9543.000000;0.609418
9542.000000;0.609501
9541.000000;0.609564
9540.000000;0.609507
9539.000000;0.609217
9538.000000;0.608729
9537.000000;0.608257
9536.000000;0.607966
9535.000000;0.607773
9534.000000;0.607515
9533.000000;0.607240
9532.000000;0.607159
9531.000000;0.607324
9530.000000;0.607536
9529.000000;0.607600
9528.000000;0.607524
9527.000000;0.607409
9526.000000;0.607265
9525.000000;0.607047
9524.000000;0.606776
9523.000000;0.606537
9522.000000;0.606358
9521.000000;0.606176
9520.000000;0.605938
9519.000000;0.605702
9518.000000;0.605606
9517.000000;0.605700
9516.000000;0.605833
9515.000000;0.605777
9514.000000;0.605498
9513.000000;0.605236
9512.000000;0.605230
9511.000000;0.605430
9510.000000;0.605555
9509.000000;0.605423
9508.000000;0.605104
9507.000000;0.604775
9506.000000;0.604526
9505.000000;0.604378
9504.000000;0.604380
9503.000000;0.604573
9502.000000;0.604876
9501.000000;0.605077
9500.000000;0.605016
9499.000000;0.604748
9498.000000;0.604498
9497.000000;0.604422
9496.000000;0.604490
9495.000000;0.604602
9494.000000;0.604734
9493.000000;0.604894
9492.000000;0.605007
9491.000000;0.604979
9490.000000;0.604834
9489.000000;0.604675
9488.000000;0.604518
9487.000000;0.604324
9486.000000;0.604165
9485.000000;0.604163
9484.000000;0.604232
9483.000000;0.604085
9482.000000;0.603585
9481.000000;0.602919
9480.000000;0.602359
9479.000000;0.601996
9478.000000;0.601823
9477.000000;0.601887
9476.000000;0.602190
9475.000000;0.602578
9474.000000;0.602849
9473.000000;0.602919
9472.000000;0.602775
9471.000000;0.602426
9470.000000;0.602026
9469.000000;0.601875
9468.000000;0.602116
9467.000000;0.602514
9466.000000;0.602712
9465.000000;0.602613
9464.000000;0.602366
9463.000000;0.602119
9462.000000;0.601983
9461.000000;0.602104
9460.000000;0.602512
9459.000000;0.602935
9458.000000;0.603023
9457.000000;0.602737
9456.000000;0.602342
9455.000000;0.602051
9454.000000;0.601899
9453.000000;0.601916
9452.000000;0.602143
9451.000000;0.602422
9450.000000;0.602429
9449.000000;0.602062
9448.000000;0.601630
9447.000000;0.601535
9446.000000;0.601839
9445.000000;0.602225
9444.000000;0.602331
9443.000000;0.602060
9442.000000;0.601620
9441.000000;0.601307
9440.000000;0.601216
9439.000000;0.601204
9438.000000;0.601146
9437.000000;0.601132
9436.000000;0.601288
9435.000000;0.601522
9434.000000;0.601599
9433.000000;0.601455
9432.000000;0.601241
9431.000000;0.601077
9430.000000;0.600942
9429.000000;0.600824
9428.000000;0.600773
9427.000000;0.600753
9426.000000;0.600594
9425.000000;0.600202
9424.000000;0.599704
9423.000000;0.599309
9422.000000;0.599100
9421.000000;0.599012
9420.000000;0.598947
9419.000000;0.598865
9418.000000;0.598801
9417.000000;0.598829
9416.000000;0.598944
9415.000000;0.599011
9414.000000;0.598903
9413.000000;0.598700
9412.000000;0.598623
9411.000000;0.598757
9410.000000;0.598919
9409.000000;0.598847
9408.000000;0.598444
9407.000000;0.597841
9406.000000;0.597296
9405.000000;0.597066
9404.000000;0.597253
9403.000000;0.597689
9402.000000;0.598047
9401.000000;0.598117
9400.000000;0.597964
9399.000000;0.597789
9398.000000;0.597694
9397.000000;0.597615
9396.000000;0.597464
9395.000000;0.597266
9394.000000;0.597132
9393.000000;0.597114
9392.000000;0.597138
9391.000000;0.597105
9390.000000;0.597040
9389.000000;0.597046
9388.000000;0.597098
9387.000000;0.597019
9386.000000;0.596729
9385.000000;0.596400
9384.000000;0.596265
9383.000000;0.596343
9382.000000;0.596470
9381.000000;0.596533
9380.000000;0.596540
9379.000000;0.596514
9378.000000;0.596465
9377.000000;0.596438
9376.000000;0.596447
9375.000000;0.596395
9374.000000;0.596175
9373.000000;0.595863
9372.000000;0.595657
9371.000000;0.595610
9370.000000;0.595579
9369.000000;0.595466
9368.000000;0.595384
9367.000000;0.595483
9366.000000;0.595715
9365.000000;0.595846
9364.000000;0.595703
9363.000000;0.595328
9362.000000;0.594927
9361.000000;0.594673
9360.000000;0.594561
9359.000000;0.594447
9358.000000;0.594248
9357.000000;0.594074
9356.000000;0.594113
9355.000000;0.594399
9354.000000;0.594730
9353.000000;0.594827
9352.000000;0.594587
9351.000000;0.594180
9350.000000;0.593898
9349.000000;0.593855
9348.000000;0.593870
9347.000000;0.593720
9346.000000;0.593451
9345.000000;0.593329
9344.000000;0.593465
9343.000000;0.593662
9342.000000;0.593709
9341.000000;0.593631
9340.000000;0.593549
9339.000000;0.593466
9338.000000;0.593349
9337.000000;0.593308
9336.000000;0.593468
9335.000000;0.593735
9334.000000;0.593872
9333.000000;0.593750
9332.000000;0.593414
9331.000000;0.592956
9330.000000;0.592514
9329.000000;0.592295
9328.000000;0.592375
9327.000000;0.592512
9326.000000;0.592381
9325.000000;0.591996
9324.000000;0.591681
9323.000000;0.591609
9322.000000;0.591619
9321.000000;0.591550
9320.000000;0.591518
9319.000000;0.591709
9318.000000;0.592029
9317.000000;0.592162
9316.000000;0.591918
9315.000000;0.591416
9314.000000;0.590953
9313.000000;0.590772
9312.000000;0.590907
9311.000000;0.591174
9310.000000;0.591330
9309.000000;0.591276
9308.000000;0.591126
9307.000000;0.591094
9306.000000;0.591301
9305.000000;0.591669
9304.000000;0.591963
9303.000000;0.591971
9302.000000;0.591699
9301.000000;0.591358
9300.000000;0.591131
9299.000000;0.591021
9298.000000;0.590962
9297.000000;0.590977
9296.000000;0.591107
9295.000000;0.591266
9294.000000;0.591306
9293.000000;0.591215
9292.000000;0.591079
9291.000000;0.590917
9290.000000;0.590682
9289.000000;0.590432
9288.000000;0.590332
9287.000000;0.590453
9286.000000;0.590668
9285.000000;0.590777
9284.000000;0.590640
9283.000000;0.590228
9282.000000;0.589651
9281.000000;0.589154
9280.000000;0.588939
9279.000000;0.588985
9278.000000;0.589128
9277.000000;0.589301
9276.000000;0.589524
9275.000000;0.589704
9274.000000;0.589638
9273.000000;0.589298
9272.000000;0.588927
9271.000000;0.588746
9270.000000;0.588699
9269.000000;0.588607
9268.000000;0.588444
9267.000000;0.588340
9266.000000;0.588377
9265.000000;0.588495
9264.000000;0.588578
9263.000000;0.588563
9262.000000;0.588466
9261.000000;0.588372
9260.000000;0.588347
9259.000000;0.588342
9258.000000;0.588222
9257.000000;0.587930
9256.000000;0.587569
9255.000000;0.587278
9254.000000;0.587087
9253.000000;0.586923
9252.000000;0.586731
9251.000000;0.586550
9250.000000;0.586485
9249.000000;0.586619
9248.000000;0.586912
9247.000000;0.587188
9246.000000;0.587265
9245.000000;0.587130
9244.000000;0.586918
9243.000000;0.586743
9242.000000;0.586602
9241.000000;0.586472
9240.000000;0.586409
9239.000000;0.586456
9238.000000;0.586508
9237.000000;0.586363
9236.000000;0.585943
9235.000000;0.585418
9234.000000;0.585078
9233.000000;0.585063
9232.000000;0.585246
9231.000000;0.585414
9230.000000;0.585538
9229.000000;0.585772
9228.000000;0.586163
9227.000000;0.586467
9226.000000;0.586370
9225.000000;0.585852
9224.000000;0.585212
9223.000000;0.584764
9222.000000;0.584604
9221.000000;0.584654
9220.000000;0.584780
9219.000000;0.584865
9218.000000;0.584862
9217.000000;0.584841
9216.000000;0.584903
9215.000000;0.585018
9214.000000;0.585028
9213.000000;0.584846
9212.000000;0.584591
9211.000000;0.584454
9210.000000;0.584505
9209.000000;0.584669
9208.000000;0.584832
9207.000000;0.584894
9206.000000;0.584778
9205.000000;0.584473
9204.000000;0.584093
9203.000000;0.583824
9202.000000;0.583773
9201.000000;0.583875
9200.000000;0.583952
9199.000000;0.583882
9198.000000;0.583702
9197.000000;0.583561
9196.000000;0.583544
9195.000000;0.583596
9194.000000;0.583592
9193.000000;0.583461
9192.000000;0.583186
9191.000000;0.582763
9190.000000;0.582238
9189.000000;0.581778
9188.000000;0.581603
9187.000000;0.581795
9186.000000;0.582210
9185.000000;0.582593
9184.000000;0.582763
9183.000000;0.582685
9182.000000;0.582431
9181.000000;0.582128
9180.000000;0.581921
9179.000000;0.581901
9178.000000;0.582038
9177.000000;0.582189
9176.000000;0.582221
9175.000000;0.582126
9174.000000;0.582002
9173.000000;0.581919
9172.000000;0.581837
9171.000000;0.581685
9170.000000;0.581468
9169.000000;0.581252
9168.000000;0.581071
9167.000000;0.580933
9166.000000;0.580890
9165.000000;0.581001
9164.000000;0.581207
9163.000000;0.581339
9162.000000;0.581309
9161.000000;0.581195
9160.000000;0.581106
9159.000000;0.581024
9158.000000;0.580874
9157.000000;0.580664
9156.000000;0.580483
9155.000000;0.580401
9154.000000;0.580420
9153.000000;0.580502
9152.000000;0.580590
9151.000000;0.580618
9150.000000;0.580573
9149.000000;0.580494
9148.000000;0.580385
9147.000000;0.580186
9146.000000;0.579888
9145.000000;0.579623
9144.000000;0.579545
9143.000000;0.579658
9142.000000;0.579815
9141.000000;0.579863
9140.000000;0.579732
9139.000000;0.579436
9138.000000;0.579067
9137.000000;0.578769
9136.000000;0.578642
9135.000000;0.578678
9134.000000;0.578800
9133.000000;0.578942
9132.000000;0.579039
9131.000000;0.579022
9130.000000;0.578884
9129.000000;0.578720
9128.000000;0.578620
9127.000000;0.578558
9126.000000;0.578451
9125.000000;0.578292
9124.000000;0.578144
9123.000000;0.578035
9122.000000;0.577931
9121.000000;0.577813
9120.000000;0.577712
9119.000000;0.577673
9118.000000;0.577727
9117.000000;0.577865
9116.000000;0.578001
9115.000000;0.577994
9114.000000;0.577775
9113.000000;0.577449
9112.000000;0.577187
9111.000000;0.577064
9110.000000;0.577047
9109.000000;0.577097
9108.000000;0.577197
9107.000000;0.577297
9106.000000;0.577327
9105.000000;0.577266
9104.000000;0.577142
9103.000000;0.576962
9102.000000;0.576716
9101.000000;0.576451
9100.000000;0.576282
9099.000000;0.576299
9098.000000;0.576474
9097.000000;0.576669
9096.000000;0.576721
9095.000000;0.576576
9094.000000;0.576337
9093.000000;0.576153
9092.000000;0.576048
9091.000000;0.575916
9090.000000;0.575715
9089.000000;0.575550
9088.000000;0.575502
9087.000000;0.575490
9086.000000;0.575402
9085.000000;0.575281
9084.000000;0.575254
9083.000000;0.575319
9082.000000;0.575340
9081.000000;0.575243
9080.000000;0.575106
9079.000000;0.575020
9078.000000;0.574991
9077.000000;0.574989
9076.000000;0.575009
9075.000000;0.575035
9074.000000;0.575020
9073.000000;0.574940
9072.000000;0.574805
9071.000000;0.574605
9070.000000;0.574299
9069.000000;0.573910
9068.000000;0.573579
9067.000000;0.573463
9066.000000;0.573592
9065.000000;0.573829
9064.000000;0.573992
9063.000000;0.574010
9062.000000;0.573986
9061.000000;0.574064
9060.000000;0.574253
9059.000000;0.574381
9058.000000;0.574279
9057.000000;0.573966
9056.000000;0.573627
9055.000000;0.573428
9054.000000;0.573377
9053.000000;0.573367
