Criado como novo conjunto de dados;"2706_e01_daniel.spp","85146.7 Secs"
cm-1;Abs
10000.000000;0.790440
9999.000000;0.790133
9998.000000;0.789976
9997.000000;0.790043
9996.000000;0.790335
9995.000000;0.790557
9994.000000;0.790388
9993.000000;0.790057
9992.000000;0.790111
9991.000000;0.790617
9990.000000;0.791040
9989.000000;0.790980
9988.000000;0.790539
9987.000000;0.789886
9986.000000;0.789074
9985.000000;0.788414
9984.000000;0.788398
9983.000000;0.788913
9982.000000;0.789103
9981.000000;0.788440
9980.000000;0.787465
9979.000000;0.787048
9978.000000;0.787357
9977.000000;0.787964
9976.000000;0.788545
9975.000000;0.789023
9974.000000;0.789302
9973.000000;0.789362
9972.000000;0.789404
9971.000000;0.789505
9970.000000;0.789381
9969.000000;0.788842
9968.000000;0.788178
9967.000000;0.787754
9966.000000;0.787507
9965.000000;0.787224
9964.000000;0.787031
9963.000000;0.787161
9962.000000;0.787497
9961.000000;0.787757
9960.000000;0.787886
9959.000000;0.787834
9958.000000;0.787273
9957.000000;0.786113
9956.000000;0.785081
9955.000000;0.785083
9954.000000;0.786007
9953.000000;0.786762
9952.000000;0.786588
9951.000000;0.785831
9950.000000;0.785284
9949.000000;0.785228
9948.000000;0.785365
9947.000000;0.785355
9946.000000;0.785150
9945.000000;0.784933
9944.000000;0.784856
9943.000000;0.784798
9942.000000;0.784430
9941.000000;0.783668
9940.000000;0.782952
9939.000000;0.782837
9938.000000;0.783337
9937.000000;0.783926
9936.000000;0.784143
9935.000000;0.783941
9934.000000;0.783490
9933.000000;0.782945
9932.000000;0.782484
9931.000000;0.782291
9930.000000;0.782382
9929.000000;0.782584
9928.000000;0.782748
9927.000000;0.782818
9926.000000;0.782706
9925.000000;0.782342
9924.000000;0.781895
9923.000000;0.781737
9922.000000;0.782040
9921.000000;0.782582
9920.000000;0.783020
9919.000000;0.783214
9918.000000;0.783163
9917.000000;0.782829
9916.000000;0.782237
9915.000000;0.781683
9914.000000;0.781592
9913.000000;0.782086
9912.000000;0.782793
9911.000000;0.783153
9910.000000;0.782886
9909.000000;0.782165
9908.000000;0.781397
9907.000000;0.780894
9906.000000;0.780697
9905.000000;0.780617
9904.000000;0.780437
9903.000000;0.780114
9902.000000;0.779803
9901.000000;0.779632
9900.000000;0.779525
9899.000000;0.779314
9898.000000;0.779013
9897.000000;0.778889
9896.000000;0.779204
9895.000000;0.779945
9894.000000;0.780789
9893.000000;0.781282
9892.000000;0.781127
9891.000000;0.780462
9890.000000;0.779840
9889.000000;0.779752
9888.000000;0.780125
9887.000000;0.780430
9886.000000;0.780273
9885.000000;0.779699
9884.000000;0.778912
9883.000000;0.778016
9882.000000;0.777145
9881.000000;0.776566
9880.000000;0.776413
9879.000000;0.776521
9878.000000;0.776646
9877.000000;0.776669
9876.000000;0.776469
9875.000000;0.775928
9874.000000;0.775258
9873.000000;0.775031
9872.000000;0.775541
9871.000000;0.776375
9870.000000;0.776890
9869.000000;0.776947
9868.000000;0.776847
9867.000000;0.776771
9866.000000;0.776642
9865.000000;0.776394
9864.000000;0.776015
9863.000000;0.775453
9862.000000;0.774776
9861.000000;0.774276
9860.000000;0.774123
9859.000000;0.774108
9858.000000;0.774040
9857.000000;0.774141
9856.000000;0.774621
9855.000000;0.775115
9854.000000;0.775071
9853.000000;0.774546
9852.000000;0.774074
9851.000000;0.773852
9850.000000;0.773636
9849.000000;0.773418
9848.000000;0.773576
9847.000000;0.774192
9846.000000;0.774798
9845.000000;0.775018
9844.000000;0.775022
9843.000000;0.775104
9842.000000;0.775191
9841.000000;0.775017
9840.000000;0.774526
9839.000000;0.773892
9838.000000;0.773345
9837.000000;0.773070
9836.000000;0.773062
9835.000000;0.773059
9834.000000;0.772853
9833.000000;0.772627
9832.000000;0.772680
9831.000000;0.772908
9830.000000;0.772934
9829.000000;0.772743
9828.000000;0.772691
9827.000000;0.772824
9826.000000;0.772716
9825.000000;0.772171
9824.000000;0.771639
9823.000000;0.771635
9822.000000;0.772069
9821.000000;0.772430
9820.000000;0.772397
9819.000000;0.772001
9818.000000;0.771397
9817.000000;0.770770
9816.000000;0.770394
9815.000000;0.770512
9814.000000;0.771105
9813.000000;0.771831
9812.000000;0.772232
9811.000000;0.772099
9810.000000;0.771695
9809.000000;0.771521
9808.000000;0.771747
9807.000000;0.772049
9806.000000;0.772122
9805.000000;0.772117
9804.000000;0.772323
9803.000000;0.772657
9802.000000;0.772830
9801.000000;0.772793
9800.000000;0.772636
9799.000000;0.772205
9798.000000;0.771329
9797.000000;0.770325
9796.000000;0.769781
9795.000000;0.769835
9794.000000;0.770083
9793.000000;0.770189
9792.000000;0.770146
9791.000000;0.769922
9790.000000;0.769362
9789.000000;0.768562
9788.000000;0.767935
9787.000000;0.767739
9786.000000;0.767826
9785.000000;0.767957
9784.000000;0.768059
9783.000000;0.768130
9782.000000;0.768153
9781.000000;0.768139
9780.000000;0.768060
9779.000000;0.767761
9778.000000;0.767189
9777.000000;0.766571
9776.000000;0.766116
9775.000000;0.765732
9774.000000;0.765362
9773.000000;0.765332
9772.000000;0.765870
9771.000000;0.766534
9770.000000;0.766693
9769.000000;0.766401
9768.000000;0.766201
9767.000000;0.766206
9766.000000;0.766120
9765.000000;0.766036
9764.000000;0.766364
9763.000000;0.766952
9762.000000;0.767114
9761.000000;0.766693
9760.000000;0.766275
9759.000000;0.766146
9758.000000;0.765861
9757.000000;0.765176
9756.000000;0.764603
9755.000000;0.764588
9754.000000;0.764799
9753.000000;0.764714
9752.000000;0.764394
9751.000000;0.764147
9750.000000;0.763939
9749.000000;0.763624
9748.000000;0.763361
9747.000000;0.763337
9746.000000;0.763436
9745.000000;0.763563
9744.000000;0.763907
9743.000000;0.764478
9742.000000;0.764768
9741.000000;0.764369
9740.000000;0.763617
9739.000000;0.763170
9738.000000;0.763191
9737.000000;0.763327
9736.000000;0.763257
9735.000000;0.762914
9734.000000;0.762394
9733.000000;0.761993
9732.000000;0.762081
9731.000000;0.762627
9730.000000;0.763075
9729.000000;0.763004
9728.000000;0.762644
9727.000000;0.762441
9726.000000;0.762384
9725.000000;0.762128
9724.000000;0.761557
9723.000000;0.760878
9722.000000;0.760329
9721.000000;0.760068
9720.000000;0.760170
9719.000000;0.760458
9718.000000;0.760580
9717.000000;0.760461
9716.000000;0.760422
9715.000000;0.760630
9714.000000;0.760762
9713.000000;0.760539
9712.000000;0.760219
9711.000000;0.760154
9710.000000;0.760177
9709.000000;0.759902
9708.000000;0.759417
9707.000000;0.759166
9706.000000;0.759260
9705.000000;0.759401
9704.000000;0.759425
9703.000000;0.759482
9702.000000;0.759640
9701.000000;0.759724
9700.000000;0.759655
9699.000000;0.759593
9698.000000;0.759640
9697.000000;0.759650
9696.000000;0.759488
9695.000000;0.759279
9694.000000;0.759267
9693.000000;0.759508
9692.000000;0.759820
9691.000000;0.759978
9690.000000;0.759907
9689.000000;0.759689
9688.000000;0.759427
9687.000000;0.759146
9686.000000;0.758830
9685.000000;0.758504
9684.000000;0.758192
9683.000000;0.757868
9682.000000;0.757537
9681.000000;0.757289
9680.000000;0.757131
9679.000000;0.756884
9678.000000;0.756461
9677.000000;0.756179
9676.000000;0.756497
9675.000000;0.757433
9674.000000;0.758477
9673.000000;0.759118
9672.000000;0.759222
9671.000000;0.758894
9670.000000;0.758265
9669.000000;0.757555
9668.000000;0.757096
9667.000000;0.757137
9666.000000;0.757669
9665.000000;0.758421
9664.000000;0.758914
9663.000000;0.758699
9662.000000;0.757832
9661.000000;0.757007
9660.000000;0.756880
9659.000000;0.757295
9658.000000;0.757542
9657.000000;0.757274
9656.000000;0.756766
9655.000000;0.756322
9654.000000;0.755953
9653.000000;0.755717
9652.000000;0.755822
9651.000000;0.756186
9650.000000;0.756335
9649.000000;0.756019
9648.000000;0.755574
9647.000000;0.755471
9646.000000;0.755787
9645.000000;0.756283
9644.000000;0.756661
9643.000000;0.756598
9642.000000;0.755929
9641.000000;0.755001
9640.000000;0.754494
9639.000000;0.754659
9638.000000;0.755052
9637.000000;0.755195
9636.000000;0.755101
9635.000000;0.754923
9634.000000;0.754549
9633.000000;0.753912
9632.000000;0.753332
9631.000000;0.753135
9630.000000;0.753171
9629.000000;0.753079
9628.000000;0.752835
9627.000000;0.752664
9626.000000;0.752593
9625.000000;0.752463
9624.000000;0.752285
9623.000000;0.752240
9622.000000;0.752348
9621.000000;0.752414
9620.000000;0.752297
9619.000000;0.752055
9618.000000;0.751846
9617.000000;0.751821
9616.000000;0.752044
9615.000000;0.752371
9614.000000;0.752494
9613.000000;0.752230
9612.000000;0.751718
9611.000000;0.751257
9610.000000;0.751031
9609.000000;0.751025
9608.000000;0.751089
9607.000000;0.751044
9606.000000;0.750866
9605.000000;0.750767
9604.000000;0.750960
9603.000000;0.751351
9602.000000;0.751656
9601.000000;0.751758
9600.000000;0.751738
9599.000000;0.751604
9598.000000;0.751304
9597.000000;0.750975
9596.000000;0.750845
9595.000000;0.750854
9594.000000;0.750711
9593.000000;0.750366
9592.000000;0.750053
9591.000000;0.749840
9590.000000;0.749543
9589.000000;0.749166
9588.000000;0.748997
9587.000000;0.749105
9586.000000;0.749179
9585.000000;0.749070
9584.000000;0.749071
9583.000000;0.749394
9582.000000;0.749765
9581.000000;0.749835
9580.000000;0.749671
9579.000000;0.749514
9578.000000;0.749341
9577.000000;0.749016
9576.000000;0.748632
9575.000000;0.748390
9574.000000;0.748295
9573.000000;0.748259
9572.000000;0.748356
9571.000000;0.748677
9570.000000;0.749062
9569.000000;0.749205
9568.000000;0.748960
9567.000000;0.748400
9566.000000;0.747714
9565.000000;0.747186
9564.000000;0.747060
9563.000000;0.747258
9562.000000;0.747381
9561.000000;0.747140
9560.000000;0.746649
9559.000000;0.746178
9558.000000;0.745833
9557.000000;0.745605
9556.000000;0.745512
9555.000000;0.745501
9554.000000;0.745411
9553.000000;0.745184
9552.000000;0.744978
9551.000000;0.744942
9550.000000;0.745056
9549.000000;0.745311
9548.000000;0.745802
9547.000000;0.746500
9546.000000;0.747099
9545.000000;0.747293
9544.000000;0.747064
9543.000000;0.746581
9542.000000;0.746003
9541.000000;0.745478
9540.000000;0.745148
9539.000000;0.745026
9538.000000;0.745019
9537.000000;0.745133
9536.000000;0.745461
9535.000000;0.745886
9534.000000;0.746056
9533.000000;0.745786
9532.000000;0.745272
9531.000000;0.744836
9530.000000;0.744626
9529.000000;0.744632
9528.000000;0.744727
9527.000000;0.744647
9526.000000;0.744193
9525.000000;0.743556
9524.000000;0.743161
9523.000000;0.743124
9522.000000;0.743128
9521.000000;0.742905
9520.000000;0.742546
9519.000000;0.742236
9518.000000;0.742015
9517.000000;0.741926
9516.000000;0.742084
9515.000000;0.742435
9514.000000;0.742715
9513.000000;0.742788
9512.000000;0.742762
9511.000000;0.742690
9510.000000;0.742483
9509.000000;0.742208
9508.000000;0.742115
9507.000000;0.742236
9506.000000;0.742288
9505.000000;0.742131
9504.000000;0.741955
9503.000000;0.741871
9502.000000;0.741697
9501.000000;0.741345
9500.000000;0.741034
9499.000000;0.740897
9498.000000;0.740733
9497.000000;0.740408
9496.000000;0.740144
9495.000000;0.740148
9494.000000;0.740277
9493.000000;0.740346
9492.000000;0.740472
9491.000000;0.740813
9490.000000;0.741255
9489.000000;0.741627
9488.000000;0.741945
9487.000000;0.742202
9486.000000;0.742192
9485.000000;0.741837
9484.000000;0.741406
9483.000000;0.741121
9482.000000;0.740826
9481.000000;0.740348
9480.000000;0.739879
9479.000000;0.739653
9478.000000;0.739510
9477.000000;0.739145
9476.000000;0.738604
9475.000000;0.738175
9474.000000;0.737980
9473.000000;0.737959
9472.000000;0.738080
9471.000000;0.738271
9470.000000;0.738324
9469.000000;0.738169
9468.000000;0.738044
9467.000000;0.738127
9466.000000;0.738179
9465.000000;0.737900
9464.000000;0.737452
9463.000000;0.737279
9462.000000;0.737525
9461.000000;0.737942
9460.000000;0.738274
9459.000000;0.738439
9458.000000;0.738407
9457.000000;0.738171
9456.000000;0.737829
9455.000000;0.737497
9454.000000;0.737209
9453.000000;0.737044
9452.000000;0.737168
9451.000000;0.737559
9450.000000;0.737884
9449.000000;0.737871
9448.000000;0.737643
9447.000000;0.737467
9446.000000;0.737346
9445.000000;0.737116
9444.000000;0.736773
9443.000000;0.736454
9442.000000;0.736252
9441.000000;0.736268
9440.000000;0.736647
9439.000000;0.737298
9438.000000;0.737735
9437.000000;0.737515
9436.000000;0.736745
9435.000000;0.735911
9434.000000;0.735320
9433.000000;0.734966
9432.000000;0.734802
9431.000000;0.734837
9430.000000;0.735014
9429.000000;0.735220
9428.000000;0.735396
9427.000000;0.735477
9426.000000;0.735354
9425.000000;0.735052
9424.000000;0.734812
9423.000000;0.734788
9422.000000;0.734823
9421.000000;0.734705
9420.000000;0.734476
9419.000000;0.734274
9418.000000;0.734057
9417.000000;0.733743
9416.000000;0.733438
9415.000000;0.733266
9414.000000;0.733127
9413.000000;0.732921
9412.000000;0.732837
9411.000000;0.733093
9410.000000;0.733522
9409.000000;0.733785
9408.000000;0.733846
9407.000000;0.733889
9406.000000;0.733837
9405.000000;0.733404
9404.000000;0.732655
9403.000000;0.732092
9402.000000;0.732045
9401.000000;0.732310
9400.000000;0.732472
9399.000000;0.732381
9398.000000;0.732163
9397.000000;0.732022
9396.000000;0.732133
9395.000000;0.732551
9394.000000;0.733073
9393.000000;0.733340
9392.000000;0.733191
9391.000000;0.732820
9390.000000;0.732488
9389.000000;0.732215
9388.000000;0.731871
9387.000000;0.731457
9386.000000;0.731151
9385.000000;0.731111
9384.000000;0.731312
9383.000000;0.731596
9382.000000;0.731802
9381.000000;0.731825
9380.000000;0.731639
9379.000000;0.731306
9378.000000;0.730984
9377.000000;0.730819
9376.000000;0.730794
9375.000000;0.730699
9374.000000;0.730332
9373.000000;0.729730
9372.000000;0.729160
9371.000000;0.728896
9370.000000;0.729010
9369.000000;0.729346
9368.000000;0.729653
9367.000000;0.729796
9366.000000;0.729869
9365.000000;0.730040
9364.000000;0.730265
9363.000000;0.730297
9362.000000;0.730049
9361.000000;0.729742
9360.000000;0.729567
9359.000000;0.729413
9358.000000;0.729122
9357.000000;0.728832
9356.000000;0.728753
9355.000000;0.728762
9354.000000;0.728563
9353.000000;0.728154
9352.000000;0.727827
9351.000000;0.727725
9350.000000;0.727752
9349.000000;0.727848
9348.000000;0.727988
9347.000000;0.727937
9346.000000;0.727420
9345.000000;0.726602
9344.000000;0.726016
9343.000000;0.725932
9342.000000;0.726140
9341.000000;0.726399
9340.000000;0.726710
9339.000000;0.727055
9338.000000;0.727272
9337.000000;0.727329
9336.000000;0.727370
9335.000000;0.727378
9334.000000;0.727157
9333.000000;0.726778
9332.000000;0.726610
9331.000000;0.726726
9330.000000;0.726718
9329.000000;0.726311
9328.000000;0.725768
9327.000000;0.725425
9326.000000;0.725251
9325.000000;0.725150
9324.000000;0.725297
9323.000000;0.725786
9322.000000;0.726314
9321.000000;0.726589
9320.000000;0.726745
9319.000000;0.726965
9318.000000;0.727023
9317.000000;0.726643
9316.000000;0.726042
9315.000000;0.725646
9314.000000;0.725473
9313.000000;0.725252
9312.000000;0.724981
9311.000000;0.724873
9310.000000;0.724884
9309.000000;0.724791
9308.000000;0.724685
9307.000000;0.724883
9306.000000;0.725321
9305.000000;0.725500
9304.000000;0.725144
9303.000000;0.724562
9302.000000;0.724197
9301.000000;0.724119
9300.000000;0.724099
9299.000000;0.723959
9298.000000;0.723697
9297.000000;0.723430
9296.000000;0.723292
9295.000000;0.723310
9294.000000;0.723336
9293.000000;0.723204
9292.000000;0.722933
9291.000000;0.722666
9290.000000;0.722451
9289.000000;0.722234
9288.000000;0.722038
9287.000000;0.721980
9286.000000;0.722088
9285.000000;0.722260
9284.000000;0.722401
9283.000000;0.722488
9282.000000;0.722487
9281.000000;0.722340
9280.000000;0.722021
9279.000000;0.721563
9278.000000;0.721041
9277.000000;0.720600
9276.000000;0.720395
9275.000000;0.720414
9274.000000;0.720425
9273.000000;0.720227
9272.000000;0.719899
9271.000000;0.719700
9270.000000;0.719773
9269.000000;0.720079
9268.000000;0.720528
9267.000000;0.721030
9266.000000;0.721433
9265.000000;0.721565
9264.000000;0.721359
9263.000000;0.720890
9262.000000;0.720312
9261.000000;0.719818
9260.000000;0.719592
9259.000000;0.719694
9258.000000;0.719991
9257.000000;0.720255
9256.000000;0.720324
9255.000000;0.720176
9254.000000;0.719891
9253.000000;0.719591
9252.000000;0.719374
9251.000000;0.719269
9250.000000;0.719288
9249.000000;0.719444
9248.000000;0.719658
9247.000000;0.719727
9246.000000;0.719520
9245.000000;0.719168
9244.000000;0.718908
9243.000000;0.718796
9242.000000;0.718728
9241.000000;0.718701
9240.000000;0.718808
9239.000000;0.718997
9238.000000;0.719068
9237.000000;0.718954
9236.000000;0.718767
9235.000000;0.718559
9234.000000;0.718276
9233.000000;0.717963
9232.000000;0.717762
9231.000000;0.717662
9230.000000;0.717498
9229.000000;0.717259
9228.000000;0.717118
9227.000000;0.717110
9226.000000;0.717067
9225.000000;0.716968
9224.000000;0.717025
9223.000000;0.717265
9222.000000;0.717354
9221.000000;0.717021
9220.000000;0.716423
9219.000000;0.715891
9218.000000;0.715556
9217.000000;0.715419
9216.000000;0.715520
9215.000000;0.715823
9214.000000;0.716135
9213.000000;0.716339
9212.000000;0.716507
9211.000000;0.716636
9210.000000;0.716522
9209.000000;0.716102
9208.000000;0.715668
9207.000000;0.715483
9206.000000;0.715423
9205.000000;0.715238
9204.000000;0.714973
9203.000000;0.714842
9202.000000;0.714874
9201.000000;0.714947
9200.000000;0.715046
9199.000000;0.715214
9198.000000;0.715374
9197.000000;0.715440
9196.000000;0.715503
9195.000000;0.715648
9194.000000;0.715703
9193.000000;0.715429
9192.000000;0.714864
9191.000000;0.714283
9190.000000;0.713879
9189.000000;0.713685
9188.000000;0.713687
9187.000000;0.713798
9186.000000;0.713826
9185.000000;0.713677
9184.000000;0.713504
9183.000000;0.713471
9182.000000;0.713498
9181.000000;0.713422
9180.000000;0.713262
9179.000000;0.713104
9178.000000;0.712895
9177.000000;0.712611
9176.000000;0.712489
9175.000000;0.712781
9174.000000;0.713331
9173.000000;0.713687
9172.000000;0.713609
9171.000000;0.713236
9170.000000;0.712788
9169.000000;0.712390
9168.000000;0.712179
9167.000000;0.712280
9166.000000;0.712615
9165.000000;0.712923
9164.000000;0.713046
9163.000000;0.713041
9162.000000;0.712993
9161.000000;0.712885
9160.000000;0.712671
9159.000000;0.712340
9158.000000;0.711882
9157.000000;0.711338
9156.000000;0.710891
9155.000000;0.710747
9154.000000;0.710892
9153.000000;0.711071
9152.000000;0.711043
9151.000000;0.710769
9150.000000;0.710361
9149.000000;0.709954
9148.000000;0.709637
9147.000000;0.709431
9146.000000;0.709312
9145.000000;0.709285
9144.000000;0.709415
9143.000000;0.709704
9142.000000;0.709968
9141.000000;0.709963
9140.000000;0.709632
9139.000000;0.709191
9138.000000;0.708943
9137.000000;0.709031
9136.000000;0.709350
9135.000000;0.709654
9134.000000;0.709745
9133.000000;0.709589
9132.000000;0.709268
9131.000000;0.708895
9130.000000;0.708602
9129.000000;0.708547
9128.000000;0.708776
9127.000000;0.709117
9126.000000;0.709317
9125.000000;0.709271
9124.000000;0.709028
9123.000000;0.708640
9122.000000;0.708201
9121.000000;0.707958
9120.000000;0.708122
9119.000000;0.708511
9118.000000;0.708651
9117.000000;0.708330
9116.000000;0.707846
9115.000000;0.707612
9114.000000;0.707716
9113.000000;0.707975
9112.000000;0.708208
9111.000000;0.708288
9110.000000;0.708116
9109.000000;0.707724
9108.000000;0.707321
9107.000000;0.707081
9106.000000;0.706988
9105.000000;0.706954
9104.000000;0.706943
9103.000000;0.706912
9102.000000;0.706780
9101.000000;0.706583
9100.000000;0.706497
9099.000000;0.706587
9098.000000;0.706689
9097.000000;0.706658
9096.000000;0.706570
9095.000000;0.706535
9094.000000;0.706482
9093.000000;0.706296
9092.000000;0.706032
9091.000000;0.705844
9090.000000;0.705782
9089.000000;0.705814
9088.000000;0.705914
9087.000000;0.706017
9086.000000;0.706002
9085.000000;0.705862
9084.000000;0.705764
9083.000000;0.705805
9082.000000;0.705820
9081.000000;0.705594
9080.000000;0.705167
9079.000000;0.704768
9078.000000;0.704544
9077.000000;0.704477
9076.000000;0.704492
9075.000000;0.704517
9074.000000;0.704494
9073.000000;0.704427
9072.000000;0.704359
9071.000000;0.704250
9070.000000;0.703991
9069.000000;0.703631
9068.000000;0.703419
9067.000000;0.703526
9066.000000;0.703846
9065.000000;0.704167
9064.000000;0.704396
9063.000000;0.704498
9062.000000;0.704402
9061.000000;0.704146
9060.000000;0.703952
9059.000000;0.703940
9058.000000;0.703904
9057.000000;0.703558
9056.000000;0.702955
9055.000000;0.702442
9054.000000;0.702237
9053.000000;0.702230
