Criado como novo conjunto de dados;"2706_e01_daniel.spp","12242.9 Secs"
cm-1;Abs
10000.000000;0.753638
9999.000000;0.753524
9998.000000;0.753415
9997.000000;0.753298
9996.000000;0.753196
9995.000000;0.753064
9994.000000;0.753015
9993.000000;0.753173
9992.000000;0.753181
9991.000000;0.753006
9990.000000;0.752896
9989.000000;0.752972
9988.000000;0.752953
9987.000000;0.752595
9986.000000;0.752155
9985.000000;0.752115
9984.000000;0.752467
9983.000000;0.752629
9982.000000;0.752194
9981.000000;0.751509
9980.000000;0.751270
9979.000000;0.751660
9978.000000;0.752184
9977.000000;0.752297
9976.000000;0.751931
9975.000000;0.751362
9974.000000;0.750837
9973.000000;0.750522
9972.000000;0.750580
9971.000000;0.751025
9970.000000;0.751578
9969.000000;0.751895
9968.000000;0.751909
9967.000000;0.751801
9966.000000;0.751686
9965.000000;0.751518
9964.000000;0.751266
9963.000000;0.750986
9962.000000;0.750701
9961.000000;0.750399
9960.000000;0.750143
9959.000000;0.749986
9958.000000;0.749778
9957.000000;0.749308
9956.000000;0.748695
9955.000000;0.748365
9954.000000;0.748541
9953.000000;0.748950
9952.000000;0.749177
9951.000000;0.749117
9950.000000;0.748929
9949.000000;0.748725
9948.000000;0.748497
9947.000000;0.748273
9946.000000;0.748144
9945.000000;0.748160
9944.000000;0.748279
9943.000000;0.748390
9942.000000;0.748350
9941.000000;0.748118
9940.000000;0.747902
9939.000000;0.748008
9938.000000;0.748417
9937.000000;0.748708
9936.000000;0.748549
9935.000000;0.748114
9934.000000;0.747806
9933.000000;0.747677
9932.000000;0.747416
9931.000000;0.746876
9930.000000;0.746329
9929.000000;0.746124
9928.000000;0.746282
9927.000000;0.746556
9926.000000;0.746742
9925.000000;0.746841
9924.000000;0.746971
9923.000000;0.747234
9922.000000;0.747620
9921.000000;0.747975
9920.000000;0.748105
9919.000000;0.747964
9918.000000;0.747720
9917.000000;0.747601
9916.000000;0.747692
9915.000000;0.747912
9914.000000;0.748144
9913.000000;0.748320
9912.000000;0.748389
9911.000000;0.748293
9910.000000;0.748032
9909.000000;0.747711
9908.000000;0.747435
9907.000000;0.747143
9906.000000;0.746633
9905.000000;0.745825
9904.000000;0.744919
9903.000000;0.744222
9902.000000;0.743888
9901.000000;0.743911
9900.000000;0.744229
9899.000000;0.744699
9898.000000;0.745010
9897.000000;0.744889
9896.000000;0.744430
9895.000000;0.744040
9894.000000;0.743963
9893.000000;0.744019
9892.000000;0.743926
9891.000000;0.743733
9890.000000;0.743747
9889.000000;0.744093
9888.000000;0.744498
9887.000000;0.744569
9886.000000;0.744203
9885.000000;0.743696
9884.000000;0.743454
9883.000000;0.743606
9882.000000;0.743891
9881.000000;0.743946
9880.000000;0.743685
9879.000000;0.743332
9878.000000;0.743131
9877.000000;0.743135
9876.000000;0.743261
9875.000000;0.743409
9874.000000;0.743459
9873.000000;0.743290
9872.000000;0.742903
9871.000000;0.742472
9870.000000;0.742189
9869.000000;0.742075
9868.000000;0.742000
9867.000000;0.741836
9866.000000;0.741574
9865.000000;0.741334
9864.000000;0.741291
9863.000000;0.741523
9862.000000;0.741902
9861.000000;0.742206
9860.000000;0.742363
9859.000000;0.742483
9858.000000;0.742630
9857.000000;0.742667
9856.000000;0.742446
9855.000000;0.742070
9854.000000;0.741826
9853.000000;0.741840
9852.000000;0.741902
9851.000000;0.741662
9850.000000;0.741005
9849.000000;0.740239
9848.000000;0.739881
9847.000000;0.740214
9846.000000;0.741025
9845.000000;0.741780
9844.000000;0.742079
9843.000000;0.741908
9842.000000;0.741515
9841.000000;0.741148
9840.000000;0.740937
9839.000000;0.740913
9838.000000;0.741026
9837.000000;0.741155
9836.000000;0.741164
9835.000000;0.740981
9834.000000;0.740637
9833.000000;0.740244
9832.000000;0.739878
9831.000000;0.739504
9830.000000;0.739060
9829.000000;0.738616
9828.000000;0.738327
9827.000000;0.738180
9826.000000;0.737953
9825.000000;0.737565
9824.000000;0.737317
9823.000000;0.737551
9822.000000;0.738163
9821.000000;0.738702
9820.000000;0.738923
9819.000000;0.738982
9818.000000;0.739059
9817.000000;0.739093
9816.000000;0.738979
9815.000000;0.738748
9814.000000;0.738405
9813.000000;0.737849
9812.000000;0.737151
9811.000000;0.736725
9810.000000;0.736967
9809.000000;0.737776
9808.000000;0.738610
9807.000000;0.738965
9806.000000;0.738685
9805.000000;0.737927
9804.000000;0.737026
9803.000000;0.736382
9802.000000;0.736237
9801.000000;0.736506
9800.000000;0.736885
9799.000000;0.737156
9798.000000;0.737334
9797.000000;0.737534
9796.000000;0.737764
9795.000000;0.737904
9794.000000;0.737847
9793.000000;0.737640
9792.000000;0.737432
9791.000000;0.737289
9790.000000;0.737136
9789.000000;0.736947
9788.000000;0.736866
9787.000000;0.736990
9786.000000;0.737133
9785.000000;0.737042
9784.000000;0.736797
9783.000000;0.736722
9782.000000;0.736847
9781.000000;0.736792
9780.000000;0.736322
9779.000000;0.735751
9778.000000;0.735537
9777.000000;0.735698
9776.000000;0.735866
9775.000000;0.735806
9774.000000;0.735621
9773.000000;0.735467
9772.000000;0.735344
9771.000000;0.735180
9770.000000;0.734977
9769.000000;0.734829
9768.000000;0.734859
9767.000000;0.735101
9766.000000;0.735402
9765.000000;0.735507
9764.000000;0.735326
9763.000000;0.735025
9762.000000;0.734762
9761.000000;0.734503
9760.000000;0.734223
9759.000000;0.734105
9758.000000;0.734313
9757.000000;0.734688
9756.000000;0.734932
9755.000000;0.735011
9754.000000;0.735103
9753.000000;0.735196
9752.000000;0.735059
9751.000000;0.734656
9750.000000;0.734298
9749.000000;0.734259
9748.000000;0.734449
9747.000000;0.734562
9746.000000;0.734389
9745.000000;0.733904
9744.000000;0.733203
9743.000000;0.732517
9742.000000;0.732130
9741.000000;0.732147
9740.000000;0.732398
9739.000000;0.732639
9738.000000;0.732766
9737.000000;0.732792
9736.000000;0.732754
9735.000000;0.732752
9734.000000;0.732945
9733.000000;0.733353
9732.000000;0.733733
9731.000000;0.733795
9730.000000;0.733505
9729.000000;0.733079
9728.000000;0.732745
9727.000000;0.732595
9726.000000;0.732592
9725.000000;0.732591
9724.000000;0.732394
9723.000000;0.731949
9722.000000;0.731493
9721.000000;0.731368
9720.000000;0.731667
9719.000000;0.732159
9718.000000;0.732559
9717.000000;0.732736
9716.000000;0.732682
9715.000000;0.732434
9714.000000;0.732072
9713.000000;0.731693
9712.000000;0.731316
9711.000000;0.730935
9710.000000;0.730680
9709.000000;0.730790
9708.000000;0.731286
9707.000000;0.731808
9706.000000;0.731923
9705.000000;0.731548
9704.000000;0.730966
9703.000000;0.730500
9702.000000;0.730291
9701.000000;0.730328
9700.000000;0.730497
9699.000000;0.730614
9698.000000;0.730563
9697.000000;0.730413
9696.000000;0.730286
9695.000000;0.730141
9694.000000;0.729860
9693.000000;0.729546
9692.000000;0.729491
9691.000000;0.729795
9690.000000;0.730194
9689.000000;0.730397
9688.000000;0.730395
9687.000000;0.730314
9686.000000;0.730135
9685.000000;0.729772
9684.000000;0.729306
9683.000000;0.728928
9682.000000;0.728672
9681.000000;0.728434
9680.000000;0.728233
9679.000000;0.728251
9678.000000;0.728553
9677.000000;0.728942
9676.000000;0.729174
9675.000000;0.729188
9674.000000;0.729062
9673.000000;0.728846
9672.000000;0.728562
9671.000000;0.728306
9670.000000;0.728208
9669.000000;0.728267
9668.000000;0.728298
9667.000000;0.728126
9666.000000;0.727810
9665.000000;0.727580
9664.000000;0.727522
9663.000000;0.727425
9662.000000;0.727070
9661.000000;0.726615
9660.000000;0.726498
9659.000000;0.726898
9658.000000;0.727493
9657.000000;0.727847
9656.000000;0.727882
9655.000000;0.727804
9654.000000;0.727734
9653.000000;0.727643
9652.000000;0.727557
9651.000000;0.727552
9650.000000;0.727559
9649.000000;0.727409
9648.000000;0.727136
9647.000000;0.727024
9646.000000;0.727229
9645.000000;0.727511
9644.000000;0.727475
9643.000000;0.727011
9642.000000;0.726413
9641.000000;0.726083
9640.000000;0.726179
9639.000000;0.726500
9638.000000;0.726671
9637.000000;0.726477
9636.000000;0.726052
9635.000000;0.725753
9634.000000;0.725844
9633.000000;0.726308
9632.000000;0.726888
9631.000000;0.727244
9630.000000;0.727160
9629.000000;0.726694
9628.000000;0.726132
9627.000000;0.725721
9626.000000;0.725471
9625.000000;0.725257
9624.000000;0.725056
9623.000000;0.724981
9622.000000;0.725101
9621.000000;0.725331
9620.000000;0.725484
9619.000000;0.725385
9618.000000;0.724987
9617.000000;0.724472
9616.000000;0.724158
9615.000000;0.724184
9614.000000;0.724335
9613.000000;0.724301
9612.000000;0.724059
9611.000000;0.723859
9610.000000;0.723882
9609.000000;0.724077
9608.000000;0.724287
9607.000000;0.724379
9606.000000;0.724223
9605.000000;0.723742
9604.000000;0.723012
9603.000000;0.722213
9602.000000;0.721497
9601.000000;0.721028
9600.000000;0.721057
9599.000000;0.721728
9598.000000;0.722781
9597.000000;0.723686
9596.000000;0.724132
9595.000000;0.724211
9594.000000;0.724104
9593.000000;0.723839
9592.000000;0.723470
9591.000000;0.723215
9590.000000;0.723207
9589.000000;0.723269
9588.000000;0.723140
9587.000000;0.722827
9586.000000;0.722569
9585.000000;0.722534
9584.000000;0.722703
9583.000000;0.722988
9582.000000;0.723280
9581.000000;0.723417
9580.000000;0.723249
9579.000000;0.722783
9578.000000;0.722184
9577.000000;0.721660
9576.000000;0.721383
9575.000000;0.721446
9574.000000;0.721759
9573.000000;0.722017
9572.000000;0.721893
9571.000000;0.721322
9570.000000;0.720556
9569.000000;0.719931
9568.000000;0.719627
9567.000000;0.719632
9566.000000;0.719878
9565.000000;0.720332
9564.000000;0.720935
9563.000000;0.721501
9562.000000;0.721755
9561.000000;0.721557
9560.000000;0.721050
9559.000000;0.720532
9558.000000;0.720226
9557.000000;0.720205
9556.000000;0.720447
9555.000000;0.720834
9554.000000;0.721109
9553.000000;0.721037
9552.000000;0.720652
9551.000000;0.720235
9550.000000;0.720037
9549.000000;0.720093
9548.000000;0.720329
9547.000000;0.720663
9546.000000;0.720957
9545.000000;0.721012
9544.000000;0.720740
9543.000000;0.720295
9542.000000;0.719927
9541.000000;0.719768
9540.000000;0.719816
9539.000000;0.720027
9538.000000;0.720334
9537.000000;0.720606
9536.000000;0.720685
9535.000000;0.720469
9534.000000;0.719979
9533.000000;0.719398
9532.000000;0.719006
9531.000000;0.718966
9530.000000;0.719141
9529.000000;0.719255
9528.000000;0.719262
9527.000000;0.719392
9526.000000;0.719760
9525.000000;0.720106
9524.000000;0.720090
9523.000000;0.719732
9522.000000;0.719356
9521.000000;0.719172
9520.000000;0.719077
9519.000000;0.718880
9518.000000;0.718563
9517.000000;0.718264
9516.000000;0.718122
9515.000000;0.718165
9514.000000;0.718294
9513.000000;0.718327
9512.000000;0.718148
9511.000000;0.717869
9510.000000;0.717791
9509.000000;0.718130
9508.000000;0.718736
9507.000000;0.719149
9506.000000;0.718985
9505.000000;0.718294
9504.000000;0.717496
9503.000000;0.716983
9502.000000;0.716840
9501.000000;0.716948
9500.000000;0.717216
9499.000000;0.717576
9498.000000;0.717847
9497.000000;0.717816
9496.000000;0.717504
9495.000000;0.717168
9494.000000;0.716952
9493.000000;0.716683
9492.000000;0.716144
9491.000000;0.715466
9490.000000;0.715078
9489.000000;0.715262
9488.000000;0.715856
9487.000000;0.716404
9486.000000;0.716559
9485.000000;0.716352
9484.000000;0.716104
9483.000000;0.716084
9482.000000;0.716236
9481.000000;0.716271
9480.000000;0.716032
9479.000000;0.715680
9478.000000;0.715461
9477.000000;0.715402
9476.000000;0.715357
9475.000000;0.715285
9474.000000;0.715332
9473.000000;0.715580
9472.000000;0.715830
9471.000000;0.715773
9470.000000;0.715330
9469.000000;0.714763
9468.000000;0.714420
9467.000000;0.714423
9466.000000;0.714630
9465.000000;0.714838
9464.000000;0.714967
9463.000000;0.715055
9462.000000;0.715131
9461.000000;0.715116
9460.000000;0.714879
9459.000000;0.714390
9458.000000;0.713845
9457.000000;0.713567
9456.000000;0.713714
9455.000000;0.714108
9454.000000;0.714426
9453.000000;0.714527
9452.000000;0.714498
9451.000000;0.714392
9450.000000;0.714158
9449.000000;0.713840
9448.000000;0.713671
9447.000000;0.713777
9446.000000;0.713962
9445.000000;0.713947
9444.000000;0.713748
9443.000000;0.713618
9442.000000;0.713675
9441.000000;0.713781
9440.000000;0.713798
9439.000000;0.713741
9438.000000;0.713652
9437.000000;0.713478
9436.000000;0.713163
9435.000000;0.712761
9434.000000;0.712406
9433.000000;0.712224
9432.000000;0.712283
9431.000000;0.712531
9430.000000;0.712790
9429.000000;0.712893
9428.000000;0.712836
9427.000000;0.712712
9426.000000;0.712544
9425.000000;0.712317
9424.000000;0.712112
9423.000000;0.712041
9422.000000;0.712033
9421.000000;0.711885
9420.000000;0.711580
9419.000000;0.711368
9418.000000;0.711431
9417.000000;0.711639
9416.000000;0.711746
9415.000000;0.711727
9414.000000;0.711762
9413.000000;0.711958
9412.000000;0.712195
9411.000000;0.712256
9410.000000;0.712044
9409.000000;0.711685
9408.000000;0.711433
9407.000000;0.711425
9406.000000;0.711543
9405.000000;0.711578
9404.000000;0.711498
9403.000000;0.711444
9402.000000;0.711443
9401.000000;0.711328
9400.000000;0.711006
9399.000000;0.710662
9398.000000;0.710559
9397.000000;0.710721
9396.000000;0.710930
9395.000000;0.710987
9394.000000;0.710874
9393.000000;0.710694
9392.000000;0.710551
9391.000000;0.710505
9390.000000;0.710556
9389.000000;0.710638
9388.000000;0.710671
9387.000000;0.710613
9386.000000;0.710502
9385.000000;0.710452
9384.000000;0.710562
9383.000000;0.710771
9382.000000;0.710859
9381.000000;0.710681
9380.000000;0.710363
9379.000000;0.710159
9378.000000;0.710114
9377.000000;0.710026
9376.000000;0.709743
9375.000000;0.709340
9374.000000;0.708942
9373.000000;0.708569
9372.000000;0.708229
9371.000000;0.708041
9370.000000;0.708101
9369.000000;0.708342
9368.000000;0.708627
9367.000000;0.708896
9366.000000;0.709094
9365.000000;0.709065
9364.000000;0.708698
9363.000000;0.708144
9362.000000;0.707695
9361.000000;0.707473
9360.000000;0.707354
9359.000000;0.707236
9358.000000;0.707219
9357.000000;0.707443
9356.000000;0.707871
9355.000000;0.708283
9354.000000;0.708482
9353.000000;0.708448
9352.000000;0.708327
9351.000000;0.708299
9350.000000;0.708420
9349.000000;0.708577
9348.000000;0.708594
9347.000000;0.708394
9346.000000;0.708045
9345.000000;0.707672
9344.000000;0.707363
9343.000000;0.707149
9342.000000;0.707022
9341.000000;0.706947
9340.000000;0.706902
9339.000000;0.706900
9338.000000;0.706952
9337.000000;0.707001
9336.000000;0.706941
9335.000000;0.706749
9334.000000;0.706542
9333.000000;0.706460
9332.000000;0.706490
9331.000000;0.706487
9330.000000;0.706365
9329.000000;0.706204
9328.000000;0.706113
9327.000000;0.706090
9326.000000;0.706078
9325.000000;0.706105
9324.000000;0.706212
9323.000000;0.706293
9322.000000;0.706159
9321.000000;0.705813
9320.000000;0.705523
9319.000000;0.705519
9318.000000;0.705740
9317.000000;0.705957
9316.000000;0.706045
9315.000000;0.706002
9314.000000;0.705812
9313.000000;0.705465
9312.000000;0.705088
9311.000000;0.704891
9310.000000;0.704947
9309.000000;0.705142
9308.000000;0.705359
9307.000000;0.705594
9306.000000;0.705851
9305.000000;0.706043
9304.000000;0.706062
9303.000000;0.705890
9302.000000;0.705592
9301.000000;0.705247
9300.000000;0.704922
9299.000000;0.704662
9298.000000;0.704494
9297.000000;0.704434
9296.000000;0.704490
9295.000000;0.704626
9294.000000;0.704772
9293.000000;0.704885
9292.000000;0.704986
9291.000000;0.705051
9290.000000;0.704947
9289.000000;0.704552
9288.000000;0.703935
9287.000000;0.703349
9286.000000;0.703044
9285.000000;0.703130
9284.000000;0.703528
9283.000000;0.703979
9282.000000;0.704184
9281.000000;0.704065
9280.000000;0.703864
9279.000000;0.703851
9278.000000;0.703977
9277.000000;0.703952
9276.000000;0.703643
9275.000000;0.703220
9274.000000;0.702900
9273.000000;0.702723
9272.000000;0.702618
9271.000000;0.702557
9270.000000;0.702533
9269.000000;0.702490
9268.000000;0.702380
9267.000000;0.702248
9266.000000;0.702206
9265.000000;0.702329
9264.000000;0.702571
9263.000000;0.702764
9262.000000;0.702727
9261.000000;0.702452
9260.000000;0.702154
9259.000000;0.702036
9258.000000;0.702050
9257.000000;0.701981
9256.000000;0.701763
9255.000000;0.701563
9254.000000;0.701549
9253.000000;0.701698
9252.000000;0.701871
9251.000000;0.701961
9250.000000;0.701933
9249.000000;0.701815
9248.000000;0.701686
9247.000000;0.701599
9246.000000;0.701514
9245.000000;0.701381
9244.000000;0.701271
9243.000000;0.701307
9242.000000;0.701455
9241.000000;0.701535
9240.000000;0.701464
9239.000000;0.701365
9238.000000;0.701397
9237.000000;0.701578
9236.000000;0.701807
9235.000000;0.701939
9234.000000;0.701815
9233.000000;0.701373
9232.000000;0.700811
9231.000000;0.700492
9230.000000;0.700598
9229.000000;0.700943
9228.000000;0.701191
9227.000000;0.701170
9226.000000;0.700922
9225.000000;0.700548
9224.000000;0.700116
9223.000000;0.699680
9222.000000;0.699310
9221.000000;0.699097
9220.000000;0.699107
9219.000000;0.699284
9218.000000;0.699415
9217.000000;0.699318
9216.000000;0.699081
9215.000000;0.698994
9214.000000;0.699203
9213.000000;0.699566
9212.000000;0.699868
9211.000000;0.700034
9210.000000;0.700085
9209.000000;0.700034
9208.000000;0.699911
9207.000000;0.699805
9206.000000;0.699765
9205.000000;0.699728
9204.000000;0.699624
9203.000000;0.699475
9202.000000;0.699339
9201.000000;0.699235
9200.000000;0.699159
9199.000000;0.699091
9198.000000;0.698955
9197.000000;0.698686
9196.000000;0.698382
9195.000000;0.698244
9194.000000;0.698302
9193.000000;0.698329
9192.000000;0.698125
9191.000000;0.697752
9190.000000;0.697423
9189.000000;0.697246
9188.000000;0.697207
9187.000000;0.697278
9186.000000;0.697402
9185.000000;0.697463
9184.000000;0.697394
9183.000000;0.697276
9182.000000;0.697235
9181.000000;0.697312
9180.000000;0.697504
9179.000000;0.697814
9178.000000;0.698158
9177.000000;0.698329
9176.000000;0.698216
9175.000000;0.697964
9174.000000;0.697801
9173.000000;0.697760
9172.000000;0.697723
9171.000000;0.697657
9170.000000;0.697632
9169.000000;0.697648
9168.000000;0.697622
9167.000000;0.697532
9166.000000;0.697421
9165.000000;0.697268
9164.000000;0.697002
9163.000000;0.696674
9162.000000;0.696456
9161.000000;0.696433
9160.000000;0.696514
9159.000000;0.696570
9158.000000;0.696555
9157.000000;0.696466
9156.000000;0.696300
9155.000000;0.696115
9154.000000;0.696025
9153.000000;0.696073
9152.000000;0.696167
9151.000000;0.696200
9150.000000;0.696173
9149.000000;0.696143
9148.000000;0.696118
9147.000000;0.696066
9146.000000;0.695982
9145.000000;0.695916
9144.000000;0.695915
9143.000000;0.695968
9142.000000;0.695983
9141.000000;0.695839
9140.000000;0.695504
9139.000000;0.695131
9138.000000;0.694968
9137.000000;0.695134
9136.000000;0.695483
9135.000000;0.695747
9134.000000;0.695797
9133.000000;0.695739
9132.000000;0.695742
9131.000000;0.695803
9130.000000;0.695748
9129.000000;0.695445
9128.000000;0.694976
9127.000000;0.694556
9126.000000;0.694317
9125.000000;0.694233
9124.000000;0.694232
9123.000000;0.694296
9122.000000;0.694453
9121.000000;0.694704
9120.000000;0.695007
9119.000000;0.695266
9118.000000;0.695347
9117.000000;0.695156
9116.000000;0.694767
9115.000000;0.694397
9114.000000;0.694192
9113.000000;0.694076
9112.000000;0.693879
9111.000000;0.693572
9110.000000;0.693296
9109.000000;0.693180
9108.000000;0.693203
9107.000000;0.693263
9106.000000;0.693306
9105.000000;0.693348
9104.000000;0.693412
9103.000000;0.693476
9102.000000;0.693488
9101.000000;0.693409
9100.000000;0.693238
9099.000000;0.693005
9098.000000;0.692753
9097.000000;0.692533
9096.000000;0.692404
9095.000000;0.692413
9094.000000;0.692542
9093.000000;0.692706
9092.000000;0.692807
9091.000000;0.692800
9090.000000;0.692724
9089.000000;0.692677
9088.000000;0.692754
9087.000000;0.692955
9086.000000;0.693155
9085.000000;0.693186
9084.000000;0.692984
9083.000000;0.692645
9082.000000;0.692335
9081.000000;0.692156
9080.000000;0.692103
9079.000000;0.692121
9078.000000;0.692165
9077.000000;0.692207
9076.000000;0.692212
9075.000000;0.692117
9074.000000;0.691879
9073.000000;0.691552
9072.000000;0.691277
9071.000000;0.691156
9070.000000;0.691153
9069.000000;0.691157
9068.000000;0.691128
9067.000000;0.691123
9066.000000;0.691179
9065.000000;0.691235
9064.000000;0.691188
9063.000000;0.691019
9062.000000;0.690852
9061.000000;0.690869
9060.000000;0.691144
9059.000000;0.691513
9058.000000;0.691667
9057.000000;0.691443
9056.000000;0.691003
9055.000000;0.690642
9054.000000;0.690450
9053.000000;0.690277
