Criado como novo conjunto de dados;"2706_e01_daniel.spp","59044.9 Secs"
cm-1;Abs
10000.000000;0.840197
9999.000000;0.840800
9998.000000;0.841602
9997.000000;0.841923
9996.000000;0.841113
9995.000000;0.839474
9994.000000;0.837901
9993.000000;0.836997
9992.000000;0.836637
9991.000000;0.836674
9990.000000;0.837284
9989.000000;0.838450
9988.000000;0.839534
9987.000000;0.839872
9986.000000;0.839547
9985.000000;0.839157
9984.000000;0.838956
9983.000000;0.838645
9982.000000;0.837942
9981.000000;0.837014
9980.000000;0.836273
9979.000000;0.835983
9978.000000;0.836131
9977.000000;0.836537
9976.000000;0.836996
9975.000000;0.837384
9974.000000;0.837643
9973.000000;0.837699
9972.000000;0.837491
9971.000000;0.837077
9970.000000;0.836635
9969.000000;0.836316
9968.000000;0.836180
9967.000000;0.836261
9966.000000;0.836545
9965.000000;0.836872
9964.000000;0.837049
9963.000000;0.837116
9962.000000;0.837299
9961.000000;0.837614
9960.000000;0.837721
9959.000000;0.837333
9958.000000;0.836593
9957.000000;0.835891
9956.000000;0.835442
9955.000000;0.835231
9954.000000;0.835240
9953.000000;0.835489
9952.000000;0.835881
9951.000000;0.836182
9950.000000;0.836245
9949.000000;0.836170
9948.000000;0.836185
9947.000000;0.836364
9946.000000;0.836490
9945.000000;0.836252
9944.000000;0.835576
9943.000000;0.834696
9942.000000;0.833858
9941.000000;0.833140
9940.000000;0.832681
9939.000000;0.832822
9938.000000;0.833685
9937.000000;0.834723
9936.000000;0.835128
9935.000000;0.834747
9934.000000;0.834209
9933.000000;0.834046
9932.000000;0.834088
9931.000000;0.833919
9930.000000;0.833549
9929.000000;0.833327
9928.000000;0.833453
9927.000000;0.833858
9926.000000;0.834341
9925.000000;0.834595
9924.000000;0.834341
9923.000000;0.833732
9922.000000;0.833362
9921.000000;0.833525
9920.000000;0.833704
9919.000000;0.833231
9918.000000;0.832279
9917.000000;0.831709
9916.000000;0.831979
9915.000000;0.832701
9914.000000;0.833310
9913.000000;0.833678
9912.000000;0.833862
9911.000000;0.833715
9910.000000;0.833100
9909.000000;0.832267
9908.000000;0.831646
9907.000000;0.831362
9906.000000;0.831163
9905.000000;0.830822
9904.000000;0.830446
9903.000000;0.830375
9902.000000;0.830838
9901.000000;0.831691
9900.000000;0.832449
9899.000000;0.832688
9898.000000;0.832452
9897.000000;0.832170
9896.000000;0.832126
9895.000000;0.832190
9894.000000;0.832103
9893.000000;0.831830
9892.000000;0.831450
9891.000000;0.830894
9890.000000;0.830056
9889.000000;0.829119
9888.000000;0.828466
9887.000000;0.828249
9886.000000;0.828241
9885.000000;0.828217
9884.000000;0.828255
9883.000000;0.828533
9882.000000;0.828982
9881.000000;0.829342
9880.000000;0.829487
9879.000000;0.829516
9878.000000;0.829538
9877.000000;0.829545
9876.000000;0.829514
9875.000000;0.829463
9874.000000;0.829358
9873.000000;0.829084
9872.000000;0.828587
9871.000000;0.827981
9870.000000;0.827459
9869.000000;0.827168
9868.000000;0.827190
9867.000000;0.827502
9866.000000;0.827890
9865.000000;0.828024
9864.000000;0.827787
9863.000000;0.827467
9862.000000;0.827471
9861.000000;0.827860
9860.000000;0.828256
9859.000000;0.828254
9858.000000;0.827819
9857.000000;0.827272
9856.000000;0.826943
9855.000000;0.826872
9854.000000;0.826819
9853.000000;0.826551
9852.000000;0.826097
9851.000000;0.825723
9850.000000;0.825680
9849.000000;0.826019
9848.000000;0.826603
9847.000000;0.827160
9846.000000;0.827332
9845.000000;0.826861
9844.000000;0.825867
9843.000000;0.824846
9842.000000;0.824274
9841.000000;0.824257
9840.000000;0.824589
9839.000000;0.825000
9838.000000;0.825255
9837.000000;0.825172
9836.000000;0.824764
9835.000000;0.824292
9834.000000;0.824012
9833.000000;0.823920
9832.000000;0.823872
9831.000000;0.823855
9830.000000;0.823949
9829.000000;0.824092
9828.000000;0.824109
9827.000000;0.823961
9826.000000;0.823728
9825.000000;0.823366
9824.000000;0.822761
9823.000000;0.822089
9822.000000;0.821836
9821.000000;0.822275
9820.000000;0.823086
9819.000000;0.823663
9818.000000;0.823718
9817.000000;0.823469
9816.000000;0.823311
9815.000000;0.823389
9814.000000;0.823483
9813.000000;0.823216
9812.000000;0.822439
9811.000000;0.821429
9810.000000;0.820705
9809.000000;0.820598
9808.000000;0.821023
9807.000000;0.821623
9806.000000;0.822009
9805.000000;0.821905
9804.000000;0.821244
9803.000000;0.820275
9802.000000;0.819478
9801.000000;0.819237
9800.000000;0.819566
9799.000000;0.820132
9798.000000;0.820532
9797.000000;0.820567
9796.000000;0.820303
9795.000000;0.819945
9794.000000;0.819633
9793.000000;0.819401
9792.000000;0.819294
9791.000000;0.819414
9790.000000;0.819766
9789.000000;0.820136
9788.000000;0.820294
9787.000000;0.820284
9786.000000;0.820359
9785.000000;0.820633
9784.000000;0.820940
9783.000000;0.821066
9782.000000;0.820952
9781.000000;0.820611
9780.000000;0.820016
9779.000000;0.819220
9778.000000;0.818498
9777.000000;0.818233
9776.000000;0.818604
9775.000000;0.819412
9774.000000;0.820187
9773.000000;0.820473
9772.000000;0.820096
9771.000000;0.819279
9770.000000;0.818498
9769.000000;0.818140
9768.000000;0.818209
9767.000000;0.818354
9766.000000;0.818237
9765.000000;0.817913
9764.000000;0.817759
9763.000000;0.817963
9762.000000;0.818199
9761.000000;0.817984
9760.000000;0.817320
9759.000000;0.816724
9758.000000;0.816575
9757.000000;0.816726
9756.000000;0.816889
9755.000000;0.817134
9754.000000;0.817697
9753.000000;0.818454
9752.000000;0.818909
9751.000000;0.818734
9750.000000;0.818102
9749.000000;0.817458
9748.000000;0.817134
9747.000000;0.817165
9746.000000;0.817297
9745.000000;0.817178
9744.000000;0.816721
9743.000000;0.816247
9742.000000;0.816130
9741.000000;0.816346
9740.000000;0.816525
9739.000000;0.816423
9738.000000;0.816144
9737.000000;0.815944
9736.000000;0.816005
9735.000000;0.816358
9734.000000;0.816812
9733.000000;0.816984
9732.000000;0.816636
9731.000000;0.815990
9730.000000;0.815510
9729.000000;0.815383
9728.000000;0.815408
9727.000000;0.815368
9726.000000;0.815223
9725.000000;0.814968
9724.000000;0.814600
9723.000000;0.814322
9722.000000;0.814450
9721.000000;0.814979
9720.000000;0.815468
9719.000000;0.815515
9718.000000;0.815169
9717.000000;0.814746
9716.000000;0.814430
9715.000000;0.814207
9714.000000;0.813991
9713.000000;0.813683
9712.000000;0.813256
9711.000000;0.812908
9710.000000;0.812946
9709.000000;0.813373
9708.000000;0.813757
9707.000000;0.813697
9706.000000;0.813274
9705.000000;0.812888
9704.000000;0.812775
9703.000000;0.812870
9702.000000;0.813013
9701.000000;0.813078
9700.000000;0.812936
9699.000000;0.812518
9698.000000;0.811950
9697.000000;0.811500
9696.000000;0.811388
9695.000000;0.811651
9694.000000;0.812134
9693.000000;0.812541
9692.000000;0.812599
9691.000000;0.812326
9690.000000;0.812044
9689.000000;0.812009
9688.000000;0.812083
9687.000000;0.811927
9686.000000;0.811477
9685.000000;0.811080
9684.000000;0.811106
9683.000000;0.811522
9682.000000;0.811905
9681.000000;0.811848
9680.000000;0.811337
9679.000000;0.810732
9678.000000;0.810394
9677.000000;0.810351
9676.000000;0.810380
9675.000000;0.810334
9674.000000;0.810293
9673.000000;0.810371
9672.000000;0.810544
9671.000000;0.810711
9670.000000;0.810820
9669.000000;0.810877
9668.000000;0.810902
9667.000000;0.810935
9666.000000;0.810973
9665.000000;0.810869
9664.000000;0.810422
9663.000000;0.809685
9662.000000;0.809046
9661.000000;0.808887
9660.000000;0.809185
9659.000000;0.809581
9658.000000;0.809780
9657.000000;0.809791
9656.000000;0.809792
9655.000000;0.809910
9654.000000;0.810162
9653.000000;0.810488
9652.000000;0.810764
9651.000000;0.810807
9650.000000;0.810466
9649.000000;0.809751
9648.000000;0.808876
9647.000000;0.808131
9646.000000;0.807675
9645.000000;0.807432
9644.000000;0.807230
9643.000000;0.806987
9642.000000;0.806750
9641.000000;0.806598
9640.000000;0.806596
9639.000000;0.806797
9638.000000;0.807181
9637.000000;0.807610
9636.000000;0.807925
9635.000000;0.808092
9634.000000;0.808184
9633.000000;0.808207
9632.000000;0.808051
9631.000000;0.807644
9630.000000;0.807074
9629.000000;0.806537
9628.000000;0.806220
9627.000000;0.806214
9626.000000;0.806447
9625.000000;0.806699
9624.000000;0.806750
9623.000000;0.806546
9622.000000;0.806184
9621.000000;0.805790
9620.000000;0.805491
9619.000000;0.805433
9618.000000;0.805684
9617.000000;0.806102
9616.000000;0.806398
9615.000000;0.806363
9614.000000;0.805993
9613.000000;0.805455
9612.000000;0.805007
9611.000000;0.804879
9610.000000;0.805087
9609.000000;0.805363
9608.000000;0.805414
9607.000000;0.805198
9606.000000;0.804841
9605.000000;0.804363
9604.000000;0.803729
9603.000000;0.803119
9602.000000;0.802868
9601.000000;0.803078
9600.000000;0.803482
9599.000000;0.803770
9598.000000;0.803848
9597.000000;0.803764
9596.000000;0.803615
9595.000000;0.803612
9594.000000;0.803959
9593.000000;0.804503
9592.000000;0.804718
9591.000000;0.804275
9590.000000;0.803503
9589.000000;0.803061
9588.000000;0.803258
9587.000000;0.803870
9586.000000;0.804549
9585.000000;0.805162
9584.000000;0.805671
9583.000000;0.805884
9582.000000;0.805496
9581.000000;0.804438
9580.000000;0.803114
9579.000000;0.802186
9578.000000;0.802036
9577.000000;0.802480
9576.000000;0.803059
9575.000000;0.803530
9574.000000;0.803931
9573.000000;0.804247
9572.000000;0.804292
9571.000000;0.803969
9570.000000;0.803428
9569.000000;0.802892
9568.000000;0.802462
9567.000000;0.802198
9566.000000;0.802166
9565.000000;0.802303
9564.000000;0.802372
9563.000000;0.802201
9562.000000;0.801858
9561.000000;0.801510
9560.000000;0.801216
9559.000000;0.800984
9558.000000;0.800878
9557.000000;0.800953
9556.000000;0.801157
9555.000000;0.801411
9554.000000;0.801664
9553.000000;0.801811
9552.000000;0.801704
9551.000000;0.801376
9550.000000;0.801089
9549.000000;0.801022
9548.000000;0.801054
9547.000000;0.800998
9546.000000;0.800905
9545.000000;0.800918
9544.000000;0.800948
9543.000000;0.800739
9542.000000;0.800222
9541.000000;0.799603
9540.000000;0.799119
9539.000000;0.798859
9538.000000;0.798786
9537.000000;0.798768
9536.000000;0.798620
9535.000000;0.798317
9534.000000;0.798139
9533.000000;0.798403
9532.000000;0.799018
9531.000000;0.799490
9530.000000;0.799458
9529.000000;0.799083
9528.000000;0.798809
9527.000000;0.798861
9526.000000;0.799074
9525.000000;0.799140
9524.000000;0.798912
9523.000000;0.798480
9522.000000;0.798052
9521.000000;0.797810
9520.000000;0.797857
9519.000000;0.798192
9518.000000;0.798683
9517.000000;0.799075
9516.000000;0.799118
9515.000000;0.798768
9514.000000;0.798192
9513.000000;0.797601
9512.000000;0.797130
9511.000000;0.796908
9510.000000;0.797046
9509.000000;0.797464
9508.000000;0.797849
9507.000000;0.797932
9506.000000;0.797763
9505.000000;0.797576
9504.000000;0.797460
9503.000000;0.797307
9502.000000;0.797034
9501.000000;0.796699
9500.000000;0.796406
9499.000000;0.796236
9498.000000;0.796261
9497.000000;0.796469
9496.000000;0.796655
9495.000000;0.796555
9494.000000;0.796142
9493.000000;0.795676
9492.000000;0.795392
9491.000000;0.795270
9490.000000;0.795174
9489.000000;0.795104
9488.000000;0.795174
9487.000000;0.795411
9486.000000;0.795681
9485.000000;0.795810
9484.000000;0.795707
9483.000000;0.795396
9482.000000;0.795009
9481.000000;0.794737
9480.000000;0.794691
9479.000000;0.794780
9478.000000;0.794770
9477.000000;0.794536
9476.000000;0.794216
9475.000000;0.794067
9474.000000;0.794164
9473.000000;0.794293
9472.000000;0.794199
9471.000000;0.793876
9470.000000;0.793552
9469.000000;0.793406
9468.000000;0.793390
9467.000000;0.793375
9466.000000;0.793354
9465.000000;0.793415
9464.000000;0.793552
9463.000000;0.793621
9462.000000;0.793528
9461.000000;0.793377
9460.000000;0.793376
9459.000000;0.793602
9458.000000;0.793900
9457.000000;0.794020
9456.000000;0.793857
9455.000000;0.793547
9454.000000;0.793347
9453.000000;0.793398
9452.000000;0.793574
9451.000000;0.793577
9450.000000;0.793187
9449.000000;0.792475
9448.000000;0.791765
9447.000000;0.791390
9446.000000;0.791466
9445.000000;0.791850
9444.000000;0.792274
9443.000000;0.792502
9442.000000;0.792433
9441.000000;0.792152
9440.000000;0.791901
9439.000000;0.791911
9438.000000;0.792176
9437.000000;0.792417
9436.000000;0.792320
9435.000000;0.791835
9434.000000;0.791231
9433.000000;0.790867
9432.000000;0.790897
9431.000000;0.791165
9430.000000;0.791357
9429.000000;0.791283
9428.000000;0.791045
9427.000000;0.790876
9426.000000;0.790836
9425.000000;0.790765
9424.000000;0.790566
9423.000000;0.790396
9422.000000;0.790452
9421.000000;0.790670
9420.000000;0.790783
9419.000000;0.790642
9418.000000;0.790323
9417.000000;0.789940
9416.000000;0.789559
9415.000000;0.789293
9414.000000;0.789278
9413.000000;0.789444
9412.000000;0.789489
9411.000000;0.789228
9410.000000;0.788861
9409.000000;0.788741
9408.000000;0.788932
9407.000000;0.789149
9406.000000;0.789106
9405.000000;0.788810
9404.000000;0.788475
9403.000000;0.788272
9402.000000;0.788217
9401.000000;0.788239
9400.000000;0.788270
9399.000000;0.788277
9398.000000;0.788255
9397.000000;0.788223
9396.000000;0.788202
9395.000000;0.788180
9394.000000;0.788109
9393.000000;0.787967
9392.000000;0.787828
9391.000000;0.787813
9390.000000;0.787965
9389.000000;0.788201
9388.000000;0.788400
9387.000000;0.788482
9386.000000;0.788374
9385.000000;0.788011
9384.000000;0.787467
9383.000000;0.787022
9382.000000;0.786951
9381.000000;0.787267
9380.000000;0.787741
9379.000000;0.788156
9378.000000;0.788420
9377.000000;0.788450
9376.000000;0.788133
9375.000000;0.787493
9374.000000;0.786764
9373.000000;0.786204
9372.000000;0.785901
9371.000000;0.785795
9370.000000;0.785807
9369.000000;0.785879
9368.000000;0.785991
9367.000000;0.786178
9366.000000;0.786461
9365.000000;0.786691
9364.000000;0.786579
9363.000000;0.785996
9362.000000;0.785210
9361.000000;0.784714
9360.000000;0.784818
9359.000000;0.785422
9358.000000;0.786131
9357.000000;0.786512
9356.000000;0.786325
9355.000000;0.785669
9354.000000;0.784903
9353.000000;0.784354
9352.000000;0.784065
9351.000000;0.783872
9350.000000;0.783683
9349.000000;0.783603
9348.000000;0.783743
9347.000000;0.784042
9346.000000;0.784332
9345.000000;0.784538
9344.000000;0.784713
9343.000000;0.784876
9342.000000;0.784910
9341.000000;0.784686
9340.000000;0.784275
9339.000000;0.783932
9338.000000;0.783821
9337.000000;0.783802
9336.000000;0.783580
9335.000000;0.783068
9334.000000;0.782514
9333.000000;0.782220
9332.000000;0.782244
9331.000000;0.782434
9330.000000;0.782710
9329.000000;0.783147
9328.000000;0.783744
9327.000000;0.784241
9326.000000;0.784331
9325.000000;0.784012
9324.000000;0.783587
9323.000000;0.783283
9322.000000;0.783003
9321.000000;0.782575
9320.000000;0.782123
9319.000000;0.781968
9318.000000;0.782188
9317.000000;0.782481
9316.000000;0.782562
9315.000000;0.782509
9314.000000;0.782564
9313.000000;0.782719
9312.000000;0.782720
9311.000000;0.782440
9310.000000;0.782055
9309.000000;0.781812
9308.000000;0.781788
9307.000000;0.781909
9306.000000;0.782056
9305.000000;0.782096
9304.000000;0.781941
9303.000000;0.781654
9302.000000;0.781417
9301.000000;0.781328
9300.000000;0.781290
9299.000000;0.781138
9298.000000;0.780811
9297.000000;0.780348
9296.000000;0.779831
9295.000000;0.779414
9294.000000;0.779284
9293.000000;0.779479
9292.000000;0.779761
9291.000000;0.779837
9290.000000;0.779686
9289.000000;0.779582
9288.000000;0.779764
9287.000000;0.780162
9286.000000;0.780488
9285.000000;0.780543
9284.000000;0.780374
9283.000000;0.780155
9282.000000;0.779973
9281.000000;0.779771
9280.000000;0.779501
9279.000000;0.779255
9278.000000;0.779201
9277.000000;0.779377
9276.000000;0.779604
9275.000000;0.779625
9274.000000;0.779320
9273.000000;0.778786
9272.000000;0.778261
9271.000000;0.777980
9270.000000;0.778026
9269.000000;0.778260
9268.000000;0.778443
9267.000000;0.778451
9266.000000;0.778368
9265.000000;0.778326
9264.000000;0.778331
9263.000000;0.778287
9262.000000;0.778149
9261.000000;0.777949
9260.000000;0.777698
9259.000000;0.777389
9258.000000;0.777100
9257.000000;0.776991
9256.000000;0.777121
9255.000000;0.777335
9254.000000;0.777411
9253.000000;0.777309
9252.000000;0.777197
9251.000000;0.777241
9250.000000;0.777460
9249.000000;0.777746
9248.000000;0.777948
9247.000000;0.777903
9246.000000;0.777533
9245.000000;0.776989
9244.000000;0.776635
9243.000000;0.776726
9242.000000;0.777136
9241.000000;0.777497
9240.000000;0.777581
9239.000000;0.777441
9238.000000;0.777191
9237.000000;0.776831
9236.000000;0.776349
9235.000000;0.775851
9234.000000;0.775473
9233.000000;0.775240
9232.000000;0.775112
9231.000000;0.775081
9230.000000;0.775134
9229.000000;0.775177
9228.000000;0.775124
9227.000000;0.775017
9226.000000;0.774971
9225.000000;0.775033
9224.000000;0.775155
9223.000000;0.775257
9222.000000;0.775217
9221.000000;0.774877
9220.000000;0.774215
9219.000000;0.773514
9218.000000;0.773183
9217.000000;0.773380
9216.000000;0.773878
9215.000000;0.774335
9214.000000;0.774586
9213.000000;0.774658
9212.000000;0.774622
9211.000000;0.774527
9210.000000;0.774419
9209.000000;0.774332
9208.000000;0.774271
9207.000000;0.774210
9206.000000;0.774104
9205.000000;0.773912
9204.000000;0.773645
9203.000000;0.773392
9202.000000;0.773242
9201.000000;0.773196
9200.000000;0.773171
9199.000000;0.773090
9198.000000;0.772923
9197.000000;0.772691
9196.000000;0.772486
9195.000000;0.772445
9194.000000;0.772608
9193.000000;0.772815
9192.000000;0.772858
9191.000000;0.772706
9190.000000;0.772496
9189.000000;0.772302
9188.000000;0.772055
9187.000000;0.771712
9186.000000;0.771365
9185.000000;0.771125
9184.000000;0.770996
9183.000000;0.770922
9182.000000;0.770896
9181.000000;0.770943
9180.000000;0.771074
9179.000000;0.771287
9178.000000;0.771566
9177.000000;0.771824
9176.000000;0.771920
9175.000000;0.771796
9174.000000;0.771512
9173.000000;0.771139
9172.000000;0.770669
9171.000000;0.770131
9170.000000;0.769684
9169.000000;0.769503
9168.000000;0.769591
9167.000000;0.769790
9166.000000;0.769975
9165.000000;0.770164
9164.000000;0.770410
9163.000000;0.770659
9162.000000;0.770766
9161.000000;0.770662
9160.000000;0.770454
9159.000000;0.770310
9158.000000;0.770241
9157.000000;0.770097
9156.000000;0.769810
9155.000000;0.769560
9154.000000;0.769569
9153.000000;0.769778
9152.000000;0.769875
9151.000000;0.769677
9150.000000;0.769354
9149.000000;0.769184
9148.000000;0.769237
9147.000000;0.769355
9146.000000;0.769365
9145.000000;0.769204
9144.000000;0.768896
9143.000000;0.768527
9142.000000;0.768219
9141.000000;0.768047
9140.000000;0.767975
9139.000000;0.767933
9138.000000;0.767912
9137.000000;0.767948
9136.000000;0.768034
9135.000000;0.768123
9134.000000;0.768195
9133.000000;0.768266
9132.000000;0.768332
9131.000000;0.768385
9130.000000;0.768444
9129.000000;0.768524
9128.000000;0.768579
9127.000000;0.768541
9126.000000;0.768412
9125.000000;0.768244
9124.000000;0.768029
9123.000000;0.767696
9122.000000;0.767248
9121.000000;0.766853
9120.000000;0.766713
9119.000000;0.766831
9118.000000;0.766986
9117.000000;0.766978
9116.000000;0.766866
9115.000000;0.766879
9114.000000;0.767076
9113.000000;0.767207
9112.000000;0.767005
9111.000000;0.766551
9110.000000;0.766210
9109.000000;0.766205
9108.000000;0.766375
9107.000000;0.766394
9106.000000;0.766106
9105.000000;0.765595
9104.000000;0.765035
9103.000000;0.764598
9102.000000;0.764415
9101.000000;0.764496
9100.000000;0.764700
9099.000000;0.764874
9098.000000;0.765003
9097.000000;0.765149
9096.000000;0.765276
9095.000000;0.765268
9094.000000;0.765089
9093.000000;0.764822
9092.000000;0.764537
9091.000000;0.764256
9090.000000;0.764052
9089.000000;0.764052
9088.000000;0.764268
9087.000000;0.764525
9086.000000;0.764646
9085.000000;0.764618
9084.000000;0.764519
9083.000000;0.764353
9082.000000;0.764099
9081.000000;0.763843
9080.000000;0.763707
9079.000000;0.763661
9078.000000;0.763548
9077.000000;0.763335
9076.000000;0.763209
9075.000000;0.763348
9074.000000;0.763678
9073.000000;0.763943
9072.000000;0.763962
9071.000000;0.763762
9070.000000;0.763497
9069.000000;0.763319
9068.000000;0.763310
9067.000000;0.763435
9066.000000;0.763568
9065.000000;0.763608
9064.000000;0.763563
9063.000000;0.763498
9062.000000;0.763413
9061.000000;0.763243
9060.000000;0.762971
9059.000000;0.762666
9058.000000;0.762424
9057.000000;0.762304
9056.000000;0.762304
9055.000000;0.762338
9054.000000;0.762252
9053.000000;0.761975
