Criado como novo conjunto de dados;"2706_e01_daniel.spp","41583.9 Secs"
cm-1;Abs
10000.000000;0.730812
9999.000000;0.730186
9998.000000;0.729641
9997.000000;0.729135
9996.000000;0.728626
9995.000000;0.728046
9994.000000;0.727372
9993.000000;0.726766
9992.000000;0.726479
9991.000000;0.726564
9990.000000;0.726806
9989.000000;0.726986
9988.000000;0.727123
9987.000000;0.727375
9986.000000;0.727737
9985.000000;0.727938
9984.000000;0.727679
9983.000000;0.726952
9982.000000;0.726091
9981.000000;0.725503
9980.000000;0.725385
9979.000000;0.725681
9978.000000;0.726190
9977.000000;0.726643
9976.000000;0.726796
9975.000000;0.726634
9974.000000;0.726452
9973.000000;0.726562
9972.000000;0.726887
9971.000000;0.727023
9970.000000;0.726758
9969.000000;0.726366
9968.000000;0.726277
9967.000000;0.726597
9966.000000;0.727062
9965.000000;0.727351
9964.000000;0.727313
9963.000000;0.727014
9962.000000;0.726696
9961.000000;0.726624
9960.000000;0.726808
9959.000000;0.726925
9958.000000;0.726659
9957.000000;0.726095
9956.000000;0.725639
9955.000000;0.725561
9954.000000;0.725765
9953.000000;0.725998
9952.000000;0.726120
9951.000000;0.726117
9950.000000;0.726015
9949.000000;0.725853
9948.000000;0.725716
9947.000000;0.725704
9946.000000;0.725889
9945.000000;0.726255
9944.000000;0.726621
9943.000000;0.726675
9942.000000;0.726222
9941.000000;0.725417
9940.000000;0.724650
9939.000000;0.724210
9938.000000;0.724136
9937.000000;0.724345
9936.000000;0.724711
9935.000000;0.725001
9934.000000;0.724960
9933.000000;0.724577
9932.000000;0.724138
9931.000000;0.723886
9930.000000;0.723786
9929.000000;0.723706
9928.000000;0.723646
9927.000000;0.723612
9926.000000;0.723439
9925.000000;0.723022
9924.000000;0.722645
9923.000000;0.722778
9922.000000;0.723491
9921.000000;0.724263
9920.000000;0.724489
9919.000000;0.724033
9918.000000;0.723220
9917.000000;0.722452
9916.000000;0.721972
9915.000000;0.721863
9914.000000;0.722083
9913.000000;0.722464
9912.000000;0.722781
9911.000000;0.722886
9910.000000;0.722776
9909.000000;0.722555
9908.000000;0.722327
9907.000000;0.722086
9906.000000;0.721722
9905.000000;0.721185
9904.000000;0.720627
9903.000000;0.720297
9902.000000;0.720254
9901.000000;0.720279
9900.000000;0.720142
9899.000000;0.719886
9898.000000;0.719773
9897.000000;0.719966
9896.000000;0.720364
9895.000000;0.720741
9894.000000;0.720970
9893.000000;0.721056
9892.000000;0.720985
9891.000000;0.720668
9890.000000;0.720105
9889.000000;0.719552
9888.000000;0.719374
9887.000000;0.719663
9886.000000;0.720071
9885.000000;0.720125
9884.000000;0.719679
9883.000000;0.718998
9882.000000;0.718459
9881.000000;0.718303
9880.000000;0.718581
9879.000000;0.719134
9878.000000;0.719586
9877.000000;0.719564
9876.000000;0.719077
9875.000000;0.718571
9874.000000;0.718484
9873.000000;0.718829
9872.000000;0.719280
9871.000000;0.719554
9870.000000;0.719581
9869.000000;0.719398
9868.000000;0.719052
9867.000000;0.718635
9866.000000;0.718263
9865.000000;0.717987
9864.000000;0.717782
9863.000000;0.717632
9862.000000;0.717563
9861.000000;0.717567
9860.000000;0.717572
9859.000000;0.717508
9858.000000;0.717387
9857.000000;0.717280
9856.000000;0.717217
9855.000000;0.717144
9854.000000;0.716972
9853.000000;0.716676
9852.000000;0.716326
9851.000000;0.716028
9850.000000;0.715862
9849.000000;0.715870
9848.000000;0.716031
9847.000000;0.716166
9846.000000;0.715984
9845.000000;0.715377
9844.000000;0.714671
9843.000000;0.714386
9842.000000;0.714678
9841.000000;0.715151
9840.000000;0.715330
9839.000000;0.715190
9838.000000;0.715054
9837.000000;0.715100
9836.000000;0.715177
9835.000000;0.715114
9834.000000;0.714983
9833.000000;0.714977
9832.000000;0.715151
9831.000000;0.715395
9830.000000;0.715584
9829.000000;0.715661
9828.000000;0.715590
9827.000000;0.715312
9826.000000;0.714821
9825.000000;0.714254
9824.000000;0.713865
9823.000000;0.713852
9822.000000;0.714205
9821.000000;0.714727
9820.000000;0.715181
9819.000000;0.715369
9818.000000;0.715171
9817.000000;0.714649
9816.000000;0.714102
9815.000000;0.713879
9814.000000;0.714034
9813.000000;0.714287
9812.000000;0.714380
9811.000000;0.714374
9810.000000;0.714496
9809.000000;0.714770
9808.000000;0.714944
9807.000000;0.714744
9806.000000;0.714133
9805.000000;0.713330
9804.000000;0.712642
9803.000000;0.712250
9802.000000;0.712110
9801.000000;0.712089
9800.000000;0.712196
9799.000000;0.712521
9798.000000;0.712926
9797.000000;0.712975
9796.000000;0.712349
9795.000000;0.711224
9794.000000;0.710094
9793.000000;0.709308
9792.000000;0.708925
9791.000000;0.708904
9790.000000;0.709203
9789.000000;0.709707
9788.000000;0.710260
9787.000000;0.710816
9786.000000;0.711403
9785.000000;0.711929
9784.000000;0.712164
9783.000000;0.711979
9782.000000;0.711502
9781.000000;0.711000
9780.000000;0.710684
9779.000000;0.710605
9778.000000;0.710629
9777.000000;0.710547
9776.000000;0.710326
9775.000000;0.710229
9774.000000;0.710556
9773.000000;0.711252
9772.000000;0.711906
9771.000000;0.712135
9770.000000;0.711887
9769.000000;0.711370
9768.000000;0.710825
9767.000000;0.710394
9766.000000;0.710078
9765.000000;0.709808
9764.000000;0.709608
9763.000000;0.709644
9762.000000;0.709965
9761.000000;0.710267
9760.000000;0.710135
9759.000000;0.709544
9758.000000;0.708906
9757.000000;0.708563
9756.000000;0.708440
9755.000000;0.708276
9754.000000;0.708014
9753.000000;0.707778
9752.000000;0.707606
9751.000000;0.707417
9750.000000;0.707217
9749.000000;0.707173
9748.000000;0.707430
9747.000000;0.707915
9746.000000;0.708355
9745.000000;0.708546
9744.000000;0.708576
9743.000000;0.708734
9742.000000;0.709135
9741.000000;0.709530
9740.000000;0.709591
9739.000000;0.709290
9738.000000;0.708829
9737.000000;0.708319
9736.000000;0.707763
9735.000000;0.707297
9734.000000;0.707106
9733.000000;0.707075
9732.000000;0.706835
9731.000000;0.706331
9730.000000;0.706021
9729.000000;0.706315
9728.000000;0.707017
9727.000000;0.707587
9726.000000;0.707796
9725.000000;0.707826
9724.000000;0.707833
9723.000000;0.707715
9722.000000;0.707350
9721.000000;0.706826
9720.000000;0.706344
9719.000000;0.706011
9718.000000;0.705793
9717.000000;0.705625
9716.000000;0.705492
9715.000000;0.705432
9714.000000;0.705432
9713.000000;0.705363
9712.000000;0.705093
9711.000000;0.704684
9710.000000;0.704359
9709.000000;0.704252
9708.000000;0.704307
9707.000000;0.704472
9706.000000;0.704803
9705.000000;0.705249
9704.000000;0.705513
9703.000000;0.705334
9702.000000;0.704822
9701.000000;0.704324
9700.000000;0.704044
9699.000000;0.703955
9698.000000;0.704000
9697.000000;0.704174
9696.000000;0.704411
9695.000000;0.704602
9694.000000;0.704708
9693.000000;0.704720
9692.000000;0.704526
9691.000000;0.704027
9690.000000;0.703391
9689.000000;0.702994
9688.000000;0.703021
9687.000000;0.703282
9686.000000;0.703484
9685.000000;0.703557
9684.000000;0.703622
9683.000000;0.703742
9682.000000;0.703820
9681.000000;0.703732
9680.000000;0.703486
9679.000000;0.703247
9678.000000;0.703188
9677.000000;0.703298
9676.000000;0.703365
9675.000000;0.703217
9674.000000;0.702957
9673.000000;0.702841
9672.000000;0.702951
9671.000000;0.703084
9670.000000;0.702998
9669.000000;0.702667
9668.000000;0.702248
9667.000000;0.701911
9666.000000;0.701744
9665.000000;0.701751
9664.000000;0.701839
9663.000000;0.701852
9662.000000;0.701696
9661.000000;0.701443
9660.000000;0.701268
9659.000000;0.701280
9658.000000;0.701439
9657.000000;0.701632
9656.000000;0.701788
9655.000000;0.701902
9654.000000;0.701968
9653.000000;0.701929
9652.000000;0.701748
9651.000000;0.701492
9650.000000;0.701288
9649.000000;0.701161
9648.000000;0.701004
9647.000000;0.700755
9646.000000;0.700511
9645.000000;0.700395
9644.000000;0.700358
9643.000000;0.700230
9642.000000;0.699965
9641.000000;0.699707
9640.000000;0.699611
9639.000000;0.699655
9638.000000;0.699669
9637.000000;0.699517
9636.000000;0.699231
9635.000000;0.699014
9634.000000;0.699080
9633.000000;0.699463
9632.000000;0.699968
9631.000000;0.700332
9630.000000;0.700413
9629.000000;0.700216
9628.000000;0.699808
9627.000000;0.699283
9626.000000;0.698790
9625.000000;0.698477
9624.000000;0.698389
9623.000000;0.698442
9622.000000;0.698512
9621.000000;0.698537
9620.000000;0.698535
9619.000000;0.698556
9618.000000;0.698590
9617.000000;0.698541
9616.000000;0.698318
9615.000000;0.697979
9614.000000;0.697705
9613.000000;0.697614
9612.000000;0.697678
9611.000000;0.697836
9610.000000;0.698079
9609.000000;0.698337
9608.000000;0.698437
9607.000000;0.698283
9606.000000;0.698012
9605.000000;0.697834
9604.000000;0.697786
9603.000000;0.697769
9602.000000;0.697748
9601.000000;0.697743
9600.000000;0.697690
9599.000000;0.697483
9598.000000;0.697145
9597.000000;0.696793
9596.000000;0.696458
9595.000000;0.696139
9594.000000;0.695991
9593.000000;0.696228
9592.000000;0.696792
9591.000000;0.697335
9590.000000;0.697620
9589.000000;0.697745
9588.000000;0.697856
9587.000000;0.697862
9586.000000;0.697592
9585.000000;0.697093
9584.000000;0.696570
9583.000000;0.696123
9582.000000;0.695719
9581.000000;0.695370
9580.000000;0.695167
9579.000000;0.695135
9578.000000;0.695215
9577.000000;0.695369
9576.000000;0.695621
9575.000000;0.695966
9574.000000;0.696323
9573.000000;0.696570
9572.000000;0.696572
9571.000000;0.696229
9570.000000;0.695592
9569.000000;0.694903
9568.000000;0.694436
9567.000000;0.694291
9566.000000;0.694382
9565.000000;0.694594
9564.000000;0.694869
9563.000000;0.695158
9562.000000;0.695383
9561.000000;0.695468
9560.000000;0.695386
9559.000000;0.695207
9558.000000;0.695100
9557.000000;0.695195
9556.000000;0.695390
9555.000000;0.695395
9554.000000;0.695079
9553.000000;0.694650
9552.000000;0.694371
9551.000000;0.694203
9550.000000;0.693935
9549.000000;0.693595
9548.000000;0.693468
9547.000000;0.693680
9546.000000;0.694018
9545.000000;0.694262
9544.000000;0.694467
9543.000000;0.694753
9542.000000;0.695005
9541.000000;0.694995
9540.000000;0.694690
9539.000000;0.694233
9538.000000;0.693709
9537.000000;0.693136
9536.000000;0.692672
9535.000000;0.692553
9534.000000;0.692754
9533.000000;0.692912
9532.000000;0.692713
9531.000000;0.692255
9530.000000;0.691918
9529.000000;0.691948
9528.000000;0.692264
9527.000000;0.692621
9526.000000;0.692854
9525.000000;0.692956
9524.000000;0.692989
9523.000000;0.692974
9522.000000;0.692877
9521.000000;0.692680
9520.000000;0.692436
9519.000000;0.692174
9518.000000;0.691811
9517.000000;0.691248
9516.000000;0.690583
9515.000000;0.690119
9514.000000;0.690082
9513.000000;0.690399
9512.000000;0.690782
9511.000000;0.690981
9510.000000;0.690921
9509.000000;0.690685
9508.000000;0.690446
9507.000000;0.690359
9506.000000;0.690439
9505.000000;0.690576
9504.000000;0.690688
9503.000000;0.690791
9502.000000;0.690873
9501.000000;0.690834
9500.000000;0.690645
9499.000000;0.690448
9498.000000;0.690354
9497.000000;0.690258
9496.000000;0.690037
9495.000000;0.689817
9494.000000;0.689798
9493.000000;0.689850
9492.000000;0.689618
9491.000000;0.689073
9490.000000;0.688647
9489.000000;0.688680
9488.000000;0.688976
9487.000000;0.689126
9486.000000;0.689072
9485.000000;0.689081
9484.000000;0.689287
9483.000000;0.689513
9482.000000;0.689527
9481.000000;0.689281
9480.000000;0.688870
9479.000000;0.688445
9478.000000;0.688160
9477.000000;0.688067
9476.000000;0.688056
9475.000000;0.687997
9474.000000;0.687917
9473.000000;0.687918
9472.000000;0.687975
9471.000000;0.687973
9470.000000;0.687929
9469.000000;0.687962
9468.000000;0.688049
9467.000000;0.688005
9466.000000;0.687786
9465.000000;0.687592
9464.000000;0.687597
9463.000000;0.687710
9462.000000;0.687743
9461.000000;0.687664
9460.000000;0.687575
9459.000000;0.687568
9458.000000;0.687709
9457.000000;0.688033
9456.000000;0.688398
9455.000000;0.688472
9454.000000;0.688059
9453.000000;0.687376
9452.000000;0.686832
9451.000000;0.686550
9450.000000;0.686300
9449.000000;0.685910
9448.000000;0.685526
9447.000000;0.685407
9446.000000;0.685612
9445.000000;0.685976
9444.000000;0.686290
9443.000000;0.686421
9442.000000;0.686345
9441.000000;0.686160
9440.000000;0.686014
9439.000000;0.685930
9438.000000;0.685764
9437.000000;0.685390
9436.000000;0.684886
9435.000000;0.684461
9434.000000;0.684262
9433.000000;0.684322
9432.000000;0.684625
9431.000000;0.685082
9430.000000;0.685476
9429.000000;0.685581
9428.000000;0.685383
9427.000000;0.685096
9426.000000;0.684907
9425.000000;0.684781
9424.000000;0.684592
9423.000000;0.684337
9422.000000;0.684154
9421.000000;0.684153
9420.000000;0.684308
9419.000000;0.684469
9418.000000;0.684449
9417.000000;0.684141
9416.000000;0.683651
9415.000000;0.683264
9414.000000;0.683194
9413.000000;0.683387
9412.000000;0.683646
9411.000000;0.683901
9410.000000;0.684208
9409.000000;0.684513
9408.000000;0.684590
9407.000000;0.684311
9406.000000;0.683833
9405.000000;0.683427
9404.000000;0.683219
9403.000000;0.683192
9402.000000;0.683301
9401.000000;0.683437
9400.000000;0.683370
9399.000000;0.682926
9398.000000;0.682271
9397.000000;0.681844
9396.000000;0.681941
9395.000000;0.682432
9394.000000;0.682923
9393.000000;0.683131
9392.000000;0.683085
9391.000000;0.683024
9390.000000;0.683146
9389.000000;0.683413
9388.000000;0.683588
9387.000000;0.683494
9386.000000;0.683210
9385.000000;0.682971
9384.000000;0.682896
9383.000000;0.682916
9382.000000;0.682925
9381.000000;0.682890
9380.000000;0.682778
9379.000000;0.682533
9378.000000;0.682181
9377.000000;0.681854
9376.000000;0.681625
9375.000000;0.681411
9374.000000;0.681132
9373.000000;0.680875
9372.000000;0.680786
9371.000000;0.680856
9370.000000;0.680943
9369.000000;0.680963
9368.000000;0.680939
9367.000000;0.680872
9366.000000;0.680715
9365.000000;0.680482
9364.000000;0.680276
9363.000000;0.680167
9362.000000;0.680119
9361.000000;0.680061
9360.000000;0.679976
9359.000000;0.679883
9358.000000;0.679810
9357.000000;0.679806
9356.000000;0.679913
9355.000000;0.680081
9354.000000;0.680171
9353.000000;0.680113
9352.000000;0.679998
9351.000000;0.679960
9350.000000;0.679988
9349.000000;0.679915
9348.000000;0.679612
9347.000000;0.679146
9346.000000;0.678740
9345.000000;0.678600
9344.000000;0.678757
9343.000000;0.679068
9342.000000;0.679357
9341.000000;0.679554
9340.000000;0.679695
9339.000000;0.679797
9338.000000;0.679793
9337.000000;0.679609
9336.000000;0.679274
9335.000000;0.678904
9334.000000;0.678617
9333.000000;0.678472
9332.000000;0.678462
9331.000000;0.678535
9330.000000;0.678627
9329.000000;0.678705
9328.000000;0.678755
9327.000000;0.678705
9326.000000;0.678449
9325.000000;0.677990
9324.000000;0.677528
9323.000000;0.677309
9322.000000;0.677383
9321.000000;0.677561
9320.000000;0.677624
9319.000000;0.677511
9318.000000;0.677322
9317.000000;0.677192
9316.000000;0.677192
9315.000000;0.677265
9314.000000;0.677246
9313.000000;0.677014
9312.000000;0.676655
9311.000000;0.676427
9310.000000;0.676491
9309.000000;0.676723
9308.000000;0.676872
9307.000000;0.676846
9306.000000;0.676752
9305.000000;0.676681
9304.000000;0.676572
9303.000000;0.676325
9302.000000;0.675972
9301.000000;0.675685
9300.000000;0.675626
9299.000000;0.675807
9298.000000;0.676049
9297.000000;0.676091
9296.000000;0.675798
9295.000000;0.675315
9294.000000;0.674954
9293.000000;0.674894
9292.000000;0.675032
9291.000000;0.675163
9290.000000;0.675220
9289.000000;0.675290
9288.000000;0.675422
9287.000000;0.675550
9286.000000;0.675588
9285.000000;0.675517
9284.000000;0.675354
9283.000000;0.675095
9282.000000;0.674749
9281.000000;0.674395
9280.000000;0.674158
9279.000000;0.674124
9278.000000;0.674289
9277.000000;0.674547
9276.000000;0.674717
9275.000000;0.674633
9274.000000;0.674276
9273.000000;0.673820
9272.000000;0.673503
9271.000000;0.673440
9270.000000;0.673554
9269.000000;0.673680
9268.000000;0.673703
9267.000000;0.673637
9266.000000;0.673575
9265.000000;0.673587
9264.000000;0.673639
9263.000000;0.673629
9262.000000;0.673508
9261.000000;0.673343
9260.000000;0.673248
9259.000000;0.673258
9258.000000;0.673308
9257.000000;0.673320
9256.000000;0.673278
9255.000000;0.673200
9254.000000;0.673094
9253.000000;0.672949
9252.000000;0.672758
9251.000000;0.672546
9250.000000;0.672373
9249.000000;0.672321
9248.000000;0.672425
9247.000000;0.672607
9246.000000;0.672705
9245.000000;0.672608
9244.000000;0.672358
9243.000000;0.672113
9242.000000;0.672000
9241.000000;0.672038
9240.000000;0.672158
9239.000000;0.672267
9238.000000;0.672279
9237.000000;0.672151
9236.000000;0.671902
9235.000000;0.671575
9234.000000;0.671185
9233.000000;0.670748
9232.000000;0.670368
9231.000000;0.670230
9230.000000;0.670417
9229.000000;0.670762
9228.000000;0.670959
9227.000000;0.670853
9226.000000;0.670577
9225.000000;0.670376
9224.000000;0.670349
9223.000000;0.670400
9222.000000;0.670404
9221.000000;0.670342
9220.000000;0.670288
9219.000000;0.670307
9218.000000;0.670387
9217.000000;0.670448
9216.000000;0.670416
9215.000000;0.670306
9214.000000;0.670206
9213.000000;0.670146
9212.000000;0.670029
9211.000000;0.669750
9210.000000;0.669395
9209.000000;0.669216
9208.000000;0.669375
9207.000000;0.669758
9206.000000;0.670114
9205.000000;0.670291
9204.000000;0.670301
9203.000000;0.670191
9202.000000;0.669989
9201.000000;0.669755
9200.000000;0.669570
9199.000000;0.669425
9198.000000;0.669223
9197.000000;0.668931
9196.000000;0.668652
9195.000000;0.668464
9194.000000;0.668284
9193.000000;0.667989
9192.000000;0.667643
9191.000000;0.667486
9190.000000;0.667670
9189.000000;0.668094
9188.000000;0.668519
9187.000000;0.668771
9186.000000;0.668825
9185.000000;0.668752
9184.000000;0.668667
9183.000000;0.668672
9182.000000;0.668796
9181.000000;0.668970
9180.000000;0.669078
9179.000000;0.669045
9178.000000;0.668868
9177.000000;0.668612
9176.000000;0.668372
9175.000000;0.668222
9174.000000;0.668169
9173.000000;0.668175
9172.000000;0.668210
9171.000000;0.668253
9170.000000;0.668231
9169.000000;0.668025
9168.000000;0.667608
9167.000000;0.667129
9166.000000;0.666802
9165.000000;0.666697
9164.000000;0.666692
9163.000000;0.666626
9162.000000;0.666474
9161.000000;0.666338
9160.000000;0.666305
9159.000000;0.666343
9158.000000;0.666349
9157.000000;0.666274
9156.000000;0.666189
9155.000000;0.666198
9154.000000;0.666293
9153.000000;0.666352
9152.000000;0.666288
9151.000000;0.666159
9150.000000;0.666087
9149.000000;0.666098
9148.000000;0.666091
9147.000000;0.665998
9146.000000;0.665882
9145.000000;0.665861
9144.000000;0.665944
9143.000000;0.665989
9142.000000;0.665824
9141.000000;0.665421
9140.000000;0.664951
9139.000000;0.664671
9138.000000;0.664714
9137.000000;0.664986
9136.000000;0.665250
9135.000000;0.665293
9134.000000;0.665028
9133.000000;0.664496
9132.000000;0.663856
9131.000000;0.663366
9130.000000;0.663257
9129.000000;0.663549
9128.000000;0.663997
9127.000000;0.664281
9126.000000;0.664258
9125.000000;0.664023
9124.000000;0.663774
9123.000000;0.663634
9122.000000;0.663595
9121.000000;0.663577
9120.000000;0.663523
9119.000000;0.663429
9118.000000;0.663316
9117.000000;0.663198
9116.000000;0.663120
9115.000000;0.663207
9114.000000;0.663573
9113.000000;0.664155
9112.000000;0.664657
9111.000000;0.664750
9110.000000;0.664347
9109.000000;0.663661
9108.000000;0.663011
9107.000000;0.662614
9106.000000;0.662518
9105.000000;0.662629
9104.000000;0.662759
9103.000000;0.662728
9102.000000;0.662505
9101.000000;0.662252
9100.000000;0.662175
9099.000000;0.662322
9098.000000;0.662560
9097.000000;0.662728
9096.000000;0.662771
9095.000000;0.662714
9094.000000;0.662587
9093.000000;0.662421
9092.000000;0.662289
9091.000000;0.662270
9090.000000;0.662359
9089.000000;0.662452
9088.000000;0.662452
9087.000000;0.662371
9086.000000;0.662307
9085.000000;0.662321
9084.000000;0.662373
9083.000000;0.662351
9082.000000;0.662185
9081.000000;0.661929
9080.000000;0.661744
9079.000000;0.661756
9078.000000;0.661912
9077.000000;0.661989
9076.000000;0.661811
9075.000000;0.661431
9074.000000;0.661084
9073.000000;0.660933
9072.000000;0.660929
9071.000000;0.660890
9070.000000;0.660693
9069.000000;0.660354
9068.000000;0.659986
9067.000000;0.659732
9066.000000;0.659701
9065.000000;0.659865
9064.000000;0.660031
9063.000000;0.659986
9062.000000;0.659721
9061.000000;0.659474
9060.000000;0.659482
9059.000000;0.659724
9058.000000;0.659943
9057.000000;0.659929
9056.000000;0.659715
9055.000000;0.659468
9054.000000;0.659291
9053.000000;0.659183
