Criado como novo conjunto de dados;"2706_e01_daniel.spp","9902.5 Secs"
cm-1;Abs
10000.000000;0.745043
9999.000000;0.743994
9998.000000;0.742947
9997.000000;0.741904
9996.000000;0.740861
9995.000000;0.739824
9994.000000;0.738783
9993.000000;0.737758
9992.000000;0.736711
9991.000000;0.735711
9990.000000;0.734620
9989.000000;0.733992
9988.000000;0.734325
9987.000000;0.735235
9986.000000;0.736126
9985.000000;0.736485
9984.000000;0.736336
9983.000000;0.735984
9982.000000;0.735616
9981.000000;0.735213
9980.000000;0.734818
9979.000000;0.734615
9978.000000;0.734666
9977.000000;0.734745
9976.000000;0.734571
9975.000000;0.734143
9974.000000;0.733743
9973.000000;0.733640
9972.000000;0.733839
9971.000000;0.734107
9970.000000;0.734195
9969.000000;0.734030
9968.000000;0.733684
9967.000000;0.733232
9966.000000;0.732730
9965.000000;0.732348
9964.000000;0.732339
9963.000000;0.732763
9962.000000;0.733321
9961.000000;0.733652
9960.000000;0.733722
9959.000000;0.733771
9958.000000;0.733935
9957.000000;0.734117
9956.000000;0.734235
9955.000000;0.734374
9954.000000;0.734626
9953.000000;0.734926
9952.000000;0.735115
9951.000000;0.735080
9950.000000;0.734792
9949.000000;0.734254
9948.000000;0.733485
9947.000000;0.732538
9946.000000;0.731577
9945.000000;0.730911
9944.000000;0.730818
9943.000000;0.731239
9942.000000;0.731774
9941.000000;0.732101
9940.000000;0.732260
9939.000000;0.732398
9938.000000;0.732455
9937.000000;0.732346
9936.000000;0.732272
9935.000000;0.732489
9934.000000;0.732845
9933.000000;0.732889
9932.000000;0.732454
9931.000000;0.731807
9930.000000;0.731223
9929.000000;0.730715
9928.000000;0.730276
9927.000000;0.730033
9926.000000;0.730029
9925.000000;0.730102
9924.000000;0.730121
9923.000000;0.730134
9922.000000;0.730174
9921.000000;0.730143
9920.000000;0.730005
9919.000000;0.729880
9918.000000;0.729847
9917.000000;0.729820
9916.000000;0.729757
9915.000000;0.729755
9914.000000;0.729856
9913.000000;0.729941
9912.000000;0.729979
9911.000000;0.730143
9910.000000;0.730503
9909.000000;0.730808
9908.000000;0.730770
9907.000000;0.730474
9906.000000;0.730297
9905.000000;0.730486
9904.000000;0.730898
9903.000000;0.731137
9902.000000;0.730880
9901.000000;0.730164
9900.000000;0.729388
9899.000000;0.728936
9898.000000;0.728800
9897.000000;0.728697
9896.000000;0.728523
9895.000000;0.728451
9894.000000;0.728538
9893.000000;0.728529
9892.000000;0.728203
9891.000000;0.727708
9890.000000;0.727390
9889.000000;0.727439
9888.000000;0.727811
9887.000000;0.728320
9886.000000;0.728673
9885.000000;0.728607
9884.000000;0.728167
9883.000000;0.727725
9882.000000;0.727608
9881.000000;0.727801
9880.000000;0.728104
9879.000000;0.728387
9878.000000;0.728542
9877.000000;0.728390
9876.000000;0.727857
9875.000000;0.727140
9874.000000;0.726532
9873.000000;0.726154
9872.000000;0.725984
9871.000000;0.726020
9870.000000;0.726267
9869.000000;0.726650
9868.000000;0.727055
9867.000000;0.727383
9866.000000;0.727503
9865.000000;0.727305
9864.000000;0.726922
9863.000000;0.726735
9862.000000;0.726969
9861.000000;0.727419
9860.000000;0.727712
9859.000000;0.727709
9858.000000;0.727491
9857.000000;0.727118
9856.000000;0.726608
9855.000000;0.726074
9854.000000;0.725642
9853.000000;0.725275
9852.000000;0.724865
9851.000000;0.724478
9850.000000;0.724341
9849.000000;0.724567
9848.000000;0.725020
9847.000000;0.725466
9846.000000;0.725777
9845.000000;0.726007
9844.000000;0.726323
9843.000000;0.726825
9842.000000;0.727355
9841.000000;0.727551
9840.000000;0.727178
9839.000000;0.726387
9838.000000;0.725584
9837.000000;0.725093
9836.000000;0.724930
9835.000000;0.724858
9834.000000;0.724614
9833.000000;0.724152
9832.000000;0.723675
9831.000000;0.723386
9830.000000;0.723257
9829.000000;0.723167
9828.000000;0.723153
9827.000000;0.723313
9826.000000;0.723513
9825.000000;0.723498
9824.000000;0.723313
9823.000000;0.723330
9822.000000;0.723736
9821.000000;0.724282
9820.000000;0.724655
9819.000000;0.724836
9818.000000;0.724878
9817.000000;0.724655
9816.000000;0.724106
9815.000000;0.723539
9814.000000;0.723337
9813.000000;0.723493
9812.000000;0.723724
9811.000000;0.723936
9810.000000;0.724280
9809.000000;0.724742
9808.000000;0.724998
9807.000000;0.724737
9806.000000;0.723992
9805.000000;0.723087
9804.000000;0.722383
9803.000000;0.722068
9802.000000;0.722088
9801.000000;0.722264
9800.000000;0.722476
9799.000000;0.722681
9798.000000;0.722749
9797.000000;0.722486
9796.000000;0.721915
9795.000000;0.721368
9794.000000;0.721124
9793.000000;0.721091
9792.000000;0.721015
9791.000000;0.720834
9790.000000;0.720668
9789.000000;0.720587
9788.000000;0.720579
9787.000000;0.720655
9786.000000;0.720777
9785.000000;0.720791
9784.000000;0.720644
9783.000000;0.720559
9782.000000;0.720747
9781.000000;0.721021
9780.000000;0.720983
9779.000000;0.720568
9778.000000;0.720145
9777.000000;0.720046
9776.000000;0.720227
9775.000000;0.720434
9774.000000;0.720506
9773.000000;0.720444
9772.000000;0.720347
9771.000000;0.720361
9770.000000;0.720559
9769.000000;0.720828
9768.000000;0.720965
9767.000000;0.720931
9766.000000;0.720887
9765.000000;0.720961
9764.000000;0.721076
9763.000000;0.721032
9762.000000;0.720676
9761.000000;0.720017
9760.000000;0.719276
9759.000000;0.718800
9758.000000;0.718785
9757.000000;0.719064
9756.000000;0.719274
9755.000000;0.719244
9754.000000;0.719112
9753.000000;0.719050
9752.000000;0.719016
9751.000000;0.718829
9750.000000;0.718409
9749.000000;0.717873
9748.000000;0.717429
9747.000000;0.717187
9746.000000;0.717077
9745.000000;0.716960
9744.000000;0.716838
9743.000000;0.716886
9742.000000;0.717199
9741.000000;0.717595
9740.000000;0.717787
9739.000000;0.717724
9738.000000;0.717611
9737.000000;0.717629
9736.000000;0.717751
9735.000000;0.717855
9734.000000;0.717875
9733.000000;0.717785
9732.000000;0.717535
9731.000000;0.717119
9730.000000;0.716679
9729.000000;0.716472
9728.000000;0.716674
9727.000000;0.717186
9726.000000;0.717639
9725.000000;0.717669
9724.000000;0.717267
9723.000000;0.716813
9722.000000;0.716706
9721.000000;0.716944
9720.000000;0.717129
9719.000000;0.716893
9718.000000;0.716280
9717.000000;0.715692
9716.000000;0.715478
9715.000000;0.715577
9714.000000;0.715622
9713.000000;0.715405
9712.000000;0.715140
9711.000000;0.715168
9710.000000;0.715489
9709.000000;0.715763
9708.000000;0.715791
9707.000000;0.715762
9706.000000;0.715954
9705.000000;0.716364
9704.000000;0.716753
9703.000000;0.716914
9702.000000;0.716750
9701.000000;0.716264
9700.000000;0.715640
9699.000000;0.715227
9698.000000;0.715235
9697.000000;0.715509
9696.000000;0.715738
9695.000000;0.715824
9694.000000;0.715866
9693.000000;0.715897
9692.000000;0.715862
9691.000000;0.715823
9690.000000;0.715935
9689.000000;0.716166
9688.000000;0.716261
9687.000000;0.716076
9686.000000;0.715768
9685.000000;0.715575
9684.000000;0.715520
9683.000000;0.715440
9682.000000;0.715208
9681.000000;0.714832
9680.000000;0.714415
9679.000000;0.714112
9678.000000;0.714050
9677.000000;0.714185
9676.000000;0.714295
9675.000000;0.714208
9674.000000;0.714015
9673.000000;0.713954
9672.000000;0.714091
9671.000000;0.714204
9670.000000;0.714070
9669.000000;0.713761
9668.000000;0.713585
9667.000000;0.713708
9666.000000;0.713942
9665.000000;0.713960
9664.000000;0.713649
9663.000000;0.713178
9662.000000;0.712763
9661.000000;0.712466
9660.000000;0.712244
9659.000000;0.712066
9658.000000;0.711941
9657.000000;0.711907
9656.000000;0.712039
9655.000000;0.712393
9654.000000;0.712904
9653.000000;0.713395
9652.000000;0.713727
9651.000000;0.713854
9650.000000;0.713730
9649.000000;0.713285
9648.000000;0.712612
9647.000000;0.712057
9646.000000;0.711977
9645.000000;0.712366
9644.000000;0.712841
9643.000000;0.712994
9642.000000;0.712700
9641.000000;0.712100
9640.000000;0.711403
9639.000000;0.710761
9638.000000;0.710296
9637.000000;0.710141
9636.000000;0.710411
9635.000000;0.711078
9634.000000;0.711882
9633.000000;0.712431
9632.000000;0.712456
9631.000000;0.712024
9630.000000;0.711481
9629.000000;0.711181
9628.000000;0.711227
9627.000000;0.711425
9626.000000;0.711508
9625.000000;0.711413
9624.000000;0.711326
9623.000000;0.711417
9622.000000;0.711609
9621.000000;0.711668
9620.000000;0.711481
9619.000000;0.711140
9618.000000;0.710796
9617.000000;0.710546
9616.000000;0.710475
9615.000000;0.710652
9614.000000;0.711041
9613.000000;0.711492
9612.000000;0.711874
9611.000000;0.712113
9610.000000;0.712102
9609.000000;0.711741
9608.000000;0.711134
9607.000000;0.710620
9606.000000;0.710483
9605.000000;0.710670
9604.000000;0.710854
9603.000000;0.710750
9602.000000;0.710349
9601.000000;0.709901
9600.000000;0.709697
9599.000000;0.709780
9598.000000;0.709863
9597.000000;0.709644
9596.000000;0.709174
9595.000000;0.708801
9594.000000;0.708740
9593.000000;0.708882
9592.000000;0.709076
9591.000000;0.709356
9590.000000;0.709742
9589.000000;0.710030
9588.000000;0.709999
9587.000000;0.709733
9586.000000;0.709530
9585.000000;0.709530
9584.000000;0.709623
9583.000000;0.709661
9582.000000;0.709602
9581.000000;0.709458
9580.000000;0.709253
9579.000000;0.709046
9578.000000;0.708894
9577.000000;0.708792
9576.000000;0.708724
9575.000000;0.708737
9574.000000;0.708855
9573.000000;0.708950
9572.000000;0.708867
9571.000000;0.708665
9570.000000;0.708576
9569.000000;0.708685
9568.000000;0.708782
9567.000000;0.708601
9566.000000;0.708136
9565.000000;0.707638
9564.000000;0.707346
9563.000000;0.707314
9562.000000;0.707471
9561.000000;0.707743
9560.000000;0.708069
9559.000000;0.708325
9558.000000;0.708367
9557.000000;0.708178
9556.000000;0.707902
9555.000000;0.707678
9554.000000;0.707492
9553.000000;0.707271
9552.000000;0.707043
9551.000000;0.706872
9550.000000;0.706710
9549.000000;0.706500
9548.000000;0.706406
9547.000000;0.706671
9546.000000;0.707193
9545.000000;0.707484
9544.000000;0.707237
9543.000000;0.706731
9542.000000;0.706486
9541.000000;0.706626
9540.000000;0.706821
9539.000000;0.706780
9538.000000;0.706548
9537.000000;0.706322
9536.000000;0.706172
9535.000000;0.706050
9534.000000;0.705910
9533.000000;0.705740
9532.000000;0.705542
9531.000000;0.705348
9530.000000;0.705222
9529.000000;0.705199
9528.000000;0.705261
9527.000000;0.705377
9526.000000;0.705532
9525.000000;0.705722
9524.000000;0.705926
9523.000000;0.706057
9522.000000;0.705981
9521.000000;0.705645
9520.000000;0.705217
9519.000000;0.704988
9518.000000;0.705071
9517.000000;0.705265
9516.000000;0.705288
9515.000000;0.705103
9514.000000;0.704900
9513.000000;0.704830
9512.000000;0.704862
9511.000000;0.704888
9510.000000;0.704861
9509.000000;0.704804
9508.000000;0.704753
9507.000000;0.704719
9506.000000;0.704676
9505.000000;0.704582
9504.000000;0.704432
9503.000000;0.704257
9502.000000;0.704086
9501.000000;0.703953
9500.000000;0.703911
9499.000000;0.703974
9498.000000;0.704022
9497.000000;0.703909
9496.000000;0.703693
9495.000000;0.703628
9494.000000;0.703833
9493.000000;0.704079
9492.000000;0.704054
9491.000000;0.703769
9490.000000;0.703539
9489.000000;0.703598
9488.000000;0.703859
9487.000000;0.704057
9486.000000;0.704000
9485.000000;0.703675
9484.000000;0.703210
9483.000000;0.702793
9482.000000;0.702558
9481.000000;0.702522
9480.000000;0.702625
9479.000000;0.702784
9478.000000;0.702893
9477.000000;0.702856
9476.000000;0.702697
9475.000000;0.702584
9474.000000;0.702643
9473.000000;0.702810
9472.000000;0.702958
9471.000000;0.703099
9470.000000;0.703335
9469.000000;0.703632
9468.000000;0.703784
9467.000000;0.703629
9466.000000;0.703212
9465.000000;0.702713
9464.000000;0.702321
9463.000000;0.702144
9462.000000;0.702126
9461.000000;0.702033
9460.000000;0.701632
9459.000000;0.700951
9458.000000;0.700309
9457.000000;0.700021
9456.000000;0.700112
9455.000000;0.700352
9454.000000;0.700510
9453.000000;0.700542
9452.000000;0.700582
9451.000000;0.700779
9450.000000;0.701156
9449.000000;0.701596
9448.000000;0.701933
9447.000000;0.702056
9446.000000;0.701960
9445.000000;0.701736
9444.000000;0.701537
9443.000000;0.701463
9442.000000;0.701462
9441.000000;0.701371
9440.000000;0.701101
9439.000000;0.700748
9438.000000;0.700482
9437.000000;0.700398
9436.000000;0.700493
9435.000000;0.700703
9434.000000;0.700867
9433.000000;0.700771
9432.000000;0.700341
9431.000000;0.699772
9430.000000;0.699353
9429.000000;0.699201
9428.000000;0.699252
9427.000000;0.699445
9426.000000;0.699742
9425.000000;0.699996
9424.000000;0.699989
9423.000000;0.699666
9422.000000;0.699209
9421.000000;0.698805
9420.000000;0.698484
9419.000000;0.698254
9418.000000;0.698253
9417.000000;0.698617
9416.000000;0.699239
9415.000000;0.699813
9414.000000;0.700118
9413.000000;0.700161
9412.000000;0.700027
9411.000000;0.699705
9410.000000;0.699157
9409.000000;0.698505
9408.000000;0.698036
9407.000000;0.697967
9406.000000;0.698247
9405.000000;0.698631
9404.000000;0.698922
9403.000000;0.699081
9402.000000;0.699119
9401.000000;0.699003
9400.000000;0.698741
9399.000000;0.698474
9398.000000;0.698376
9397.000000;0.698468
9396.000000;0.698609
9395.000000;0.698670
9394.000000;0.698628
9393.000000;0.698485
9392.000000;0.698232
9391.000000;0.697932
9390.000000;0.697748
9389.000000;0.697793
9388.000000;0.697996
9387.000000;0.698186
9386.000000;0.698266
9385.000000;0.698226
9384.000000;0.698073
9383.000000;0.697848
9382.000000;0.697692
9381.000000;0.697742
9380.000000;0.697916
9379.000000;0.697922
9378.000000;0.697569
9377.000000;0.697013
9376.000000;0.696585
9375.000000;0.696440
9374.000000;0.696474
9373.000000;0.696541
9372.000000;0.696616
9371.000000;0.696723
9370.000000;0.696819
9369.000000;0.696848
9368.000000;0.696834
9367.000000;0.696837
9366.000000;0.696861
9365.000000;0.696860
9364.000000;0.696822
9363.000000;0.696785
9362.000000;0.696772
9361.000000;0.696770
9360.000000;0.696753
9359.000000;0.696669
9358.000000;0.696452
9357.000000;0.696124
9356.000000;0.695867
9355.000000;0.695876
9354.000000;0.696111
9353.000000;0.696290
9352.000000;0.696196
9351.000000;0.695922
9350.000000;0.695738
9349.000000;0.695742
9348.000000;0.695777
9347.000000;0.695682
9346.000000;0.695514
9345.000000;0.695442
9344.000000;0.695483
9343.000000;0.695446
9342.000000;0.695183
9341.000000;0.694789
9340.000000;0.694501
9339.000000;0.694453
9338.000000;0.694622
9337.000000;0.694937
9336.000000;0.695310
9335.000000;0.695561
9334.000000;0.695489
9333.000000;0.695105
9332.000000;0.694691
9331.000000;0.694510
9330.000000;0.694537
9329.000000;0.694555
9328.000000;0.694455
9327.000000;0.694313
9326.000000;0.694226
9325.000000;0.694213
9324.000000;0.694249
9323.000000;0.694283
9322.000000;0.694219
9321.000000;0.693999
9320.000000;0.693726
9319.000000;0.693602
9318.000000;0.693702
9317.000000;0.693911
9316.000000;0.694084
9315.000000;0.694191
9314.000000;0.694278
9313.000000;0.694367
9312.000000;0.694444
9311.000000;0.694460
9310.000000;0.694329
9309.000000;0.694022
9308.000000;0.693686
9307.000000;0.693592
9306.000000;0.693867
9305.000000;0.694311
9304.000000;0.694537
9303.000000;0.694307
9302.000000;0.693732
9301.000000;0.693169
9300.000000;0.692914
9299.000000;0.692957
9298.000000;0.693023
9297.000000;0.692883
9296.000000;0.692598
9295.000000;0.692397
9294.000000;0.692368
9293.000000;0.692398
9292.000000;0.692389
9291.000000;0.692405
9290.000000;0.692513
9289.000000;0.692622
9288.000000;0.692559
9287.000000;0.692288
9286.000000;0.691956
9285.000000;0.691761
9284.000000;0.691802
9283.000000;0.692022
9282.000000;0.692257
9281.000000;0.692376
9280.000000;0.692375
9279.000000;0.692321
9278.000000;0.692224
9277.000000;0.692032
9276.000000;0.691753
9275.000000;0.691493
9274.000000;0.691333
9273.000000;0.691247
9272.000000;0.691187
9271.000000;0.691166
9270.000000;0.691211
9269.000000;0.691284
9268.000000;0.691315
9267.000000;0.691282
9266.000000;0.691230
9265.000000;0.691231
9264.000000;0.691322
9263.000000;0.691444
9262.000000;0.691440
9261.000000;0.691207
9260.000000;0.690849
9259.000000;0.690613
9258.000000;0.690616
9257.000000;0.690722
9256.000000;0.690730
9255.000000;0.690599
9254.000000;0.690440
9253.000000;0.690362
9252.000000;0.690388
9251.000000;0.690470
9250.000000;0.690525
9249.000000;0.690491
9248.000000;0.690412
9247.000000;0.690409
9246.000000;0.690534
9245.000000;0.690692
9244.000000;0.690742
9243.000000;0.690644
9242.000000;0.690465
9241.000000;0.690299
9240.000000;0.690215
9239.000000;0.690236
9238.000000;0.690281
9237.000000;0.690196
9236.000000;0.689890
9235.000000;0.689441
9234.000000;0.689006
9233.000000;0.688686
9232.000000;0.688482
9231.000000;0.688379
9230.000000;0.688391
9229.000000;0.688538
9228.000000;0.688800
9227.000000;0.689108
9226.000000;0.689370
9225.000000;0.689547
9224.000000;0.689692
9223.000000;0.689868
9222.000000;0.690025
9221.000000;0.690029
9220.000000;0.689837
9219.000000;0.689550
9218.000000;0.689280
9217.000000;0.689042
9216.000000;0.688823
9215.000000;0.688663
9214.000000;0.688606
9213.000000;0.688623
9212.000000;0.688649
9211.000000;0.688660
9210.000000;0.688635
9209.000000;0.688517
9208.000000;0.688293
9207.000000;0.688058
9206.000000;0.687926
9205.000000;0.687896
9204.000000;0.687869
9203.000000;0.687782
9202.000000;0.687670
9201.000000;0.687599
9200.000000;0.687605
9199.000000;0.687676
9198.000000;0.687761
9197.000000;0.687784
9196.000000;0.687701
9195.000000;0.687531
9194.000000;0.687314
9193.000000;0.687074
9192.000000;0.686835
9191.000000;0.686662
9190.000000;0.686626
9189.000000;0.686742
9188.000000;0.686960
9187.000000;0.687189
9186.000000;0.687350
9185.000000;0.687439
9184.000000;0.687527
9183.000000;0.687649
9182.000000;0.687699
9181.000000;0.687540
9180.000000;0.687235
9179.000000;0.687058
9178.000000;0.687193
9177.000000;0.687499
9176.000000;0.687673
9175.000000;0.687564
9174.000000;0.687244
9173.000000;0.686834
9172.000000;0.686401
9171.000000;0.686025
9170.000000;0.685821
9169.000000;0.685855
9168.000000;0.686100
9167.000000;0.686479
9166.000000;0.686865
9165.000000;0.687054
9164.000000;0.686856
9163.000000;0.686300
9162.000000;0.685681
9161.000000;0.685323
9160.000000;0.685300
9159.000000;0.685442
9158.000000;0.685582
9157.000000;0.685721
9156.000000;0.685928
9155.000000;0.686154
9154.000000;0.686241
9153.000000;0.686100
9152.000000;0.685821
9151.000000;0.685548
9150.000000;0.685316
9149.000000;0.685088
9148.000000;0.684920
9147.000000;0.684974
9146.000000;0.685323
9145.000000;0.685799
9144.000000;0.686114
9143.000000;0.686107
9142.000000;0.685842
9141.000000;0.685502
9140.000000;0.685240
9139.000000;0.685101
9138.000000;0.685028
9137.000000;0.684936
9136.000000;0.684806
9135.000000;0.684723
9134.000000;0.684767
9133.000000;0.684887
9132.000000;0.684909
9131.000000;0.684716
9130.000000;0.684385
9129.000000;0.684124
9128.000000;0.684081
9127.000000;0.684217
9126.000000;0.684392
9125.000000;0.684514
9124.000000;0.684581
9123.000000;0.684602
9122.000000;0.684540
9121.000000;0.684368
9120.000000;0.684125
9119.000000;0.683880
9118.000000;0.683679
9117.000000;0.683577
9116.000000;0.683649
9115.000000;0.683903
9114.000000;0.684189
9113.000000;0.684293
9112.000000;0.684121
9111.000000;0.683758
9110.000000;0.683362
9109.000000;0.683063
9108.000000;0.682960
9107.000000;0.683096
9106.000000;0.683380
9105.000000;0.683600
9104.000000;0.683573
9103.000000;0.683299
9102.000000;0.682966
9101.000000;0.682793
9100.000000;0.682844
9099.000000;0.682979
9098.000000;0.682999
9097.000000;0.682876
9096.000000;0.682777
9095.000000;0.682833
9094.000000;0.682945
9093.000000;0.682909
9092.000000;0.682671
9091.000000;0.682364
9090.000000;0.682126
9089.000000;0.682004
9088.000000;0.682012
9087.000000;0.682147
9086.000000;0.682327
9085.000000;0.682433
9084.000000;0.682460
9083.000000;0.682513
9082.000000;0.682630
9081.000000;0.682721
9080.000000;0.682699
9079.000000;0.682569
9078.000000;0.682338
9077.000000;0.681993
9076.000000;0.681628
9075.000000;0.681448
9074.000000;0.681532
9073.000000;0.681689
9072.000000;0.681679
9071.000000;0.681491
9070.000000;0.681284
9069.000000;0.681139
9068.000000;0.681014
9067.000000;0.680910
9066.000000;0.680915
9065.000000;0.681051
9064.000000;0.681206
9063.000000;0.681254
9062.000000;0.681186
9061.000000;0.681090
9060.000000;0.681054
9059.000000;0.681097
9058.000000;0.681164
9057.000000;0.681165
9056.000000;0.681066
9055.000000;0.680939
9054.000000;0.680892
9053.000000;0.680953
