Criado como novo conjunto de dados;"2706_e01_daniel.spp","9722.5 Secs"
cm-1;Abs
10000.000000;0.738382
9999.000000;0.738617
9998.000000;0.738138
9997.000000;0.736931
9996.000000;0.735583
9995.000000;0.734837
9994.000000;0.735242
9993.000000;0.736597
9992.000000;0.738007
9991.000000;0.738553
9990.000000;0.738083
9989.000000;0.737129
9988.000000;0.736204
9987.000000;0.735483
9986.000000;0.735039
9985.000000;0.734919
9984.000000;0.734972
9983.000000;0.734954
9982.000000;0.734901
9981.000000;0.735061
9980.000000;0.735409
9979.000000;0.735606
9978.000000;0.735525
9977.000000;0.735441
9976.000000;0.735563
9975.000000;0.735735
9974.000000;0.735757
9973.000000;0.735658
9972.000000;0.735493
9971.000000;0.735206
9970.000000;0.734857
9969.000000;0.734642
9968.000000;0.734509
9967.000000;0.734143
9966.000000;0.733561
9965.000000;0.733296
9964.000000;0.733661
9963.000000;0.734188
9962.000000;0.734232
9961.000000;0.733854
9960.000000;0.733656
9959.000000;0.733908
9958.000000;0.734322
9957.000000;0.734621
9956.000000;0.734868
9955.000000;0.735157
9954.000000;0.735352
9953.000000;0.735279
9952.000000;0.734980
9951.000000;0.734607
9950.000000;0.734205
9949.000000;0.733707
9948.000000;0.733078
9947.000000;0.732423
9946.000000;0.731940
9945.000000;0.731759
9944.000000;0.731807
9943.000000;0.731840
9942.000000;0.731657
9941.000000;0.731270
9940.000000;0.730912
9939.000000;0.730898
9938.000000;0.731387
9937.000000;0.732155
9936.000000;0.732683
9935.000000;0.732637
9934.000000;0.732213
9933.000000;0.731840
9932.000000;0.731613
9931.000000;0.731299
9930.000000;0.730845
9929.000000;0.730535
9928.000000;0.730574
9927.000000;0.730799
9926.000000;0.730941
9925.000000;0.730941
9924.000000;0.730885
9923.000000;0.730841
9922.000000;0.730898
9921.000000;0.731159
9920.000000;0.731543
9919.000000;0.731733
9918.000000;0.731485
9917.000000;0.730892
9916.000000;0.730320
9915.000000;0.730174
9914.000000;0.730676
9913.000000;0.731609
9912.000000;0.732278
9911.000000;0.732074
9910.000000;0.731148
9909.000000;0.730260
9908.000000;0.729869
9907.000000;0.729747
9906.000000;0.729565
9905.000000;0.729445
9904.000000;0.729665
9903.000000;0.730135
9902.000000;0.730494
9901.000000;0.730508
9900.000000;0.730163
9899.000000;0.729577
9898.000000;0.729088
9897.000000;0.729143
9896.000000;0.729794
9895.000000;0.730484
9894.000000;0.730656
9893.000000;0.730401
9892.000000;0.730180
9891.000000;0.730094
9890.000000;0.729809
9889.000000;0.729145
9888.000000;0.728338
9887.000000;0.727697
9886.000000;0.727327
9885.000000;0.727214
9884.000000;0.727289
9883.000000;0.727378
9882.000000;0.727322
9881.000000;0.727247
9880.000000;0.727467
9879.000000;0.728027
9878.000000;0.728517
9877.000000;0.728472
9876.000000;0.727857
9875.000000;0.727092
9874.000000;0.726659
9873.000000;0.726736
9872.000000;0.727085
9871.000000;0.727263
9870.000000;0.727006
9869.000000;0.726496
9868.000000;0.726225
9867.000000;0.726564
9866.000000;0.727448
9865.000000;0.728425
9864.000000;0.728981
9863.000000;0.728854
9862.000000;0.728198
9861.000000;0.727495
9860.000000;0.727244
9859.000000;0.727569
9858.000000;0.728043
9857.000000;0.727974
9856.000000;0.727057
9855.000000;0.725726
9854.000000;0.724752
9853.000000;0.724448
9852.000000;0.724463
9851.000000;0.724366
9850.000000;0.724208
9849.000000;0.724295
9848.000000;0.724652
9847.000000;0.725026
9846.000000;0.725311
9845.000000;0.725619
9844.000000;0.725926
9843.000000;0.725988
9842.000000;0.725702
9841.000000;0.725275
9840.000000;0.724927
9839.000000;0.724632
9838.000000;0.724264
9837.000000;0.723818
9836.000000;0.723412
9835.000000;0.723232
9834.000000;0.723497
9833.000000;0.724244
9832.000000;0.725076
9831.000000;0.725368
9830.000000;0.724880
9829.000000;0.724012
9828.000000;0.723346
9827.000000;0.723123
9826.000000;0.723265
9825.000000;0.723631
9824.000000;0.724075
9823.000000;0.724384
9822.000000;0.724407
9821.000000;0.724214
9820.000000;0.724016
9819.000000;0.723959
9818.000000;0.724042
9817.000000;0.724154
9816.000000;0.724158
9815.000000;0.724028
9814.000000;0.723896
9813.000000;0.723886
9812.000000;0.723915
9811.000000;0.723816
9810.000000;0.723616
9809.000000;0.723480
9808.000000;0.723394
9807.000000;0.723147
9806.000000;0.722663
9805.000000;0.722142
9804.000000;0.721822
9803.000000;0.721802
9802.000000;0.722114
9801.000000;0.722695
9800.000000;0.723222
9799.000000;0.723264
9798.000000;0.722757
9797.000000;0.722098
9796.000000;0.721668
9795.000000;0.721485
9794.000000;0.721434
9793.000000;0.721539
9792.000000;0.721811
9791.000000;0.722081
9790.000000;0.722189
9789.000000;0.722204
9788.000000;0.722257
9787.000000;0.722308
9786.000000;0.722238
9785.000000;0.722050
9784.000000;0.721823
9783.000000;0.721592
9782.000000;0.721376
9781.000000;0.721184
9780.000000;0.720925
9779.000000;0.720506
9778.000000;0.720091
9777.000000;0.720027
9776.000000;0.720371
9775.000000;0.720733
9774.000000;0.720763
9773.000000;0.720570
9772.000000;0.720457
9771.000000;0.720484
9770.000000;0.720527
9769.000000;0.720538
9768.000000;0.720478
9767.000000;0.720174
9766.000000;0.719565
9765.000000;0.718971
9764.000000;0.718821
9763.000000;0.719152
9762.000000;0.719625
9761.000000;0.719983
9760.000000;0.720208
9759.000000;0.720289
9758.000000;0.720125
9757.000000;0.719724
9756.000000;0.719268
9755.000000;0.718898
9754.000000;0.718589
9753.000000;0.718273
9752.000000;0.717970
9751.000000;0.717744
9750.000000;0.717637
9749.000000;0.717697
9748.000000;0.717985
9747.000000;0.718483
9746.000000;0.718996
9745.000000;0.719197
9744.000000;0.718872
9743.000000;0.718183
9742.000000;0.717664
9741.000000;0.717807
9740.000000;0.718580
9739.000000;0.719455
9738.000000;0.719907
9737.000000;0.719809
9736.000000;0.719357
9735.000000;0.718800
9734.000000;0.718331
9733.000000;0.718069
9732.000000;0.718001
9731.000000;0.718024
9730.000000;0.718112
9729.000000;0.718321
9728.000000;0.718610
9727.000000;0.718822
9726.000000;0.718892
9725.000000;0.718878
9724.000000;0.718732
9723.000000;0.718282
9722.000000;0.717604
9721.000000;0.717134
9720.000000;0.717199
9719.000000;0.717573
9718.000000;0.717766
9717.000000;0.717634
9716.000000;0.717441
9715.000000;0.717419
9714.000000;0.717519
9713.000000;0.717588
9712.000000;0.717560
9711.000000;0.717429
9710.000000;0.717209
9709.000000;0.716971
9708.000000;0.716806
9707.000000;0.716738
9706.000000;0.716732
9705.000000;0.716762
9704.000000;0.716760
9703.000000;0.716564
9702.000000;0.716080
9701.000000;0.715496
9700.000000;0.715179
9699.000000;0.715299
9698.000000;0.715648
9697.000000;0.715881
9696.000000;0.715873
9695.000000;0.715784
9694.000000;0.715815
9693.000000;0.715972
9692.000000;0.716090
9691.000000;0.716042
9690.000000;0.715838
9689.000000;0.715546
9688.000000;0.715216
9687.000000;0.714953
9686.000000;0.714933
9685.000000;0.715200
9684.000000;0.715506
9683.000000;0.715533
9682.000000;0.715274
9681.000000;0.715015
9680.000000;0.714919
9679.000000;0.714843
9678.000000;0.714612
9677.000000;0.714302
9676.000000;0.714123
9675.000000;0.714171
9674.000000;0.714363
9673.000000;0.714541
9672.000000;0.714558
9671.000000;0.714391
9670.000000;0.714227
9669.000000;0.714296
9668.000000;0.714568
9667.000000;0.714719
9666.000000;0.714503
9665.000000;0.714041
9664.000000;0.713652
9663.000000;0.713537
9662.000000;0.713684
9661.000000;0.713951
9660.000000;0.714160
9659.000000;0.714205
9658.000000;0.714153
9657.000000;0.714156
9656.000000;0.714196
9655.000000;0.714081
9654.000000;0.713752
9653.000000;0.713457
9652.000000;0.713438
9651.000000;0.713604
9650.000000;0.713640
9649.000000;0.713389
9648.000000;0.712980
9647.000000;0.712658
9646.000000;0.712597
9645.000000;0.712820
9644.000000;0.713180
9643.000000;0.713436
9642.000000;0.713440
9641.000000;0.713252
9640.000000;0.713048
9639.000000;0.712980
9638.000000;0.713121
9637.000000;0.713406
9636.000000;0.713599
9635.000000;0.713447
9634.000000;0.712972
9633.000000;0.712512
9632.000000;0.712387
9631.000000;0.712590
9630.000000;0.712846
9629.000000;0.712858
9628.000000;0.712455
9627.000000;0.711715
9626.000000;0.711029
9625.000000;0.710893
9624.000000;0.711430
9623.000000;0.712207
9622.000000;0.712653
9621.000000;0.712580
9620.000000;0.712200
9619.000000;0.711742
9618.000000;0.711258
9617.000000;0.710736
9616.000000;0.710228
9615.000000;0.709861
9614.000000;0.709808
9613.000000;0.710195
9612.000000;0.710928
9611.000000;0.711633
9610.000000;0.711902
9609.000000;0.711608
9608.000000;0.710950
9607.000000;0.710262
9606.000000;0.709858
9605.000000;0.709937
9604.000000;0.710457
9603.000000;0.711092
9602.000000;0.711469
9601.000000;0.711459
9600.000000;0.711194
9599.000000;0.710846
9598.000000;0.710519
9597.000000;0.710307
9596.000000;0.710287
9595.000000;0.710390
9594.000000;0.710397
9593.000000;0.710142
9592.000000;0.709686
9591.000000;0.709259
9590.000000;0.709065
9589.000000;0.709167
9588.000000;0.709498
9587.000000;0.709920
9586.000000;0.710270
9585.000000;0.710436
9584.000000;0.710416
9583.000000;0.710303
9582.000000;0.710169
9581.000000;0.710006
9580.000000;0.709798
9579.000000;0.709603
9578.000000;0.709464
9577.000000;0.709283
9576.000000;0.708926
9575.000000;0.708502
9574.000000;0.708366
9573.000000;0.708716
9572.000000;0.709284
9571.000000;0.709587
9570.000000;0.709421
9569.000000;0.708977
9568.000000;0.708543
9567.000000;0.708259
9566.000000;0.708117
9565.000000;0.708012
9564.000000;0.707798
9563.000000;0.707441
9562.000000;0.707133
9561.000000;0.707117
9560.000000;0.707389
9559.000000;0.707719
9558.000000;0.707939
9557.000000;0.708026
9556.000000;0.707930
9555.000000;0.707573
9554.000000;0.707083
9553.000000;0.706799
9552.000000;0.706898
9551.000000;0.707170
9550.000000;0.707302
9549.000000;0.707260
9548.000000;0.707246
9547.000000;0.707355
9546.000000;0.707444
9545.000000;0.707339
9544.000000;0.707074
9543.000000;0.706899
9542.000000;0.707075
9541.000000;0.707612
9540.000000;0.708200
9539.000000;0.708434
9538.000000;0.708155
9537.000000;0.707549
9536.000000;0.706948
9535.000000;0.706587
9534.000000;0.706517
9533.000000;0.706626
9532.000000;0.706740
9531.000000;0.706750
9530.000000;0.706663
9529.000000;0.706477
9528.000000;0.706128
9527.000000;0.705656
9526.000000;0.705327
9525.000000;0.705421
9524.000000;0.705908
9523.000000;0.706485
9522.000000;0.706884
9521.000000;0.707006
9520.000000;0.706800
9519.000000;0.706261
9518.000000;0.705567
9517.000000;0.705003
9516.000000;0.704695
9515.000000;0.704560
9514.000000;0.704532
9513.000000;0.704650
9512.000000;0.704880
9511.000000;0.705072
9510.000000;0.705141
9509.000000;0.705144
9508.000000;0.705113
9507.000000;0.705005
9506.000000;0.704832
9505.000000;0.704683
9504.000000;0.704529
9503.000000;0.704231
9502.000000;0.703809
9501.000000;0.703510
9500.000000;0.703497
9499.000000;0.703657
9498.000000;0.703818
9497.000000;0.703954
9496.000000;0.704074
9495.000000;0.704068
9494.000000;0.703847
9493.000000;0.703522
9492.000000;0.703295
9491.000000;0.703282
9490.000000;0.703511
9489.000000;0.703944
9488.000000;0.704371
9487.000000;0.704461
9486.000000;0.704096
9485.000000;0.703555
9484.000000;0.703219
9483.000000;0.703181
9482.000000;0.703271
9481.000000;0.703334
9480.000000;0.703346
9479.000000;0.703322
9478.000000;0.703275
9477.000000;0.703250
9476.000000;0.703263
9475.000000;0.703250
9474.000000;0.703143
9473.000000;0.702954
9472.000000;0.702703
9471.000000;0.702387
9470.000000;0.702066
9469.000000;0.701897
9468.000000;0.701955
9467.000000;0.702145
9466.000000;0.702358
9465.000000;0.702611
9464.000000;0.702905
9463.000000;0.703070
9462.000000;0.702935
9461.000000;0.702578
9460.000000;0.702251
9459.000000;0.702106
9458.000000;0.702119
9457.000000;0.702258
9456.000000;0.702526
9455.000000;0.702852
9454.000000;0.703059
9453.000000;0.703004
9452.000000;0.702690
9451.000000;0.702247
9450.000000;0.701844
9449.000000;0.701603
9448.000000;0.701550
9447.000000;0.701614
9446.000000;0.701691
9445.000000;0.701695
9444.000000;0.701566
9443.000000;0.701305
9442.000000;0.701037
9441.000000;0.700949
9440.000000;0.701106
9439.000000;0.701375
9438.000000;0.701558
9437.000000;0.701518
9436.000000;0.701205
9435.000000;0.700672
9434.000000;0.700136
9433.000000;0.699879
9432.000000;0.699995
9431.000000;0.700294
9430.000000;0.700555
9429.000000;0.700752
9428.000000;0.700953
9427.000000;0.701108
9426.000000;0.701083
9425.000000;0.700867
9424.000000;0.700586
9423.000000;0.700343
9422.000000;0.700157
9421.000000;0.700059
9420.000000;0.700127
9419.000000;0.700385
9418.000000;0.700715
9417.000000;0.700918
9416.000000;0.700849
9415.000000;0.700525
9414.000000;0.700113
9413.000000;0.699806
9412.000000;0.699688
9411.000000;0.699711
9410.000000;0.699799
9409.000000;0.699909
9408.000000;0.700011
9407.000000;0.700070
9406.000000;0.700057
9405.000000;0.699940
9404.000000;0.699682
9403.000000;0.699327
9402.000000;0.699043
9401.000000;0.698961
9400.000000;0.698969
9399.000000;0.698835
9398.000000;0.698533
9397.000000;0.698296
9396.000000;0.698291
9395.000000;0.698416
9394.000000;0.698497
9393.000000;0.698530
9392.000000;0.698554
9391.000000;0.698478
9390.000000;0.698211
9389.000000;0.697895
9388.000000;0.697791
9387.000000;0.697945
9386.000000;0.698158
9385.000000;0.698277
9384.000000;0.698371
9383.000000;0.698542
9382.000000;0.698721
9381.000000;0.698748
9380.000000;0.698592
9379.000000;0.698398
9378.000000;0.698325
9377.000000;0.698373
9376.000000;0.698380
9375.000000;0.698195
9374.000000;0.697861
9373.000000;0.697630
9372.000000;0.697737
9371.000000;0.698141
9370.000000;0.698494
9369.000000;0.698431
9368.000000;0.697910
9367.000000;0.697251
9366.000000;0.696853
9365.000000;0.696865
9364.000000;0.697118
9363.000000;0.697347
9362.000000;0.697431
9361.000000;0.697441
9360.000000;0.697478
9359.000000;0.697532
9358.000000;0.697487
9357.000000;0.697268
9356.000000;0.696986
9355.000000;0.696870
9354.000000;0.697024
9353.000000;0.697264
9352.000000;0.697313
9351.000000;0.697124
9350.000000;0.696897
9349.000000;0.696754
9348.000000;0.696592
9347.000000;0.696322
9346.000000;0.696067
9345.000000;0.695948
9344.000000;0.695830
9343.000000;0.695506
9342.000000;0.695059
9341.000000;0.694792
9340.000000;0.694829
9339.000000;0.694978
9338.000000;0.695043
9337.000000;0.695044
9336.000000;0.695074
9335.000000;0.695111
9334.000000;0.695072
9333.000000;0.694936
9332.000000;0.694732
9331.000000;0.694500
9330.000000;0.694332
9329.000000;0.694344
9328.000000;0.694540
9327.000000;0.694794
9326.000000;0.695013
9325.000000;0.695238
9324.000000;0.695527
9323.000000;0.695809
9322.000000;0.695931
9321.000000;0.695794
9320.000000;0.695431
9319.000000;0.695000
9318.000000;0.694705
9317.000000;0.694652
9316.000000;0.694753
9315.000000;0.694850
9314.000000;0.694934
9313.000000;0.695132
9312.000000;0.695453
9311.000000;0.695692
9310.000000;0.695639
9309.000000;0.695318
9308.000000;0.694946
9307.000000;0.694731
9306.000000;0.694755
9305.000000;0.694955
9304.000000;0.695147
9303.000000;0.695132
9302.000000;0.694865
9301.000000;0.694496
9300.000000;0.694215
9299.000000;0.694075
9298.000000;0.693995
9297.000000;0.693893
9296.000000;0.693790
9295.000000;0.693794
9294.000000;0.693973
9293.000000;0.694225
9292.000000;0.694290
9291.000000;0.693970
9290.000000;0.693361
9289.000000;0.692809
9288.000000;0.692630
9287.000000;0.692891
9286.000000;0.693401
9285.000000;0.693855
9284.000000;0.694007
9283.000000;0.693820
9282.000000;0.693454
9281.000000;0.693091
9280.000000;0.692797
9279.000000;0.692584
9278.000000;0.692504
9277.000000;0.692567
9276.000000;0.692634
9275.000000;0.692560
9274.000000;0.692420
9273.000000;0.692429
9272.000000;0.692624
9271.000000;0.692777
9270.000000;0.692676
9269.000000;0.692366
9268.000000;0.692053
9267.000000;0.691878
9266.000000;0.691836
9265.000000;0.691827
9264.000000;0.691729
9263.000000;0.691499
9262.000000;0.691261
9261.000000;0.691218
9260.000000;0.691454
9259.000000;0.691839
9258.000000;0.692143
9257.000000;0.692206
9256.000000;0.692021
9255.000000;0.691724
9254.000000;0.691493
9253.000000;0.691385
9252.000000;0.691294
9251.000000;0.691131
9250.000000;0.690970
9249.000000;0.690915
9248.000000;0.690872
9247.000000;0.690649
9246.000000;0.690272
9245.000000;0.690017
9244.000000;0.690086
9243.000000;0.690397
9242.000000;0.690730
9241.000000;0.690945
9240.000000;0.691008
9239.000000;0.690919
9238.000000;0.690728
9237.000000;0.690513
9236.000000;0.690303
9235.000000;0.690084
9234.000000;0.689894
9233.000000;0.689820
9232.000000;0.689879
9231.000000;0.689986
9230.000000;0.690087
9229.000000;0.690195
9228.000000;0.690285
9227.000000;0.690274
9226.000000;0.690157
9225.000000;0.690050
9224.000000;0.690007
9223.000000;0.689942
9222.000000;0.689779
9221.000000;0.689606
9220.000000;0.689536
9219.000000;0.689514
9218.000000;0.689371
9217.000000;0.689057
9216.000000;0.688755
9215.000000;0.688713
9214.000000;0.688995
9213.000000;0.689379
9212.000000;0.689536
9211.000000;0.689340
9210.000000;0.688980
9209.000000;0.688732
9208.000000;0.688661
9207.000000;0.688654
9206.000000;0.688659
9205.000000;0.688734
9204.000000;0.688845
9203.000000;0.688813
9202.000000;0.688519
9201.000000;0.688082
9200.000000;0.687754
9199.000000;0.687710
9198.000000;0.687949
9197.000000;0.688311
9196.000000;0.688532
9195.000000;0.688420
9194.000000;0.688046
9193.000000;0.687700
9192.000000;0.687612
9191.000000;0.687749
9190.000000;0.687918
9189.000000;0.687979
9188.000000;0.687923
9187.000000;0.687810
9186.000000;0.687716
9185.000000;0.687689
9184.000000;0.687728
9183.000000;0.687802
9182.000000;0.687885
9181.000000;0.687942
9180.000000;0.687914
9179.000000;0.687763
9178.000000;0.687538
9177.000000;0.687333
9176.000000;0.687207
9175.000000;0.687184
9174.000000;0.687270
9173.000000;0.687383
9172.000000;0.687332
9171.000000;0.687012
9170.000000;0.686589
9169.000000;0.686354
9168.000000;0.686403
9167.000000;0.686594
9166.000000;0.686777
9165.000000;0.686929
9164.000000;0.687044
9163.000000;0.687077
9162.000000;0.687045
9161.000000;0.687034
9160.000000;0.687042
9159.000000;0.686933
9158.000000;0.686604
9157.000000;0.686121
9156.000000;0.685650
9155.000000;0.685357
9154.000000;0.685387
9153.000000;0.685799
9152.000000;0.686447
9151.000000;0.687024
9150.000000;0.687312
9149.000000;0.687320
9148.000000;0.687143
9147.000000;0.686823
9146.000000;0.686403
9145.000000;0.686010
9144.000000;0.685766
9143.000000;0.685671
9142.000000;0.685649
9141.000000;0.685652
9140.000000;0.685665
9139.000000;0.685665
9138.000000;0.685622
9137.000000;0.685531
9136.000000;0.685415
9135.000000;0.685337
9134.000000;0.685381
9133.000000;0.685544
9132.000000;0.685673
9131.000000;0.685616
9130.000000;0.685410
9129.000000;0.685224
9128.000000;0.685120
9127.000000;0.685002
9126.000000;0.684801
9125.000000;0.684566
9124.000000;0.684339
9123.000000;0.684118
9122.000000;0.683973
9121.000000;0.684037
9120.000000;0.684300
9119.000000;0.684540
9118.000000;0.684569
9117.000000;0.684434
9116.000000;0.684278
9115.000000;0.684149
9114.000000;0.684059
9113.000000;0.684101
9112.000000;0.684341
9111.000000;0.684663
9110.000000;0.684854
9109.000000;0.684849
9108.000000;0.684783
9107.000000;0.684793
9106.000000;0.684872
9105.000000;0.684889
9104.000000;0.684716
9103.000000;0.684340
9102.000000;0.683900
9101.000000;0.683590
9100.000000;0.683474
9099.000000;0.683427
9098.000000;0.683299
9097.000000;0.683112
9096.000000;0.683023
9095.000000;0.683111
9094.000000;0.683258
9093.000000;0.683248
9092.000000;0.682972
9091.000000;0.682548
9090.000000;0.682232
9089.000000;0.682188
9088.000000;0.682361
9087.000000;0.682586
9086.000000;0.682781
9085.000000;0.682971
9084.000000;0.683150
9083.000000;0.683238
9082.000000;0.683202
9081.000000;0.683106
9080.000000;0.683015
9079.000000;0.682900
9078.000000;0.682707
9077.000000;0.682443
9076.000000;0.682155
9075.000000;0.681890
9074.000000;0.681724
9073.000000;0.681768
9072.000000;0.682064
9071.000000;0.682469
9070.000000;0.682710
9069.000000;0.682583
9068.000000;0.682128
9067.000000;0.681612
9066.000000;0.681328
9065.000000;0.681368
9064.000000;0.681594
9063.000000;0.681816
9062.000000;0.681969
9061.000000;0.682081
9060.000000;0.682147
9059.000000;0.682114
9058.000000;0.681981
9057.000000;0.681817
9056.000000;0.681691
9055.000000;0.681649
9054.000000;0.681714
9053.000000;0.681850
