Criado como novo conjunto de dados;"2706_e01_daniel.spp","98287.9 Secs"
cm-1;Abs
10000.000000;0.865030
9999.000000;0.864379
9998.000000;0.863707
9997.000000;0.862950
9996.000000;0.862273
9995.000000;0.862090
9994.000000;0.862545
9993.000000;0.863267
9992.000000;0.863771
9991.000000;0.863881
9990.000000;0.863663
9989.000000;0.863173
9988.000000;0.862483
9987.000000;0.861773
9986.000000;0.861204
9985.000000;0.860780
9984.000000;0.860495
9983.000000;0.860507
9982.000000;0.860962
9981.000000;0.861689
9980.000000;0.862274
9979.000000;0.862497
9978.000000;0.862503
9977.000000;0.862497
9976.000000;0.862443
9975.000000;0.862195
9974.000000;0.861796
9973.000000;0.861475
9972.000000;0.861365
9971.000000;0.861389
9970.000000;0.861441
9969.000000;0.861559
9968.000000;0.861825
9967.000000;0.862196
9966.000000;0.862474
9965.000000;0.862424
9964.000000;0.861894
9963.000000;0.860979
9962.000000;0.860137
9961.000000;0.859932
9960.000000;0.860441
9959.000000;0.861009
9958.000000;0.860861
9957.000000;0.859990
9956.000000;0.859180
9955.000000;0.859100
9954.000000;0.859626
9953.000000;0.860160
9952.000000;0.860359
9951.000000;0.860299
9950.000000;0.860101
9949.000000;0.859686
9948.000000;0.858945
9947.000000;0.857971
9946.000000;0.857095
9945.000000;0.856735
9944.000000;0.857116
9943.000000;0.857996
9942.000000;0.858730
9941.000000;0.858801
9940.000000;0.858298
9939.000000;0.857759
9938.000000;0.857617
9937.000000;0.857928
9936.000000;0.858526
9935.000000;0.859193
9934.000000;0.859634
9933.000000;0.859534
9932.000000;0.858800
9931.000000;0.857671
9930.000000;0.856529
9929.000000;0.855714
9928.000000;0.855476
9927.000000;0.855894
9926.000000;0.856711
9925.000000;0.857400
9924.000000;0.857579
9923.000000;0.857355
9922.000000;0.857146
9921.000000;0.857223
9920.000000;0.857473
9919.000000;0.857572
9918.000000;0.857284
9917.000000;0.856623
9916.000000;0.855845
9915.000000;0.855292
9914.000000;0.855157
9913.000000;0.855355
9912.000000;0.855657
9911.000000;0.855934
9910.000000;0.856227
9909.000000;0.856545
9908.000000;0.856705
9907.000000;0.856501
9906.000000;0.856013
9905.000000;0.855629
9904.000000;0.855657
9903.000000;0.855982
9902.000000;0.856194
9901.000000;0.856022
9900.000000;0.855537
9899.000000;0.854946
9898.000000;0.854357
9897.000000;0.853815
9896.000000;0.853441
9895.000000;0.853384
9894.000000;0.853641
9893.000000;0.854030
9892.000000;0.854349
9891.000000;0.854554
9890.000000;0.854759
9889.000000;0.855063
9888.000000;0.855340
9887.000000;0.855258
9886.000000;0.854593
9885.000000;0.853559
9884.000000;0.852722
9883.000000;0.852496
9882.000000;0.852769
9881.000000;0.853053
9880.000000;0.852958
9879.000000;0.852474
9878.000000;0.851878
9877.000000;0.851480
9876.000000;0.851431
9875.000000;0.851699
9874.000000;0.852140
9873.000000;0.852593
9872.000000;0.852855
9871.000000;0.852691
9870.000000;0.852021
9869.000000;0.851135
9868.000000;0.850549
9867.000000;0.850503
9866.000000;0.850702
9865.000000;0.850669
9864.000000;0.850283
9863.000000;0.849878
9862.000000;0.849880
9861.000000;0.850432
9860.000000;0.851289
9859.000000;0.851978
9858.000000;0.852146
9857.000000;0.851863
9856.000000;0.851548
9855.000000;0.851499
9854.000000;0.851603
9853.000000;0.851560
9852.000000;0.851278
9851.000000;0.850891
9850.000000;0.850533
9849.000000;0.850291
9848.000000;0.850296
9847.000000;0.850599
9846.000000;0.850973
9845.000000;0.851083
9844.000000;0.850906
9843.000000;0.850792
9842.000000;0.851023
9841.000000;0.851458
9840.000000;0.851674
9839.000000;0.851407
9838.000000;0.850820
9837.000000;0.850396
9836.000000;0.850522
9835.000000;0.851090
9834.000000;0.851539
9833.000000;0.851397
9832.000000;0.850726
9831.000000;0.849935
9830.000000;0.849279
9829.000000;0.848741
9828.000000;0.848320
9827.000000;0.848144
9826.000000;0.848284
9825.000000;0.848658
9824.000000;0.849173
9823.000000;0.849737
9822.000000;0.850124
9821.000000;0.850079
9820.000000;0.849655
9819.000000;0.849223
9818.000000;0.849036
9817.000000;0.848973
9816.000000;0.848803
9815.000000;0.848508
9814.000000;0.848208
9813.000000;0.847930
9812.000000;0.847671
9811.000000;0.847550
9810.000000;0.847725
9809.000000;0.848193
9808.000000;0.848768
9807.000000;0.849213
9806.000000;0.849321
9805.000000;0.849010
9804.000000;0.848471
9803.000000;0.848066
9802.000000;0.847950
9801.000000;0.847896
9800.000000;0.847632
9799.000000;0.847234
9798.000000;0.847011
9797.000000;0.847054
9796.000000;0.847134
9795.000000;0.847038
9794.000000;0.846816
9793.000000;0.846614
9792.000000;0.846417
9791.000000;0.846080
9790.000000;0.845599
9789.000000;0.845237
9788.000000;0.845313
9787.000000;0.845849
9786.000000;0.846510
9785.000000;0.846928
9784.000000;0.846997
9783.000000;0.846795
9782.000000;0.846359
9781.000000;0.845769
9780.000000;0.845367
9779.000000;0.845517
9778.000000;0.846065
9777.000000;0.846385
9776.000000;0.846156
9775.000000;0.845817
9774.000000;0.845944
9773.000000;0.846416
9772.000000;0.846590
9771.000000;0.846190
9770.000000;0.845629
9769.000000;0.845403
9768.000000;0.845494
9767.000000;0.845493
9766.000000;0.845106
9765.000000;0.844406
9764.000000;0.843743
9763.000000;0.843483
9762.000000;0.843694
9761.000000;0.844022
9760.000000;0.843996
9759.000000;0.843516
9758.000000;0.842925
9757.000000;0.842590
9756.000000;0.842568
9755.000000;0.842703
9754.000000;0.842873
9753.000000;0.843025
9752.000000;0.843120
9751.000000;0.843152
9750.000000;0.843185
9749.000000;0.843288
9748.000000;0.843477
9747.000000;0.843710
9746.000000;0.843880
9745.000000;0.843838
9744.000000;0.843571
9743.000000;0.843331
9742.000000;0.843393
9741.000000;0.843650
9740.000000;0.843691
9739.000000;0.843370
9738.000000;0.843073
9737.000000;0.843233
9736.000000;0.843789
9735.000000;0.844307
9734.000000;0.844520
9733.000000;0.844505
9732.000000;0.844414
9731.000000;0.844275
9730.000000;0.844026
9729.000000;0.843581
9728.000000;0.842898
9727.000000;0.842127
9726.000000;0.841629
9725.000000;0.841655
9724.000000;0.842029
9723.000000;0.842334
9722.000000;0.842388
9721.000000;0.842337
9720.000000;0.842308
9719.000000;0.842233
9718.000000;0.842092
9717.000000;0.842053
9716.000000;0.842189
9715.000000;0.842259
9714.000000;0.841978
9713.000000;0.841427
9712.000000;0.841008
9711.000000;0.840990
9710.000000;0.841239
9709.000000;0.841396
9708.000000;0.841235
9707.000000;0.840851
9706.000000;0.840532
9705.000000;0.840435
9704.000000;0.840402
9703.000000;0.840124
9702.000000;0.839503
9701.000000;0.838828
9700.000000;0.838554
9699.000000;0.838953
9698.000000;0.839904
9697.000000;0.840898
9696.000000;0.841325
9695.000000;0.840954
9694.000000;0.840191
9693.000000;0.839673
9692.000000;0.839603
9691.000000;0.839682
9690.000000;0.839709
9689.000000;0.839901
9688.000000;0.840418
9687.000000;0.840878
9686.000000;0.840732
9685.000000;0.840001
9684.000000;0.839222
9683.000000;0.838725
9682.000000;0.838335
9681.000000;0.837855
9680.000000;0.837472
9679.000000;0.837494
9678.000000;0.837903
9677.000000;0.838376
9676.000000;0.838644
9675.000000;0.838677
9674.000000;0.838610
9673.000000;0.838605
9672.000000;0.838715
9671.000000;0.838804
9670.000000;0.838645
9669.000000;0.838151
9668.000000;0.837454
9667.000000;0.836745
9666.000000;0.836153
9665.000000;0.835812
9664.000000;0.835839
9663.000000;0.836154
9662.000000;0.836460
9661.000000;0.836535
9660.000000;0.836472
9659.000000;0.836533
9658.000000;0.836861
9657.000000;0.837432
9656.000000;0.838141
9655.000000;0.838779
9654.000000;0.839023
9653.000000;0.838700
9652.000000;0.838036
9651.000000;0.837487
9650.000000;0.837285
9649.000000;0.837284
9648.000000;0.837258
9647.000000;0.837184
9646.000000;0.837160
9645.000000;0.837191
9644.000000;0.837157
9643.000000;0.836955
9642.000000;0.836584
9641.000000;0.836098
9640.000000;0.835573
9639.000000;0.835139
9638.000000;0.834957
9637.000000;0.835068
9636.000000;0.835289
9635.000000;0.835345
9634.000000;0.835154
9633.000000;0.834907
9632.000000;0.834833
9631.000000;0.834946
9630.000000;0.835122
9629.000000;0.835338
9628.000000;0.835686
9627.000000;0.836168
9626.000000;0.836617
9625.000000;0.836872
9624.000000;0.836889
9623.000000;0.836670
9622.000000;0.836206
9621.000000;0.835570
9620.000000;0.834932
9619.000000;0.834434
9618.000000;0.834144
9617.000000;0.834149
9616.000000;0.834507
9615.000000;0.835009
9614.000000;0.835191
9613.000000;0.834789
9612.000000;0.834127
9611.000000;0.833846
9610.000000;0.834274
9609.000000;0.835131
9608.000000;0.835825
9607.000000;0.835932
9606.000000;0.835458
9605.000000;0.834743
9604.000000;0.834123
9603.000000;0.833646
9602.000000;0.833162
9601.000000;0.832678
9600.000000;0.832442
9599.000000;0.832584
9598.000000;0.832873
9597.000000;0.833029
9596.000000;0.833139
9595.000000;0.833506
9594.000000;0.834133
9593.000000;0.834650
9592.000000;0.834770
9591.000000;0.834576
9590.000000;0.834273
9589.000000;0.833905
9588.000000;0.833448
9587.000000;0.833025
9586.000000;0.832830
9585.000000;0.832899
9584.000000;0.833082
9583.000000;0.833189
9582.000000;0.833117
9581.000000;0.832865
9580.000000;0.832524
9579.000000;0.832223
9578.000000;0.832029
9577.000000;0.831915
9576.000000;0.831853
9575.000000;0.831894
9574.000000;0.832101
9573.000000;0.832414
9572.000000;0.832648
9571.000000;0.832642
9570.000000;0.832406
9569.000000;0.832114
9568.000000;0.831939
9567.000000;0.831904
9566.000000;0.831893
9565.000000;0.831804
9564.000000;0.831641
9563.000000;0.831429
9562.000000;0.831116
9561.000000;0.830640
9560.000000;0.830082
9559.000000;0.829654
9558.000000;0.829521
9557.000000;0.829650
9556.000000;0.829850
9555.000000;0.829934
9554.000000;0.829871
9553.000000;0.829781
9552.000000;0.829805
9551.000000;0.829973
9550.000000;0.830201
9549.000000;0.830400
9548.000000;0.830537
9547.000000;0.830614
9546.000000;0.830660
9545.000000;0.830734
9544.000000;0.830830
9543.000000;0.830789
9542.000000;0.830464
9541.000000;0.829985
9540.000000;0.829680
9539.000000;0.829663
9538.000000;0.829671
9537.000000;0.829451
9536.000000;0.829102
9535.000000;0.828878
9534.000000;0.828797
9533.000000;0.828703
9532.000000;0.828588
9531.000000;0.828578
9530.000000;0.828657
9529.000000;0.828672
9528.000000;0.828615
9527.000000;0.828648
9526.000000;0.828795
9525.000000;0.828853
9524.000000;0.828693
9523.000000;0.828446
9522.000000;0.828311
9521.000000;0.828319
9520.000000;0.828379
9519.000000;0.828377
9518.000000;0.828199
9517.000000;0.827806
9516.000000;0.827381
9515.000000;0.827236
9514.000000;0.827454
9513.000000;0.827758
9512.000000;0.827828
9511.000000;0.827633
9510.000000;0.827373
9509.000000;0.827225
9508.000000;0.827224
9507.000000;0.827299
9506.000000;0.827306
9505.000000;0.827142
9504.000000;0.826904
9503.000000;0.826828
9502.000000;0.827011
9501.000000;0.827298
9500.000000;0.827501
9499.000000;0.827563
9498.000000;0.827447
9497.000000;0.827083
9496.000000;0.826565
9495.000000;0.826204
9494.000000;0.826145
9493.000000;0.826098
9492.000000;0.825738
9491.000000;0.825265
9490.000000;0.825249
9489.000000;0.825883
9488.000000;0.826675
9487.000000;0.826989
9486.000000;0.826667
9485.000000;0.826007
9484.000000;0.825356
9483.000000;0.824929
9482.000000;0.824889
9481.000000;0.825327
9480.000000;0.826100
9479.000000;0.826843
9478.000000;0.827226
9477.000000;0.827179
9476.000000;0.826855
9475.000000;0.826434
9474.000000;0.826010
9473.000000;0.825598
9472.000000;0.825200
9471.000000;0.824834
9470.000000;0.824569
9469.000000;0.824507
9468.000000;0.824680
9467.000000;0.824936
9466.000000;0.824978
9465.000000;0.824623
9464.000000;0.824024
9463.000000;0.823592
9462.000000;0.823646
9461.000000;0.824143
9460.000000;0.824709
9459.000000;0.824938
9458.000000;0.824696
9457.000000;0.824205
9456.000000;0.823810
9455.000000;0.823644
9454.000000;0.823564
9453.000000;0.823424
9452.000000;0.823314
9451.000000;0.823398
9450.000000;0.823602
9449.000000;0.823651
9448.000000;0.823415
9447.000000;0.823060
9446.000000;0.822801
9445.000000;0.822684
9444.000000;0.822660
9443.000000;0.822712
9442.000000;0.822792
9441.000000;0.822768
9440.000000;0.822574
9439.000000;0.822311
9438.000000;0.822096
9437.000000;0.821898
9436.000000;0.821661
9435.000000;0.821481
9434.000000;0.821494
9433.000000;0.821658
9432.000000;0.821802
9431.000000;0.821884
9430.000000;0.822006
9429.000000;0.822191
9428.000000;0.822321
9427.000000;0.822336
9426.000000;0.822356
9425.000000;0.822490
9424.000000;0.822655
9423.000000;0.822665
9422.000000;0.822465
9421.000000;0.822203
9420.000000;0.822074
9419.000000;0.822145
9418.000000;0.822313
9417.000000;0.822391
9416.000000;0.822252
9415.000000;0.821915
9414.000000;0.821522
9413.000000;0.821259
9412.000000;0.821266
9411.000000;0.821532
9410.000000;0.821833
9409.000000;0.821857
9408.000000;0.821498
9407.000000;0.820990
9406.000000;0.820676
9405.000000;0.820666
9404.000000;0.820773
9403.000000;0.820763
9402.000000;0.820566
9401.000000;0.820260
9400.000000;0.819968
9399.000000;0.819794
9398.000000;0.819741
9397.000000;0.819691
9396.000000;0.819556
9395.000000;0.819469
9394.000000;0.819696
9393.000000;0.820298
9392.000000;0.820975
9391.000000;0.821356
9390.000000;0.821359
9389.000000;0.821209
9388.000000;0.821125
9387.000000;0.821105
9386.000000;0.820982
9385.000000;0.820609
9384.000000;0.819989
9383.000000;0.819282
9382.000000;0.818707
9381.000000;0.818420
9380.000000;0.818460
9379.000000;0.818792
9378.000000;0.819326
9377.000000;0.819875
9376.000000;0.820158
9375.000000;0.819977
9374.000000;0.819400
9373.000000;0.818724
9372.000000;0.818242
9371.000000;0.818059
9370.000000;0.818103
9369.000000;0.818268
9368.000000;0.818481
9367.000000;0.818663
9366.000000;0.818673
9365.000000;0.818367
9364.000000;0.817767
9363.000000;0.817135
9362.000000;0.816802
9361.000000;0.816868
9360.000000;0.817111
9359.000000;0.817227
9358.000000;0.817125
9357.000000;0.816961
9356.000000;0.816915
9355.000000;0.816994
9354.000000;0.817046
9353.000000;0.816910
9352.000000;0.816555
9351.000000;0.816111
9350.000000;0.815768
9349.000000;0.815615
9348.000000;0.815605
9347.000000;0.815674
9346.000000;0.815832
9345.000000;0.816083
9344.000000;0.816317
9343.000000;0.816393
9342.000000;0.816334
9341.000000;0.816314
9340.000000;0.816436
9339.000000;0.816605
9338.000000;0.816675
9337.000000;0.816616
9336.000000;0.816480
9335.000000;0.816272
9334.000000;0.815964
9333.000000;0.815589
9332.000000;0.815241
9331.000000;0.814991
9330.000000;0.814851
9329.000000;0.814798
9328.000000;0.814794
9327.000000;0.814796
9326.000000;0.814812
9325.000000;0.814928
9324.000000;0.815202
9323.000000;0.815538
9322.000000;0.815744
9321.000000;0.815704
9320.000000;0.815474
9319.000000;0.815210
9318.000000;0.815048
9317.000000;0.815038
9316.000000;0.815098
9315.000000;0.815058
9314.000000;0.814832
9313.000000;0.814546
9312.000000;0.814432
9311.000000;0.814565
9310.000000;0.814782
9309.000000;0.814903
9308.000000;0.814923
9307.000000;0.814966
9306.000000;0.815104
9305.000000;0.815288
9304.000000;0.815398
9303.000000;0.815313
9302.000000;0.814990
9301.000000;0.814520
9300.000000;0.814062
9299.000000;0.813679
9298.000000;0.813288
9297.000000;0.812831
9296.000000;0.812435
9295.000000;0.812308
9294.000000;0.812501
9293.000000;0.812831
9292.000000;0.813051
9291.000000;0.813034
9290.000000;0.812834
9289.000000;0.812607
9288.000000;0.812489
9287.000000;0.812501
9286.000000;0.812565
9285.000000;0.812624
9284.000000;0.812697
9283.000000;0.812794
9282.000000;0.812820
9281.000000;0.812658
9280.000000;0.812329
9279.000000;0.812016
9278.000000;0.811906
9277.000000;0.812051
9276.000000;0.812370
9275.000000;0.812729
9274.000000;0.813000
9273.000000;0.813087
9272.000000;0.812932
9271.000000;0.812531
9270.000000;0.811989
9269.000000;0.811531
9268.000000;0.811358
9267.000000;0.811445
9266.000000;0.811548
9265.000000;0.811463
9264.000000;0.811207
9263.000000;0.810896
9262.000000;0.810571
9261.000000;0.810286
9260.000000;0.810249
9259.000000;0.810646
9258.000000;0.811302
9257.000000;0.811748
9256.000000;0.811707
9255.000000;0.811388
9254.000000;0.811187
9253.000000;0.811225
9252.000000;0.811287
9251.000000;0.811137
9250.000000;0.810774
9249.000000;0.810370
9248.000000;0.810067
9247.000000;0.809865
9246.000000;0.809678
9245.000000;0.809470
9244.000000;0.809345
9243.000000;0.809436
9242.000000;0.809720
9241.000000;0.810005
9240.000000;0.810121
9239.000000;0.810055
9238.000000;0.809874
9237.000000;0.809597
9236.000000;0.809234
9235.000000;0.808889
9234.000000;0.808709
9233.000000;0.808725
9232.000000;0.808826
9231.000000;0.808886
9230.000000;0.808873
9229.000000;0.808837
9228.000000;0.808845
9227.000000;0.808934
9226.000000;0.809087
9225.000000;0.809254
9224.000000;0.809413
9223.000000;0.809580
9222.000000;0.809707
9221.000000;0.809633
9220.000000;0.809229
9219.000000;0.808635
9218.000000;0.808215
9217.000000;0.808211
9216.000000;0.808488
9215.000000;0.808698
9214.000000;0.808662
9213.000000;0.808488
9212.000000;0.808354
9211.000000;0.808297
9210.000000;0.808266
9209.000000;0.808264
9208.000000;0.808327
9207.000000;0.808409
9206.000000;0.808417
9205.000000;0.808329
9204.000000;0.808192
9203.000000;0.807991
9202.000000;0.807665
9201.000000;0.807272
9200.000000;0.807005
9199.000000;0.806944
9198.000000;0.806906
9197.000000;0.806676
9196.000000;0.806308
9195.000000;0.806061
9194.000000;0.806049
9193.000000;0.806137
9192.000000;0.806170
9191.000000;0.806169
9190.000000;0.806243
9189.000000;0.806428
9188.000000;0.806661
9187.000000;0.806827
9186.000000;0.806807
9185.000000;0.806577
9184.000000;0.806303
9183.000000;0.806234
9182.000000;0.806404
9181.000000;0.806560
9180.000000;0.806465
9179.000000;0.806207
9178.000000;0.806063
9177.000000;0.806155
9176.000000;0.806353
9175.000000;0.806499
9174.000000;0.806555
9173.000000;0.806524
9172.000000;0.806370
9171.000000;0.806082
9170.000000;0.805738
9169.000000;0.805457
9168.000000;0.805318
9167.000000;0.805342
9166.000000;0.805484
9165.000000;0.805605
9164.000000;0.805525
9163.000000;0.805202
9162.000000;0.804841
9161.000000;0.804732
9160.000000;0.804945
9159.000000;0.805221
9158.000000;0.805234
9157.000000;0.804939
9156.000000;0.804618
9155.000000;0.804535
9154.000000;0.804621
9153.000000;0.804582
9152.000000;0.804287
9151.000000;0.803923
9150.000000;0.803732
9149.000000;0.803718
9148.000000;0.803723
9147.000000;0.803686
9146.000000;0.803682
9145.000000;0.803741
9144.000000;0.803803
9143.000000;0.803855
9142.000000;0.803965
9141.000000;0.804122
9140.000000;0.804170
9139.000000;0.804003
9138.000000;0.803735
9137.000000;0.803573
9136.000000;0.803567
9135.000000;0.803586
9134.000000;0.803501
9133.000000;0.803318
9132.000000;0.803144
9131.000000;0.803091
9130.000000;0.803208
9129.000000;0.803426
9128.000000;0.803565
9127.000000;0.803474
9126.000000;0.803174
9125.000000;0.802799
9124.000000;0.802409
9123.000000;0.801947
9122.000000;0.801417
9121.000000;0.801004
9120.000000;0.800943
9119.000000;0.801299
9118.000000;0.801910
9117.000000;0.802524
9116.000000;0.802938
9115.000000;0.803059
9114.000000;0.802921
9113.000000;0.802652
9112.000000;0.802385
9111.000000;0.802181
9110.000000;0.802045
9109.000000;0.802006
9108.000000;0.802117
9107.000000;0.802366
9106.000000;0.802630
9105.000000;0.802734
9104.000000;0.802552
9103.000000;0.802070
9102.000000;0.801393
9101.000000;0.800724
9100.000000;0.800284
9099.000000;0.800186
9098.000000;0.800376
9097.000000;0.800687
9096.000000;0.800967
9095.000000;0.801139
9094.000000;0.801178
9093.000000;0.801082
9092.000000;0.800888
9091.000000;0.800697
9090.000000;0.800622
9089.000000;0.800685
9088.000000;0.800782
9087.000000;0.800796
9086.000000;0.800726
9085.000000;0.800669
9084.000000;0.800646
9083.000000;0.800524
9082.000000;0.800170
9081.000000;0.799652
9080.000000;0.799214
9079.000000;0.799036
9078.000000;0.799077
9077.000000;0.799177
9076.000000;0.799264
9075.000000;0.799412
9074.000000;0.799720
9073.000000;0.800145
9072.000000;0.800486
9071.000000;0.800533
9070.000000;0.800274
9069.000000;0.799925
9068.000000;0.799733
9067.000000;0.799758
9066.000000;0.799875
9065.000000;0.799952
9064.000000;0.799947
9063.000000;0.799820
9062.000000;0.799496
9061.000000;0.798969
9060.000000;0.798380
9059.000000;0.797917
9058.000000;0.797671
9057.000000;0.797644
9056.000000;0.797831
9055.000000;0.798180
9054.000000;0.798533
9053.000000;0.798715
