Criado como novo conjunto de dados;"2706_e01_daniel.spp","57065.0 Secs"
cm-1;Abs
10000.000000;0.836659
9999.000000;0.836108
9998.000000;0.835569
9997.000000;0.835010
9996.000000;0.834490
9995.000000;0.833893
9994.000000;0.833528
9993.000000;0.834033
9992.000000;0.834862
9991.000000;0.835460
9990.000000;0.835506
9989.000000;0.835104
9988.000000;0.834561
9987.000000;0.834230
9986.000000;0.834215
9985.000000;0.834256
9984.000000;0.834071
9983.000000;0.833754
9982.000000;0.833560
9981.000000;0.833422
9980.000000;0.833067
9979.000000;0.832614
9978.000000;0.832582
9977.000000;0.833184
9976.000000;0.834005
9975.000000;0.834544
9974.000000;0.834726
9973.000000;0.834693
9972.000000;0.834401
9971.000000;0.833732
9970.000000;0.832815
9969.000000;0.832006
9968.000000;0.831585
9967.000000;0.831560
9966.000000;0.831686
9965.000000;0.831682
9964.000000;0.831517
9963.000000;0.831485
9962.000000;0.831838
9961.000000;0.832421
9960.000000;0.832811
9959.000000;0.832756
9958.000000;0.832280
9957.000000;0.831528
9956.000000;0.830738
9955.000000;0.830249
9954.000000;0.830172
9953.000000;0.830178
9952.000000;0.829982
9951.000000;0.829920
9950.000000;0.830591
9949.000000;0.831891
9948.000000;0.832871
9947.000000;0.832723
9946.000000;0.831613
9945.000000;0.830413
9944.000000;0.829851
9943.000000;0.829991
9942.000000;0.830297
9941.000000;0.830161
9940.000000;0.829558
9939.000000;0.829137
9938.000000;0.829462
9937.000000;0.830318
9936.000000;0.831033
9935.000000;0.831284
9934.000000;0.831198
9933.000000;0.830863
9932.000000;0.830281
9931.000000;0.829709
9930.000000;0.829440
9929.000000;0.829257
9928.000000;0.828688
9927.000000;0.827883
9926.000000;0.827619
9925.000000;0.828274
9924.000000;0.829310
9923.000000;0.829961
9922.000000;0.829974
9921.000000;0.829515
9920.000000;0.828820
9919.000000;0.828215
9918.000000;0.828044
9917.000000;0.828268
9916.000000;0.828442
9915.000000;0.828314
9914.000000;0.828111
9913.000000;0.828045
9912.000000;0.827896
9911.000000;0.827373
9910.000000;0.826632
9909.000000;0.826124
9908.000000;0.826080
9907.000000;0.826341
9906.000000;0.826586
9905.000000;0.826608
9904.000000;0.826477
9903.000000;0.826457
9902.000000;0.826658
9901.000000;0.826813
9900.000000;0.826596
9899.000000;0.826054
9898.000000;0.825494
9897.000000;0.825061
9896.000000;0.824778
9895.000000;0.824827
9894.000000;0.825352
9893.000000;0.826014
9892.000000;0.826217
9891.000000;0.825793
9890.000000;0.825071
9889.000000;0.824333
9888.000000;0.823701
9887.000000;0.823497
9886.000000;0.824058
9885.000000;0.825054
9884.000000;0.825572
9883.000000;0.825167
9882.000000;0.824377
9881.000000;0.823965
9880.000000;0.824071
9879.000000;0.824347
9878.000000;0.824482
9877.000000;0.824326
9876.000000;0.823847
9875.000000;0.823263
9874.000000;0.822982
9873.000000;0.823168
9872.000000;0.823567
9871.000000;0.823857
9870.000000;0.823909
9869.000000;0.823636
9868.000000;0.822969
9867.000000;0.822131
9866.000000;0.821583
9865.000000;0.821553
9864.000000;0.821848
9863.000000;0.822224
9862.000000;0.822617
9861.000000;0.822935
9860.000000;0.822989
9859.000000;0.822741
9858.000000;0.822331
9857.000000;0.821792
9856.000000;0.821051
9855.000000;0.820279
9854.000000;0.819831
9853.000000;0.819760
9852.000000;0.819774
9851.000000;0.819756
9850.000000;0.819912
9849.000000;0.820286
9848.000000;0.820595
9847.000000;0.820697
9846.000000;0.820811
9845.000000;0.821074
9844.000000;0.821287
9843.000000;0.821272
9842.000000;0.821108
9841.000000;0.820850
9840.000000;0.820424
9839.000000;0.819979
9838.000000;0.819923
9837.000000;0.820362
9836.000000;0.820898
9835.000000;0.821166
9834.000000;0.821210
9833.000000;0.821127
9832.000000;0.820733
9831.000000;0.819891
9830.000000;0.818827
9829.000000;0.817900
9828.000000;0.817316
9827.000000;0.817238
9826.000000;0.817772
9825.000000;0.818641
9824.000000;0.819224
9823.000000;0.819201
9822.000000;0.818882
9821.000000;0.818730
9820.000000;0.818891
9819.000000;0.819314
9818.000000;0.819900
9817.000000;0.820337
9816.000000;0.820235
9815.000000;0.819710
9814.000000;0.819400
9813.000000;0.819595
9812.000000;0.819804
9811.000000;0.819489
9810.000000;0.818837
9809.000000;0.818375
9808.000000;0.818195
9807.000000;0.818009
9806.000000;0.817709
9805.000000;0.817421
9804.000000;0.817171
9803.000000;0.816882
9802.000000;0.816602
9801.000000;0.816481
9800.000000;0.816606
9799.000000;0.817049
9798.000000;0.817842
9797.000000;0.818711
9796.000000;0.819107
9795.000000;0.818774
9794.000000;0.818055
9793.000000;0.817397
9792.000000;0.816823
9791.000000;0.816174
9790.000000;0.815553
9789.000000;0.815138
9788.000000;0.814809
9787.000000;0.814374
9786.000000;0.814030
9785.000000;0.814169
9784.000000;0.814788
9783.000000;0.815424
9782.000000;0.815683
9781.000000;0.815560
9780.000000;0.815225
9779.000000;0.814768
9778.000000;0.814224
9777.000000;0.813701
9776.000000;0.813413
9775.000000;0.813600
9774.000000;0.814306
9773.000000;0.815188
9772.000000;0.815692
9771.000000;0.815558
9770.000000;0.815066
9769.000000;0.814688
9768.000000;0.814593
9767.000000;0.814607
9766.000000;0.814549
9765.000000;0.814468
9764.000000;0.814572
9763.000000;0.814926
9762.000000;0.815221
9761.000000;0.814978
9760.000000;0.814138
9759.000000;0.813306
9758.000000;0.813165
9757.000000;0.813713
9756.000000;0.814316
9755.000000;0.814431
9754.000000;0.814019
9753.000000;0.813335
9752.000000;0.812747
9751.000000;0.812714
9750.000000;0.813441
9749.000000;0.814401
9748.000000;0.814638
9747.000000;0.813786
9746.000000;0.812486
9745.000000;0.811629
9744.000000;0.811504
9743.000000;0.811797
9742.000000;0.812068
9741.000000;0.812036
9740.000000;0.811686
9739.000000;0.811306
9738.000000;0.811186
9737.000000;0.811204
9736.000000;0.810980
9735.000000;0.810515
9734.000000;0.810271
9733.000000;0.810490
9732.000000;0.810837
9731.000000;0.810945
9730.000000;0.810921
9729.000000;0.811006
9728.000000;0.811114
9727.000000;0.811062
9726.000000;0.811008
9725.000000;0.811252
9724.000000;0.811760
9723.000000;0.812141
9722.000000;0.812023
9721.000000;0.811311
9720.000000;0.810260
9719.000000;0.809436
9718.000000;0.809333
9717.000000;0.809830
9716.000000;0.810260
9715.000000;0.810182
9714.000000;0.809831
9713.000000;0.809609
9712.000000;0.809522
9711.000000;0.809424
9710.000000;0.809434
9709.000000;0.809683
9708.000000;0.809885
9707.000000;0.809658
9706.000000;0.809162
9705.000000;0.808975
9704.000000;0.809330
9703.000000;0.809824
9702.000000;0.809939
9701.000000;0.809606
9700.000000;0.809168
9699.000000;0.808953
9698.000000;0.808967
9697.000000;0.808937
9696.000000;0.808675
9695.000000;0.808363
9694.000000;0.808372
9693.000000;0.808770
9692.000000;0.809189
9691.000000;0.809267
9690.000000;0.809018
9689.000000;0.808680
9688.000000;0.808411
9687.000000;0.808264
9686.000000;0.808247
9685.000000;0.808206
9684.000000;0.807860
9683.000000;0.807155
9682.000000;0.806417
9681.000000;0.805985
9680.000000;0.805830
9679.000000;0.805759
9678.000000;0.805816
9677.000000;0.806216
9676.000000;0.806942
9675.000000;0.807605
9674.000000;0.807749
9673.000000;0.807247
9672.000000;0.806432
9671.000000;0.805863
9670.000000;0.805847
9669.000000;0.806155
9668.000000;0.806315
9667.000000;0.806179
9666.000000;0.806009
9665.000000;0.805982
9664.000000;0.805926
9663.000000;0.805672
9662.000000;0.805380
9661.000000;0.805296
9660.000000;0.805392
9659.000000;0.805476
9658.000000;0.805486
9657.000000;0.805468
9656.000000;0.805429
9655.000000;0.805424
9654.000000;0.805659
9653.000000;0.806254
9652.000000;0.806968
9651.000000;0.807353
9650.000000;0.807172
9649.000000;0.806537
9648.000000;0.805723
9647.000000;0.804997
9646.000000;0.804544
9645.000000;0.804376
9644.000000;0.804313
9643.000000;0.804170
9642.000000;0.803945
9641.000000;0.803750
9640.000000;0.803620
9639.000000;0.803499
9638.000000;0.803366
9637.000000;0.803279
9636.000000;0.803298
9635.000000;0.803415
9634.000000;0.803551
9633.000000;0.803599
9632.000000;0.803500
9631.000000;0.803294
9630.000000;0.803062
9629.000000;0.802863
9628.000000;0.802749
9627.000000;0.802760
9626.000000;0.802819
9625.000000;0.802717
9624.000000;0.802369
9623.000000;0.801982
9622.000000;0.801805
9621.000000;0.801790
9620.000000;0.801720
9619.000000;0.801596
9618.000000;0.801630
9617.000000;0.801864
9616.000000;0.802065
9615.000000;0.802040
9614.000000;0.801852
9613.000000;0.801654
9612.000000;0.801540
9611.000000;0.801582
9610.000000;0.801802
9609.000000;0.802057
9608.000000;0.802125
9607.000000;0.801973
9606.000000;0.801775
9605.000000;0.801649
9604.000000;0.801568
9603.000000;0.801516
9602.000000;0.801527
9601.000000;0.801532
9600.000000;0.801383
9599.000000;0.801046
9598.000000;0.800595
9597.000000;0.800079
9596.000000;0.799591
9595.000000;0.799378
9594.000000;0.799587
9593.000000;0.799965
9592.000000;0.800127
9591.000000;0.800087
9590.000000;0.800163
9589.000000;0.800361
9588.000000;0.800328
9587.000000;0.799982
9586.000000;0.799730
9585.000000;0.799871
9584.000000;0.800159
9583.000000;0.800192
9582.000000;0.799921
9581.000000;0.799534
9580.000000;0.799149
9579.000000;0.798857
9578.000000;0.798833
9577.000000;0.799142
9576.000000;0.799588
9575.000000;0.799941
9574.000000;0.800158
9573.000000;0.800254
9572.000000;0.800164
9571.000000;0.799870
9570.000000;0.799479
9569.000000;0.799053
9568.000000;0.798571
9567.000000;0.798152
9566.000000;0.798072
9565.000000;0.798406
9564.000000;0.798884
9563.000000;0.799236
9562.000000;0.799434
9561.000000;0.799455
9560.000000;0.799123
9559.000000;0.798441
9558.000000;0.797802
9557.000000;0.797606
9556.000000;0.797833
9555.000000;0.798193
9554.000000;0.798508
9553.000000;0.798696
9552.000000;0.798610
9551.000000;0.798186
9550.000000;0.797658
9549.000000;0.797352
9548.000000;0.797331
9547.000000;0.797428
9546.000000;0.797518
9545.000000;0.797594
9544.000000;0.797659
9543.000000;0.797739
9542.000000;0.797880
9541.000000;0.798004
9540.000000;0.797881
9539.000000;0.797428
9538.000000;0.796894
9537.000000;0.796572
9536.000000;0.796449
9535.000000;0.796313
9534.000000;0.796115
9533.000000;0.796004
9532.000000;0.796089
9531.000000;0.796359
9530.000000;0.796765
9529.000000;0.797185
9528.000000;0.797373
9527.000000;0.797120
9526.000000;0.796482
9525.000000;0.795721
9524.000000;0.795095
9523.000000;0.794795
9522.000000;0.794939
9521.000000;0.795430
9520.000000;0.795869
9519.000000;0.795811
9518.000000;0.795188
9517.000000;0.794376
9516.000000;0.793826
9515.000000;0.793714
9514.000000;0.793883
9513.000000;0.794033
9512.000000;0.793968
9511.000000;0.793768
9510.000000;0.793718
9509.000000;0.794008
9508.000000;0.794498
9507.000000;0.794835
9506.000000;0.794797
9505.000000;0.794492
9504.000000;0.794209
9503.000000;0.794110
9502.000000;0.794100
9501.000000;0.793996
9500.000000;0.793809
9499.000000;0.793747
9498.000000;0.793930
9497.000000;0.794210
9496.000000;0.794374
9495.000000;0.794403
9494.000000;0.794395
9493.000000;0.794317
9492.000000;0.794027
9491.000000;0.793527
9490.000000;0.793017
9489.000000;0.792705
9488.000000;0.792680
9487.000000;0.792936
9486.000000;0.793312
9485.000000;0.793479
9484.000000;0.793234
9483.000000;0.792795
9482.000000;0.792597
9481.000000;0.792757
9480.000000;0.792962
9479.000000;0.792883
9478.000000;0.792491
9477.000000;0.791925
9476.000000;0.791352
9475.000000;0.791005
9474.000000;0.791116
9473.000000;0.791621
9472.000000;0.792135
9471.000000;0.792328
9470.000000;0.792189
9469.000000;0.791848
9468.000000;0.791336
9467.000000;0.790701
9466.000000;0.790145
9465.000000;0.789877
9464.000000;0.789887
9463.000000;0.790004
9462.000000;0.790107
9461.000000;0.790167
9460.000000;0.790197
9459.000000;0.790220
9458.000000;0.790202
9457.000000;0.789977
9456.000000;0.789387
9455.000000;0.788593
9454.000000;0.788093
9453.000000;0.788269
9452.000000;0.788995
9451.000000;0.789787
9450.000000;0.790282
9449.000000;0.790456
9448.000000;0.790472
9447.000000;0.790447
9446.000000;0.790368
9445.000000;0.790140
9444.000000;0.789696
9443.000000;0.789098
9442.000000;0.788519
9441.000000;0.788146
9440.000000;0.788109
9439.000000;0.788429
9438.000000;0.788955
9437.000000;0.789361
9436.000000;0.789340
9435.000000;0.788876
9434.000000;0.788258
9433.000000;0.787847
9432.000000;0.787814
9431.000000;0.788033
9430.000000;0.788172
9429.000000;0.787978
9428.000000;0.787595
9427.000000;0.787491
9426.000000;0.787938
9425.000000;0.788643
9424.000000;0.789051
9423.000000;0.788954
9422.000000;0.788603
9421.000000;0.788303
9420.000000;0.788142
9419.000000;0.788091
9418.000000;0.788110
9417.000000;0.788083
9416.000000;0.787860
9415.000000;0.787449
9414.000000;0.787036
9413.000000;0.786793
9412.000000;0.786757
9411.000000;0.786863
9410.000000;0.786955
9409.000000;0.786817
9408.000000;0.786385
9407.000000;0.785895
9406.000000;0.785625
9405.000000;0.785541
9404.000000;0.785438
9403.000000;0.785363
9402.000000;0.785573
9401.000000;0.786046
9400.000000;0.786383
9399.000000;0.786345
9398.000000;0.786171
9397.000000;0.786173
9396.000000;0.786260
9395.000000;0.786094
9394.000000;0.785585
9393.000000;0.785006
9392.000000;0.784692
9391.000000;0.784774
9390.000000;0.785144
9389.000000;0.785549
9388.000000;0.785733
9387.000000;0.785623
9386.000000;0.785370
9385.000000;0.785185
9384.000000;0.785151
9383.000000;0.785189
9382.000000;0.785153
9381.000000;0.784959
9380.000000;0.784663
9379.000000;0.784418
9378.000000;0.784320
9377.000000;0.784334
9376.000000;0.784415
9375.000000;0.784579
9374.000000;0.784775
9373.000000;0.784783
9372.000000;0.784428
9371.000000;0.783819
9370.000000;0.783229
9369.000000;0.782817
9368.000000;0.782620
9367.000000;0.782690
9366.000000;0.782975
9365.000000;0.783163
9364.000000;0.782945
9363.000000;0.782449
9362.000000;0.782138
9361.000000;0.782234
9360.000000;0.782476
9359.000000;0.782514
9358.000000;0.782322
9357.000000;0.782126
9356.000000;0.782111
9355.000000;0.782306
9354.000000;0.782589
9353.000000;0.782726
9352.000000;0.782535
9351.000000;0.782072
9350.000000;0.781581
9349.000000;0.781264
9348.000000;0.781196
9347.000000;0.781409
9346.000000;0.781866
9345.000000;0.782338
9344.000000;0.782536
9343.000000;0.782433
9342.000000;0.782306
9341.000000;0.782390
9340.000000;0.782642
9339.000000;0.782838
9338.000000;0.782770
9337.000000;0.782339
9336.000000;0.781613
9335.000000;0.780830
9334.000000;0.780236
9333.000000;0.779909
9332.000000;0.779830
9331.000000;0.780040
9330.000000;0.780520
9329.000000;0.780974
9328.000000;0.781013
9327.000000;0.780613
9326.000000;0.780193
9325.000000;0.780141
9324.000000;0.780412
9323.000000;0.780631
9322.000000;0.780482
9321.000000;0.779975
9320.000000;0.779431
9319.000000;0.779207
9318.000000;0.779354
9317.000000;0.779583
9316.000000;0.779672
9315.000000;0.779760
9314.000000;0.780084
9313.000000;0.780563
9312.000000;0.780901
9311.000000;0.780985
9310.000000;0.780899
9309.000000;0.780639
9308.000000;0.780159
9307.000000;0.779659
9306.000000;0.779470
9305.000000;0.779594
9304.000000;0.779648
9303.000000;0.779368
9302.000000;0.778912
9301.000000;0.778585
9300.000000;0.778512
9299.000000;0.778643
9298.000000;0.778839
9297.000000;0.778897
9296.000000;0.778712
9295.000000;0.778447
9294.000000;0.778363
9293.000000;0.778440
9292.000000;0.778403
9291.000000;0.778138
9290.000000;0.777806
9289.000000;0.777521
9288.000000;0.777203
9287.000000;0.776847
9286.000000;0.776652
9285.000000;0.776776
9284.000000;0.777152
9283.000000;0.777630
9282.000000;0.778090
9281.000000;0.778351
9280.000000;0.778256
9279.000000;0.777944
9278.000000;0.777780
9277.000000;0.777901
9276.000000;0.778035
9275.000000;0.777893
9274.000000;0.777521
9273.000000;0.777159
9272.000000;0.776949
9271.000000;0.776882
9270.000000;0.776865
9269.000000;0.776748
9268.000000;0.776472
9267.000000;0.776231
9266.000000;0.776307
9265.000000;0.776673
9264.000000;0.776975
9263.000000;0.776970
9262.000000;0.776759
9261.000000;0.776522
9260.000000;0.776288
9259.000000;0.776060
9258.000000;0.775900
9257.000000;0.775775
9256.000000;0.775555
9255.000000;0.775291
9254.000000;0.775233
9253.000000;0.775424
9252.000000;0.775548
9251.000000;0.775358
9250.000000;0.775013
9249.000000;0.774790
9248.000000;0.774661
9247.000000;0.774410
9246.000000;0.774015
9245.000000;0.773672
9244.000000;0.773551
9243.000000;0.773703
9242.000000;0.774104
9241.000000;0.774603
9240.000000;0.774911
9239.000000;0.774832
9238.000000;0.774473
9237.000000;0.774135
9236.000000;0.774019
9235.000000;0.774097
9234.000000;0.774154
9233.000000;0.773928
9232.000000;0.773339
9231.000000;0.772656
9230.000000;0.772309
9229.000000;0.772461
9228.000000;0.772890
9227.000000;0.773329
9226.000000;0.773728
9225.000000;0.774090
9224.000000;0.774273
9223.000000;0.774130
9222.000000;0.773724
9221.000000;0.773242
9220.000000;0.772807
9219.000000;0.772467
9218.000000;0.772252
9217.000000;0.772121
9216.000000;0.771966
9215.000000;0.771773
9214.000000;0.771663
9213.000000;0.771682
9212.000000;0.771673
9211.000000;0.771474
9210.000000;0.771147
9209.000000;0.770883
9208.000000;0.770788
9207.000000;0.770850
9206.000000;0.771026
9205.000000;0.771242
9204.000000;0.771405
9203.000000;0.771491
9202.000000;0.771557
9201.000000;0.771593
9200.000000;0.771485
9199.000000;0.771185
9198.000000;0.770837
9197.000000;0.770649
9196.000000;0.770710
9195.000000;0.770970
9194.000000;0.771293
9193.000000;0.771455
9192.000000;0.771244
9191.000000;0.770669
9190.000000;0.770018
9189.000000;0.769627
9188.000000;0.769634
9187.000000;0.769959
9186.000000;0.770386
9185.000000;0.770666
9184.000000;0.770644
9183.000000;0.770384
9182.000000;0.770094
9181.000000;0.769927
9180.000000;0.769941
9179.000000;0.770156
9178.000000;0.770492
9177.000000;0.770664
9176.000000;0.770396
9175.000000;0.769776
9174.000000;0.769190
9173.000000;0.768861
9172.000000;0.768648
9171.000000;0.768377
9170.000000;0.768128
9169.000000;0.768082
9168.000000;0.768252
9167.000000;0.768514
9166.000000;0.768753
9165.000000;0.768883
9164.000000;0.768859
9163.000000;0.768768
9162.000000;0.768761
9161.000000;0.768808
9160.000000;0.768701
9159.000000;0.768363
9158.000000;0.767992
9157.000000;0.767786
9156.000000;0.767724
9155.000000;0.767731
9154.000000;0.767847
9153.000000;0.768071
9152.000000;0.768220
9151.000000;0.768129
9150.000000;0.767876
9149.000000;0.767631
9148.000000;0.767421
9147.000000;0.767184
9146.000000;0.766957
9145.000000;0.766805
9144.000000;0.766680
9143.000000;0.766510
9142.000000;0.766353
9141.000000;0.766305
9140.000000;0.766304
9139.000000;0.766200
9138.000000;0.765962
9137.000000;0.765698
9136.000000;0.765504
9135.000000;0.765434
9134.000000;0.765559
9133.000000;0.765905
9132.000000;0.766335
9131.000000;0.766620
9130.000000;0.766621
9129.000000;0.766361
9128.000000;0.765958
9127.000000;0.765548
9126.000000;0.765249
9125.000000;0.765115
9124.000000;0.765126
9123.000000;0.765246
9122.000000;0.765438
9121.000000;0.765602
9120.000000;0.765598
9119.000000;0.765406
9118.000000;0.765171
9117.000000;0.765028
9116.000000;0.764967
9115.000000;0.764921
9114.000000;0.764899
9113.000000;0.764934
9112.000000;0.764949
9111.000000;0.764810
9110.000000;0.764469
9109.000000;0.764017
9108.000000;0.763620
9107.000000;0.763436
9106.000000;0.763515
9105.000000;0.763739
9104.000000;0.763914
9103.000000;0.763979
9102.000000;0.764036
9101.000000;0.764146
9100.000000;0.764205
9099.000000;0.764114
9098.000000;0.763947
9097.000000;0.763851
9096.000000;0.763813
9095.000000;0.763686
9094.000000;0.763413
9093.000000;0.763129
9092.000000;0.763019
9091.000000;0.763131
9090.000000;0.763345
9089.000000;0.763488
9088.000000;0.763467
9087.000000;0.763325
9086.000000;0.763190
9085.000000;0.763151
9084.000000;0.763202
9083.000000;0.763251
9082.000000;0.763185
9081.000000;0.762955
9080.000000;0.762649
9079.000000;0.762426
9078.000000;0.762301
9077.000000;0.762084
9076.000000;0.761633
9075.000000;0.761138
9074.000000;0.760980
9073.000000;0.761295
9072.000000;0.761815
9071.000000;0.762168
9070.000000;0.762211
9069.000000;0.762012
9068.000000;0.761684
9067.000000;0.761331
9066.000000;0.761075
9065.000000;0.760979
9064.000000;0.760970
9063.000000;0.760924
9062.000000;0.760829
9061.000000;0.760784
9060.000000;0.760860
9059.000000;0.760991
9058.000000;0.761057
9057.000000;0.761024
9056.000000;0.760987
9055.000000;0.761016
9054.000000;0.761016
9053.000000;0.760811
