Criado como novo conjunto de dados;"2706_e01_daniel.spp","104587.2 Secs"
cm-1;Abs
10000.000000;0.864584
9999.000000;0.864590
9998.000000;0.864886
9997.000000;0.865172
9996.000000;0.865206
9995.000000;0.865083
9994.000000;0.864921
9993.000000;0.864806
9992.000000;0.864719
9991.000000;0.864697
9990.000000;0.864770
9989.000000;0.864875
9988.000000;0.864833
9987.000000;0.864506
9986.000000;0.863967
9985.000000;0.863493
9984.000000;0.863366
9983.000000;0.863679
9982.000000;0.864264
9981.000000;0.864788
9980.000000;0.864965
9979.000000;0.864732
9978.000000;0.864234
9977.000000;0.863675
9976.000000;0.863217
9975.000000;0.862962
9974.000000;0.862911
9973.000000;0.862885
9972.000000;0.862652
9971.000000;0.862222
9970.000000;0.861944
9969.000000;0.862160
9968.000000;0.862811
9967.000000;0.863467
9966.000000;0.863730
9965.000000;0.863529
9964.000000;0.863100
9963.000000;0.862792
9962.000000;0.862858
9961.000000;0.863256
9960.000000;0.863645
9959.000000;0.863715
9958.000000;0.863523
9957.000000;0.863385
9956.000000;0.863451
9955.000000;0.863554
9954.000000;0.863501
9953.000000;0.863322
9952.000000;0.863128
9951.000000;0.862918
9950.000000;0.862642
9949.000000;0.862346
9948.000000;0.862126
9947.000000;0.862006
9946.000000;0.862006
9945.000000;0.862235
9944.000000;0.862747
9943.000000;0.863323
9942.000000;0.863567
9941.000000;0.863281
9940.000000;0.862676
9939.000000;0.862174
9938.000000;0.862041
9937.000000;0.862214
9936.000000;0.862432
9935.000000;0.862488
9934.000000;0.862399
9933.000000;0.862317
9932.000000;0.862297
9931.000000;0.862183
9930.000000;0.861755
9929.000000;0.860976
9928.000000;0.860079
9927.000000;0.859402
9926.000000;0.859117
9925.000000;0.859101
9924.000000;0.859082
9923.000000;0.858994
9922.000000;0.859117
9921.000000;0.859740
9920.000000;0.860680
9919.000000;0.861300
9918.000000;0.861115
9917.000000;0.860313
9916.000000;0.859558
9915.000000;0.859353
9914.000000;0.859665
9913.000000;0.860073
9912.000000;0.860185
9911.000000;0.859939
9910.000000;0.859610
9909.000000;0.859513
9908.000000;0.859646
9907.000000;0.859682
9906.000000;0.859341
9905.000000;0.858696
9904.000000;0.858036
9903.000000;0.857538
9902.000000;0.857226
9901.000000;0.857121
9900.000000;0.857252
9899.000000;0.857542
9898.000000;0.857885
9897.000000;0.858332
9896.000000;0.858992
9895.000000;0.859702
9894.000000;0.860012
9893.000000;0.859652
9892.000000;0.858894
9891.000000;0.858301
9890.000000;0.858171
9889.000000;0.858316
9888.000000;0.858356
9887.000000;0.858141
9886.000000;0.857884
9885.000000;0.857917
9884.000000;0.858313
9883.000000;0.858717
9882.000000;0.858598
9881.000000;0.857738
9880.000000;0.856465
9879.000000;0.855431
9878.000000;0.855169
9877.000000;0.855790
9876.000000;0.856938
9875.000000;0.857989
9874.000000;0.858423
9873.000000;0.858136
9872.000000;0.857408
9871.000000;0.856595
9870.000000;0.855919
9869.000000;0.855502
9868.000000;0.855410
9867.000000;0.855534
9866.000000;0.855594
9865.000000;0.855432
9864.000000;0.855225
9863.000000;0.855262
9862.000000;0.855568
9861.000000;0.855959
9860.000000;0.856405
9859.000000;0.857102
9858.000000;0.858035
9857.000000;0.858709
9856.000000;0.858536
9855.000000;0.857469
9854.000000;0.856086
9853.000000;0.855047
9852.000000;0.854591
9851.000000;0.854568
9850.000000;0.854757
9849.000000;0.855047
9848.000000;0.855394
9847.000000;0.855729
9846.000000;0.855945
9845.000000;0.855932
9844.000000;0.855621
9843.000000;0.855067
9842.000000;0.854464
9841.000000;0.854027
9840.000000;0.853838
9839.000000;0.853827
9838.000000;0.853903
9837.000000;0.854027
9836.000000;0.854150
9835.000000;0.854163
9834.000000;0.854003
9833.000000;0.853737
9832.000000;0.853486
9831.000000;0.853268
9830.000000;0.852983
9829.000000;0.852569
9828.000000;0.852119
9827.000000;0.851822
9826.000000;0.851808
9825.000000;0.852075
9824.000000;0.852503
9823.000000;0.852906
9822.000000;0.853113
9821.000000;0.853058
9820.000000;0.852843
9819.000000;0.852695
9818.000000;0.852794
9817.000000;0.853091
9816.000000;0.853281
9815.000000;0.853043
9814.000000;0.852336
9813.000000;0.851450
9812.000000;0.850782
9811.000000;0.850559
9810.000000;0.850745
9809.000000;0.851145
9808.000000;0.851553
9807.000000;0.851869
9806.000000;0.852107
9805.000000;0.852286
9804.000000;0.852333
9803.000000;0.852187
9802.000000;0.851987
9801.000000;0.852007
9800.000000;0.852293
9799.000000;0.852514
9798.000000;0.852292
9797.000000;0.851635
9796.000000;0.850884
9795.000000;0.850303
9794.000000;0.849917
9793.000000;0.849709
9792.000000;0.849756
9791.000000;0.850081
9790.000000;0.850535
9789.000000;0.850907
9788.000000;0.851059
9787.000000;0.850893
9786.000000;0.850370
9785.000000;0.849681
9784.000000;0.849275
9783.000000;0.849498
9782.000000;0.850211
9781.000000;0.850909
9780.000000;0.851190
9779.000000;0.851010
9778.000000;0.850532
9777.000000;0.849921
9776.000000;0.849328
9775.000000;0.848916
9774.000000;0.848784
9773.000000;0.848903
9772.000000;0.849203
9771.000000;0.849631
9770.000000;0.850091
9769.000000;0.850391
9768.000000;0.850356
9767.000000;0.849994
9766.000000;0.849495
9765.000000;0.849072
9764.000000;0.848845
9763.000000;0.848849
9762.000000;0.849037
9761.000000;0.849237
9760.000000;0.849170
9759.000000;0.848647
9758.000000;0.847777
9757.000000;0.846944
9756.000000;0.846507
9755.000000;0.846529
9754.000000;0.846770
9753.000000;0.846930
9752.000000;0.846895
9751.000000;0.846807
9750.000000;0.846924
9749.000000;0.847365
9748.000000;0.847929
9747.000000;0.848188
9746.000000;0.847877
9745.000000;0.847242
9744.000000;0.846868
9743.000000;0.847097
9742.000000;0.847651
9741.000000;0.847975
9740.000000;0.847877
9739.000000;0.847652
9738.000000;0.847543
9737.000000;0.847365
9736.000000;0.846853
9735.000000;0.846226
9734.000000;0.846056
9733.000000;0.846558
9732.000000;0.847303
9731.000000;0.847746
9730.000000;0.847821
9729.000000;0.847768
9728.000000;0.847588
9727.000000;0.847019
9726.000000;0.846048
9725.000000;0.845097
9724.000000;0.844583
9723.000000;0.844529
9722.000000;0.844699
9721.000000;0.844939
9720.000000;0.845207
9719.000000;0.845460
9718.000000;0.845687
9717.000000;0.845954
9716.000000;0.846222
9715.000000;0.846231
9714.000000;0.845770
9713.000000;0.845016
9712.000000;0.844401
9711.000000;0.844162
9710.000000;0.844218
9709.000000;0.844441
9708.000000;0.844806
9707.000000;0.845204
9706.000000;0.845369
9705.000000;0.845153
9704.000000;0.844745
9703.000000;0.844489
9702.000000;0.844543
9701.000000;0.844807
9700.000000;0.845072
9699.000000;0.845130
9698.000000;0.844846
9697.000000;0.844297
9696.000000;0.843814
9695.000000;0.843740
9694.000000;0.844101
9693.000000;0.844588
9692.000000;0.844904
9691.000000;0.845056
9690.000000;0.845241
9689.000000;0.845487
9688.000000;0.845527
9687.000000;0.845085
9686.000000;0.844252
9685.000000;0.843433
9684.000000;0.842919
9683.000000;0.842637
9682.000000;0.842411
9681.000000;0.842318
9680.000000;0.842562
9679.000000;0.843076
9678.000000;0.843465
9677.000000;0.843414
9676.000000;0.842983
9675.000000;0.842440
9674.000000;0.841979
9673.000000;0.841688
9672.000000;0.841623
9671.000000;0.841756
9670.000000;0.841941
9669.000000;0.842071
9668.000000;0.842169
9667.000000;0.842244
9666.000000;0.842178
9665.000000;0.841912
9664.000000;0.841633
9663.000000;0.841586
9662.000000;0.841718
9661.000000;0.841710
9660.000000;0.841389
9659.000000;0.840953
9658.000000;0.840744
9657.000000;0.840906
9656.000000;0.841305
9655.000000;0.841674
9654.000000;0.841805
9653.000000;0.841688
9652.000000;0.841548
9651.000000;0.841665
9650.000000;0.842071
9649.000000;0.842460
9648.000000;0.842480
9647.000000;0.842101
9646.000000;0.841641
9645.000000;0.841417
9644.000000;0.841409
9643.000000;0.841323
9642.000000;0.840945
9641.000000;0.840381
9640.000000;0.839939
9639.000000;0.839846
9638.000000;0.840100
9637.000000;0.840527
9636.000000;0.840851
9635.000000;0.840797
9634.000000;0.840311
9633.000000;0.839706
9632.000000;0.839408
9631.000000;0.839459
9630.000000;0.839429
9629.000000;0.838949
9628.000000;0.838220
9627.000000;0.837826
9626.000000;0.838091
9625.000000;0.838787
9624.000000;0.839442
9623.000000;0.839751
9622.000000;0.839686
9621.000000;0.839397
9620.000000;0.839105
9619.000000;0.839012
9618.000000;0.839214
9617.000000;0.839670
9616.000000;0.840227
9615.000000;0.840622
9614.000000;0.840539
9613.000000;0.839844
9612.000000;0.838808
9611.000000;0.837972
9610.000000;0.837688
9609.000000;0.837819
9608.000000;0.837906
9607.000000;0.837597
9606.000000;0.836928
9605.000000;0.836279
9604.000000;0.836093
9603.000000;0.836536
9602.000000;0.837309
9601.000000;0.837850
9600.000000;0.837787
9599.000000;0.837251
9598.000000;0.836720
9597.000000;0.836585
9596.000000;0.836854
9595.000000;0.837214
9594.000000;0.837333
9593.000000;0.837130
9592.000000;0.836821
9591.000000;0.836670
9590.000000;0.836722
9589.000000;0.836805
9588.000000;0.836794
9587.000000;0.836774
9586.000000;0.836874
9585.000000;0.837019
9584.000000;0.836997
9583.000000;0.836756
9582.000000;0.836532
9581.000000;0.836606
9580.000000;0.836982
9579.000000;0.837366
9578.000000;0.837451
9577.000000;0.837199
9576.000000;0.836806
9575.000000;0.836454
9574.000000;0.836126
9573.000000;0.835705
9572.000000;0.835172
9571.000000;0.834647
9570.000000;0.834256
9569.000000;0.834021
9568.000000;0.833896
9567.000000;0.833843
9566.000000;0.833849
9565.000000;0.833931
9564.000000;0.834162
9563.000000;0.834611
9562.000000;0.835180
9561.000000;0.835556
9560.000000;0.835451
9559.000000;0.834905
9558.000000;0.834269
9557.000000;0.833885
9556.000000;0.833836
9555.000000;0.834001
9554.000000;0.834249
9553.000000;0.834481
9552.000000;0.834596
9551.000000;0.834535
9550.000000;0.834396
9549.000000;0.834366
9548.000000;0.834491
9547.000000;0.834593
9546.000000;0.834484
9545.000000;0.834229
9544.000000;0.834090
9543.000000;0.834226
9542.000000;0.834525
9541.000000;0.834742
9540.000000;0.834744
9539.000000;0.834572
9538.000000;0.834329
9537.000000;0.834081
9536.000000;0.833829
9535.000000;0.833530
9534.000000;0.833123
9533.000000;0.832614
9532.000000;0.832127
9531.000000;0.831852
9530.000000;0.831890
9529.000000;0.832181
9528.000000;0.832588
9527.000000;0.833020
9526.000000;0.833454
9525.000000;0.833829
9524.000000;0.833985
9523.000000;0.833754
9522.000000;0.833138
9521.000000;0.832377
9520.000000;0.831817
9519.000000;0.831658
9518.000000;0.831814
9517.000000;0.832017
9516.000000;0.832051
9515.000000;0.831901
9514.000000;0.831691
9513.000000;0.831515
9512.000000;0.831374
9511.000000;0.831289
9510.000000;0.831392
9509.000000;0.831824
9508.000000;0.832509
9507.000000;0.833112
9506.000000;0.833283
9505.000000;0.832915
9504.000000;0.832169
9503.000000;0.831332
9502.000000;0.830715
9501.000000;0.830573
9500.000000;0.830942
9499.000000;0.831512
9498.000000;0.831820
9497.000000;0.831654
9496.000000;0.831203
9495.000000;0.830780
9494.000000;0.830495
9493.000000;0.830254
9492.000000;0.829975
9491.000000;0.829709
9490.000000;0.829568
9489.000000;0.829607
9488.000000;0.829787
9487.000000;0.829983
9486.000000;0.830078
9485.000000;0.830095
9484.000000;0.830194
9483.000000;0.830465
9482.000000;0.830764
9481.000000;0.830826
9480.000000;0.830528
9479.000000;0.829989
9478.000000;0.829421
9477.000000;0.828960
9476.000000;0.828614
9475.000000;0.828314
9474.000000;0.827992
9473.000000;0.827658
9472.000000;0.827402
9471.000000;0.827295
9470.000000;0.827309
9469.000000;0.827393
9468.000000;0.827561
9467.000000;0.827817
9466.000000;0.828021
9465.000000;0.827977
9464.000000;0.827673
9463.000000;0.827343
9462.000000;0.827222
9461.000000;0.827322
9460.000000;0.827490
9459.000000;0.827623
9458.000000;0.827724
9457.000000;0.827811
9456.000000;0.827830
9455.000000;0.827717
9454.000000;0.827487
9453.000000;0.827251
9452.000000;0.827138
9451.000000;0.827186
9450.000000;0.827327
9449.000000;0.827470
9448.000000;0.827583
9447.000000;0.827688
9446.000000;0.827786
9445.000000;0.827819
9444.000000;0.827727
9443.000000;0.827523
9442.000000;0.827333
9441.000000;0.827325
9440.000000;0.827568
9439.000000;0.827925
9438.000000;0.828142
9437.000000;0.828058
9436.000000;0.827710
9435.000000;0.827223
9434.000000;0.826681
9433.000000;0.826167
9432.000000;0.825826
9431.000000;0.825768
9430.000000;0.825946
9429.000000;0.826221
9428.000000;0.826510
9427.000000;0.826774
9426.000000;0.826907
9425.000000;0.826794
9424.000000;0.826517
9423.000000;0.826337
9422.000000;0.826392
9421.000000;0.826530
9420.000000;0.826491
9419.000000;0.826183
9418.000000;0.825715
9417.000000;0.825251
9416.000000;0.824929
9415.000000;0.824856
9414.000000;0.825060
9413.000000;0.825420
9412.000000;0.825717
9411.000000;0.825757
9410.000000;0.825478
9409.000000;0.824989
9408.000000;0.824513
9407.000000;0.824224
9406.000000;0.824091
9405.000000;0.823946
9404.000000;0.823762
9403.000000;0.823718
9402.000000;0.823932
9401.000000;0.824214
9400.000000;0.824265
9399.000000;0.824054
9398.000000;0.823850
9397.000000;0.823877
9396.000000;0.824092
9395.000000;0.824321
9394.000000;0.824456
9393.000000;0.824435
9392.000000;0.824171
9391.000000;0.823676
9390.000000;0.823189
9389.000000;0.823025
9388.000000;0.823262
9387.000000;0.823650
9386.000000;0.823882
9385.000000;0.823881
9384.000000;0.823778
9383.000000;0.823692
9382.000000;0.823619
9381.000000;0.823515
9380.000000;0.823375
9379.000000;0.823192
9378.000000;0.822932
9377.000000;0.822638
9376.000000;0.822462
9375.000000;0.822466
9374.000000;0.822444
9373.000000;0.822115
9372.000000;0.821540
9371.000000;0.821174
9370.000000;0.821365
9369.000000;0.821925
9368.000000;0.822353
9367.000000;0.822419
9366.000000;0.822348
9365.000000;0.822415
9364.000000;0.822565
9363.000000;0.822523
9362.000000;0.822169
9361.000000;0.821659
9360.000000;0.821227
9359.000000;0.820986
9358.000000;0.820911
9357.000000;0.820933
9356.000000;0.821025
9355.000000;0.821231
9354.000000;0.821598
9353.000000;0.822063
9352.000000;0.822435
9351.000000;0.822542
9350.000000;0.822391
9349.000000;0.822105
9348.000000;0.821738
9347.000000;0.821249
9346.000000;0.820690
9345.000000;0.820299
9344.000000;0.820289
9343.000000;0.820556
9342.000000;0.820727
9341.000000;0.820525
9340.000000;0.820023
9339.000000;0.819520
9338.000000;0.819227
9337.000000;0.819141
9336.000000;0.819161
9335.000000;0.819213
9334.000000;0.819273
9333.000000;0.819361
9332.000000;0.819525
9331.000000;0.819770
9330.000000;0.819970
9329.000000;0.819945
9328.000000;0.819677
9327.000000;0.819388
9326.000000;0.819315
9325.000000;0.819460
9324.000000;0.819648
9323.000000;0.819773
9322.000000;0.819871
9321.000000;0.819949
9320.000000;0.819916
9319.000000;0.819736
9318.000000;0.819536
9317.000000;0.819437
9316.000000;0.819341
9315.000000;0.819012
9314.000000;0.818402
9313.000000;0.817788
9312.000000;0.817526
9311.000000;0.817718
9310.000000;0.818148
9309.000000;0.818510
9308.000000;0.818641
9307.000000;0.818570
9306.000000;0.818403
9305.000000;0.818216
9304.000000;0.818053
9303.000000;0.817976
9302.000000;0.818071
9301.000000;0.818370
9300.000000;0.818783
9299.000000;0.819135
9298.000000;0.819266
9297.000000;0.819113
9296.000000;0.818712
9295.000000;0.818168
9294.000000;0.817627
9293.000000;0.817228
9292.000000;0.817029
9291.000000;0.816987
9290.000000;0.816997
9289.000000;0.816980
9288.000000;0.816911
9287.000000;0.816805
9286.000000;0.816684
9285.000000;0.816565
9284.000000;0.816462
9283.000000;0.816394
9282.000000;0.816394
9281.000000;0.816457
9280.000000;0.816491
9279.000000;0.816345
9278.000000;0.815981
9277.000000;0.815585
9276.000000;0.815426
9275.000000;0.815566
9274.000000;0.815787
9273.000000;0.815864
9272.000000;0.815843
9271.000000;0.815944
9270.000000;0.816222
9269.000000;0.816446
9268.000000;0.816370
9267.000000;0.816028
9266.000000;0.815675
9265.000000;0.815499
9264.000000;0.815482
9263.000000;0.815495
9262.000000;0.815440
9261.000000;0.815276
9260.000000;0.815011
9259.000000;0.814710
9258.000000;0.814453
9257.000000;0.814263
9256.000000;0.814111
9255.000000;0.814030
9254.000000;0.814128
9253.000000;0.814425
9252.000000;0.814726
9251.000000;0.814774
9250.000000;0.814536
9249.000000;0.814259
9248.000000;0.814190
9247.000000;0.814298
9246.000000;0.814327
9245.000000;0.814114
9244.000000;0.813777
9243.000000;0.813596
9242.000000;0.813740
9241.000000;0.814125
9240.000000;0.814506
9239.000000;0.814671
9238.000000;0.814551
9237.000000;0.814198
9236.000000;0.813718
9235.000000;0.813235
9234.000000;0.812885
9233.000000;0.812781
9232.000000;0.812957
9231.000000;0.813334
9230.000000;0.813751
9229.000000;0.814034
9228.000000;0.814073
9227.000000;0.813885
9226.000000;0.813603
9225.000000;0.813398
9224.000000;0.813345
9223.000000;0.813374
9222.000000;0.813352
9221.000000;0.813214
9220.000000;0.812998
9219.000000;0.812774
9218.000000;0.812563
9217.000000;0.812325
9216.000000;0.812032
9215.000000;0.811740
9214.000000;0.811606
9213.000000;0.811779
9212.000000;0.812247
9211.000000;0.812760
9210.000000;0.812967
9209.000000;0.812697
9208.000000;0.812115
9207.000000;0.811578
9206.000000;0.811307
9205.000000;0.811246
9204.000000;0.811226
9203.000000;0.811222
9202.000000;0.811339
9201.000000;0.811572
9200.000000;0.811695
9199.000000;0.811513
9198.000000;0.811157
9197.000000;0.810980
9196.000000;0.811127
9195.000000;0.811323
9194.000000;0.811191
9193.000000;0.810705
9192.000000;0.810220
9191.000000;0.810058
9190.000000;0.810163
9189.000000;0.810207
9188.000000;0.809970
9187.000000;0.809565
9186.000000;0.809327
9185.000000;0.809508
9184.000000;0.810043
9183.000000;0.810568
9182.000000;0.810717
9181.000000;0.810449
9180.000000;0.810085
9179.000000;0.809972
9178.000000;0.810168
9177.000000;0.810462
9176.000000;0.810676
9175.000000;0.810827
9174.000000;0.810979
9173.000000;0.811029
9172.000000;0.810782
9171.000000;0.810228
9170.000000;0.809671
9169.000000;0.809498
9168.000000;0.809837
9167.000000;0.810450
9166.000000;0.810955
9165.000000;0.811101
9164.000000;0.810870
9163.000000;0.810414
9162.000000;0.809966
9161.000000;0.809759
9160.000000;0.809893
9159.000000;0.810213
9158.000000;0.810396
9157.000000;0.810220
9156.000000;0.809765
9155.000000;0.809334
9154.000000;0.809167
9153.000000;0.809246
9152.000000;0.809341
9151.000000;0.809228
9150.000000;0.808888
9149.000000;0.808521
9148.000000;0.808355
9147.000000;0.808436
9146.000000;0.808611
9145.000000;0.808713
9144.000000;0.808709
9143.000000;0.808641
9142.000000;0.808496
9141.000000;0.808228
9140.000000;0.807900
9139.000000;0.807709
9138.000000;0.807815
9137.000000;0.808170
9136.000000;0.808529
9135.000000;0.808631
9134.000000;0.808386
9133.000000;0.807941
9132.000000;0.807568
9131.000000;0.807437
9130.000000;0.807473
9129.000000;0.807467
9128.000000;0.807342
9127.000000;0.807247
9126.000000;0.807348
9125.000000;0.807591
9124.000000;0.807743
9123.000000;0.807660
9122.000000;0.807434
9121.000000;0.807275
9120.000000;0.807287
9119.000000;0.807393
9118.000000;0.807436
9117.000000;0.807305
9116.000000;0.806986
9115.000000;0.806539
9114.000000;0.806061
9113.000000;0.805659
9112.000000;0.805421
9111.000000;0.805378
9110.000000;0.805499
9109.000000;0.805731
9108.000000;0.806011
9107.000000;0.806248
9106.000000;0.806323
9105.000000;0.806192
9104.000000;0.805961
9103.000000;0.805802
9102.000000;0.805773
9101.000000;0.805788
9100.000000;0.805739
9099.000000;0.805601
9098.000000;0.805373
9097.000000;0.805048
9096.000000;0.804703
9095.000000;0.804524
9094.000000;0.804627
9093.000000;0.804900
9092.000000;0.805122
9091.000000;0.805200
9090.000000;0.805174
9089.000000;0.805057
9088.000000;0.804831
9087.000000;0.804606
9086.000000;0.804581
9085.000000;0.804784
9084.000000;0.804989
9083.000000;0.805003
9082.000000;0.804878
9081.000000;0.804759
9080.000000;0.804649
9079.000000;0.804495
9078.000000;0.804388
9077.000000;0.804458
9076.000000;0.804613
9075.000000;0.804583
9074.000000;0.804279
9073.000000;0.803941
9072.000000;0.803850
9071.000000;0.804014
9070.000000;0.804207
9069.000000;0.804227
9068.000000;0.804040
9067.000000;0.803736
9066.000000;0.803422
9065.000000;0.803150
9064.000000;0.802910
9063.000000;0.802722
9062.000000;0.802685
9061.000000;0.802878
9060.000000;0.803191
9059.000000;0.803373
9058.000000;0.803290
9057.000000;0.803063
9056.000000;0.802882
9055.000000;0.802786
9054.000000;0.802695
9053.000000;0.802571
