Criado como novo conjunto de dados;"2706_e01_daniel.spp","48064.2 Secs"
cm-1;Abs
10000.000000;0.996061
9999.000000;0.995317
9998.000000;0.994864
9997.000000;0.994907
9996.000000;0.995463
9995.000000;0.996206
9994.000000;0.996633
9993.000000;0.996481
9992.000000;0.995887
9991.000000;0.995143
9990.000000;0.994506
9989.000000;0.994179
9988.000000;0.994205
9987.000000;0.994348
9986.000000;0.994375
9985.000000;0.994444
9984.000000;0.994838
9983.000000;0.995281
9982.000000;0.995054
9981.000000;0.994002
9980.000000;0.992949
9979.000000;0.992742
9978.000000;0.993277
9977.000000;0.993844
9976.000000;0.994086
9975.000000;0.994136
9974.000000;0.994055
9973.000000;0.993726
9972.000000;0.993281
9971.000000;0.993119
9970.000000;0.993357
9969.000000;0.993641
9968.000000;0.993624
9967.000000;0.993338
9966.000000;0.992981
9965.000000;0.992608
9964.000000;0.992228
9963.000000;0.991971
9962.000000;0.991942
9961.000000;0.991980
9960.000000;0.991721
9959.000000;0.990924
9958.000000;0.989703
9957.000000;0.988465
9956.000000;0.987622
9955.000000;0.987317
9954.000000;0.987391
9953.000000;0.987619
9952.000000;0.987930
9951.000000;0.988346
9950.000000;0.988798
9949.000000;0.989079
9948.000000;0.988981
9947.000000;0.988413
9946.000000;0.987471
9945.000000;0.986499
9944.000000;0.986000
9943.000000;0.986271
9942.000000;0.987095
9941.000000;0.987910
9940.000000;0.988324
9939.000000;0.988382
9938.000000;0.988316
9937.000000;0.988175
9936.000000;0.987796
9935.000000;0.987078
9934.000000;0.986179
9933.000000;0.985422
9932.000000;0.985077
9931.000000;0.985224
9930.000000;0.985784
9929.000000;0.986607
9928.000000;0.987485
9927.000000;0.988142
9926.000000;0.988327
9925.000000;0.988048
9924.000000;0.987652
9923.000000;0.987530
9922.000000;0.987659
9921.000000;0.987518
9920.000000;0.986621
9919.000000;0.985183
9918.000000;0.984046
9917.000000;0.983830
9916.000000;0.984271
9915.000000;0.984606
9914.000000;0.984541
9913.000000;0.984553
9912.000000;0.985152
9911.000000;0.986200
9910.000000;0.987182
9909.000000;0.987875
9908.000000;0.988341
9907.000000;0.988436
9906.000000;0.987810
9905.000000;0.986490
9904.000000;0.985048
9903.000000;0.984028
9902.000000;0.983469
9901.000000;0.983150
9900.000000;0.982989
9899.000000;0.983025
9898.000000;0.983224
9897.000000;0.983542
9896.000000;0.983997
9895.000000;0.984434
9894.000000;0.984436
9893.000000;0.983772
9892.000000;0.982877
9891.000000;0.982511
9890.000000;0.982935
9889.000000;0.983657
9888.000000;0.984043
9887.000000;0.983928
9886.000000;0.983553
9885.000000;0.983164
9884.000000;0.982859
9883.000000;0.982672
9882.000000;0.982578
9881.000000;0.982469
9880.000000;0.982279
9879.000000;0.982124
9878.000000;0.982159
9877.000000;0.982308
9876.000000;0.982303
9875.000000;0.982025
9874.000000;0.981684
9873.000000;0.981549
9872.000000;0.981599
9871.000000;0.981566
9870.000000;0.981283
9869.000000;0.980858
9868.000000;0.980494
9867.000000;0.980273
9866.000000;0.980174
9865.000000;0.980180
9864.000000;0.980288
9863.000000;0.980462
9862.000000;0.980644
9861.000000;0.980795
9860.000000;0.980881
9859.000000;0.980862
9858.000000;0.980759
9857.000000;0.980686
9856.000000;0.980714
9855.000000;0.980676
9854.000000;0.980225
9853.000000;0.979176
9852.000000;0.977819
9851.000000;0.976833
9850.000000;0.976787
9849.000000;0.977620
9848.000000;0.978649
9847.000000;0.979181
9846.000000;0.979122
9845.000000;0.978909
9844.000000;0.978916
9843.000000;0.979137
9842.000000;0.979405
9841.000000;0.979640
9840.000000;0.979701
9839.000000;0.979303
9838.000000;0.978357
9837.000000;0.977273
9836.000000;0.976638
9835.000000;0.976614
9834.000000;0.976847
9833.000000;0.976936
9832.000000;0.976774
9831.000000;0.976466
9830.000000;0.976122
9829.000000;0.975809
9828.000000;0.975532
9827.000000;0.975259
9826.000000;0.975046
9825.000000;0.975109
9824.000000;0.975555
9823.000000;0.976075
9822.000000;0.976129
9821.000000;0.975554
9820.000000;0.974776
9819.000000;0.974335
9818.000000;0.974360
9817.000000;0.974622
9816.000000;0.974906
9815.000000;0.975137
9814.000000;0.975229
9813.000000;0.975079
9812.000000;0.974776
9811.000000;0.974623
9810.000000;0.974812
9809.000000;0.975120
9808.000000;0.975069
9807.000000;0.974421
9806.000000;0.973438
9805.000000;0.972588
9804.000000;0.972098
9803.000000;0.971915
9802.000000;0.971968
9801.000000;0.972244
9800.000000;0.972576
9799.000000;0.972685
9798.000000;0.972575
9797.000000;0.972618
9796.000000;0.973024
9795.000000;0.973472
9794.000000;0.973548
9793.000000;0.973381
9792.000000;0.973465
9791.000000;0.973909
9790.000000;0.974294
9789.000000;0.974280
9788.000000;0.974005
9787.000000;0.973724
9786.000000;0.973400
9785.000000;0.972911
9784.000000;0.972410
9783.000000;0.972222
9782.000000;0.972428
9781.000000;0.972731
9780.000000;0.972707
9779.000000;0.972134
9778.000000;0.971138
9777.000000;0.970118
9776.000000;0.969455
9775.000000;0.969248
9774.000000;0.969383
9773.000000;0.969800
9772.000000;0.970487
9771.000000;0.971171
9770.000000;0.971276
9769.000000;0.970424
9768.000000;0.968896
9767.000000;0.967487
9766.000000;0.966900
9765.000000;0.967308
9764.000000;0.968322
9763.000000;0.969304
9762.000000;0.969827
9761.000000;0.969936
9760.000000;0.969895
9759.000000;0.969718
9758.000000;0.969184
9757.000000;0.968350
9756.000000;0.967705
9755.000000;0.967604
9754.000000;0.967783
9753.000000;0.967717
9752.000000;0.967325
9751.000000;0.966972
9750.000000;0.966908
9749.000000;0.967056
9748.000000;0.967350
9747.000000;0.967839
9746.000000;0.968335
9745.000000;0.968354
9744.000000;0.967722
9743.000000;0.966994
9742.000000;0.966898
9741.000000;0.967445
9740.000000;0.967937
9739.000000;0.967862
9738.000000;0.967449
9737.000000;0.967223
9736.000000;0.967315
9735.000000;0.967463
9734.000000;0.967497
9733.000000;0.967473
9732.000000;0.967348
9731.000000;0.966903
9730.000000;0.966134
9729.000000;0.965475
9728.000000;0.965379
9727.000000;0.965786
9726.000000;0.966202
9725.000000;0.966243
9724.000000;0.965940
9723.000000;0.965570
9722.000000;0.965386
9721.000000;0.965515
9720.000000;0.965874
9719.000000;0.966114
9718.000000;0.965876
9717.000000;0.965242
9716.000000;0.964778
9715.000000;0.964939
9714.000000;0.965511
9713.000000;0.965838
9712.000000;0.965523
9711.000000;0.964760
9710.000000;0.963974
9709.000000;0.963395
9708.000000;0.963041
9707.000000;0.962964
9706.000000;0.963278
9705.000000;0.963970
9704.000000;0.964783
9703.000000;0.965323
9702.000000;0.965291
9701.000000;0.964686
9700.000000;0.963847
9699.000000;0.963245
9698.000000;0.963114
9697.000000;0.963265
9696.000000;0.963329
9695.000000;0.963182
9694.000000;0.963018
9693.000000;0.963017
9692.000000;0.963107
9691.000000;0.963147
9690.000000;0.963209
9689.000000;0.963480
9688.000000;0.963933
9687.000000;0.964279
9686.000000;0.964274
9685.000000;0.963946
9684.000000;0.963475
9683.000000;0.962991
9682.000000;0.962551
9681.000000;0.962216
9680.000000;0.962059
9679.000000;0.962094
9678.000000;0.962257
9677.000000;0.962437
9676.000000;0.962525
9675.000000;0.962479
9674.000000;0.962352
9673.000000;0.962203
9672.000000;0.961985
9671.000000;0.961604
9670.000000;0.961089
9669.000000;0.960621
9668.000000;0.960371
9667.000000;0.960359
9666.000000;0.960471
9665.000000;0.960525
9664.000000;0.960328
9663.000000;0.959825
9662.000000;0.959217
9661.000000;0.958811
9660.000000;0.958703
9659.000000;0.958746
9658.000000;0.958858
9657.000000;0.959157
9656.000000;0.959659
9655.000000;0.960026
9654.000000;0.959882
9653.000000;0.959301
9652.000000;0.958739
9651.000000;0.958483
9650.000000;0.958356
9649.000000;0.958000
9648.000000;0.957292
9647.000000;0.956456
9646.000000;0.955891
9645.000000;0.955932
9644.000000;0.956619
9643.000000;0.957573
9642.000000;0.958199
9641.000000;0.958147
9640.000000;0.957627
9639.000000;0.957149
9638.000000;0.956950
9637.000000;0.956758
9636.000000;0.956200
9635.000000;0.955344
9634.000000;0.954681
9633.000000;0.954537
9632.000000;0.954697
9631.000000;0.954755
9630.000000;0.954700
9629.000000;0.954898
9628.000000;0.955498
9627.000000;0.956164
9626.000000;0.956540
9625.000000;0.956713
9624.000000;0.956972
9623.000000;0.957262
9622.000000;0.957207
9621.000000;0.956686
9620.000000;0.956083
9619.000000;0.955832
9618.000000;0.955885
9617.000000;0.955820
9616.000000;0.955415
9615.000000;0.954916
9614.000000;0.954704
9613.000000;0.954807
9612.000000;0.954871
9611.000000;0.954585
9610.000000;0.954028
9609.000000;0.953568
9608.000000;0.953513
9607.000000;0.953897
9606.000000;0.954507
9605.000000;0.955020
9604.000000;0.955188
9603.000000;0.955004
9602.000000;0.954685
9601.000000;0.954415
9600.000000;0.954172
9599.000000;0.953869
9598.000000;0.953554
9597.000000;0.953314
9596.000000;0.953090
9595.000000;0.952769
9594.000000;0.952433
9593.000000;0.952276
9592.000000;0.952308
9591.000000;0.952354
9590.000000;0.952364
9589.000000;0.952472
9588.000000;0.952703
9587.000000;0.952876
9586.000000;0.952892
9585.000000;0.952885
9584.000000;0.952950
9583.000000;0.952924
9582.000000;0.952579
9581.000000;0.951898
9580.000000;0.951022
9579.000000;0.950117
9578.000000;0.949437
9577.000000;0.949288
9576.000000;0.949739
9575.000000;0.950466
9574.000000;0.951027
9573.000000;0.951187
9572.000000;0.950904
9571.000000;0.950204
9570.000000;0.949262
9569.000000;0.948456
9568.000000;0.948139
9567.000000;0.948382
9566.000000;0.949025
9565.000000;0.949812
9564.000000;0.950407
9563.000000;0.950537
9562.000000;0.950278
9561.000000;0.950003
9560.000000;0.949870
9559.000000;0.949612
9558.000000;0.949048
9557.000000;0.948524
9556.000000;0.948504
9555.000000;0.948930
9554.000000;0.949321
9553.000000;0.949394
9552.000000;0.949225
9551.000000;0.948908
9550.000000;0.948436
9549.000000;0.947933
9548.000000;0.947652
9547.000000;0.947671
9546.000000;0.947825
9545.000000;0.947943
9544.000000;0.947954
9543.000000;0.947798
9542.000000;0.947496
9541.000000;0.947274
9540.000000;0.947357
9539.000000;0.947643
9538.000000;0.947829
9537.000000;0.947820
9536.000000;0.947733
9535.000000;0.947558
9534.000000;0.947145
9533.000000;0.946559
9532.000000;0.946106
9531.000000;0.945912
9530.000000;0.945776
9529.000000;0.945549
9528.000000;0.945367
9527.000000;0.945370
9526.000000;0.945501
9525.000000;0.945732
9524.000000;0.946192
9523.000000;0.946854
9522.000000;0.947328
9521.000000;0.947253
9520.000000;0.946750
9519.000000;0.946276
9518.000000;0.946145
9517.000000;0.946369
9516.000000;0.946792
9515.000000;0.947130
9514.000000;0.946992
9513.000000;0.946205
9512.000000;0.945118
9511.000000;0.944365
9510.000000;0.944256
9509.000000;0.944511
9508.000000;0.944630
9507.000000;0.944408
9506.000000;0.944064
9505.000000;0.943966
9504.000000;0.944283
9503.000000;0.944844
9502.000000;0.945290
9501.000000;0.945403
9500.000000;0.945302
9499.000000;0.945253
9498.000000;0.945294
9497.000000;0.945095
9496.000000;0.944302
9495.000000;0.943018
9494.000000;0.941845
9493.000000;0.941379
9492.000000;0.941665
9491.000000;0.942227
9490.000000;0.942591
9489.000000;0.942696
9488.000000;0.942743
9487.000000;0.942827
9486.000000;0.942846
9485.000000;0.942733
9484.000000;0.942591
9483.000000;0.942576
9482.000000;0.942729
9481.000000;0.942942
9480.000000;0.943021
9479.000000;0.942796
9478.000000;0.942244
9477.000000;0.941566
9476.000000;0.941095
9475.000000;0.941085
9474.000000;0.941528
9473.000000;0.942109
9472.000000;0.942334
9471.000000;0.941858
9470.000000;0.940825
9469.000000;0.939850
9468.000000;0.939555
9467.000000;0.940064
9466.000000;0.940943
9465.000000;0.941575
9464.000000;0.941596
9463.000000;0.941119
9462.000000;0.940630
9461.000000;0.940610
9460.000000;0.941112
9459.000000;0.941715
9458.000000;0.941944
9457.000000;0.941689
9456.000000;0.941181
9455.000000;0.940667
9454.000000;0.940238
9453.000000;0.939869
9452.000000;0.939485
9451.000000;0.939034
9450.000000;0.938613
9449.000000;0.938450
9448.000000;0.938642
9447.000000;0.938947
9446.000000;0.939021
9445.000000;0.938792
9444.000000;0.938468
9443.000000;0.938224
9442.000000;0.938079
9441.000000;0.938053
9440.000000;0.938230
9439.000000;0.938578
9438.000000;0.938840
9437.000000;0.938674
9436.000000;0.937938
9435.000000;0.936864
9434.000000;0.936007
9433.000000;0.935884
9432.000000;0.936482
9431.000000;0.937172
9430.000000;0.937293
9429.000000;0.936800
9428.000000;0.936196
9427.000000;0.935913
9426.000000;0.935954
9425.000000;0.936103
9424.000000;0.936205
9423.000000;0.936176
9422.000000;0.935984
9421.000000;0.935701
9420.000000;0.935463
9419.000000;0.935299
9418.000000;0.935135
9417.000000;0.934977
9416.000000;0.934948
9415.000000;0.935098
9414.000000;0.935341
9413.000000;0.935606
9412.000000;0.935886
9411.000000;0.936062
9410.000000;0.935894
9409.000000;0.935343
9408.000000;0.934749
9407.000000;0.934536
9406.000000;0.934778
9405.000000;0.935160
9404.000000;0.935300
9403.000000;0.935059
9402.000000;0.934605
9401.000000;0.934271
9400.000000;0.934288
9399.000000;0.934576
9398.000000;0.934823
9397.000000;0.934810
9396.000000;0.934617
9395.000000;0.934479
9394.000000;0.934484
9393.000000;0.934512
9392.000000;0.934426
9391.000000;0.934268
9390.000000;0.934232
9389.000000;0.934436
9388.000000;0.934719
9387.000000;0.934755
9386.000000;0.934393
9385.000000;0.933805
9384.000000;0.933219
9383.000000;0.932628
9382.000000;0.931921
9381.000000;0.931224
9380.000000;0.930887
9379.000000;0.931105
9378.000000;0.931755
9377.000000;0.932599
9376.000000;0.933448
9375.000000;0.934057
9374.000000;0.934134
9373.000000;0.933642
9372.000000;0.932949
9371.000000;0.932460
9370.000000;0.932198
9369.000000;0.931891
9368.000000;0.931423
9367.000000;0.930990
9366.000000;0.930814
9365.000000;0.930860
9364.000000;0.930905
9363.000000;0.930784
9362.000000;0.930494
9361.000000;0.930121
9360.000000;0.929756
9359.000000;0.929520
9358.000000;0.929620
9357.000000;0.930247
9356.000000;0.931328
9355.000000;0.932387
9354.000000;0.932786
9353.000000;0.932221
9352.000000;0.931005
9351.000000;0.929855
9350.000000;0.929339
9349.000000;0.929493
9348.000000;0.929892
9347.000000;0.930083
9346.000000;0.929974
9345.000000;0.929793
9344.000000;0.929716
9343.000000;0.929641
9342.000000;0.929399
9341.000000;0.929062
9340.000000;0.928896
9339.000000;0.929023
9338.000000;0.929251
9337.000000;0.929282
9336.000000;0.928979
9335.000000;0.928443
9334.000000;0.927897
9333.000000;0.927520
9332.000000;0.927319
9331.000000;0.927156
9330.000000;0.926952
9329.000000;0.926813
9328.000000;0.926882
9327.000000;0.927105
9326.000000;0.927269
9325.000000;0.927256
9324.000000;0.927101
9323.000000;0.926836
9322.000000;0.926444
9321.000000;0.926018
9320.000000;0.925772
9319.000000;0.925803
9318.000000;0.925949
9317.000000;0.925981
9316.000000;0.925828
9315.000000;0.925542
9314.000000;0.925174
9313.000000;0.924800
9312.000000;0.924583
9311.000000;0.924647
9310.000000;0.924919
9309.000000;0.925218
9308.000000;0.925453
9307.000000;0.925622
9306.000000;0.925661
9305.000000;0.925469
9304.000000;0.925122
9303.000000;0.924917
9302.000000;0.925096
9301.000000;0.925588
9300.000000;0.926085
9299.000000;0.926343
9298.000000;0.926345
9297.000000;0.926185
9296.000000;0.925922
9295.000000;0.925561
9294.000000;0.925119
9293.000000;0.924642
9292.000000;0.924183
9291.000000;0.923796
9290.000000;0.923533
9289.000000;0.923425
9288.000000;0.923476
9287.000000;0.923675
9286.000000;0.923960
9285.000000;0.924137
9284.000000;0.923962
9283.000000;0.923401
9282.000000;0.922750
9281.000000;0.922362
9280.000000;0.922280
9279.000000;0.922295
9278.000000;0.922316
9277.000000;0.922482
9276.000000;0.922851
9275.000000;0.923210
9274.000000;0.923353
9273.000000;0.923375
9272.000000;0.923513
9271.000000;0.923774
9270.000000;0.923904
9269.000000;0.923691
9268.000000;0.923152
9267.000000;0.922452
9266.000000;0.921786
9265.000000;0.921322
9264.000000;0.921139
9263.000000;0.921191
9262.000000;0.921361
9261.000000;0.921540
9260.000000;0.921605
9259.000000;0.921432
9258.000000;0.921051
9257.000000;0.920736
9256.000000;0.920745
9255.000000;0.920996
9254.000000;0.921118
9253.000000;0.920875
9252.000000;0.920423
9251.000000;0.920114
9250.000000;0.920137
9249.000000;0.920369
9248.000000;0.920514
9247.000000;0.920379
9246.000000;0.920061
9245.000000;0.919858
9244.000000;0.919943
9243.000000;0.920163
9242.000000;0.920217
9241.000000;0.919985
9240.000000;0.919584
9239.000000;0.919169
9238.000000;0.918809
9237.000000;0.918557
9236.000000;0.918475
9235.000000;0.918542
9234.000000;0.918596
9233.000000;0.918455
9232.000000;0.918089
9231.000000;0.917703
9230.000000;0.917631
9229.000000;0.918049
9228.000000;0.918736
9227.000000;0.919192
9226.000000;0.919107
9225.000000;0.918647
9224.000000;0.918182
9223.000000;0.917830
9222.000000;0.917447
9221.000000;0.916981
9220.000000;0.916620
9219.000000;0.916553
9218.000000;0.916754
9217.000000;0.917057
9216.000000;0.917305
9215.000000;0.917393
9214.000000;0.917310
9213.000000;0.917191
9212.000000;0.917204
9211.000000;0.917318
9210.000000;0.917260
9209.000000;0.916803
9208.000000;0.916049
9207.000000;0.915377
9206.000000;0.915118
9205.000000;0.915293
9204.000000;0.915629
9203.000000;0.915819
9202.000000;0.915799
9201.000000;0.915755
9200.000000;0.915871
9199.000000;0.916136
9198.000000;0.916420
9197.000000;0.916611
9196.000000;0.916585
9195.000000;0.916191
9194.000000;0.915453
9193.000000;0.914711
9192.000000;0.914346
9191.000000;0.914376
9190.000000;0.914510
9189.000000;0.914584
9188.000000;0.914718
9187.000000;0.915006
9186.000000;0.915284
9185.000000;0.915319
9184.000000;0.915073
9183.000000;0.914679
9182.000000;0.914271
9181.000000;0.913944
9180.000000;0.913766
9179.000000;0.913712
9178.000000;0.913677
9177.000000;0.913617
9176.000000;0.913612
9175.000000;0.913712
9174.000000;0.913820
9173.000000;0.913797
9172.000000;0.913630
9171.000000;0.913435
9170.000000;0.913349
9169.000000;0.913467
9168.000000;0.913779
9167.000000;0.914084
9166.000000;0.914072
9165.000000;0.913605
9164.000000;0.912906
9163.000000;0.912383
9162.000000;0.912270
9161.000000;0.912489
9160.000000;0.912807
9159.000000;0.913030
9158.000000;0.913077
9157.000000;0.912942
9156.000000;0.912653
9155.000000;0.912264
9154.000000;0.911884
9153.000000;0.911665
9152.000000;0.911699
9151.000000;0.911908
9150.000000;0.912062
9149.000000;0.911967
9148.000000;0.911616
9147.000000;0.911162
9146.000000;0.910778
9145.000000;0.910537
9144.000000;0.910405
9143.000000;0.910324
9142.000000;0.910300
9141.000000;0.910393
9140.000000;0.910585
9139.000000;0.910737
9138.000000;0.910736
9137.000000;0.910641
9136.000000;0.910584
9135.000000;0.910560
9134.000000;0.910436
9133.000000;0.910185
9132.000000;0.909987
9131.000000;0.910024
9130.000000;0.910262
9129.000000;0.910487
9128.000000;0.910517
9127.000000;0.910299
9126.000000;0.909885
9125.000000;0.909395
9124.000000;0.909000
9123.000000;0.908845
9122.000000;0.908941
9121.000000;0.909134
9120.000000;0.909209
9119.000000;0.909049
9118.000000;0.908708
9117.000000;0.908320
9116.000000;0.907959
9115.000000;0.907610
9114.000000;0.907273
9113.000000;0.907018
9112.000000;0.906905
9111.000000;0.906884
9110.000000;0.906826
9109.000000;0.906637
9108.000000;0.906328
9107.000000;0.906016
9106.000000;0.905867
9105.000000;0.905972
9104.000000;0.906255
9103.000000;0.906565
9102.000000;0.906868
9101.000000;0.907254
9100.000000;0.907685
9099.000000;0.907875
9098.000000;0.907578
9097.000000;0.906916
9096.000000;0.906302
9095.000000;0.906064
9094.000000;0.906250
9093.000000;0.906677
9092.000000;0.907012
9091.000000;0.906907
9090.000000;0.906276
9089.000000;0.905488
9088.000000;0.905060
9087.000000;0.905127
9086.000000;0.905335
9085.000000;0.905301
9084.000000;0.905027
9083.000000;0.904784
9082.000000;0.904755
9081.000000;0.904894
9080.000000;0.905062
9079.000000;0.905164
9078.000000;0.905182
9077.000000;0.905137
9076.000000;0.905008
9075.000000;0.904726
9074.000000;0.904280
9073.000000;0.903811
9072.000000;0.903499
9071.000000;0.903349
9070.000000;0.903203
9069.000000;0.902961
9068.000000;0.902694
9067.000000;0.902508
9066.000000;0.902425
9065.000000;0.902436
9064.000000;0.902539
9063.000000;0.902652
9062.000000;0.902611
9061.000000;0.902364
9060.000000;0.902092
9059.000000;0.902024
9058.000000;0.902169
9057.000000;0.902338
9056.000000;0.902380
9055.000000;0.902306
9054.000000;0.902208
9053.000000;0.902129
