Criado como novo conjunto de dados;"2706_e01_daniel.spp","37623.8 Secs"
cm-1;Abs
10000.000000;0.667609
9999.000000;0.666732
9998.000000;0.665881
9997.000000;0.665141
9996.000000;0.664683
9995.000000;0.664646
9994.000000;0.664979
9993.000000;0.665413
9992.000000;0.665595
9991.000000;0.665347
9990.000000;0.664858
9989.000000;0.664559
9988.000000;0.664718
9987.000000;0.665179
9986.000000;0.665530
9985.000000;0.665509
9984.000000;0.665180
9983.000000;0.664779
9982.000000;0.664510
9981.000000;0.664464
9980.000000;0.664619
9979.000000;0.664849
9978.000000;0.664971
9977.000000;0.664837
9976.000000;0.664424
9975.000000;0.663900
9974.000000;0.663584
9973.000000;0.663734
9972.000000;0.664305
9971.000000;0.664972
9970.000000;0.665452
9969.000000;0.665706
9968.000000;0.665753
9967.000000;0.665466
9966.000000;0.664739
9965.000000;0.663820
9964.000000;0.663196
9963.000000;0.663113
9962.000000;0.663340
9961.000000;0.663497
9960.000000;0.663442
9959.000000;0.663278
9958.000000;0.663107
9957.000000;0.662953
9956.000000;0.662861
9955.000000;0.662901
9954.000000;0.663047
9953.000000;0.663152
9952.000000;0.663091
9951.000000;0.662861
9950.000000;0.662499
9949.000000;0.661965
9948.000000;0.661217
9947.000000;0.660431
9946.000000;0.659990
9945.000000;0.660124
9944.000000;0.660580
9943.000000;0.660807
9942.000000;0.660540
9941.000000;0.660089
9940.000000;0.659995
9939.000000;0.660480
9938.000000;0.661305
9937.000000;0.662063
9936.000000;0.662468
9935.000000;0.662415
9934.000000;0.661917
9933.000000;0.661096
9932.000000;0.660175
9931.000000;0.659418
9930.000000;0.659030
9929.000000;0.659057
9928.000000;0.659328
9927.000000;0.659546
9926.000000;0.659484
9925.000000;0.659119
9924.000000;0.658591
9923.000000;0.658093
9922.000000;0.657793
9921.000000;0.657790
9920.000000;0.658031
9919.000000;0.658302
9918.000000;0.658390
9917.000000;0.658243
9916.000000;0.657956
9915.000000;0.657643
9914.000000;0.657392
9913.000000;0.657293
9912.000000;0.657433
9911.000000;0.657828
9910.000000;0.658381
9909.000000;0.658901
9908.000000;0.659156
9907.000000;0.658999
9906.000000;0.658484
9905.000000;0.657844
9904.000000;0.657318
9903.000000;0.657039
9902.000000;0.657040
9901.000000;0.657237
9900.000000;0.657377
9899.000000;0.657175
9898.000000;0.656633
9897.000000;0.656088
9896.000000;0.655839
9895.000000;0.655823
9894.000000;0.655795
9893.000000;0.655709
9892.000000;0.655724
9891.000000;0.655899
9890.000000;0.656086
9889.000000;0.656168
9888.000000;0.656209
9887.000000;0.656312
9886.000000;0.656418
9885.000000;0.656366
9884.000000;0.656128
9883.000000;0.655925
9882.000000;0.656049
9881.000000;0.656489
9880.000000;0.656800
9879.000000;0.656522
9878.000000;0.655772
9877.000000;0.655221
9876.000000;0.655337
9875.000000;0.655843
9874.000000;0.656105
9873.000000;0.655888
9872.000000;0.655469
9871.000000;0.655104
9870.000000;0.654766
9869.000000;0.654426
9868.000000;0.654259
9867.000000;0.654397
9866.000000;0.654701
9865.000000;0.654949
9864.000000;0.655112
9863.000000;0.655292
9862.000000;0.655469
9861.000000;0.655486
9860.000000;0.655255
9859.000000;0.654890
9858.000000;0.654608
9857.000000;0.654531
9856.000000;0.654548
9855.000000;0.654373
9854.000000;0.653807
9853.000000;0.652968
9852.000000;0.652247
9851.000000;0.651995
9850.000000;0.652264
9849.000000;0.652805
9848.000000;0.653262
9847.000000;0.653404
9846.000000;0.653226
9845.000000;0.652857
9844.000000;0.652367
9843.000000;0.651771
9842.000000;0.651217
9841.000000;0.651021
9840.000000;0.651342
9839.000000;0.651919
9838.000000;0.652299
9837.000000;0.652301
9836.000000;0.652115
9835.000000;0.651965
9834.000000;0.651894
9833.000000;0.651865
9832.000000;0.651870
9831.000000;0.651851
9830.000000;0.651675
9829.000000;0.651288
9828.000000;0.650816
9827.000000;0.650463
9826.000000;0.650372
9825.000000;0.650573
9824.000000;0.650932
9823.000000;0.651160
9822.000000;0.651014
9821.000000;0.650524
9820.000000;0.649913
9819.000000;0.649313
9818.000000;0.648724
9817.000000;0.648261
9816.000000;0.648184
9815.000000;0.648559
9814.000000;0.649057
9813.000000;0.649287
9812.000000;0.649220
9811.000000;0.649138
9810.000000;0.649249
9809.000000;0.649497
9808.000000;0.649748
9807.000000;0.649987
9806.000000;0.650273
9805.000000;0.650558
9804.000000;0.650613
9803.000000;0.650228
9802.000000;0.649521
9801.000000;0.648956
9800.000000;0.648940
9799.000000;0.649383
9798.000000;0.649776
9797.000000;0.649690
9796.000000;0.649128
9795.000000;0.648403
9794.000000;0.647845
9793.000000;0.647666
9792.000000;0.647872
9791.000000;0.648194
9790.000000;0.648246
9789.000000;0.647926
9788.000000;0.647575
9787.000000;0.647599
9786.000000;0.648000
9785.000000;0.648419
9784.000000;0.648561
9783.000000;0.648443
9782.000000;0.648233
9781.000000;0.648016
9780.000000;0.647766
9779.000000;0.647462
9778.000000;0.647157
9777.000000;0.646944
9776.000000;0.646872
9775.000000;0.646914
9774.000000;0.647020
9773.000000;0.647179
9772.000000;0.647371
9771.000000;0.647502
9770.000000;0.647473
9769.000000;0.647320
9768.000000;0.647171
9767.000000;0.647035
9766.000000;0.646762
9765.000000;0.646281
9764.000000;0.645763
9763.000000;0.645462
9762.000000;0.645499
9761.000000;0.645864
9760.000000;0.646492
9759.000000;0.647173
9758.000000;0.647504
9757.000000;0.647164
9756.000000;0.646284
9755.000000;0.645402
9754.000000;0.644981
9753.000000;0.645039
9752.000000;0.645248
9751.000000;0.645301
9750.000000;0.645144
9749.000000;0.644939
9748.000000;0.644853
9747.000000;0.644896
9746.000000;0.644942
9745.000000;0.644892
9744.000000;0.644774
9743.000000;0.644654
9742.000000;0.644514
9741.000000;0.644283
9740.000000;0.643965
9739.000000;0.643669
9738.000000;0.643483
9737.000000;0.643402
9736.000000;0.643387
9735.000000;0.643440
9734.000000;0.643563
9733.000000;0.643671
9732.000000;0.643625
9731.000000;0.643386
9730.000000;0.643118
9729.000000;0.643065
9728.000000;0.643309
9727.000000;0.643660
9726.000000;0.643855
9725.000000;0.643805
9724.000000;0.643614
9723.000000;0.643380
9722.000000;0.643123
9721.000000;0.642891
9720.000000;0.642788
9719.000000;0.642802
9718.000000;0.642726
9717.000000;0.642386
9716.000000;0.641897
9715.000000;0.641558
9714.000000;0.641508
9713.000000;0.641611
9712.000000;0.641705
9711.000000;0.641826
9710.000000;0.642106
9709.000000;0.642535
9708.000000;0.642924
9707.000000;0.643085
9706.000000;0.642979
9705.000000;0.642686
9704.000000;0.642287
9703.000000;0.641809
9702.000000;0.641274
9701.000000;0.640776
9700.000000;0.640475
9699.000000;0.640486
9698.000000;0.640761
9697.000000;0.641077
9696.000000;0.641169
9695.000000;0.640905
9694.000000;0.640390
9693.000000;0.639907
9692.000000;0.639721
9691.000000;0.639902
9690.000000;0.640287
9689.000000;0.640609
9688.000000;0.640677
9687.000000;0.640475
9686.000000;0.640117
9685.000000;0.639749
9684.000000;0.639479
9683.000000;0.639393
9682.000000;0.639559
9681.000000;0.639958
9680.000000;0.640403
9679.000000;0.640603
9678.000000;0.640394
9677.000000;0.639890
9676.000000;0.639377
9675.000000;0.639067
9674.000000;0.638981
9673.000000;0.639037
9672.000000;0.639147
9671.000000;0.639211
9670.000000;0.639131
9669.000000;0.638903
9668.000000;0.638673
9667.000000;0.638605
9666.000000;0.638723
9665.000000;0.638904
9664.000000;0.639029
9663.000000;0.639052
9662.000000;0.638934
9661.000000;0.638624
9660.000000;0.638197
9659.000000;0.637936
9658.000000;0.638154
9657.000000;0.638837
9656.000000;0.639543
9655.000000;0.639751
9654.000000;0.639354
9653.000000;0.638761
9652.000000;0.638481
9651.000000;0.638623
9650.000000;0.638817
9649.000000;0.638576
9648.000000;0.637763
9647.000000;0.636735
9646.000000;0.636058
9645.000000;0.636044
9644.000000;0.636507
9643.000000;0.636959
9642.000000;0.637046
9641.000000;0.636776
9640.000000;0.636391
9639.000000;0.636117
9638.000000;0.636063
9637.000000;0.636234
9636.000000;0.636519
9635.000000;0.636710
9634.000000;0.636654
9633.000000;0.636393
9632.000000;0.636088
9631.000000;0.635810
9630.000000;0.635502
9629.000000;0.635163
9628.000000;0.634948
9627.000000;0.635038
9626.000000;0.635437
9625.000000;0.635968
9624.000000;0.636429
9623.000000;0.636679
9622.000000;0.636622
9621.000000;0.636203
9620.000000;0.635509
9619.000000;0.634823
9618.000000;0.634492
9617.000000;0.634671
9616.000000;0.635190
9615.000000;0.635681
9614.000000;0.635858
9613.000000;0.635674
9612.000000;0.635271
9611.000000;0.634862
9610.000000;0.634632
9609.000000;0.634649
9608.000000;0.634795
9607.000000;0.634839
9606.000000;0.634657
9605.000000;0.634350
9604.000000;0.634114
9603.000000;0.634020
9602.000000;0.634003
9601.000000;0.634012
9600.000000;0.634064
9599.000000;0.634149
9598.000000;0.634175
9597.000000;0.634068
9596.000000;0.633886
9595.000000;0.633787
9594.000000;0.633879
9593.000000;0.634108
9592.000000;0.634298
9591.000000;0.634295
9590.000000;0.634106
9589.000000;0.633886
9588.000000;0.633754
9587.000000;0.633641
9586.000000;0.633357
9585.000000;0.632844
9584.000000;0.632303
9583.000000;0.632033
9582.000000;0.632149
9581.000000;0.632468
9580.000000;0.632698
9579.000000;0.632731
9578.000000;0.632705
9577.000000;0.632790
9576.000000;0.632976
9575.000000;0.633124
9574.000000;0.633191
9573.000000;0.633273
9572.000000;0.633403
9571.000000;0.633419
9570.000000;0.633118
9569.000000;0.632515
9568.000000;0.631860
9567.000000;0.631414
9566.000000;0.631247
9565.000000;0.631255
9564.000000;0.631297
9563.000000;0.631308
9562.000000;0.631302
9561.000000;0.631298
9560.000000;0.631271
9559.000000;0.631192
9558.000000;0.631109
9557.000000;0.631110
9556.000000;0.631223
9555.000000;0.631379
9554.000000;0.631521
9553.000000;0.631636
9552.000000;0.631670
9551.000000;0.631508
9550.000000;0.631112
9549.000000;0.630618
9548.000000;0.630219
9547.000000;0.630001
9546.000000;0.629950
9545.000000;0.630020
9544.000000;0.630126
9543.000000;0.630170
9542.000000;0.630183
9541.000000;0.630356
9540.000000;0.630768
9539.000000;0.631167
9538.000000;0.631215
9537.000000;0.630943
9536.000000;0.630741
9535.000000;0.630865
9534.000000;0.631122
9533.000000;0.631122
9532.000000;0.630707
9531.000000;0.630037
9530.000000;0.629376
9529.000000;0.628903
9528.000000;0.628675
9527.000000;0.628646
9526.000000;0.628733
9525.000000;0.628899
9524.000000;0.629137
9523.000000;0.629359
9522.000000;0.629386
9521.000000;0.629106
9520.000000;0.628586
9519.000000;0.628002
9518.000000;0.627521
9517.000000;0.627284
9516.000000;0.627388
9515.000000;0.627748
9514.000000;0.628065
9513.000000;0.628058
9512.000000;0.627750
9511.000000;0.627419
9510.000000;0.627278
9509.000000;0.627303
9508.000000;0.627368
9507.000000;0.627431
9506.000000;0.627524
9505.000000;0.627640
9504.000000;0.627701
9503.000000;0.627640
9502.000000;0.627475
9501.000000;0.627317
9500.000000;0.627300
9499.000000;0.627463
9498.000000;0.627659
9497.000000;0.627639
9496.000000;0.627293
9495.000000;0.626790
9494.000000;0.626396
9493.000000;0.626173
9492.000000;0.625944
9491.000000;0.625603
9490.000000;0.625341
9489.000000;0.625449
9488.000000;0.625960
9487.000000;0.626577
9486.000000;0.626963
9485.000000;0.627010
9484.000000;0.626829
9483.000000;0.626606
9482.000000;0.626491
9481.000000;0.626539
9480.000000;0.626675
9479.000000;0.626750
9478.000000;0.626696
9477.000000;0.626557
9476.000000;0.626380
9475.000000;0.626147
9474.000000;0.625872
9473.000000;0.625647
9472.000000;0.625510
9471.000000;0.625358
9470.000000;0.625115
9469.000000;0.624909
9468.000000;0.624933
9467.000000;0.625149
9466.000000;0.625293
9465.000000;0.625185
9464.000000;0.624918
9463.000000;0.624690
9462.000000;0.624549
9461.000000;0.624371
9460.000000;0.624046
9459.000000;0.623644
9458.000000;0.623421
9457.000000;0.623618
9456.000000;0.624173
9455.000000;0.624661
9454.000000;0.624651
9453.000000;0.624152
9452.000000;0.623610
9451.000000;0.623407
9450.000000;0.623481
9449.000000;0.623497
9448.000000;0.623304
9447.000000;0.623078
9446.000000;0.623043
9445.000000;0.623176
9444.000000;0.623267
9443.000000;0.623211
9442.000000;0.623133
9441.000000;0.623195
9440.000000;0.623329
9439.000000;0.623261
9438.000000;0.622847
9437.000000;0.622300
9436.000000;0.621987
9435.000000;0.622056
9434.000000;0.622354
9433.000000;0.622676
9432.000000;0.622955
9431.000000;0.623166
9430.000000;0.623205
9429.000000;0.622981
9428.000000;0.622547
9427.000000;0.622054
9426.000000;0.621589
9425.000000;0.621154
9424.000000;0.620759
9423.000000;0.620440
9422.000000;0.620194
9421.000000;0.620016
9420.000000;0.619997
9419.000000;0.620276
9418.000000;0.620837
9417.000000;0.621432
9416.000000;0.621792
9415.000000;0.621887
9414.000000;0.621893
9413.000000;0.621921
9412.000000;0.621892
9411.000000;0.621692
9410.000000;0.621355
9409.000000;0.621013
9408.000000;0.620713
9407.000000;0.620396
9406.000000;0.620033
9405.000000;0.619693
9404.000000;0.619450
9403.000000;0.619300
9402.000000;0.619210
9401.000000;0.619175
9400.000000;0.619186
9399.000000;0.619188
9398.000000;0.619146
9397.000000;0.619108
9396.000000;0.619143
9395.000000;0.619260
9394.000000;0.619425
9393.000000;0.619611
9392.000000;0.619774
9391.000000;0.619829
9390.000000;0.619748
9389.000000;0.619659
9388.000000;0.619718
9387.000000;0.619901
9386.000000;0.620011
9385.000000;0.619919
9384.000000;0.619702
9383.000000;0.619504
9382.000000;0.619360
9381.000000;0.619206
9380.000000;0.619002
9379.000000;0.618791
9378.000000;0.618660
9377.000000;0.618671
9376.000000;0.618790
9375.000000;0.618865
9374.000000;0.618744
9373.000000;0.618446
9372.000000;0.618161
9371.000000;0.618044
9370.000000;0.618055
9369.000000;0.618055
9368.000000;0.617981
9367.000000;0.617844
9366.000000;0.617617
9365.000000;0.617262
9364.000000;0.616878
9363.000000;0.616714
9362.000000;0.616942
9361.000000;0.617443
9360.000000;0.617897
9359.000000;0.618065
9358.000000;0.617976
9357.000000;0.617806
9356.000000;0.617658
9355.000000;0.617490
9354.000000;0.617237
9353.000000;0.616938
9352.000000;0.616702
9351.000000;0.616597
9350.000000;0.616598
9349.000000;0.616654
9348.000000;0.616750
9347.000000;0.616896
9346.000000;0.617066
9345.000000;0.617175
9344.000000;0.617143
9343.000000;0.616961
9342.000000;0.616718
9341.000000;0.616531
9340.000000;0.616467
9339.000000;0.616511
9338.000000;0.616609
9337.000000;0.616715
9336.000000;0.616798
9335.000000;0.616827
9334.000000;0.616767
9333.000000;0.616593
9332.000000;0.616319
9331.000000;0.616039
9330.000000;0.615887
9329.000000;0.615917
9328.000000;0.615997
9327.000000;0.615900
9326.000000;0.615519
9325.000000;0.615005
9324.000000;0.614644
9323.000000;0.614623
9322.000000;0.614895
9321.000000;0.615227
9320.000000;0.615374
9319.000000;0.615267
9318.000000;0.615043
9317.000000;0.614877
9316.000000;0.614775
9315.000000;0.614604
9314.000000;0.614333
9313.000000;0.614141
9312.000000;0.614204
9311.000000;0.614465
9310.000000;0.614694
9309.000000;0.614763
9308.000000;0.614746
9307.000000;0.614783
9306.000000;0.614934
9305.000000;0.615144
9304.000000;0.615289
9303.000000;0.615226
9302.000000;0.614906
9301.000000;0.614437
9300.000000;0.613986
9299.000000;0.613623
9298.000000;0.613314
9297.000000;0.613084
9296.000000;0.613065
9295.000000;0.613310
9294.000000;0.613630
9293.000000;0.613723
9292.000000;0.613480
9291.000000;0.613103
9290.000000;0.612897
9289.000000;0.612985
9288.000000;0.613243
9287.000000;0.613475
9286.000000;0.613600
9285.000000;0.613653
9284.000000;0.613650
9283.000000;0.613504
9282.000000;0.613123
9281.000000;0.612561
9280.000000;0.612063
9279.000000;0.611920
9278.000000;0.612206
9277.000000;0.612649
9276.000000;0.612804
9275.000000;0.612475
9274.000000;0.611936
9273.000000;0.611638
9272.000000;0.611707
9271.000000;0.611810
9270.000000;0.611582
9269.000000;0.611073
9268.000000;0.610680
9267.000000;0.610713
9266.000000;0.611113
9265.000000;0.611563
9264.000000;0.611768
9263.000000;0.611653
9262.000000;0.611388
9261.000000;0.611229
9260.000000;0.611293
9259.000000;0.611456
9258.000000;0.611503
9257.000000;0.611335
9256.000000;0.611008
9255.000000;0.610629
9254.000000;0.610289
9253.000000;0.610049
9252.000000;0.609925
9251.000000;0.609865
9250.000000;0.609808
9249.000000;0.609750
9248.000000;0.609708
9247.000000;0.609674
9246.000000;0.609642
9245.000000;0.609647
9244.000000;0.609684
9243.000000;0.609634
9242.000000;0.609397
9241.000000;0.609075
9240.000000;0.608903
9239.000000;0.608954
9238.000000;0.609035
9237.000000;0.608924
9236.000000;0.608636
9235.000000;0.608374
9234.000000;0.608284
9233.000000;0.608315
9232.000000;0.608318
9231.000000;0.608233
9230.000000;0.608168
9229.000000;0.608303
9228.000000;0.608680
9227.000000;0.609096
9226.000000;0.609268
9225.000000;0.609103
9224.000000;0.608774
9223.000000;0.608488
9222.000000;0.608265
9221.000000;0.607990
9220.000000;0.607649
9219.000000;0.607420
9218.000000;0.607479
9217.000000;0.607778
9216.000000;0.608059
9215.000000;0.608113
9214.000000;0.607974
9213.000000;0.607831
9212.000000;0.607790
9211.000000;0.607799
9210.000000;0.607796
9209.000000;0.607815
9208.000000;0.607902
9207.000000;0.607996
9206.000000;0.607974
9205.000000;0.607781
9204.000000;0.607454
9203.000000;0.607075
9202.000000;0.606749
9201.000000;0.606588
9200.000000;0.606598
9199.000000;0.606641
9198.000000;0.606585
9197.000000;0.606473
9196.000000;0.606444
9195.000000;0.606519
9194.000000;0.606589
9193.000000;0.606584
9192.000000;0.606543
9191.000000;0.606507
9190.000000;0.606469
9189.000000;0.606448
9188.000000;0.606501
9187.000000;0.606605
9186.000000;0.606660
9185.000000;0.606643
9184.000000;0.606658
9183.000000;0.606739
9182.000000;0.606721
9181.000000;0.606441
9180.000000;0.606004
9179.000000;0.605715
9178.000000;0.605743
9177.000000;0.605955
9176.000000;0.606109
9175.000000;0.606113
9174.000000;0.606045
9173.000000;0.605983
9172.000000;0.605871
9171.000000;0.605571
9170.000000;0.605004
9169.000000;0.604262
9168.000000;0.603607
9167.000000;0.603323
9166.000000;0.603521
9165.000000;0.604022
9164.000000;0.604472
9163.000000;0.604628
9162.000000;0.604545
9161.000000;0.604443
9160.000000;0.604396
9159.000000;0.604277
9158.000000;0.603990
9157.000000;0.603656
9156.000000;0.603466
9155.000000;0.603436
9154.000000;0.603431
9153.000000;0.603360
9152.000000;0.603250
9151.000000;0.603133
9150.000000;0.602992
9149.000000;0.602844
9148.000000;0.602771
9147.000000;0.602829
9146.000000;0.602997
9145.000000;0.603216
9144.000000;0.603436
9143.000000;0.603603
9142.000000;0.603683
9141.000000;0.603709
9140.000000;0.603741
9139.000000;0.603751
9138.000000;0.603622
9137.000000;0.603299
9136.000000;0.602876
9135.000000;0.602514
9134.000000;0.602315
9133.000000;0.602295
9132.000000;0.602408
9131.000000;0.602544
9130.000000;0.602568
9129.000000;0.602413
9128.000000;0.602142
9127.000000;0.601910
9126.000000;0.601860
9125.000000;0.602004
9124.000000;0.602154
9123.000000;0.602040
9122.000000;0.601604
9121.000000;0.601153
9120.000000;0.601067
9119.000000;0.601363
9118.000000;0.601664
9117.000000;0.601662
9116.000000;0.601449
9115.000000;0.601304
9114.000000;0.601305
9113.000000;0.601279
9112.000000;0.601071
9111.000000;0.600720
9110.000000;0.600380
9109.000000;0.600191
9108.000000;0.600238
9107.000000;0.600522
9106.000000;0.600929
9105.000000;0.601263
9104.000000;0.601344
9103.000000;0.601109
9102.000000;0.600674
9101.000000;0.600309
9100.000000;0.600248
9099.000000;0.600466
9098.000000;0.600691
9097.000000;0.600708
9096.000000;0.600579
9095.000000;0.600479
9094.000000;0.600402
9093.000000;0.600195
9092.000000;0.599847
9091.000000;0.599579
9090.000000;0.599576
9089.000000;0.599773
9088.000000;0.599965
9087.000000;0.600047
9086.000000;0.600046
9085.000000;0.600000
9084.000000;0.599897
9083.000000;0.599730
9082.000000;0.599522
9081.000000;0.599281
9080.000000;0.598989
9079.000000;0.598647
9078.000000;0.598299
9077.000000;0.598015
9076.000000;0.597858
9075.000000;0.597863
9074.000000;0.598006
9073.000000;0.598179
9072.000000;0.598280
9071.000000;0.598321
9070.000000;0.598406
9069.000000;0.598555
9068.000000;0.598619
9067.000000;0.598450
9066.000000;0.598127
9065.000000;0.597901
9064.000000;0.597908
9063.000000;0.598026
9062.000000;0.598063
9061.000000;0.597993
9060.000000;0.597926
9059.000000;0.597915
9058.000000;0.597907
9057.000000;0.597868
9056.000000;0.597830
9055.000000;0.597798
9054.000000;0.597687
9053.000000;0.597419
