Criado como novo conjunto de dados;"2706_e01_daniel.spp","83346.2 Secs"
cm-1;Abs
10000.000000;0.797133
9999.000000;0.796346
9998.000000;0.795560
9997.000000;0.794777
9996.000000;0.793993
9995.000000;0.793214
9994.000000;0.792430
9993.000000;0.791659
9992.000000;0.790858
9991.000000;0.790935
9990.000000;0.791379
9989.000000;0.791175
9988.000000;0.790114
9987.000000;0.788923
9986.000000;0.788269
9985.000000;0.788061
9984.000000;0.787879
9983.000000;0.787620
9982.000000;0.787378
9981.000000;0.787030
9980.000000;0.786415
9979.000000;0.785813
9978.000000;0.785780
9977.000000;0.786446
9976.000000;0.787267
9975.000000;0.787588
9974.000000;0.787252
9973.000000;0.786617
9972.000000;0.786220
9971.000000;0.786451
9970.000000;0.787322
9969.000000;0.788390
9968.000000;0.789065
9967.000000;0.789082
9966.000000;0.788607
9965.000000;0.787897
9964.000000;0.787053
9963.000000;0.786183
9962.000000;0.785622
9961.000000;0.785760
9960.000000;0.786578
9959.000000;0.787491
9958.000000;0.787763
9957.000000;0.787141
9956.000000;0.785986
9955.000000;0.784777
9954.000000;0.783676
9953.000000;0.782764
9952.000000;0.782474
9951.000000;0.783251
9950.000000;0.784701
9949.000000;0.785637
9948.000000;0.785402
9947.000000;0.784780
9946.000000;0.785041
9945.000000;0.786310
9944.000000;0.787391
9943.000000;0.787199
9942.000000;0.785883
9941.000000;0.784434
9940.000000;0.783720
9939.000000;0.784053
9938.000000;0.785170
9937.000000;0.786317
9936.000000;0.786633
9935.000000;0.785786
9934.000000;0.784203
9933.000000;0.782603
9932.000000;0.781493
9931.000000;0.781133
9930.000000;0.781611
9929.000000;0.782692
9928.000000;0.783811
9927.000000;0.784471
9926.000000;0.784573
9925.000000;0.784208
9924.000000;0.783398
9923.000000;0.782310
9922.000000;0.781559
9921.000000;0.781906
9920.000000;0.783511
9919.000000;0.785602
9918.000000;0.786934
9917.000000;0.786671
9916.000000;0.784986
9915.000000;0.782880
9914.000000;0.781390
9913.000000;0.780878
9912.000000;0.781001
9911.000000;0.781271
9910.000000;0.781519
9909.000000;0.781793
9908.000000;0.782009
9907.000000;0.781907
9906.000000;0.781325
9905.000000;0.780377
9904.000000;0.779410
9903.000000;0.778795
9902.000000;0.778677
9901.000000;0.778883
9900.000000;0.779127
9899.000000;0.779339
9898.000000;0.779656
9897.000000;0.780083
9896.000000;0.780345
9895.000000;0.780216
9894.000000;0.779849
9893.000000;0.779573
9892.000000;0.779469
9891.000000;0.779336
9890.000000;0.779089
9889.000000;0.778961
9888.000000;0.779199
9887.000000;0.779684
9886.000000;0.779992
9885.000000;0.779822
9884.000000;0.779245
9883.000000;0.778473
9882.000000;0.777541
9881.000000;0.776427
9880.000000;0.775511
9879.000000;0.775547
9878.000000;0.776852
9877.000000;0.778595
9876.000000;0.779287
9875.000000;0.778183
9874.000000;0.775992
9873.000000;0.774036
9872.000000;0.772969
9871.000000;0.772531
9870.000000;0.772313
9869.000000;0.772331
9868.000000;0.772798
9867.000000;0.773630
9866.000000;0.774410
9865.000000;0.774691
9864.000000;0.774226
9863.000000;0.773119
9862.000000;0.771954
9861.000000;0.771643
9860.000000;0.772763
9859.000000;0.774884
9858.000000;0.776721
9857.000000;0.777136
9856.000000;0.776069
9855.000000;0.774463
9854.000000;0.773406
9853.000000;0.773390
9852.000000;0.774131
9851.000000;0.774828
9850.000000;0.774806
9849.000000;0.774198
9848.000000;0.773921
9847.000000;0.774672
9846.000000;0.775981
9845.000000;0.776562
9844.000000;0.775750
9843.000000;0.774260
9842.000000;0.773262
9841.000000;0.773061
9840.000000;0.773087
9839.000000;0.772890
9838.000000;0.772644
9837.000000;0.772675
9836.000000;0.772936
9835.000000;0.773203
9834.000000;0.773548
9833.000000;0.774250
9832.000000;0.775235
9831.000000;0.775839
9830.000000;0.775354
9829.000000;0.773806
9828.000000;0.772024
9827.000000;0.770859
9826.000000;0.770445
9825.000000;0.770314
9824.000000;0.770116
9823.000000;0.770013
9822.000000;0.770306
9821.000000;0.770955
9820.000000;0.771600
9819.000000;0.771891
9818.000000;0.771650
9817.000000;0.770891
9816.000000;0.769900
9815.000000;0.769193
9814.000000;0.769169
9813.000000;0.769826
9812.000000;0.770899
9811.000000;0.772140
9810.000000;0.773286
9809.000000;0.773911
9808.000000;0.773672
9807.000000;0.772742
9806.000000;0.771726
9805.000000;0.771047
9804.000000;0.770610
9803.000000;0.770137
9802.000000;0.769674
9801.000000;0.769547
9800.000000;0.769880
9799.000000;0.770346
9798.000000;0.770531
9797.000000;0.770466
9796.000000;0.770596
9795.000000;0.771153
9794.000000;0.771758
9793.000000;0.771850
9792.000000;0.771394
9791.000000;0.770816
9790.000000;0.770298
9789.000000;0.769578
9788.000000;0.768615
9787.000000;0.768014
9786.000000;0.768399
9785.000000;0.769558
9784.000000;0.770579
9783.000000;0.770754
9782.000000;0.770068
9781.000000;0.768920
9780.000000;0.767759
9779.000000;0.766994
9778.000000;0.766864
9777.000000;0.767218
9776.000000;0.767640
9775.000000;0.767884
9774.000000;0.767986
9773.000000;0.767924
9772.000000;0.767493
9771.000000;0.766703
9770.000000;0.766064
9769.000000;0.766156
9768.000000;0.766953
9767.000000;0.767763
9766.000000;0.767905
9765.000000;0.767367
9764.000000;0.766745
9763.000000;0.766605
9762.000000;0.766978
9761.000000;0.767433
9760.000000;0.767547
9759.000000;0.767203
9758.000000;0.766456
9757.000000;0.765378
9756.000000;0.764128
9755.000000;0.762975
9754.000000;0.762131
9753.000000;0.761679
9752.000000;0.761716
9751.000000;0.762396
9750.000000;0.763628
9749.000000;0.764832
9748.000000;0.765303
9747.000000;0.764863
9746.000000;0.763983
9745.000000;0.763229
9744.000000;0.762815
9743.000000;0.762633
9742.000000;0.762483
9741.000000;0.762210
9740.000000;0.761796
9739.000000;0.761460
9738.000000;0.761603
9737.000000;0.762491
9736.000000;0.763927
9735.000000;0.765279
9734.000000;0.765875
9733.000000;0.765448
9732.000000;0.764274
9731.000000;0.762924
9730.000000;0.761879
9729.000000;0.761337
9728.000000;0.761249
9727.000000;0.761377
9726.000000;0.761358
9725.000000;0.760983
9724.000000;0.760521
9723.000000;0.760540
9722.000000;0.761255
9721.000000;0.762168
9720.000000;0.762564
9719.000000;0.762247
9718.000000;0.761585
9717.000000;0.760945
9716.000000;0.760372
9715.000000;0.759843
9714.000000;0.759510
9713.000000;0.759528
9712.000000;0.759799
9711.000000;0.760068
9710.000000;0.760276
9709.000000;0.760712
9708.000000;0.761708
9707.000000;0.763154
9706.000000;0.764376
9705.000000;0.764716
9704.000000;0.764257
9703.000000;0.763760
9702.000000;0.763742
9701.000000;0.763866
9700.000000;0.763427
9699.000000;0.762288
9698.000000;0.761011
9697.000000;0.760176
9696.000000;0.759929
9695.000000;0.760144
9694.000000;0.760603
9693.000000;0.760904
9692.000000;0.760569
9691.000000;0.759567
9690.000000;0.758534
9689.000000;0.758180
9688.000000;0.758524
9687.000000;0.758920
9686.000000;0.758788
9685.000000;0.758129
9684.000000;0.757326
9683.000000;0.756698
9682.000000;0.756375
9681.000000;0.756404
9680.000000;0.756717
9679.000000;0.757027
9678.000000;0.757002
9677.000000;0.756669
9676.000000;0.756449
9675.000000;0.756612
9674.000000;0.756858
9673.000000;0.756705
9672.000000;0.756196
9671.000000;0.755855
9670.000000;0.755887
9669.000000;0.755827
9668.000000;0.755266
9667.000000;0.754624
9666.000000;0.754727
9665.000000;0.755722
9664.000000;0.756857
9663.000000;0.757337
9662.000000;0.757066
9661.000000;0.756416
9660.000000;0.755648
9659.000000;0.754891
9658.000000;0.754451
9657.000000;0.754662
9656.000000;0.755399
9655.000000;0.756008
9654.000000;0.755919
9653.000000;0.755192
9652.000000;0.754376
9651.000000;0.753961
9650.000000;0.754089
9649.000000;0.754617
9648.000000;0.755215
9647.000000;0.755451
9646.000000;0.755118
9645.000000;0.754568
9644.000000;0.754446
9643.000000;0.754902
9642.000000;0.755295
9641.000000;0.754909
9640.000000;0.753826
9639.000000;0.752795
9638.000000;0.752373
9637.000000;0.752535
9636.000000;0.753059
9635.000000;0.753808
9634.000000;0.754511
9633.000000;0.754667
9632.000000;0.754064
9631.000000;0.753201
9630.000000;0.752874
9629.000000;0.753399
9628.000000;0.754378
9627.000000;0.755146
9626.000000;0.755306
9625.000000;0.754931
9624.000000;0.754437
9623.000000;0.754197
9622.000000;0.754178
9621.000000;0.754006
9620.000000;0.753512
9619.000000;0.753052
9618.000000;0.753084
9617.000000;0.753559
9616.000000;0.753974
9615.000000;0.754018
9614.000000;0.753897
9613.000000;0.753932
9612.000000;0.754061
9611.000000;0.753923
9610.000000;0.753370
9609.000000;0.752697
9608.000000;0.752293
9607.000000;0.752142
9606.000000;0.751829
9605.000000;0.751138
9604.000000;0.750463
9603.000000;0.750376
9602.000000;0.750905
9601.000000;0.751553
9600.000000;0.752013
9599.000000;0.752489
9598.000000;0.753144
9597.000000;0.753574
9596.000000;0.753234
9595.000000;0.752217
9594.000000;0.751245
9593.000000;0.750927
9592.000000;0.751269
9591.000000;0.751887
9590.000000;0.752389
9589.000000;0.752475
9588.000000;0.751944
9587.000000;0.750854
9586.000000;0.749589
9585.000000;0.748590
9584.000000;0.748023
9583.000000;0.747789
9582.000000;0.747834
9581.000000;0.748264
9580.000000;0.749069
9579.000000;0.749833
9578.000000;0.749946
9577.000000;0.749244
9576.000000;0.748301
9575.000000;0.747920
9574.000000;0.748389
9573.000000;0.749356
9572.000000;0.750327
9571.000000;0.751038
9570.000000;0.751355
9569.000000;0.751168
9568.000000;0.750550
9567.000000;0.749809
9566.000000;0.749190
9565.000000;0.748661
9564.000000;0.748099
9563.000000;0.747535
9562.000000;0.747099
9561.000000;0.746858
9560.000000;0.746811
9559.000000;0.746861
9558.000000;0.746702
9557.000000;0.746022
9556.000000;0.745033
9555.000000;0.744551
9554.000000;0.745192
9553.000000;0.746579
9552.000000;0.747626
9551.000000;0.747630
9550.000000;0.746842
9549.000000;0.745963
9548.000000;0.745433
9547.000000;0.745319
9546.000000;0.745585
9545.000000;0.746186
9544.000000;0.746933
9543.000000;0.747463
9542.000000;0.747486
9541.000000;0.747031
9540.000000;0.746404
9539.000000;0.745836
9538.000000;0.745240
9537.000000;0.744446
9536.000000;0.743650
9535.000000;0.743368
9534.000000;0.743844
9533.000000;0.744654
9532.000000;0.745051
9531.000000;0.744645
9530.000000;0.743645
9529.000000;0.742570
9528.000000;0.741902
9527.000000;0.741931
9526.000000;0.742690
9525.000000;0.743921
9524.000000;0.745173
9523.000000;0.745994
9522.000000;0.746093
9521.000000;0.745465
9520.000000;0.744422
9519.000000;0.743413
9518.000000;0.742723
9517.000000;0.742387
9516.000000;0.742391
9515.000000;0.742797
9514.000000;0.743563
9513.000000;0.744352
9512.000000;0.744682
9511.000000;0.744305
9510.000000;0.743424
9509.000000;0.742611
9508.000000;0.742459
9507.000000;0.743095
9506.000000;0.743957
9505.000000;0.744235
9504.000000;0.743662
9503.000000;0.742735
9502.000000;0.742052
9501.000000;0.741692
9500.000000;0.741377
9499.000000;0.741021
9498.000000;0.740816
9497.000000;0.740894
9496.000000;0.741154
9495.000000;0.741375
9494.000000;0.741319
9493.000000;0.740809
9492.000000;0.739930
9491.000000;0.739160
9490.000000;0.739078
9489.000000;0.739859
9488.000000;0.741116
9487.000000;0.742206
9486.000000;0.742655
9485.000000;0.742407
9484.000000;0.741809
9483.000000;0.741322
9482.000000;0.741083
9481.000000;0.740763
9480.000000;0.739927
9479.000000;0.738540
9478.000000;0.737074
9477.000000;0.736167
9476.000000;0.736192
9475.000000;0.736986
9474.000000;0.737912
9473.000000;0.738345
9472.000000;0.738205
9471.000000;0.737903
9470.000000;0.737708
9469.000000;0.737447
9468.000000;0.736971
9467.000000;0.736626
9466.000000;0.736905
9465.000000;0.737767
9464.000000;0.738635
9463.000000;0.739051
9462.000000;0.739031
9461.000000;0.738756
9460.000000;0.738232
9459.000000;0.737407
9458.000000;0.736474
9457.000000;0.735891
9456.000000;0.736091
9455.000000;0.737102
9454.000000;0.738393
9453.000000;0.739181
9452.000000;0.739097
9451.000000;0.738518
9450.000000;0.738120
9449.000000;0.738132
9448.000000;0.738173
9447.000000;0.737770
9446.000000;0.736941
9445.000000;0.736230
9444.000000;0.736240
9443.000000;0.737062
9442.000000;0.738127
9441.000000;0.738699
9440.000000;0.738605
9439.000000;0.738343
9438.000000;0.738378
9437.000000;0.738548
9436.000000;0.738330
9435.000000;0.737533
9434.000000;0.736479
9433.000000;0.735631
9432.000000;0.735313
9431.000000;0.735630
9430.000000;0.736311
9429.000000;0.736651
9428.000000;0.736042
9427.000000;0.734730
9426.000000;0.733743
9425.000000;0.733841
9424.000000;0.734720
9423.000000;0.735414
9422.000000;0.735345
9421.000000;0.734755
9420.000000;0.734189
9419.000000;0.733859
9418.000000;0.733613
9417.000000;0.733339
9416.000000;0.733182
9415.000000;0.733381
9414.000000;0.734015
9413.000000;0.734965
9412.000000;0.736000
9411.000000;0.736759
9410.000000;0.736764
9409.000000;0.735764
9408.000000;0.734162
9407.000000;0.732910
9406.000000;0.732761
9405.000000;0.733638
9404.000000;0.734782
9403.000000;0.735422
9402.000000;0.735275
9401.000000;0.734557
9400.000000;0.733723
9399.000000;0.733156
9398.000000;0.732933
9397.000000;0.732822
9396.000000;0.732589
9395.000000;0.732292
9394.000000;0.732242
9393.000000;0.732680
9392.000000;0.733465
9391.000000;0.734035
9390.000000;0.733735
9389.000000;0.732411
9388.000000;0.730749
9387.000000;0.729821
9386.000000;0.730134
9385.000000;0.731176
9384.000000;0.731958
9383.000000;0.731879
9382.000000;0.731015
9381.000000;0.729808
9380.000000;0.728761
9379.000000;0.728295
9378.000000;0.728572
9377.000000;0.729356
9376.000000;0.730172
9375.000000;0.730616
9374.000000;0.730499
9373.000000;0.729867
9372.000000;0.729072
9371.000000;0.728658
9370.000000;0.728884
9369.000000;0.729361
9368.000000;0.729418
9367.000000;0.728828
9366.000000;0.727994
9365.000000;0.727416
9364.000000;0.727246
9363.000000;0.727398
9362.000000;0.727789
9361.000000;0.728285
9360.000000;0.728575
9359.000000;0.728348
9358.000000;0.727616
9357.000000;0.726768
9356.000000;0.726251
9355.000000;0.726224
9354.000000;0.726486
9353.000000;0.726749
9352.000000;0.726968
9351.000000;0.727329
9350.000000;0.727924
9349.000000;0.728534
9348.000000;0.728827
9347.000000;0.728681
9346.000000;0.728238
9345.000000;0.727743
9344.000000;0.727418
9343.000000;0.727383
9342.000000;0.727545
9341.000000;0.727602
9340.000000;0.727318
9339.000000;0.726780
9338.000000;0.726283
9337.000000;0.725990
9336.000000;0.725842
9335.000000;0.725748
9334.000000;0.725718
9333.000000;0.725800
9332.000000;0.726000
9331.000000;0.726269
9330.000000;0.726503
9329.000000;0.726609
9328.000000;0.726640
9327.000000;0.726821
9326.000000;0.727309
9325.000000;0.727955
9324.000000;0.728424
9323.000000;0.728536
9322.000000;0.728378
9321.000000;0.728138
9320.000000;0.727970
9319.000000;0.727991
9318.000000;0.728224
9317.000000;0.728499
9316.000000;0.728527
9315.000000;0.728131
9314.000000;0.727354
9313.000000;0.726397
9312.000000;0.725530
9311.000000;0.725025
9310.000000;0.725021
9309.000000;0.725397
9308.000000;0.725859
9307.000000;0.726170
9306.000000;0.726250
9305.000000;0.726106
9304.000000;0.725780
9303.000000;0.725370
9302.000000;0.725026
9301.000000;0.724851
9300.000000;0.724833
9299.000000;0.724866
9298.000000;0.724839
9297.000000;0.724725
9296.000000;0.724623
9295.000000;0.724613
9294.000000;0.724573
9293.000000;0.724263
9292.000000;0.723703
9291.000000;0.723292
9290.000000;0.723366
9289.000000;0.723685
9288.000000;0.723631
9287.000000;0.722965
9286.000000;0.722174
9285.000000;0.721975
9284.000000;0.722596
9283.000000;0.723644
9282.000000;0.724514
9281.000000;0.724815
9280.000000;0.724499
9279.000000;0.723773
9278.000000;0.722948
9277.000000;0.722290
9276.000000;0.721938
9275.000000;0.721894
9274.000000;0.722077
9273.000000;0.722330
9272.000000;0.722443
9271.000000;0.722259
9270.000000;0.721803
9269.000000;0.721248
9268.000000;0.720720
9267.000000;0.720215
9266.000000;0.719772
9265.000000;0.719621
9264.000000;0.719945
9263.000000;0.720490
9262.000000;0.720683
9261.000000;0.720296
9260.000000;0.719802
9259.000000;0.719813
9258.000000;0.720287
9257.000000;0.720573
9256.000000;0.720228
9255.000000;0.719511
9254.000000;0.719015
9253.000000;0.719072
9252.000000;0.719584
9251.000000;0.720189
9250.000000;0.720472
9249.000000;0.720212
9248.000000;0.719568
9247.000000;0.718924
9246.000000;0.718503
9245.000000;0.718246
9244.000000;0.718109
9243.000000;0.718194
9242.000000;0.718470
9241.000000;0.718603
9240.000000;0.718317
9239.000000;0.717795
9238.000000;0.717499
9237.000000;0.717627
9236.000000;0.717923
9235.000000;0.717981
9234.000000;0.717635
9233.000000;0.717101
9232.000000;0.716781
9231.000000;0.716883
9230.000000;0.717188
9229.000000;0.717333
9228.000000;0.717331
9227.000000;0.717558
9226.000000;0.718107
9225.000000;0.718466
9224.000000;0.718121
9223.000000;0.717276
9222.000000;0.716598
9221.000000;0.716373
9220.000000;0.716294
9219.000000;0.716053
9218.000000;0.715746
9217.000000;0.715588
9216.000000;0.715547
9215.000000;0.715518
9214.000000;0.715622
9213.000000;0.716044
9212.000000;0.716599
9211.000000;0.716736
9210.000000;0.716105
9209.000000;0.715023
9208.000000;0.714242
9207.000000;0.714242
9206.000000;0.714844
9205.000000;0.715498
9204.000000;0.715861
9203.000000;0.715958
9202.000000;0.715897
9201.000000;0.715662
9200.000000;0.715252
9199.000000;0.714829
9198.000000;0.714580
9197.000000;0.714548
9196.000000;0.714675
9195.000000;0.714886
9194.000000;0.715049
9193.000000;0.714951
9192.000000;0.714495
9191.000000;0.713887
9190.000000;0.713482
9189.000000;0.713453
9188.000000;0.713669
9187.000000;0.713875
9186.000000;0.713941
9185.000000;0.713993
9184.000000;0.714318
9183.000000;0.715056
9182.000000;0.715943
9181.000000;0.716451
9180.000000;0.716216
9179.000000;0.715306
9178.000000;0.714089
9177.000000;0.713046
9176.000000;0.712676
9175.000000;0.713239
9174.000000;0.714364
9173.000000;0.715131
9172.000000;0.714853
9171.000000;0.713740
9170.000000;0.712619
9169.000000;0.712107
9168.000000;0.712236
9167.000000;0.712709
9166.000000;0.713213
9165.000000;0.713513
9164.000000;0.713524
9163.000000;0.713361
9162.000000;0.713188
9161.000000;0.713029
9160.000000;0.712858
9159.000000;0.712841
9158.000000;0.713196
9157.000000;0.713780
9156.000000;0.714051
9155.000000;0.713591
9154.000000;0.712570
9153.000000;0.711531
9152.000000;0.710828
9151.000000;0.710399
9150.000000;0.710025
9149.000000;0.709647
9148.000000;0.709343
9147.000000;0.709135
9146.000000;0.708978
9145.000000;0.708928
9144.000000;0.709127
9143.000000;0.709493
9142.000000;0.709596
9141.000000;0.709123
9140.000000;0.708399
9139.000000;0.708152
9138.000000;0.708702
9137.000000;0.709629
9136.000000;0.710340
9135.000000;0.710716
9134.000000;0.710989
9133.000000;0.711241
9132.000000;0.711334
9131.000000;0.711221
9130.000000;0.711028
9129.000000;0.710853
9128.000000;0.710687
9127.000000;0.710532
9126.000000;0.710367
9125.000000;0.710055
9124.000000;0.709513
9123.000000;0.708994
9122.000000;0.708934
9121.000000;0.709393
9120.000000;0.709835
9119.000000;0.709640
9118.000000;0.708777
9117.000000;0.707837
9116.000000;0.707415
9115.000000;0.707569
9114.000000;0.707876
9113.000000;0.707938
9112.000000;0.707757
9111.000000;0.707624
9110.000000;0.707701
9109.000000;0.707823
9108.000000;0.707739
9107.000000;0.707439
9106.000000;0.707179
9105.000000;0.707252
9104.000000;0.707741
9103.000000;0.708370
9102.000000;0.708557
9101.000000;0.707818
9100.000000;0.706305
9099.000000;0.704851
9098.000000;0.704298
9097.000000;0.704731
9096.000000;0.705464
9095.000000;0.705758
9094.000000;0.705449
9093.000000;0.704907
9092.000000;0.704534
9091.000000;0.704412
9090.000000;0.704361
9089.000000;0.704235
9088.000000;0.704126
9087.000000;0.704257
9086.000000;0.704690
9085.000000;0.705173
9084.000000;0.705355
9083.000000;0.705131
9082.000000;0.704738
9081.000000;0.704460
9080.000000;0.704296
9079.000000;0.703964
9078.000000;0.703296
9077.000000;0.702557
9076.000000;0.702261
9075.000000;0.702645
9074.000000;0.703401
9073.000000;0.703990
9072.000000;0.704111
9071.000000;0.703797
9070.000000;0.703218
9069.000000;0.702612
9068.000000;0.702302
9067.000000;0.702481
9066.000000;0.702970
9065.000000;0.703381
9064.000000;0.703542
9063.000000;0.703578
9062.000000;0.703557
9061.000000;0.703353
9060.000000;0.702964
9059.000000;0.702669
9058.000000;0.702706
9057.000000;0.703000
9056.000000;0.703365
9055.000000;0.703747
9054.000000;0.704070
9053.000000;0.704056
