Criado como novo conjunto de dados;"2706_e01_daniel.spp","8282.2 Secs"
cm-1;Abs
10000.000000;0.820712
9999.000000;0.820093
9998.000000;0.819643
9997.000000;0.819573
9996.000000;0.819768
9995.000000;0.819872
9994.000000;0.819616
9993.000000;0.819147
9992.000000;0.818953
9991.000000;0.819296
9990.000000;0.819867
9989.000000;0.820141
9988.000000;0.819967
9987.000000;0.819534
9986.000000;0.818945
9985.000000;0.818201
9984.000000;0.817511
9983.000000;0.817172
9982.000000;0.817093
9981.000000;0.816843
9980.000000;0.816287
9979.000000;0.815835
9978.000000;0.815867
9977.000000;0.816231
9976.000000;0.816555
9975.000000;0.816821
9974.000000;0.817338
9973.000000;0.818246
9972.000000;0.819239
9971.000000;0.819786
9970.000000;0.819559
9969.000000;0.818724
9968.000000;0.817851
9967.000000;0.817412
9966.000000;0.817355
9965.000000;0.817277
9964.000000;0.816979
9963.000000;0.816639
9962.000000;0.816437
9961.000000;0.816302
9960.000000;0.816134
9959.000000;0.815990
9958.000000;0.815898
9957.000000;0.815693
9956.000000;0.815299
9955.000000;0.814994
9954.000000;0.815166
9953.000000;0.815861
9952.000000;0.816743
9951.000000;0.817469
9950.000000;0.817946
9949.000000;0.818232
9948.000000;0.818304
9947.000000;0.817996
9946.000000;0.817193
9945.000000;0.816093
9944.000000;0.815203
9943.000000;0.814912
9942.000000;0.815114
9941.000000;0.815363
9940.000000;0.815402
9939.000000;0.815364
9938.000000;0.815470
9937.000000;0.815714
9936.000000;0.815932
9935.000000;0.816032
9934.000000;0.816062
9933.000000;0.816138
9932.000000;0.816336
9931.000000;0.816564
9930.000000;0.816560
9929.000000;0.816176
9928.000000;0.815643
9927.000000;0.815359
9926.000000;0.815409
9925.000000;0.815474
9924.000000;0.815234
9923.000000;0.814728
9922.000000;0.814283
9921.000000;0.814256
9920.000000;0.814832
9919.000000;0.815857
9918.000000;0.816823
9917.000000;0.817240
9916.000000;0.817078
9915.000000;0.816690
9914.000000;0.816336
9913.000000;0.816017
9912.000000;0.815782
9911.000000;0.815846
9910.000000;0.816238
9909.000000;0.816576
9908.000000;0.816388
9907.000000;0.815586
9906.000000;0.814524
9905.000000;0.813706
9904.000000;0.813453
9903.000000;0.813691
9902.000000;0.814016
9901.000000;0.814113
9900.000000;0.814087
9899.000000;0.814196
9898.000000;0.814316
9897.000000;0.814027
9896.000000;0.813271
9895.000000;0.812555
9894.000000;0.812319
9893.000000;0.812430
9892.000000;0.812528
9891.000000;0.812595
9890.000000;0.812879
9889.000000;0.813381
9888.000000;0.813733
9887.000000;0.813602
9886.000000;0.813051
9885.000000;0.812471
9884.000000;0.812237
9883.000000;0.812354
9882.000000;0.812428
9881.000000;0.812068
9880.000000;0.811360
9879.000000;0.810806
9878.000000;0.810787
9877.000000;0.811206
9876.000000;0.811672
9875.000000;0.811863
9874.000000;0.811701
9873.000000;0.811396
9872.000000;0.811370
9871.000000;0.811908
9870.000000;0.812781
9869.000000;0.813430
9868.000000;0.813575
9867.000000;0.813413
9866.000000;0.813173
9865.000000;0.812846
9864.000000;0.812504
9863.000000;0.812513
9862.000000;0.813088
9861.000000;0.813849
9860.000000;0.814154
9859.000000;0.813800
9858.000000;0.813117
9857.000000;0.812450
9856.000000;0.811821
9855.000000;0.811138
9854.000000;0.810522
9853.000000;0.810304
9852.000000;0.810708
9851.000000;0.811537
9850.000000;0.812217
9849.000000;0.812293
9848.000000;0.811888
9847.000000;0.811523
9846.000000;0.811495
9845.000000;0.811640
9844.000000;0.811709
9843.000000;0.811709
9842.000000;0.811738
9841.000000;0.811739
9840.000000;0.811617
9839.000000;0.811439
9838.000000;0.811335
9837.000000;0.811278
9836.000000;0.811135
9835.000000;0.810847
9834.000000;0.810471
9833.000000;0.810158
9832.000000;0.810123
9831.000000;0.810463
9830.000000;0.810938
9829.000000;0.811123
9828.000000;0.810878
9827.000000;0.810489
9826.000000;0.810245
9825.000000;0.810140
9824.000000;0.810107
9823.000000;0.810257
9822.000000;0.810650
9821.000000;0.811053
9820.000000;0.811201
9819.000000;0.811135
9818.000000;0.811044
9817.000000;0.810889
9816.000000;0.810476
9815.000000;0.809823
9814.000000;0.809191
9813.000000;0.808770
9812.000000;0.808543
9811.000000;0.808464
9810.000000;0.808550
9809.000000;0.808776
9808.000000;0.808968
9807.000000;0.808886
9806.000000;0.808420
9805.000000;0.807772
9804.000000;0.807442
9803.000000;0.807833
9802.000000;0.808787
9801.000000;0.809672
9800.000000;0.810047
9799.000000;0.810081
9798.000000;0.810168
9797.000000;0.810324
9796.000000;0.810206
9795.000000;0.809618
9794.000000;0.808772
9793.000000;0.808064
9792.000000;0.807773
9791.000000;0.807969
9790.000000;0.808544
9789.000000;0.809264
9788.000000;0.809820
9787.000000;0.809901
9786.000000;0.809344
9785.000000;0.808388
9784.000000;0.807697
9783.000000;0.807832
9782.000000;0.808597
9781.000000;0.809169
9780.000000;0.809000
9779.000000;0.808368
9778.000000;0.807860
9777.000000;0.807671
9776.000000;0.807684
9775.000000;0.807958
9774.000000;0.808673
9773.000000;0.809646
9772.000000;0.810317
9771.000000;0.810299
9770.000000;0.809699
9769.000000;0.808865
9768.000000;0.808054
9767.000000;0.807426
9766.000000;0.807109
9765.000000;0.807114
9764.000000;0.807265
9763.000000;0.807322
9762.000000;0.807158
9761.000000;0.806822
9760.000000;0.806464
9759.000000;0.806191
9758.000000;0.805985
9757.000000;0.805795
9756.000000;0.805734
9755.000000;0.806073
9754.000000;0.806922
9753.000000;0.807979
9752.000000;0.808694
9751.000000;0.808708
9750.000000;0.808121
9749.000000;0.807377
9748.000000;0.806907
9747.000000;0.806770
9746.000000;0.806608
9745.000000;0.806068
9744.000000;0.805294
9743.000000;0.804868
9742.000000;0.805215
9741.000000;0.806171
9740.000000;0.807171
9739.000000;0.807697
9738.000000;0.807525
9737.000000;0.806798
9736.000000;0.805987
9735.000000;0.805571
9734.000000;0.805579
9733.000000;0.805624
9732.000000;0.805484
9731.000000;0.805439
9730.000000;0.805835
9729.000000;0.806545
9728.000000;0.807100
9727.000000;0.807205
9726.000000;0.806901
9725.000000;0.806358
9724.000000;0.805771
9723.000000;0.805363
9722.000000;0.805247
9721.000000;0.805315
9720.000000;0.805439
9719.000000;0.805636
9718.000000;0.805883
9717.000000;0.805942
9716.000000;0.805654
9715.000000;0.805268
9714.000000;0.805145
9713.000000;0.805261
9712.000000;0.805312
9711.000000;0.805260
9710.000000;0.805386
9709.000000;0.805792
9708.000000;0.806184
9707.000000;0.806261
9706.000000;0.806035
9705.000000;0.805676
9704.000000;0.805265
9703.000000;0.804853
9702.000000;0.804549
9701.000000;0.804424
9700.000000;0.804457
9699.000000;0.804635
9698.000000;0.804970
9697.000000;0.805334
9696.000000;0.805469
9695.000000;0.805281
9694.000000;0.805005
9693.000000;0.804980
9692.000000;0.805328
9691.000000;0.805898
9690.000000;0.806407
9689.000000;0.806584
9688.000000;0.806285
9687.000000;0.805598
9686.000000;0.804785
9685.000000;0.804102
9684.000000;0.803693
9683.000000;0.803611
9682.000000;0.803794
9681.000000;0.803983
9680.000000;0.803824
9679.000000;0.803185
9678.000000;0.802356
9677.000000;0.801832
9676.000000;0.801909
9675.000000;0.802476
9674.000000;0.803156
9673.000000;0.803624
9672.000000;0.803820
9671.000000;0.803888
9670.000000;0.803924
9669.000000;0.803858
9668.000000;0.803618
9667.000000;0.803329
9666.000000;0.803227
9665.000000;0.803402
9664.000000;0.803727
9663.000000;0.804021
9662.000000;0.804169
9661.000000;0.804116
9660.000000;0.803852
9659.000000;0.803467
9658.000000;0.803118
9657.000000;0.802889
9656.000000;0.802728
9655.000000;0.802537
9654.000000;0.802285
9653.000000;0.802049
9652.000000;0.801998
9651.000000;0.802274
9650.000000;0.802798
9649.000000;0.803206
9648.000000;0.803118
9647.000000;0.802529
9646.000000;0.801850
9645.000000;0.801516
9644.000000;0.801579
9643.000000;0.801736
9642.000000;0.801719
9641.000000;0.801607
9640.000000;0.801713
9639.000000;0.802155
9638.000000;0.802635
9637.000000;0.802735
9636.000000;0.802429
9635.000000;0.802111
9634.000000;0.802096
9633.000000;0.802245
9632.000000;0.802205
9631.000000;0.801859
9630.000000;0.801395
9629.000000;0.801048
9628.000000;0.800970
9627.000000;0.801223
9626.000000;0.801697
9625.000000;0.802076
9624.000000;0.802142
9623.000000;0.802066
9622.000000;0.802158
9621.000000;0.802358
9620.000000;0.802277
9619.000000;0.801794
9618.000000;0.801291
9617.000000;0.801118
9616.000000;0.801108
9615.000000;0.800871
9614.000000;0.800367
9613.000000;0.799901
9612.000000;0.799658
9611.000000;0.799544
9610.000000;0.799471
9609.000000;0.799505
9608.000000;0.799681
9607.000000;0.799877
9606.000000;0.800006
9605.000000;0.800145
9604.000000;0.800351
9603.000000;0.800470
9602.000000;0.800317
9601.000000;0.799972
9600.000000;0.799711
9599.000000;0.799652
9598.000000;0.799652
9597.000000;0.799636
9596.000000;0.799830
9595.000000;0.800476
9594.000000;0.801385
9593.000000;0.801964
9592.000000;0.801794
9591.000000;0.801052
9590.000000;0.800276
9589.000000;0.799828
9588.000000;0.799700
9587.000000;0.799759
9586.000000;0.799956
9585.000000;0.800234
9584.000000;0.800388
9583.000000;0.800186
9582.000000;0.799632
9581.000000;0.799053
9580.000000;0.798854
9579.000000;0.799187
9578.000000;0.799806
9577.000000;0.800240
9576.000000;0.800158
9575.000000;0.799624
9574.000000;0.799005
9573.000000;0.798632
9572.000000;0.798552
9571.000000;0.798614
9570.000000;0.798723
9569.000000;0.798942
9568.000000;0.799338
9567.000000;0.799783
9566.000000;0.799984
9565.000000;0.799742
9564.000000;0.799172
9563.000000;0.798669
9562.000000;0.798585
9561.000000;0.798918
9560.000000;0.799298
9559.000000;0.799333
9558.000000;0.798994
9557.000000;0.798627
9556.000000;0.798586
9555.000000;0.798887
9554.000000;0.799241
9553.000000;0.799381
9552.000000;0.799289
9551.000000;0.799151
9550.000000;0.799170
9549.000000;0.799415
9548.000000;0.799795
9547.000000;0.800128
9546.000000;0.800284
9545.000000;0.800270
9544.000000;0.800172
9543.000000;0.800047
9542.000000;0.799920
9541.000000;0.799852
9540.000000;0.799898
9539.000000;0.799995
9538.000000;0.799991
9537.000000;0.799830
9536.000000;0.799619
9535.000000;0.799466
9534.000000;0.799341
9533.000000;0.799161
9532.000000;0.798925
9531.000000;0.798666
9530.000000;0.798358
9529.000000;0.797973
9528.000000;0.797611
9527.000000;0.797437
9526.000000;0.797492
9525.000000;0.797661
9524.000000;0.797821
9523.000000;0.797947
9522.000000;0.798059
9521.000000;0.798130
9520.000000;0.798086
9519.000000;0.797855
9518.000000;0.797421
9517.000000;0.796874
9516.000000;0.796395
9515.000000;0.796150
9514.000000;0.796199
9513.000000;0.796490
9512.000000;0.796889
9511.000000;0.797205
9510.000000;0.797291
9509.000000;0.797187
9508.000000;0.797111
9507.000000;0.797215
9506.000000;0.797419
9505.000000;0.797550
9504.000000;0.797553
9503.000000;0.797480
9502.000000;0.797360
9501.000000;0.797230
9500.000000;0.797213
9499.000000;0.797415
9498.000000;0.797743
9497.000000;0.797979
9496.000000;0.797997
9495.000000;0.797794
9494.000000;0.797370
9493.000000;0.796747
9492.000000;0.796123
9491.000000;0.795779
9490.000000;0.795784
9489.000000;0.795924
9488.000000;0.795970
9487.000000;0.795894
9486.000000;0.795785
9485.000000;0.795705
9484.000000;0.795711
9483.000000;0.795864
9482.000000;0.796128
9481.000000;0.796322
9480.000000;0.796268
9479.000000;0.795945
9478.000000;0.795477
9477.000000;0.795047
9476.000000;0.794864
9475.000000;0.795062
9474.000000;0.795544
9473.000000;0.796031
9472.000000;0.796323
9471.000000;0.796410
9470.000000;0.796281
9469.000000;0.795809
9468.000000;0.795011
9467.000000;0.794315
9466.000000;0.794286
9465.000000;0.795029
9464.000000;0.796007
9463.000000;0.796540
9462.000000;0.796385
9461.000000;0.795808
9460.000000;0.795230
9459.000000;0.794934
9458.000000;0.795021
9457.000000;0.795412
9456.000000;0.795858
9455.000000;0.796078
9454.000000;0.796033
9453.000000;0.795969
9452.000000;0.796075
9451.000000;0.796179
9450.000000;0.795973
9449.000000;0.795490
9448.000000;0.795124
9447.000000;0.795110
9446.000000;0.795178
9445.000000;0.794924
9444.000000;0.794364
9443.000000;0.793930
9442.000000;0.793941
9441.000000;0.794290
9440.000000;0.794624
9439.000000;0.794711
9438.000000;0.794609
9437.000000;0.794570
9436.000000;0.794775
9435.000000;0.795074
9434.000000;0.795077
9433.000000;0.794603
9432.000000;0.793962
9431.000000;0.793618
9430.000000;0.793649
9429.000000;0.793778
9428.000000;0.793861
9427.000000;0.794050
9426.000000;0.794390
9425.000000;0.794581
9424.000000;0.794340
9423.000000;0.793807
9422.000000;0.793389
9421.000000;0.793319
9420.000000;0.793517
9419.000000;0.793783
9418.000000;0.793941
9417.000000;0.793861
9416.000000;0.793542
9415.000000;0.793189
9414.000000;0.793062
9413.000000;0.793218
9412.000000;0.793458
9411.000000;0.793536
9410.000000;0.793356
9409.000000;0.792984
9408.000000;0.792571
9407.000000;0.792286
9406.000000;0.792222
9405.000000;0.792343
9404.000000;0.792546
9403.000000;0.792781
9402.000000;0.793069
9401.000000;0.793372
9400.000000;0.793512
9399.000000;0.793306
9398.000000;0.792802
9397.000000;0.792309
9396.000000;0.792136
9395.000000;0.792309
9394.000000;0.792581
9393.000000;0.792726
9392.000000;0.792754
9391.000000;0.792811
9390.000000;0.792957
9389.000000;0.793105
9388.000000;0.793131
9387.000000;0.792989
9386.000000;0.792742
9385.000000;0.792538
9384.000000;0.792517
9383.000000;0.792653
9382.000000;0.792725
9381.000000;0.792529
9380.000000;0.792089
9379.000000;0.791623
9378.000000;0.791327
9377.000000;0.791276
9376.000000;0.791466
9375.000000;0.791822
9374.000000;0.792146
9373.000000;0.792206
9372.000000;0.791948
9371.000000;0.791585
9370.000000;0.791435
9369.000000;0.791655
9368.000000;0.792107
9367.000000;0.792426
9366.000000;0.792291
9365.000000;0.791701
9364.000000;0.790970
9363.000000;0.790402
9362.000000;0.790039
9361.000000;0.789767
9360.000000;0.789559
9359.000000;0.789480
9358.000000;0.789549
9357.000000;0.789747
9356.000000;0.790103
9355.000000;0.790594
9354.000000;0.790995
9353.000000;0.791054
9352.000000;0.790840
9351.000000;0.790720
9350.000000;0.790912
9349.000000;0.791229
9348.000000;0.791340
9347.000000;0.791171
9346.000000;0.790942
9345.000000;0.790892
9344.000000;0.791054
9343.000000;0.791242
9342.000000;0.791243
9341.000000;0.791046
9340.000000;0.790881
9339.000000;0.790936
9338.000000;0.791102
9337.000000;0.791133
9336.000000;0.791017
9335.000000;0.790973
9334.000000;0.791053
9333.000000;0.790982
9332.000000;0.790536
9331.000000;0.789908
9330.000000;0.789531
9329.000000;0.789622
9328.000000;0.790023
9327.000000;0.790427
9326.000000;0.790628
9325.000000;0.790617
9324.000000;0.790531
9323.000000;0.790512
9322.000000;0.790544
9321.000000;0.790481
9320.000000;0.790249
9319.000000;0.789957
9318.000000;0.789763
9317.000000;0.789709
9316.000000;0.789726
9315.000000;0.789744
9314.000000;0.789731
9313.000000;0.789699
9312.000000;0.789715
9311.000000;0.789830
9310.000000;0.789962
9309.000000;0.789940
9308.000000;0.789748
9307.000000;0.789618
9306.000000;0.789765
9305.000000;0.790095
9304.000000;0.790259
9303.000000;0.790009
9302.000000;0.789420
9301.000000;0.788801
9300.000000;0.788432
9299.000000;0.788381
9298.000000;0.788507
9297.000000;0.788644
9296.000000;0.788771
9295.000000;0.788957
9294.000000;0.789170
9293.000000;0.789234
9292.000000;0.789048
9291.000000;0.788762
9290.000000;0.788650
9289.000000;0.788833
9288.000000;0.789185
9287.000000;0.789478
9286.000000;0.789569
9285.000000;0.789456
9284.000000;0.789208
9283.000000;0.788869
9282.000000;0.788460
9281.000000;0.788072
9280.000000;0.787892
9279.000000;0.788038
9278.000000;0.788379
9277.000000;0.788613
9276.000000;0.788524
9275.000000;0.788140
9274.000000;0.787653
9273.000000;0.787307
9272.000000;0.787301
9271.000000;0.787636
9270.000000;0.788023
9269.000000;0.788115
9268.000000;0.787912
9267.000000;0.787784
9266.000000;0.787996
9265.000000;0.788360
9264.000000;0.788484
9263.000000;0.788276
9262.000000;0.788017
9261.000000;0.787949
9260.000000;0.787992
9259.000000;0.787907
9258.000000;0.787635
9257.000000;0.787374
9256.000000;0.787327
9255.000000;0.787443
9254.000000;0.787453
9253.000000;0.787201
9252.000000;0.786874
9251.000000;0.786836
9250.000000;0.787221
9249.000000;0.787755
9248.000000;0.788014
9247.000000;0.787797
9246.000000;0.787252
9245.000000;0.786708
9244.000000;0.786427
9243.000000;0.786450
9242.000000;0.786628
9241.000000;0.786824
9240.000000;0.787078
9239.000000;0.787499
9238.000000;0.788019
9237.000000;0.788374
9236.000000;0.788359
9235.000000;0.788024
9234.000000;0.787536
9233.000000;0.786975
9232.000000;0.786356
9231.000000;0.785781
9230.000000;0.785424
9229.000000;0.785379
9228.000000;0.785565
9227.000000;0.785773
9226.000000;0.785818
9225.000000;0.785673
9224.000000;0.785501
9223.000000;0.785507
9222.000000;0.785723
9221.000000;0.785995
9220.000000;0.786200
9219.000000;0.786384
9218.000000;0.786609
9217.000000;0.786763
9216.000000;0.786646
9215.000000;0.786232
9214.000000;0.785735
9213.000000;0.785409
9212.000000;0.785332
9211.000000;0.785402
9210.000000;0.785475
9209.000000;0.785507
9208.000000;0.785553
9207.000000;0.785659
9206.000000;0.785783
9205.000000;0.785841
9204.000000;0.785842
9203.000000;0.785892
9202.000000;0.786048
9201.000000;0.786218
9200.000000;0.786243
9199.000000;0.786065
9198.000000;0.785770
9197.000000;0.785492
9196.000000;0.785302
9195.000000;0.785198
9194.000000;0.785165
9193.000000;0.785213
9192.000000;0.785330
9191.000000;0.785422
9190.000000;0.785369
9189.000000;0.785180
9188.000000;0.785026
9187.000000;0.785054
9186.000000;0.785208
9185.000000;0.785326
9184.000000;0.785349
9183.000000;0.785326
9182.000000;0.785271
9181.000000;0.785163
9180.000000;0.785088
9179.000000;0.785170
9178.000000;0.785320
9177.000000;0.785241
9176.000000;0.784801
9175.000000;0.784252
9174.000000;0.783955
9173.000000;0.783982
9172.000000;0.784123
9171.000000;0.784219
9170.000000;0.784297
9169.000000;0.784404
9168.000000;0.784468
9167.000000;0.784390
9166.000000;0.784196
9165.000000;0.784005
9164.000000;0.783892
9163.000000;0.783797
9162.000000;0.783615
9161.000000;0.783353
9160.000000;0.783174
9159.000000;0.783227
9158.000000;0.783438
9157.000000;0.783547
9156.000000;0.783405
9155.000000;0.783168
9154.000000;0.783126
9153.000000;0.783373
9152.000000;0.783728
9151.000000;0.783958
9150.000000;0.783992
9149.000000;0.783894
9148.000000;0.783693
9147.000000;0.783345
9146.000000;0.782869
9145.000000;0.782446
9144.000000;0.782293
9143.000000;0.782442
9142.000000;0.782728
9141.000000;0.782996
9140.000000;0.783249
9139.000000;0.783514
9138.000000;0.783689
9137.000000;0.783630
9136.000000;0.783352
9135.000000;0.783045
9134.000000;0.782881
9133.000000;0.782923
9132.000000;0.783169
9131.000000;0.783552
9130.000000;0.783891
9129.000000;0.783979
9128.000000;0.783790
9127.000000;0.783494
9126.000000;0.783254
9125.000000;0.783104
9124.000000;0.783023
9123.000000;0.782986
9122.000000;0.782879
9121.000000;0.782546
9120.000000;0.782023
9119.000000;0.781594
9118.000000;0.781502
9117.000000;0.781672
9116.000000;0.781857
9115.000000;0.781957
9114.000000;0.782053
9113.000000;0.782176
9112.000000;0.782215
9111.000000;0.782087
9110.000000;0.781861
9109.000000;0.781654
9108.000000;0.781497
9107.000000;0.781359
9106.000000;0.781257
9105.000000;0.781254
9104.000000;0.781366
9103.000000;0.781518
9102.000000;0.781606
9101.000000;0.781586
9100.000000;0.781491
9099.000000;0.781376
9098.000000;0.781279
9097.000000;0.781255
9096.000000;0.781386
9095.000000;0.781696
9094.000000;0.782075
9093.000000;0.782343
9092.000000;0.782397
9091.000000;0.782268
9090.000000;0.782044
9089.000000;0.781798
9088.000000;0.781585
9087.000000;0.781451
9086.000000;0.781415
9085.000000;0.781465
9084.000000;0.781581
9083.000000;0.781710
9082.000000;0.781744
9081.000000;0.781578
9080.000000;0.781208
9079.000000;0.780736
9078.000000;0.780280
9077.000000;0.779942
9076.000000;0.779812
9075.000000;0.779928
9074.000000;0.780189
9073.000000;0.780424
9072.000000;0.780555
9071.000000;0.780617
9070.000000;0.780627
9069.000000;0.780520
9068.000000;0.780288
9067.000000;0.780075
9066.000000;0.780050
9065.000000;0.780222
9064.000000;0.780440
9063.000000;0.780529
9062.000000;0.780423
9061.000000;0.780183
9060.000000;0.779936
9059.000000;0.779754
9058.000000;0.779612
9057.000000;0.779514
9056.000000;0.779594
9055.000000;0.779970
9054.000000;0.780493
9053.000000;0.780803
