Criado como novo conjunto de dados;"2706_e01_daniel.spp","72185.8 Secs"
cm-1;Abs
10000.000000;0.804844
9999.000000;0.803989
9998.000000;0.803135
9997.000000;0.802283
9996.000000;0.801433
9995.000000;0.800584
9994.000000;0.799737
9993.000000;0.798893
9992.000000;0.798044
9991.000000;0.797418
9990.000000;0.797192
9989.000000;0.797320
9988.000000;0.797533
9987.000000;0.797538
9986.000000;0.797263
9985.000000;0.796898
9984.000000;0.796725
9983.000000;0.796902
9982.000000;0.797357
9981.000000;0.797842
9980.000000;0.798158
9979.000000;0.798339
9978.000000;0.798552
9977.000000;0.798788
9976.000000;0.798787
9975.000000;0.798363
9974.000000;0.797693
9973.000000;0.797148
9972.000000;0.796903
9971.000000;0.796860
9970.000000;0.796909
9969.000000;0.797092
9968.000000;0.797431
9967.000000;0.797721
9966.000000;0.797658
9965.000000;0.797159
9964.000000;0.796466
9963.000000;0.795890
9962.000000;0.795495
9961.000000;0.795089
9960.000000;0.794501
9959.000000;0.793798
9958.000000;0.793203
9957.000000;0.792877
9956.000000;0.792813
9955.000000;0.792904
9954.000000;0.793059
9953.000000;0.793281
9952.000000;0.793675
9951.000000;0.794314
9950.000000;0.795019
9949.000000;0.795371
9948.000000;0.795107
9947.000000;0.794470
9946.000000;0.794024
9945.000000;0.794094
9944.000000;0.794510
9943.000000;0.794872
9942.000000;0.794939
9941.000000;0.794765
9940.000000;0.794620
9939.000000;0.794790
9938.000000;0.795263
9937.000000;0.795610
9936.000000;0.795367
9935.000000;0.794607
9934.000000;0.793914
9933.000000;0.793646
9932.000000;0.793492
9931.000000;0.792966
9930.000000;0.792136
9929.000000;0.791556
9928.000000;0.791538
9927.000000;0.791812
9926.000000;0.791945
9925.000000;0.791891
9924.000000;0.791965
9923.000000;0.792394
9922.000000;0.793005
9921.000000;0.793363
9920.000000;0.793201
9919.000000;0.792701
9918.000000;0.792300
9917.000000;0.792172
9916.000000;0.792034
9915.000000;0.791546
9914.000000;0.790831
9913.000000;0.790430
9912.000000;0.790714
9911.000000;0.791475
9910.000000;0.792116
9909.000000;0.792148
9908.000000;0.791517
9907.000000;0.790584
9906.000000;0.789862
9905.000000;0.789652
9904.000000;0.789846
9903.000000;0.790103
9902.000000;0.790216
9901.000000;0.790255
9900.000000;0.790314
9899.000000;0.790281
9898.000000;0.789972
9897.000000;0.789450
9896.000000;0.789047
9895.000000;0.789011
9894.000000;0.789225
9893.000000;0.789324
9892.000000;0.789067
9891.000000;0.788556
9890.000000;0.788099
9889.000000;0.787935
9888.000000;0.788091
9887.000000;0.788417
9886.000000;0.788685
9885.000000;0.788691
9884.000000;0.788346
9883.000000;0.787748
9882.000000;0.787126
9881.000000;0.786681
9880.000000;0.786460
9879.000000;0.786357
9878.000000;0.786205
9877.000000;0.785905
9876.000000;0.785533
9875.000000;0.785329
9874.000000;0.785487
9873.000000;0.785934
9872.000000;0.786366
9871.000000;0.786565
9870.000000;0.786629
9869.000000;0.786812
9868.000000;0.787163
9867.000000;0.787422
9866.000000;0.787290
9865.000000;0.786764
9864.000000;0.786182
9863.000000;0.785924
9862.000000;0.786104
9861.000000;0.786515
9860.000000;0.786862
9859.000000;0.787009
9858.000000;0.786986
9857.000000;0.786803
9856.000000;0.786367
9855.000000;0.785650
9854.000000;0.784886
9853.000000;0.784493
9852.000000;0.784731
9851.000000;0.785447
9850.000000;0.786165
9849.000000;0.786422
9848.000000;0.786091
9847.000000;0.785421
9846.000000;0.784815
9845.000000;0.784518
9844.000000;0.784453
9843.000000;0.784339
9842.000000;0.783963
9841.000000;0.783391
9840.000000;0.782924
9839.000000;0.782828
9838.000000;0.783081
9837.000000;0.783359
9836.000000;0.783304
9835.000000;0.782840
9834.000000;0.782240
9833.000000;0.781892
9832.000000;0.781945
9831.000000;0.782208
9830.000000;0.782381
9829.000000;0.782368
9828.000000;0.782327
9827.000000;0.782403
9826.000000;0.782523
9825.000000;0.782518
9824.000000;0.782377
9823.000000;0.782280
9822.000000;0.782358
9821.000000;0.782553
9820.000000;0.782704
9819.000000;0.782690
9818.000000;0.782451
9817.000000;0.782020
9816.000000;0.781566
9815.000000;0.781293
9814.000000;0.781225
9813.000000;0.781181
9812.000000;0.781076
9811.000000;0.781077
9810.000000;0.781341
9809.000000;0.781701
9808.000000;0.781844
9807.000000;0.781717
9806.000000;0.781510
9805.000000;0.781254
9804.000000;0.780734
9803.000000;0.779920
9802.000000;0.779233
9801.000000;0.779163
9800.000000;0.779717
9799.000000;0.780415
9798.000000;0.780775
9797.000000;0.780651
9796.000000;0.780156
9795.000000;0.779470
9794.000000;0.778823
9793.000000;0.778514
9792.000000;0.778734
9791.000000;0.779334
9790.000000;0.779826
9789.000000;0.779741
9788.000000;0.779034
9787.000000;0.778158
9786.000000;0.777654
9785.000000;0.777672
9784.000000;0.777891
9783.000000;0.777926
9782.000000;0.777723
9781.000000;0.777514
9780.000000;0.777448
9779.000000;0.777395
9778.000000;0.777154
9777.000000;0.776752
9776.000000;0.776436
9775.000000;0.776396
9774.000000;0.776567
9773.000000;0.776723
9772.000000;0.776707
9771.000000;0.776530
9770.000000;0.776310
9769.000000;0.776167
9768.000000;0.776185
9767.000000;0.776407
9766.000000;0.776797
9765.000000;0.777220
9764.000000;0.777470
9763.000000;0.777359
9762.000000;0.776814
9761.000000;0.775954
9760.000000;0.775074
9759.000000;0.774492
9758.000000;0.774363
9757.000000;0.774596
9756.000000;0.774939
9755.000000;0.775113
9754.000000;0.774922
9753.000000;0.774333
9752.000000;0.773487
9751.000000;0.772608
9750.000000;0.771901
9749.000000;0.771565
9748.000000;0.771805
9747.000000;0.772639
9746.000000;0.773679
9745.000000;0.774300
9744.000000;0.774197
9743.000000;0.773715
9742.000000;0.773498
9741.000000;0.773861
9740.000000;0.774582
9739.000000;0.775214
9738.000000;0.775451
9737.000000;0.775244
9736.000000;0.774743
9735.000000;0.774164
9734.000000;0.773626
9733.000000;0.773069
9732.000000;0.772398
9731.000000;0.771705
9730.000000;0.771247
9729.000000;0.771147
9728.000000;0.771224
9727.000000;0.771203
9726.000000;0.771041
9725.000000;0.770932
9724.000000;0.771008
9723.000000;0.771129
9722.000000;0.771043
9721.000000;0.770727
9720.000000;0.770441
9719.000000;0.770408
9718.000000;0.770555
9717.000000;0.770671
9716.000000;0.770742
9715.000000;0.770931
9714.000000;0.771234
9713.000000;0.771361
9712.000000;0.771075
9711.000000;0.770500
9710.000000;0.769976
9709.000000;0.769720
9708.000000;0.769743
9707.000000;0.769932
9706.000000;0.770032
9705.000000;0.769691
9704.000000;0.768827
9703.000000;0.767939
9702.000000;0.767754
9701.000000;0.768465
9700.000000;0.769476
9699.000000;0.770030
9698.000000;0.769951
9697.000000;0.769666
9696.000000;0.769577
9695.000000;0.769652
9694.000000;0.769602
9693.000000;0.769338
9692.000000;0.769112
9691.000000;0.769224
9690.000000;0.769663
9689.000000;0.770085
9688.000000;0.770127
9687.000000;0.769709
9686.000000;0.769035
9685.000000;0.768414
9684.000000;0.768116
9683.000000;0.768242
9682.000000;0.768604
9681.000000;0.768810
9680.000000;0.768620
9679.000000;0.768212
9678.000000;0.767946
9677.000000;0.767911
9676.000000;0.767858
9675.000000;0.767618
9674.000000;0.767374
9673.000000;0.767405
9672.000000;0.767687
9671.000000;0.767920
9670.000000;0.767937
9669.000000;0.767902
9668.000000;0.768013
9667.000000;0.768130
9666.000000;0.767859
9665.000000;0.767069
9664.000000;0.766153
9663.000000;0.765618
9662.000000;0.765482
9661.000000;0.765292
9660.000000;0.764780
9659.000000;0.764261
9658.000000;0.764239
9657.000000;0.764801
9656.000000;0.765566
9655.000000;0.766106
9654.000000;0.766239
9653.000000;0.766006
9652.000000;0.765609
9651.000000;0.765325
9650.000000;0.765259
9649.000000;0.765183
9648.000000;0.764783
9647.000000;0.764072
9646.000000;0.763383
9645.000000;0.762982
9644.000000;0.762915
9643.000000;0.763199
9642.000000;0.763851
9641.000000;0.764650
9640.000000;0.765150
9639.000000;0.765112
9638.000000;0.764750
9637.000000;0.764400
9636.000000;0.764132
9635.000000;0.763853
9634.000000;0.763604
9633.000000;0.763518
9632.000000;0.763588
9631.000000;0.763695
9630.000000;0.763804
9629.000000;0.763911
9628.000000;0.763850
9627.000000;0.763396
9626.000000;0.762637
9625.000000;0.762040
9624.000000;0.761997
9623.000000;0.762414
9622.000000;0.762827
9621.000000;0.762908
9620.000000;0.762756
9619.000000;0.762683
9618.000000;0.762794
9617.000000;0.762864
9616.000000;0.762661
9615.000000;0.762279
9614.000000;0.762048
9613.000000;0.762149
9612.000000;0.762447
9611.000000;0.762706
9610.000000;0.762817
9609.000000;0.762731
9608.000000;0.762325
9607.000000;0.761522
9606.000000;0.760538
9605.000000;0.759841
9604.000000;0.759809
9603.000000;0.760405
9602.000000;0.761167
9601.000000;0.761525
9600.000000;0.761219
9599.000000;0.760517
9598.000000;0.759997
9597.000000;0.760019
9596.000000;0.760433
9595.000000;0.760781
9594.000000;0.760716
9593.000000;0.760231
9592.000000;0.759596
9591.000000;0.759204
9590.000000;0.759342
9589.000000;0.759922
9588.000000;0.760428
9587.000000;0.760336
9586.000000;0.759654
9585.000000;0.758927
9584.000000;0.758655
9583.000000;0.758840
9582.000000;0.759128
9581.000000;0.759242
9580.000000;0.759181
9579.000000;0.759066
9578.000000;0.758947
9577.000000;0.758756
9576.000000;0.758372
9575.000000;0.757777
9574.000000;0.757179
9573.000000;0.756917
9572.000000;0.757148
9571.000000;0.757669
9570.000000;0.758145
9569.000000;0.758455
9568.000000;0.758714
9567.000000;0.758972
9566.000000;0.759088
9565.000000;0.758952
9564.000000;0.758690
9563.000000;0.758528
9562.000000;0.758517
9561.000000;0.758485
9560.000000;0.758247
9559.000000;0.757790
9558.000000;0.757278
9557.000000;0.756928
9556.000000;0.756848
9555.000000;0.756919
9554.000000;0.756856
9553.000000;0.756486
9552.000000;0.755950
9551.000000;0.755598
9550.000000;0.755661
9549.000000;0.756065
9548.000000;0.756510
9547.000000;0.756711
9546.000000;0.756579
9545.000000;0.756255
9544.000000;0.755991
9543.000000;0.755947
9542.000000;0.756078
9541.000000;0.756199
9540.000000;0.756112
9539.000000;0.755696
9538.000000;0.755023
9537.000000;0.754428
9536.000000;0.754326
9535.000000;0.754755
9534.000000;0.755214
9533.000000;0.755155
9532.000000;0.754611
9531.000000;0.754110
9530.000000;0.753989
9529.000000;0.754040
9528.000000;0.753924
9527.000000;0.753658
9526.000000;0.753522
9525.000000;0.753641
9524.000000;0.753874
9523.000000;0.754016
9522.000000;0.753944
9521.000000;0.753640
9520.000000;0.753226
9519.000000;0.752931
9518.000000;0.752867
9517.000000;0.752883
9516.000000;0.752741
9515.000000;0.752426
9514.000000;0.752143
9513.000000;0.752043
9512.000000;0.752086
9511.000000;0.752191
9510.000000;0.752367
9509.000000;0.752628
9508.000000;0.752877
9507.000000;0.752961
9506.000000;0.752841
9505.000000;0.752658
9504.000000;0.752590
9503.000000;0.752641
9502.000000;0.752614
9501.000000;0.752364
9500.000000;0.752023
9499.000000;0.751849
9498.000000;0.751874
9497.000000;0.751880
9496.000000;0.751752
9495.000000;0.751629
9494.000000;0.751587
9493.000000;0.751390
9492.000000;0.750805
9491.000000;0.750041
9490.000000;0.749600
9489.000000;0.749720
9488.000000;0.750169
9487.000000;0.750574
9486.000000;0.750738
9485.000000;0.750626
9484.000000;0.750276
9483.000000;0.749836
9482.000000;0.749547
9481.000000;0.749563
9480.000000;0.749834
9479.000000;0.750186
9478.000000;0.750440
9477.000000;0.750453
9476.000000;0.750163
9475.000000;0.749672
9474.000000;0.749200
9473.000000;0.748896
9472.000000;0.748722
9471.000000;0.748565
9470.000000;0.748409
9469.000000;0.748355
9468.000000;0.748508
9467.000000;0.748840
9466.000000;0.749146
9465.000000;0.749182
9464.000000;0.748891
9463.000000;0.748456
9462.000000;0.748078
9461.000000;0.747756
9460.000000;0.747408
9459.000000;0.747128
9458.000000;0.747166
9457.000000;0.747626
9456.000000;0.748323
9455.000000;0.748939
9454.000000;0.749225
9453.000000;0.749075
9452.000000;0.748553
9451.000000;0.747921
9450.000000;0.747488
9449.000000;0.747357
9448.000000;0.747390
9447.000000;0.747462
9446.000000;0.747635
9445.000000;0.747989
9444.000000;0.748379
9443.000000;0.748487
9442.000000;0.748128
9441.000000;0.747448
9440.000000;0.746793
9439.000000;0.746427
9438.000000;0.746381
9437.000000;0.746528
9436.000000;0.746740
9435.000000;0.746922
9434.000000;0.746953
9433.000000;0.746715
9432.000000;0.746236
9431.000000;0.745711
9430.000000;0.745297
9429.000000;0.744981
9428.000000;0.744741
9427.000000;0.744723
9426.000000;0.745075
9425.000000;0.745622
9424.000000;0.745924
9423.000000;0.745718
9422.000000;0.745165
9421.000000;0.744625
9420.000000;0.744311
9419.000000;0.744198
9418.000000;0.744156
9417.000000;0.744073
9416.000000;0.743911
9415.000000;0.743696
9414.000000;0.743481
9413.000000;0.743311
9412.000000;0.743225
9411.000000;0.743241
9410.000000;0.743261
9409.000000;0.743112
9408.000000;0.742790
9407.000000;0.742558
9406.000000;0.742633
9405.000000;0.742855
9404.000000;0.742895
9403.000000;0.742761
9402.000000;0.742789
9401.000000;0.743102
9400.000000;0.743380
9399.000000;0.743318
9398.000000;0.743055
9397.000000;0.742954
9396.000000;0.743111
9395.000000;0.743322
9394.000000;0.743393
9393.000000;0.743280
9392.000000;0.743018
9391.000000;0.742744
9390.000000;0.742713
9389.000000;0.743072
9388.000000;0.743591
9387.000000;0.743812
9386.000000;0.743476
9385.000000;0.742700
9384.000000;0.741742
9383.000000;0.740803
9382.000000;0.740085
9381.000000;0.739810
9380.000000;0.740017
9379.000000;0.740452
9378.000000;0.740794
9377.000000;0.740955
9376.000000;0.741057
9375.000000;0.741151
9374.000000;0.741096
9373.000000;0.740762
9372.000000;0.740251
9371.000000;0.739837
9370.000000;0.739684
9369.000000;0.739704
9368.000000;0.739720
9367.000000;0.739692
9366.000000;0.739690
9365.000000;0.739724
9364.000000;0.739701
9363.000000;0.739577
9362.000000;0.739414
9361.000000;0.739255
9360.000000;0.739028
9359.000000;0.738672
9358.000000;0.738294
9357.000000;0.738099
9356.000000;0.738194
9355.000000;0.738490
9354.000000;0.738781
9353.000000;0.738868
9352.000000;0.738683
9351.000000;0.738360
9350.000000;0.738146
9349.000000;0.738165
9348.000000;0.738290
9347.000000;0.738337
9346.000000;0.738320
9345.000000;0.738382
9344.000000;0.738497
9343.000000;0.738417
9342.000000;0.737992
9341.000000;0.737419
9340.000000;0.737046
9339.000000;0.736993
9338.000000;0.737091
9337.000000;0.737157
9336.000000;0.737190
9335.000000;0.737253
9334.000000;0.737288
9333.000000;0.737160
9332.000000;0.736853
9331.000000;0.736522
9330.000000;0.736319
9329.000000;0.736242
9328.000000;0.736203
9327.000000;0.736175
9326.000000;0.736199
9325.000000;0.736270
9324.000000;0.736298
9323.000000;0.736224
9322.000000;0.736140
9321.000000;0.736195
9320.000000;0.736399
9319.000000;0.736583
9318.000000;0.736577
9317.000000;0.736395
9316.000000;0.736187
9315.000000;0.736038
9314.000000;0.735891
9313.000000;0.735682
9312.000000;0.735459
9311.000000;0.735333
9310.000000;0.735339
9309.000000;0.735437
9308.000000;0.735595
9307.000000;0.735782
9306.000000;0.735870
9305.000000;0.735656
9304.000000;0.735078
9303.000000;0.734350
9302.000000;0.733835
9301.000000;0.733743
9300.000000;0.733996
9299.000000;0.734325
9298.000000;0.734480
9297.000000;0.734378
9296.000000;0.734104
9295.000000;0.733802
9294.000000;0.733541
9293.000000;0.733294
9292.000000;0.733024
9291.000000;0.732778
9290.000000;0.732647
9289.000000;0.732658
9288.000000;0.732740
9287.000000;0.732762
9286.000000;0.732621
9285.000000;0.732308
9284.000000;0.731940
9283.000000;0.731704
9282.000000;0.731726
9281.000000;0.731948
9280.000000;0.732162
9279.000000;0.732181
9278.000000;0.731996
9277.000000;0.731783
9276.000000;0.731737
9275.000000;0.731883
9274.000000;0.732076
9273.000000;0.732180
9272.000000;0.732177
9271.000000;0.732086
9270.000000;0.731872
9269.000000;0.731543
9268.000000;0.731256
9267.000000;0.731169
9266.000000;0.731218
9265.000000;0.731189
9264.000000;0.731016
9263.000000;0.730832
9262.000000;0.730702
9261.000000;0.730533
9260.000000;0.730298
9259.000000;0.730135
9258.000000;0.730081
9257.000000;0.729937
9256.000000;0.729600
9255.000000;0.729351
9254.000000;0.729522
9253.000000;0.729978
9252.000000;0.730210
9251.000000;0.729951
9250.000000;0.729467
9249.000000;0.729169
9248.000000;0.729169
9247.000000;0.729299
9246.000000;0.729374
9245.000000;0.729333
9244.000000;0.729218
9243.000000;0.729114
9242.000000;0.729072
9241.000000;0.729049
9240.000000;0.729011
9239.000000;0.729049
9238.000000;0.729254
9237.000000;0.729482
9236.000000;0.729415
9235.000000;0.728938
9234.000000;0.728310
9233.000000;0.727891
9232.000000;0.727804
9231.000000;0.727950
9230.000000;0.728211
9229.000000;0.728511
9228.000000;0.728751
9227.000000;0.728832
9226.000000;0.728738
9225.000000;0.728517
9224.000000;0.728212
9223.000000;0.727854
9222.000000;0.727493
9221.000000;0.727171
9220.000000;0.726901
9219.000000;0.726679
9218.000000;0.726499
9217.000000;0.726321
9216.000000;0.726111
9215.000000;0.725951
9214.000000;0.726001
9213.000000;0.726268
9212.000000;0.726485
9211.000000;0.726343
9210.000000;0.725823
9209.000000;0.725208
9208.000000;0.724805
9207.000000;0.724738
9206.000000;0.724968
9205.000000;0.725374
9204.000000;0.725751
9203.000000;0.725869
9202.000000;0.725626
9201.000000;0.725157
9200.000000;0.724736
9199.000000;0.724577
9198.000000;0.724735
9197.000000;0.725118
9196.000000;0.725532
9195.000000;0.725749
9194.000000;0.725646
9193.000000;0.725313
9192.000000;0.724984
9191.000000;0.724812
9190.000000;0.724760
9189.000000;0.724731
9188.000000;0.724715
9187.000000;0.724743
9186.000000;0.724744
9185.000000;0.724613
9184.000000;0.724375
9183.000000;0.724170
9182.000000;0.724032
9181.000000;0.723848
9180.000000;0.723574
9179.000000;0.723341
9178.000000;0.723256
9177.000000;0.723216
9176.000000;0.723054
9175.000000;0.722793
9174.000000;0.722605
9173.000000;0.722555
9172.000000;0.722530
9171.000000;0.722408
9170.000000;0.722173
9169.000000;0.721882
9168.000000;0.721633
9167.000000;0.721543
9166.000000;0.721640
9165.000000;0.721777
9164.000000;0.721759
9163.000000;0.721556
9162.000000;0.721287
9161.000000;0.721048
9160.000000;0.720869
9159.000000;0.720817
9158.000000;0.720974
9157.000000;0.721270
9156.000000;0.721496
9155.000000;0.721519
9154.000000;0.721389
9153.000000;0.721197
9152.000000;0.720974
9151.000000;0.720770
9150.000000;0.720673
9149.000000;0.720665
9148.000000;0.720575
9147.000000;0.720282
9146.000000;0.719868
9145.000000;0.719497
9144.000000;0.719247
9143.000000;0.719125
9142.000000;0.719143
9141.000000;0.719261
9140.000000;0.719349
9139.000000;0.719300
9138.000000;0.719140
9137.000000;0.718937
9136.000000;0.718706
9135.000000;0.718503
9134.000000;0.718481
9133.000000;0.718723
9132.000000;0.719065
9131.000000;0.719241
9130.000000;0.719174
9129.000000;0.719002
9128.000000;0.718853
9127.000000;0.718746
9126.000000;0.718678
9125.000000;0.718673
9124.000000;0.718710
9123.000000;0.718747
9122.000000;0.718827
9121.000000;0.719040
9120.000000;0.719342
9119.000000;0.719535
9118.000000;0.719473
9117.000000;0.719220
9116.000000;0.718928
9115.000000;0.718654
9114.000000;0.718357
9113.000000;0.718000
9112.000000;0.717598
9111.000000;0.717200
9110.000000;0.716877
9109.000000;0.716697
9108.000000;0.716658
9107.000000;0.716669
9106.000000;0.716643
9105.000000;0.716572
9104.000000;0.716501
9103.000000;0.716438
9102.000000;0.716362
9101.000000;0.716284
9100.000000;0.716254
9099.000000;0.716288
9098.000000;0.716311
9097.000000;0.716190
9096.000000;0.715845
9095.000000;0.715357
9094.000000;0.714943
9093.000000;0.714782
9092.000000;0.714868
9091.000000;0.715035
9090.000000;0.715140
9089.000000;0.715167
9088.000000;0.715168
9087.000000;0.715202
9086.000000;0.715324
9085.000000;0.715563
9084.000000;0.715838
9083.000000;0.715964
9082.000000;0.715822
9081.000000;0.715461
9080.000000;0.714995
9079.000000;0.714457
9078.000000;0.713876
9077.000000;0.713421
9076.000000;0.713309
9075.000000;0.713525
9074.000000;0.713790
9073.000000;0.713853
9072.000000;0.713741
9071.000000;0.713650
9070.000000;0.713672
9069.000000;0.713732
9068.000000;0.713736
9067.000000;0.713676
9066.000000;0.713624
9065.000000;0.713680
9064.000000;0.713890
9063.000000;0.714164
9062.000000;0.714298
9061.000000;0.714157
9060.000000;0.713817
9059.000000;0.713452
9058.000000;0.713133
9057.000000;0.712827
9056.000000;0.712570
9055.000000;0.712479
9054.000000;0.712577
9053.000000;0.712713
