Criado como novo conjunto de dados;"2706_e01_daniel.spp","542.0 Secs"
cm-1;Abs
10000.000000;0.025719
9999.000000;0.025574
9998.000000;0.025429
9997.000000;0.025285
9996.000000;0.025140
9995.000000;0.024995
9994.000000;0.024850
9993.000000;0.024706
9992.000000;0.024561
9991.000000;0.024418
9990.000000;0.024269
9989.000000;0.024150
9988.000000;0.024087
9987.000000;0.024085
9986.000000;0.024173
9985.000000;0.024329
9984.000000;0.024471
9983.000000;0.024537
9982.000000;0.024535
9981.000000;0.024490
9980.000000;0.024397
9979.000000;0.024278
9978.000000;0.024231
9977.000000;0.024336
9976.000000;0.024528
9975.000000;0.024662
9974.000000;0.024711
9973.000000;0.024794
9972.000000;0.024987
9971.000000;0.025185
9970.000000;0.025220
9969.000000;0.025076
9968.000000;0.024895
9967.000000;0.024780
9966.000000;0.024674
9965.000000;0.024463
9964.000000;0.024154
9963.000000;0.023905
9962.000000;0.023882
9961.000000;0.024116
9960.000000;0.024470
9959.000000;0.024733
9958.000000;0.024765
9957.000000;0.024614
9956.000000;0.024489
9955.000000;0.024572
9954.000000;0.024837
9953.000000;0.025080
9952.000000;0.025129
9951.000000;0.024995
9950.000000;0.024805
9949.000000;0.024639
9948.000000;0.024471
9947.000000;0.024256
9946.000000;0.024013
9945.000000;0.023839
9944.000000;0.023838
9943.000000;0.024002
9942.000000;0.024175
9941.000000;0.024189
9940.000000;0.024065
9939.000000;0.024017
9938.000000;0.024201
9937.000000;0.024504
9936.000000;0.024676
9935.000000;0.024612
9934.000000;0.024416
9933.000000;0.024217
9932.000000;0.024038
9931.000000;0.023867
9930.000000;0.023723
9929.000000;0.023618
9928.000000;0.023523
9927.000000;0.023452
9926.000000;0.023500
9925.000000;0.023737
9924.000000;0.024083
9923.000000;0.024365
9922.000000;0.024465
9921.000000;0.024396
9920.000000;0.024258
9919.000000;0.024159
9918.000000;0.024152
9917.000000;0.024191
9916.000000;0.024172
9915.000000;0.024057
9914.000000;0.023926
9913.000000;0.023877
9912.000000;0.023905
9911.000000;0.023950
9910.000000;0.024011
9909.000000;0.024124
9908.000000;0.024234
9907.000000;0.024193
9906.000000;0.023936
9905.000000;0.023596
9904.000000;0.023358
9903.000000;0.023261
9902.000000;0.023202
9901.000000;0.023139
9900.000000;0.023177
9899.000000;0.023434
9898.000000;0.023855
9897.000000;0.024228
9896.000000;0.024389
9895.000000;0.024361
9894.000000;0.024277
9893.000000;0.024218
9892.000000;0.024152
9891.000000;0.024046
9890.000000;0.023960
9889.000000;0.024006
9888.000000;0.024217
9887.000000;0.024485
9886.000000;0.024652
9885.000000;0.024642
9884.000000;0.024492
9883.000000;0.024271
9882.000000;0.024010
9881.000000;0.023743
9880.000000;0.023552
9879.000000;0.023536
9878.000000;0.023697
9877.000000;0.023915
9876.000000;0.024043
9875.000000;0.024034
9874.000000;0.023953
9873.000000;0.023895
9872.000000;0.023897
9871.000000;0.023912
9870.000000;0.023867
9869.000000;0.023754
9868.000000;0.023670
9867.000000;0.023731
9866.000000;0.023943
9865.000000;0.024185
9864.000000;0.024340
9863.000000;0.024395
9862.000000;0.024405
9861.000000;0.024416
9860.000000;0.024463
9859.000000;0.024571
9858.000000;0.024697
9857.000000;0.024687
9856.000000;0.024405
9855.000000;0.023906
9854.000000;0.023420
9853.000000;0.023139
9852.000000;0.023079
9851.000000;0.023153
9850.000000;0.023292
9849.000000;0.023463
9848.000000;0.023625
9847.000000;0.023748
9846.000000;0.023839
9845.000000;0.023914
9844.000000;0.023977
9843.000000;0.024035
9842.000000;0.024117
9841.000000;0.024201
9840.000000;0.024198
9839.000000;0.024039
9838.000000;0.023782
9837.000000;0.023569
9836.000000;0.023480
9835.000000;0.023497
9834.000000;0.023586
9833.000000;0.023745
9832.000000;0.023926
9831.000000;0.023998
9830.000000;0.023863
9829.000000;0.023591
9828.000000;0.023367
9827.000000;0.023302
9826.000000;0.023349
9825.000000;0.023409
9824.000000;0.023466
9823.000000;0.023563
9822.000000;0.023706
9821.000000;0.023849
9820.000000;0.023971
9819.000000;0.024080
9818.000000;0.024143
9817.000000;0.024098
9816.000000;0.023967
9815.000000;0.023895
9814.000000;0.023965
9813.000000;0.024062
9812.000000;0.023996
9811.000000;0.023786
9810.000000;0.023677
9809.000000;0.023849
9808.000000;0.024168
9807.000000;0.024324
9806.000000;0.024169
9805.000000;0.023855
9804.000000;0.023644
9803.000000;0.023647
9802.000000;0.023778
9801.000000;0.023904
9800.000000;0.023980
9799.000000;0.024049
9798.000000;0.024154
9797.000000;0.024280
9796.000000;0.024364
9795.000000;0.024332
9794.000000;0.024135
9793.000000;0.023780
9792.000000;0.023352
9791.000000;0.022985
9790.000000;0.022798
9789.000000;0.022850
9788.000000;0.023126
9787.000000;0.023548
9786.000000;0.023979
9785.000000;0.024282
9784.000000;0.024427
9783.000000;0.024505
9782.000000;0.024606
9781.000000;0.024686
9780.000000;0.024610
9779.000000;0.024329
9778.000000;0.023952
9777.000000;0.023646
9776.000000;0.023507
9775.000000;0.023553
9774.000000;0.023768
9773.000000;0.024096
9772.000000;0.024417
9771.000000;0.024609
9770.000000;0.024642
9769.000000;0.024608
9768.000000;0.024611
9767.000000;0.024646
9766.000000;0.024613
9765.000000;0.024470
9764.000000;0.024323
9763.000000;0.024306
9762.000000;0.024396
9761.000000;0.024404
9760.000000;0.024221
9759.000000;0.023966
9758.000000;0.023846
9757.000000;0.023887
9756.000000;0.023913
9755.000000;0.023794
9754.000000;0.023607
9753.000000;0.023528
9752.000000;0.023640
9751.000000;0.023879
9750.000000;0.024127
9749.000000;0.024291
9748.000000;0.024321
9747.000000;0.024212
9746.000000;0.024005
9745.000000;0.023788
9744.000000;0.023675
9743.000000;0.023761
9742.000000;0.024039
9741.000000;0.024384
9740.000000;0.024634
9739.000000;0.024720
9738.000000;0.024665
9737.000000;0.024504
9736.000000;0.024269
9735.000000;0.024041
9734.000000;0.023923
9733.000000;0.023919
9732.000000;0.023923
9731.000000;0.023878
9730.000000;0.023851
9729.000000;0.023918
9728.000000;0.024028
9727.000000;0.024082
9726.000000;0.024076
9725.000000;0.024073
9724.000000;0.024078
9723.000000;0.024040
9722.000000;0.023983
9721.000000;0.024014
9720.000000;0.024165
9719.000000;0.024323
9718.000000;0.024360
9717.000000;0.024272
9716.000000;0.024140
9715.000000;0.024007
9714.000000;0.023847
9713.000000;0.023651
9712.000000;0.023504
9711.000000;0.023539
9710.000000;0.023810
9709.000000;0.024205
9708.000000;0.024521
9707.000000;0.024641
9706.000000;0.024627
9705.000000;0.024605
9704.000000;0.024593
9703.000000;0.024508
9702.000000;0.024335
9701.000000;0.024179
9700.000000;0.024144
9699.000000;0.024202
9698.000000;0.024247
9697.000000;0.024234
9696.000000;0.024210
9695.000000;0.024222
9694.000000;0.024258
9693.000000;0.024283
9692.000000;0.024309
9691.000000;0.024377
9690.000000;0.024472
9689.000000;0.024492
9688.000000;0.024351
9687.000000;0.024108
9686.000000;0.023954
9685.000000;0.024022
9684.000000;0.024243
9683.000000;0.024431
9682.000000;0.024489
9681.000000;0.024464
9680.000000;0.024430
9679.000000;0.024385
9678.000000;0.024299
9677.000000;0.024183
9676.000000;0.024086
9675.000000;0.024050
9674.000000;0.024087
9673.000000;0.024161
9672.000000;0.024185
9671.000000;0.024082
9670.000000;0.023886
9669.000000;0.023739
9668.000000;0.023752
9667.000000;0.023906
9666.000000;0.024112
9665.000000;0.024309
9664.000000;0.024454
9663.000000;0.024491
9662.000000;0.024413
9661.000000;0.024313
9660.000000;0.024292
9659.000000;0.024334
9658.000000;0.024350
9657.000000;0.024337
9656.000000;0.024377
9655.000000;0.024469
9654.000000;0.024497
9653.000000;0.024413
9652.000000;0.024360
9651.000000;0.024490
9650.000000;0.024708
9649.000000;0.024737
9648.000000;0.024432
9647.000000;0.023952
9646.000000;0.023594
9645.000000;0.023505
9644.000000;0.023608
9643.000000;0.023735
9642.000000;0.023779
9641.000000;0.023751
9640.000000;0.023750
9639.000000;0.023882
9638.000000;0.024160
9637.000000;0.024453
9636.000000;0.024590
9635.000000;0.024517
9634.000000;0.024353
9633.000000;0.024252
9632.000000;0.024251
9631.000000;0.024268
9630.000000;0.024239
9629.000000;0.024198
9628.000000;0.024212
9627.000000;0.024290
9626.000000;0.024382
9625.000000;0.024449
9624.000000;0.024492
9623.000000;0.024532
9622.000000;0.024575
9621.000000;0.024612
9620.000000;0.024627
9619.000000;0.024605
9618.000000;0.024541
9617.000000;0.024461
9616.000000;0.024403
9615.000000;0.024405
9614.000000;0.024495
9613.000000;0.024677
9612.000000;0.024883
9611.000000;0.024980
9610.000000;0.024861
9609.000000;0.024555
9608.000000;0.024204
9607.000000;0.023954
9606.000000;0.023889
9605.000000;0.024059
9604.000000;0.024441
9603.000000;0.024864
9602.000000;0.025063
9601.000000;0.024925
9600.000000;0.024637
9599.000000;0.024495
9598.000000;0.024589
9597.000000;0.024753
9596.000000;0.024816
9595.000000;0.024782
9594.000000;0.024736
9593.000000;0.024698
9592.000000;0.024639
9591.000000;0.024579
9590.000000;0.024570
9589.000000;0.024608
9588.000000;0.024627
9587.000000;0.024593
9586.000000;0.024539
9585.000000;0.024520
9584.000000;0.024562
9583.000000;0.024649
9582.000000;0.024733
9581.000000;0.024751
9580.000000;0.024685
9579.000000;0.024586
9578.000000;0.024517
9577.000000;0.024481
9576.000000;0.024457
9575.000000;0.024481
9574.000000;0.024637
9573.000000;0.024933
9572.000000;0.025236
9571.000000;0.025370
9570.000000;0.025272
9569.000000;0.025037
9568.000000;0.024838
9567.000000;0.024796
9566.000000;0.024894
9565.000000;0.024988
9564.000000;0.024945
9563.000000;0.024778
9562.000000;0.024625
9561.000000;0.024582
9560.000000;0.024609
9559.000000;0.024627
9558.000000;0.024655
9557.000000;0.024773
9556.000000;0.024992
9555.000000;0.025212
9554.000000;0.025324
9553.000000;0.025284
9552.000000;0.025101
9551.000000;0.024836
9550.000000;0.024626
9549.000000;0.024624
9548.000000;0.024846
9547.000000;0.025118
9546.000000;0.025226
9545.000000;0.025123
9544.000000;0.024936
9543.000000;0.024803
9542.000000;0.024764
9541.000000;0.024781
9540.000000;0.024801
9539.000000;0.024774
9538.000000;0.024671
9537.000000;0.024535
9536.000000;0.024468
9535.000000;0.024543
9534.000000;0.024717
9533.000000;0.024862
9532.000000;0.024889
9531.000000;0.024813
9530.000000;0.024716
9529.000000;0.024658
9528.000000;0.024644
9527.000000;0.024663
9526.000000;0.024729
9525.000000;0.024847
9524.000000;0.024965
9523.000000;0.024990
9522.000000;0.024891
9521.000000;0.024754
9520.000000;0.024690
9519.000000;0.024688
9518.000000;0.024636
9517.000000;0.024487
9516.000000;0.024344
9515.000000;0.024338
9514.000000;0.024485
9513.000000;0.024677
9512.000000;0.024807
9511.000000;0.024830
9510.000000;0.024755
9509.000000;0.024623
9508.000000;0.024508
9507.000000;0.024475
9506.000000;0.024539
9505.000000;0.024679
9504.000000;0.024877
9503.000000;0.025100
9502.000000;0.025259
9501.000000;0.025271
9500.000000;0.025166
9499.000000;0.025071
9498.000000;0.025062
9497.000000;0.025097
9496.000000;0.025100
9495.000000;0.025066
9494.000000;0.025019
9493.000000;0.024937
9492.000000;0.024784
9491.000000;0.024623
9490.000000;0.024600
9489.000000;0.024800
9488.000000;0.025141
9487.000000;0.025444
9486.000000;0.025592
9485.000000;0.025604
9484.000000;0.025561
9483.000000;0.025498
9482.000000;0.025369
9481.000000;0.025129
9480.000000;0.024811
9479.000000;0.024508
9478.000000;0.024308
9477.000000;0.024256
9476.000000;0.024372
9475.000000;0.024646
9474.000000;0.024985
9473.000000;0.025239
9472.000000;0.025305
9471.000000;0.025204
9470.000000;0.025044
9469.000000;0.024926
9468.000000;0.024908
9467.000000;0.024995
9466.000000;0.025135
9465.000000;0.025222
9464.000000;0.025180
9463.000000;0.025039
9462.000000;0.024894
9461.000000;0.024813
9460.000000;0.024801
9459.000000;0.024857
9458.000000;0.024991
9457.000000;0.025158
9456.000000;0.025248
9455.000000;0.025179
9454.000000;0.025004
9453.000000;0.024881
9452.000000;0.024925
9451.000000;0.025100
9450.000000;0.025270
9449.000000;0.025345
9448.000000;0.025351
9447.000000;0.025371
9446.000000;0.025425
9445.000000;0.025436
9444.000000;0.025321
9443.000000;0.025097
9442.000000;0.024879
9441.000000;0.024788
9440.000000;0.024845
9439.000000;0.024962
9438.000000;0.025034
9437.000000;0.025037
9436.000000;0.025035
9435.000000;0.025077
9434.000000;0.025131
9433.000000;0.025142
9432.000000;0.025125
9431.000000;0.025152
9430.000000;0.025240
9429.000000;0.025322
9428.000000;0.025347
9427.000000;0.025346
9426.000000;0.025360
9425.000000;0.025361
9424.000000;0.025294
9423.000000;0.025176
9422.000000;0.025087
9421.000000;0.025070
9420.000000;0.025104
9419.000000;0.025144
9418.000000;0.025159
9417.000000;0.025129
9416.000000;0.025057
9415.000000;0.024990
9414.000000;0.024982
9413.000000;0.025038
9412.000000;0.025116
9411.000000;0.025176
9410.000000;0.025191
9409.000000;0.025143
9408.000000;0.025052
9407.000000;0.024989
9406.000000;0.025007
9405.000000;0.025063
9404.000000;0.025081
9403.000000;0.025066
9402.000000;0.025102
9401.000000;0.025219
9400.000000;0.025338
9399.000000;0.025377
9398.000000;0.025347
9397.000000;0.025311
9396.000000;0.025308
9395.000000;0.025346
9394.000000;0.025421
9393.000000;0.025482
9392.000000;0.025460
9391.000000;0.025363
9390.000000;0.025316
9389.000000;0.025415
9388.000000;0.025589
9387.000000;0.025684
9386.000000;0.025666
9385.000000;0.025656
9384.000000;0.025760
9383.000000;0.025926
9382.000000;0.026004
9381.000000;0.025899
9380.000000;0.025651
9379.000000;0.025389
9378.000000;0.025255
9377.000000;0.025307
9376.000000;0.025474
9375.000000;0.025610
9374.000000;0.025607
9373.000000;0.025480
9372.000000;0.025317
9371.000000;0.025199
9370.000000;0.025163
9369.000000;0.025225
9368.000000;0.025379
9367.000000;0.025572
9366.000000;0.025717
9365.000000;0.025752
9364.000000;0.025699
9363.000000;0.025627
9362.000000;0.025584
9361.000000;0.025563
9360.000000;0.025536
9359.000000;0.025498
9358.000000;0.025464
9357.000000;0.025440
9356.000000;0.025419
9355.000000;0.025415
9354.000000;0.025452
9353.000000;0.025523
9352.000000;0.025576
9351.000000;0.025569
9350.000000;0.025506
9349.000000;0.025421
9348.000000;0.025335
9347.000000;0.025269
9346.000000;0.025268
9345.000000;0.025359
9344.000000;0.025504
9343.000000;0.025618
9342.000000;0.025656
9341.000000;0.025656
9340.000000;0.025677
9339.000000;0.025734
9338.000000;0.025809
9337.000000;0.025885
9336.000000;0.025941
9335.000000;0.025934
9334.000000;0.025827
9333.000000;0.025642
9332.000000;0.025448
9331.000000;0.025299
9330.000000;0.025211
9329.000000;0.025192
9328.000000;0.025265
9327.000000;0.025428
9326.000000;0.025635
9325.000000;0.025840
9324.000000;0.026030
9323.000000;0.026180
9322.000000;0.026224
9321.000000;0.026120
9320.000000;0.025942
9319.000000;0.025835
9318.000000;0.025865
9317.000000;0.025947
9316.000000;0.025964
9315.000000;0.025894
9314.000000;0.025802
9313.000000;0.025753
9312.000000;0.025773
9311.000000;0.025869
9310.000000;0.026020
9309.000000;0.026156
9308.000000;0.026206
9307.000000;0.026181
9306.000000;0.026162
9305.000000;0.026187
9304.000000;0.026193
9303.000000;0.026104
9302.000000;0.025937
9301.000000;0.025793
9300.000000;0.025760
9299.000000;0.025841
9298.000000;0.025955
9297.000000;0.026008
9296.000000;0.025949
9295.000000;0.025811
9294.000000;0.025682
9293.000000;0.025636
9292.000000;0.025691
9291.000000;0.025806
9290.000000;0.025914
9289.000000;0.025952
9288.000000;0.025906
9287.000000;0.025826
9286.000000;0.025792
9285.000000;0.025836
9284.000000;0.025924
9283.000000;0.025999
9282.000000;0.026036
9281.000000;0.026043
9280.000000;0.026035
9279.000000;0.026049
9278.000000;0.026121
9277.000000;0.026235
9276.000000;0.026292
9275.000000;0.026201
9274.000000;0.025983
9273.000000;0.025772
9272.000000;0.025666
9271.000000;0.025636
9270.000000;0.025586
9269.000000;0.025492
9268.000000;0.025429
9267.000000;0.025476
9266.000000;0.025616
9265.000000;0.025762
9264.000000;0.025841
9263.000000;0.025832
9262.000000;0.025734
9261.000000;0.025570
9260.000000;0.025412
9259.000000;0.025366
9258.000000;0.025476
9257.000000;0.025664
9256.000000;0.025818
9255.000000;0.025911
9254.000000;0.025995
9253.000000;0.026071
9252.000000;0.026067
9251.000000;0.025956
9250.000000;0.025836
9249.000000;0.025824
9248.000000;0.025909
9247.000000;0.025978
9246.000000;0.025969
9245.000000;0.025928
9244.000000;0.025921
9243.000000;0.025953
9242.000000;0.026008
9241.000000;0.026118
9240.000000;0.026340
9239.000000;0.026661
9238.000000;0.026961
9237.000000;0.027090
9236.000000;0.026982
9235.000000;0.026702
9234.000000;0.026391
9233.000000;0.026161
9232.000000;0.026040
9231.000000;0.026007
9230.000000;0.026053
9229.000000;0.026175
9228.000000;0.026312
9227.000000;0.026342
9226.000000;0.026202
9225.000000;0.025983
9224.000000;0.025867
9223.000000;0.025940
9222.000000;0.026103
9221.000000;0.026185
9220.000000;0.026124
9219.000000;0.026000
9218.000000;0.025905
9217.000000;0.025833
9216.000000;0.025740
9215.000000;0.025653
9214.000000;0.025672
9213.000000;0.025849
9212.000000;0.026095
9211.000000;0.026245
9210.000000;0.026194
9209.000000;0.025981
9208.000000;0.025749
9207.000000;0.025636
9206.000000;0.025698
9205.000000;0.025874
9204.000000;0.026037
9203.000000;0.026083
9202.000000;0.026000
9201.000000;0.025868
9200.000000;0.025780
9199.000000;0.025767
9198.000000;0.025797
9197.000000;0.025826
9196.000000;0.025837
9195.000000;0.025830
9194.000000;0.025798
9193.000000;0.025738
9192.000000;0.025676
9191.000000;0.025668
9190.000000;0.025746
9189.000000;0.025886
9188.000000;0.026033
9187.000000;0.026141
9186.000000;0.026205
9185.000000;0.026255
9184.000000;0.026326
9183.000000;0.026416
9182.000000;0.026455
9181.000000;0.026380
9180.000000;0.026228
9179.000000;0.026145
9178.000000;0.026240
9177.000000;0.026456
9176.000000;0.026636
9175.000000;0.026688
9174.000000;0.026649
9173.000000;0.026596
9172.000000;0.026549
9171.000000;0.026481
9170.000000;0.026374
9169.000000;0.026234
9168.000000;0.026098
9167.000000;0.026037
9166.000000;0.026113
9165.000000;0.026301
9164.000000;0.026488
9163.000000;0.026573
9162.000000;0.026562
9161.000000;0.026519
9160.000000;0.026484
9159.000000;0.026454
9158.000000;0.026435
9157.000000;0.026449
9156.000000;0.026500
9155.000000;0.026566
9154.000000;0.026625
9153.000000;0.026662
9152.000000;0.026658
9151.000000;0.026599
9150.000000;0.026504
9149.000000;0.026408
9148.000000;0.026333
9147.000000;0.026277
9146.000000;0.026246
9145.000000;0.026264
9144.000000;0.026340
9143.000000;0.026444
9142.000000;0.026519
9141.000000;0.026512
9140.000000;0.026410
9139.000000;0.026261
9138.000000;0.026157
9137.000000;0.026166
9136.000000;0.026277
9135.000000;0.026419
9134.000000;0.026540
9133.000000;0.026641
9132.000000;0.026746
9131.000000;0.026842
9130.000000;0.026875
9129.000000;0.026784
9128.000000;0.026570
9127.000000;0.026325
9126.000000;0.026174
9125.000000;0.026176
9124.000000;0.026291
9123.000000;0.026443
9122.000000;0.026609
9121.000000;0.026798
9120.000000;0.026984
9119.000000;0.027095
9118.000000;0.027086
9117.000000;0.026982
9116.000000;0.026858
9115.000000;0.026780
9114.000000;0.026781
9113.000000;0.026840
9112.000000;0.026896
9111.000000;0.026889
9110.000000;0.026804
9109.000000;0.026665
9108.000000;0.026507
9107.000000;0.026380
9106.000000;0.026339
9105.000000;0.026404
9104.000000;0.026502
9103.000000;0.026519
9102.000000;0.026421
9101.000000;0.026301
9100.000000;0.026280
9099.000000;0.026387
9098.000000;0.026550
9097.000000;0.026664
9096.000000;0.026666
9095.000000;0.026571
9094.000000;0.026476
9093.000000;0.026484
9092.000000;0.026597
9091.000000;0.026706
9090.000000;0.026703
9089.000000;0.026602
9088.000000;0.026512
9087.000000;0.026519
9086.000000;0.026623
9085.000000;0.026778
9084.000000;0.026940
9083.000000;0.027064
9082.000000;0.027107
9081.000000;0.027052
9080.000000;0.026921
9079.000000;0.026759
9078.000000;0.026606
9077.000000;0.026497
9076.000000;0.026454
9075.000000;0.026474
9074.000000;0.026528
9073.000000;0.026592
9072.000000;0.026657
9071.000000;0.026705
9070.000000;0.026699
9069.000000;0.026608
9068.000000;0.026477
9067.000000;0.026421
9066.000000;0.026544
9065.000000;0.026834
9064.000000;0.027146
9063.000000;0.027312
9062.000000;0.027270
9061.000000;0.027090
9060.000000;0.026897
9059.000000;0.026776
9058.000000;0.026742
9057.000000;0.026762
9056.000000;0.026782
9055.000000;0.026762
9054.000000;0.026701
9053.000000;0.026638
