Criado como novo conjunto de dados;"2706_e01_daniel.spp","16922.8 Secs"
cm-1;Abs
10000.000000;0.735092
9999.000000;0.735210
9998.000000;0.735538
9997.000000;0.735860
9996.000000;0.735605
9995.000000;0.734515
9994.000000;0.733124
9993.000000;0.732345
9992.000000;0.732506
9991.000000;0.733151
9990.000000;0.733641
9989.000000;0.733697
9988.000000;0.733406
9987.000000;0.733053
9986.000000;0.732965
9985.000000;0.733234
9984.000000;0.733539
9983.000000;0.733475
9982.000000;0.733045
9981.000000;0.732601
9980.000000;0.732359
9979.000000;0.732246
9978.000000;0.732160
9977.000000;0.732060
9976.000000;0.731805
9975.000000;0.731242
9974.000000;0.730539
9973.000000;0.730112
9972.000000;0.730153
9971.000000;0.730456
9970.000000;0.730806
9969.000000;0.731274
9968.000000;0.731967
9967.000000;0.732693
9966.000000;0.733051
9965.000000;0.732793
9964.000000;0.732018
9963.000000;0.731106
9962.000000;0.730472
9961.000000;0.730268
9960.000000;0.730297
9959.000000;0.730295
9958.000000;0.730282
9957.000000;0.730468
9956.000000;0.730863
9955.000000;0.731195
9954.000000;0.731227
9953.000000;0.730972
9952.000000;0.730541
9951.000000;0.730005
9950.000000;0.729473
9949.000000;0.729131
9948.000000;0.729059
9947.000000;0.729123
9946.000000;0.729162
9945.000000;0.729172
9944.000000;0.729249
9943.000000;0.729408
9942.000000;0.729593
9941.000000;0.729802
9940.000000;0.730116
9939.000000;0.730564
9938.000000;0.730964
9937.000000;0.730948
9936.000000;0.730259
9935.000000;0.729078
9934.000000;0.727980
9933.000000;0.727457
9932.000000;0.727518
9931.000000;0.727790
9930.000000;0.727924
9929.000000;0.727820
9928.000000;0.727576
9927.000000;0.727370
9926.000000;0.727347
9925.000000;0.727476
9924.000000;0.727560
9923.000000;0.727500
9922.000000;0.727443
9921.000000;0.727530
9920.000000;0.727623
9919.000000;0.727492
9918.000000;0.727204
9917.000000;0.727059
9916.000000;0.727143
9915.000000;0.727195
9914.000000;0.726969
9913.000000;0.726504
9912.000000;0.725981
9911.000000;0.725528
9910.000000;0.725253
9909.000000;0.725263
9908.000000;0.725499
9907.000000;0.725683
9906.000000;0.725582
9905.000000;0.725266
9904.000000;0.724976
9903.000000;0.724829
9902.000000;0.724765
9901.000000;0.724723
9900.000000;0.724753
9899.000000;0.724935
9898.000000;0.725266
9897.000000;0.725638
9896.000000;0.725912
9895.000000;0.726006
9894.000000;0.725922
9893.000000;0.725699
9892.000000;0.725379
9891.000000;0.725052
9890.000000;0.724883
9889.000000;0.725004
9888.000000;0.725340
9887.000000;0.725622
9886.000000;0.725628
9885.000000;0.725376
9884.000000;0.725057
9883.000000;0.724805
9882.000000;0.724582
9881.000000;0.724293
9880.000000;0.723966
9879.000000;0.723755
9878.000000;0.723780
9877.000000;0.723981
9876.000000;0.724140
9875.000000;0.724004
9874.000000;0.723443
9873.000000;0.722595
9872.000000;0.721905
9871.000000;0.721852
9870.000000;0.722503
9869.000000;0.723390
9868.000000;0.723986
9867.000000;0.724223
9866.000000;0.724365
9865.000000;0.724471
9864.000000;0.724287
9863.000000;0.723721
9862.000000;0.723143
9861.000000;0.723025
9860.000000;0.723419
9859.000000;0.723933
9858.000000;0.724130
9857.000000;0.723846
9856.000000;0.723220
9855.000000;0.722535
9854.000000;0.722010
9853.000000;0.721693
9852.000000;0.721536
9851.000000;0.721537
9850.000000;0.721681
9849.000000;0.721831
9848.000000;0.721836
9847.000000;0.721753
9846.000000;0.721775
9845.000000;0.721933
9844.000000;0.722052
9843.000000;0.722043
9842.000000;0.721969
9841.000000;0.721810
9840.000000;0.721434
9839.000000;0.720946
9838.000000;0.720736
9837.000000;0.720990
9836.000000;0.721384
9835.000000;0.721514
9834.000000;0.721411
9833.000000;0.721367
9832.000000;0.721428
9831.000000;0.721398
9830.000000;0.721252
9829.000000;0.721229
9828.000000;0.721446
9827.000000;0.721668
9826.000000;0.721581
9825.000000;0.721189
9824.000000;0.720832
9823.000000;0.720816
9822.000000;0.721076
9821.000000;0.721255
9820.000000;0.721127
9819.000000;0.720834
9818.000000;0.720611
9817.000000;0.720389
9816.000000;0.719939
9815.000000;0.719339
9814.000000;0.718969
9813.000000;0.719001
9812.000000;0.719219
9811.000000;0.719459
9810.000000;0.719854
9809.000000;0.720447
9808.000000;0.720885
9807.000000;0.720797
9806.000000;0.720255
9805.000000;0.719602
9804.000000;0.719002
9803.000000;0.718454
9802.000000;0.718055
9801.000000;0.717909
9800.000000;0.717889
9799.000000;0.717769
9798.000000;0.717561
9797.000000;0.717471
9796.000000;0.717595
9795.000000;0.717844
9794.000000;0.718091
9793.000000;0.718187
9792.000000;0.717955
9791.000000;0.717391
9790.000000;0.716797
9789.000000;0.716508
9788.000000;0.716555
9787.000000;0.716765
9786.000000;0.717052
9785.000000;0.717382
9784.000000;0.717621
9783.000000;0.717664
9782.000000;0.717639
9781.000000;0.717705
9780.000000;0.717759
9779.000000;0.717592
9778.000000;0.717214
9777.000000;0.716786
9776.000000;0.716362
9775.000000;0.715988
9774.000000;0.715910
9773.000000;0.716281
9772.000000;0.716723
9771.000000;0.716636
9770.000000;0.715999
9769.000000;0.715474
9768.000000;0.715556
9767.000000;0.715986
9766.000000;0.716219
9765.000000;0.716148
9764.000000;0.716103
9763.000000;0.716302
9762.000000;0.716592
9761.000000;0.716701
9760.000000;0.716531
9759.000000;0.716178
9758.000000;0.715782
9757.000000;0.715419
9756.000000;0.715155
9755.000000;0.715116
9754.000000;0.715388
9753.000000;0.715813
9752.000000;0.716028
9751.000000;0.715814
9750.000000;0.715329
9749.000000;0.714895
9748.000000;0.714668
9747.000000;0.714630
9746.000000;0.714743
9745.000000;0.714939
9744.000000;0.715057
9743.000000;0.715010
9742.000000;0.714921
9741.000000;0.714901
9740.000000;0.714778
9739.000000;0.714293
9738.000000;0.713529
9737.000000;0.712890
9736.000000;0.712668
9735.000000;0.712829
9734.000000;0.713188
9733.000000;0.713545
9732.000000;0.713650
9731.000000;0.713324
9730.000000;0.712720
9729.000000;0.712274
9728.000000;0.712291
9727.000000;0.712683
9726.000000;0.713144
9725.000000;0.713421
9724.000000;0.713386
9723.000000;0.713039
9722.000000;0.712563
9721.000000;0.712263
9720.000000;0.712325
9719.000000;0.712646
9718.000000;0.712942
9717.000000;0.712993
9716.000000;0.712793
9715.000000;0.712533
9714.000000;0.712411
9713.000000;0.712419
9712.000000;0.712377
9711.000000;0.712210
9710.000000;0.712079
9709.000000;0.712135
9708.000000;0.712287
9707.000000;0.712362
9706.000000;0.712388
9705.000000;0.712496
9704.000000;0.712582
9703.000000;0.712355
9702.000000;0.711755
9701.000000;0.711142
9700.000000;0.710947
9699.000000;0.711225
9698.000000;0.711618
9697.000000;0.711673
9696.000000;0.711232
9695.000000;0.710574
9694.000000;0.710189
9693.000000;0.710328
9692.000000;0.710806
9691.000000;0.711255
9690.000000;0.711477
9689.000000;0.711461
9688.000000;0.711234
9687.000000;0.710873
9686.000000;0.710564
9685.000000;0.710435
9684.000000;0.710368
9683.000000;0.710164
9682.000000;0.709873
9681.000000;0.709740
9680.000000;0.709834
9679.000000;0.709946
9678.000000;0.709894
9677.000000;0.709710
9676.000000;0.709499
9675.000000;0.709265
9674.000000;0.708970
9673.000000;0.708634
9672.000000;0.708333
9671.000000;0.708188
9670.000000;0.708359
9669.000000;0.708874
9668.000000;0.709453
9667.000000;0.709660
9666.000000;0.709351
9665.000000;0.708867
9664.000000;0.708720
9663.000000;0.709134
9662.000000;0.709877
9661.000000;0.710464
9660.000000;0.710540
9659.000000;0.710149
9658.000000;0.709639
9657.000000;0.709284
9656.000000;0.709051
9655.000000;0.708805
9654.000000;0.708620
9653.000000;0.708692
9652.000000;0.708978
9651.000000;0.709124
9650.000000;0.708831
9649.000000;0.708178
9648.000000;0.707523
9647.000000;0.707179
9646.000000;0.707222
9645.000000;0.707495
9644.000000;0.707720
9643.000000;0.707674
9642.000000;0.707341
9641.000000;0.706919
9640.000000;0.706675
9639.000000;0.706749
9638.000000;0.707034
9637.000000;0.707237
9636.000000;0.707142
9635.000000;0.706839
9634.000000;0.706618
9633.000000;0.706586
9632.000000;0.706532
9631.000000;0.706248
9630.000000;0.705866
9629.000000;0.705733
9628.000000;0.706027
9627.000000;0.706611
9626.000000;0.707196
9625.000000;0.707524
9624.000000;0.707484
9623.000000;0.707194
9622.000000;0.706948
9621.000000;0.706959
9620.000000;0.707146
9619.000000;0.707254
9618.000000;0.707104
9617.000000;0.706692
9616.000000;0.706127
9615.000000;0.705605
9614.000000;0.705332
9613.000000;0.705362
9612.000000;0.705518
9611.000000;0.705571
9610.000000;0.705425
9609.000000;0.705098
9608.000000;0.704641
9607.000000;0.704184
9606.000000;0.703924
9605.000000;0.703926
9604.000000;0.704058
9603.000000;0.704253
9602.000000;0.704643
9601.000000;0.705266
9600.000000;0.705792
9599.000000;0.705820
9598.000000;0.705359
9597.000000;0.704772
9596.000000;0.704337
9595.000000;0.704099
9594.000000;0.704078
9593.000000;0.704306
9592.000000;0.704610
9591.000000;0.704641
9590.000000;0.704216
9589.000000;0.703511
9588.000000;0.702859
9587.000000;0.702484
9586.000000;0.702458
9585.000000;0.702754
9584.000000;0.703253
9583.000000;0.703783
9582.000000;0.704186
9581.000000;0.704364
9580.000000;0.704329
9579.000000;0.704244
9578.000000;0.704277
9577.000000;0.704348
9576.000000;0.704176
9575.000000;0.703706
9574.000000;0.703278
9573.000000;0.703199
9572.000000;0.703313
9571.000000;0.703276
9570.000000;0.703084
9569.000000;0.703036
9568.000000;0.703201
9567.000000;0.703267
9566.000000;0.702940
9565.000000;0.702273
9564.000000;0.701572
9563.000000;0.701171
9562.000000;0.701271
9561.000000;0.701772
9560.000000;0.702261
9559.000000;0.702384
9558.000000;0.702220
9557.000000;0.702114
9556.000000;0.702204
9555.000000;0.702328
9554.000000;0.702352
9553.000000;0.702305
9552.000000;0.702204
9551.000000;0.702033
9550.000000;0.701927
9549.000000;0.702083
9548.000000;0.702420
9547.000000;0.702601
9546.000000;0.702466
9545.000000;0.702211
9544.000000;0.702037
9543.000000;0.701884
9542.000000;0.701630
9541.000000;0.701332
9540.000000;0.701131
9539.000000;0.701075
9538.000000;0.701136
9537.000000;0.701256
9536.000000;0.701286
9535.000000;0.701058
9534.000000;0.700612
9533.000000;0.700213
9532.000000;0.700049
9531.000000;0.700071
9530.000000;0.700136
9529.000000;0.700154
9528.000000;0.700015
9527.000000;0.699627
9526.000000;0.699132
9525.000000;0.698906
9524.000000;0.699161
9523.000000;0.699699
9522.000000;0.700165
9521.000000;0.700404
9520.000000;0.700442
9519.000000;0.700252
9518.000000;0.699782
9517.000000;0.699147
9516.000000;0.698620
9515.000000;0.698406
9514.000000;0.698511
9513.000000;0.698807
9512.000000;0.699157
9511.000000;0.699466
9510.000000;0.699695
9509.000000;0.699827
9508.000000;0.699849
9507.000000;0.699774
9506.000000;0.699640
9505.000000;0.699424
9504.000000;0.699035
9503.000000;0.698489
9502.000000;0.698039
9501.000000;0.697981
9500.000000;0.698316
9499.000000;0.698743
9498.000000;0.698987
9497.000000;0.698991
9496.000000;0.698792
9495.000000;0.698415
9494.000000;0.697937
9493.000000;0.697513
9492.000000;0.697221
9491.000000;0.696990
9490.000000;0.696763
9489.000000;0.696639
9488.000000;0.696753
9487.000000;0.697092
9486.000000;0.697471
9485.000000;0.697665
9484.000000;0.697570
9483.000000;0.697289
9482.000000;0.697050
9481.000000;0.696959
9480.000000;0.696845
9479.000000;0.696496
9478.000000;0.696007
9477.000000;0.695742
9476.000000;0.695910
9475.000000;0.696338
9474.000000;0.696690
9473.000000;0.696805
9472.000000;0.696753
9471.000000;0.696690
9470.000000;0.696721
9469.000000;0.696799
9468.000000;0.696727
9467.000000;0.696362
9466.000000;0.695843
9465.000000;0.695498
9464.000000;0.695492
9463.000000;0.695686
9462.000000;0.695857
9461.000000;0.695918
9460.000000;0.695895
9459.000000;0.695834
9458.000000;0.695785
9457.000000;0.695754
9456.000000;0.695606
9455.000000;0.695193
9454.000000;0.694631
9453.000000;0.694306
9452.000000;0.694469
9451.000000;0.694930
9450.000000;0.695266
9449.000000;0.695227
9448.000000;0.694861
9447.000000;0.694371
9446.000000;0.693992
9445.000000;0.693915
9444.000000;0.694176
9443.000000;0.694586
9442.000000;0.694873
9441.000000;0.694909
9440.000000;0.694772
9439.000000;0.694615
9438.000000;0.694535
9437.000000;0.694511
9436.000000;0.694438
9435.000000;0.694235
9434.000000;0.693971
9433.000000;0.693819
9432.000000;0.693855
9431.000000;0.693949
9430.000000;0.693926
9429.000000;0.693775
9428.000000;0.693646
9427.000000;0.693649
9426.000000;0.693713
9425.000000;0.693662
9424.000000;0.693415
9423.000000;0.693074
9422.000000;0.692828
9421.000000;0.692754
9420.000000;0.692778
9419.000000;0.692805
9418.000000;0.692831
9417.000000;0.692874
9416.000000;0.692899
9415.000000;0.692858
9414.000000;0.692779
9413.000000;0.692724
9412.000000;0.692708
9411.000000;0.692729
9410.000000;0.692812
9409.000000;0.692939
9408.000000;0.693019
9407.000000;0.693009
9406.000000;0.692972
9405.000000;0.692919
9404.000000;0.692709
9403.000000;0.692279
9402.000000;0.691861
9401.000000;0.691744
9400.000000;0.691861
9399.000000;0.691881
9398.000000;0.691700
9397.000000;0.691570
9396.000000;0.691688
9395.000000;0.691887
9394.000000;0.691899
9393.000000;0.691698
9392.000000;0.691469
9391.000000;0.691360
9390.000000;0.691405
9389.000000;0.691563
9388.000000;0.691702
9387.000000;0.691651
9386.000000;0.691401
9385.000000;0.691174
9384.000000;0.691186
9383.000000;0.691400
9382.000000;0.691593
9381.000000;0.691580
9380.000000;0.691290
9379.000000;0.690736
9378.000000;0.690064
9377.000000;0.689577
9376.000000;0.689530
9375.000000;0.689856
9374.000000;0.690184
9373.000000;0.690172
9372.000000;0.689832
9371.000000;0.689489
9370.000000;0.689472
9369.000000;0.689809
9368.000000;0.690240
9367.000000;0.690478
9366.000000;0.690437
9365.000000;0.690207
9364.000000;0.689906
9363.000000;0.689656
9362.000000;0.689621
9361.000000;0.689885
9360.000000;0.690270
9359.000000;0.690408
9358.000000;0.690080
9357.000000;0.689429
9356.000000;0.688800
9355.000000;0.688441
9354.000000;0.688384
9353.000000;0.688516
9352.000000;0.688697
9351.000000;0.688835
9350.000000;0.688905
9349.000000;0.688898
9348.000000;0.688788
9347.000000;0.688613
9346.000000;0.688499
9345.000000;0.688515
9344.000000;0.688557
9343.000000;0.688503
9342.000000;0.688454
9341.000000;0.688621
9340.000000;0.688973
9339.000000;0.689219
9338.000000;0.689206
9337.000000;0.689107
9336.000000;0.689102
9335.000000;0.689056
9334.000000;0.688735
9333.000000;0.688199
9332.000000;0.687784
9331.000000;0.687727
9330.000000;0.687962
9329.000000;0.688273
9328.000000;0.688487
9327.000000;0.688526
9326.000000;0.688427
9325.000000;0.688334
9324.000000;0.688374
9323.000000;0.688493
9322.000000;0.688477
9321.000000;0.688170
9320.000000;0.687624
9319.000000;0.687046
9318.000000;0.686645
9317.000000;0.686513
9316.000000;0.686595
9315.000000;0.686723
9314.000000;0.686745
9313.000000;0.686643
9312.000000;0.686537
9311.000000;0.686546
9310.000000;0.686679
9309.000000;0.686850
9308.000000;0.686972
9307.000000;0.687026
9306.000000;0.687053
9305.000000;0.687097
9304.000000;0.687136
9303.000000;0.687059
9302.000000;0.686765
9301.000000;0.686311
9300.000000;0.685927
9299.000000;0.685816
9298.000000;0.685920
9297.000000;0.685928
9296.000000;0.685594
9295.000000;0.685010
9294.000000;0.684524
9293.000000;0.684392
9292.000000;0.684571
9291.000000;0.684816
9290.000000;0.684911
9289.000000;0.684790
9288.000000;0.684552
9287.000000;0.684416
9286.000000;0.684584
9285.000000;0.685057
9284.000000;0.685591
9283.000000;0.685905
9282.000000;0.685899
9281.000000;0.685660
9280.000000;0.685329
9279.000000;0.685006
9278.000000;0.684731
9277.000000;0.684470
9276.000000;0.684151
9275.000000;0.683796
9274.000000;0.683580
9273.000000;0.683667
9272.000000;0.683996
9271.000000;0.684311
9270.000000;0.684405
9269.000000;0.684281
9268.000000;0.684081
9267.000000;0.683934
9266.000000;0.683900
9265.000000;0.683987
9264.000000;0.684145
9263.000000;0.684243
9262.000000;0.684098
9261.000000;0.683622
9260.000000;0.682996
9259.000000;0.682619
9258.000000;0.682753
9257.000000;0.683222
9256.000000;0.683592
9255.000000;0.683657
9254.000000;0.683599
9253.000000;0.683619
9252.000000;0.683624
9251.000000;0.683402
9250.000000;0.682959
9249.000000;0.682499
9248.000000;0.682178
9247.000000;0.682026
9246.000000;0.682036
9245.000000;0.682154
9244.000000;0.682240
9243.000000;0.682213
9242.000000;0.682189
9241.000000;0.682323
9240.000000;0.682551
9239.000000;0.682672
9238.000000;0.682631
9237.000000;0.682557
9236.000000;0.682511
9235.000000;0.682395
9234.000000;0.682138
9233.000000;0.681821
9232.000000;0.681562
9231.000000;0.681411
9230.000000;0.681366
9229.000000;0.681371
9228.000000;0.681300
9227.000000;0.681090
9226.000000;0.680912
9225.000000;0.681039
9224.000000;0.681497
9223.000000;0.681982
9222.000000;0.682184
9221.000000;0.682078
9220.000000;0.681830
9219.000000;0.681554
9218.000000;0.681266
9217.000000;0.680974
9216.000000;0.680709
9215.000000;0.680501
9214.000000;0.680390
9213.000000;0.680421
9212.000000;0.680574
9211.000000;0.680747
9210.000000;0.680830
9209.000000;0.680775
9208.000000;0.680600
9207.000000;0.680385
9206.000000;0.680252
9205.000000;0.680272
9204.000000;0.680373
9203.000000;0.680393
9202.000000;0.680258
9201.000000;0.680030
9200.000000;0.679831
9199.000000;0.679762
9198.000000;0.679883
9197.000000;0.680156
9196.000000;0.680402
9195.000000;0.680424
9194.000000;0.680184
9193.000000;0.679802
9192.000000;0.679399
9191.000000;0.679046
9190.000000;0.678814
9189.000000;0.678727
9188.000000;0.678681
9187.000000;0.678589
9186.000000;0.678588
9185.000000;0.678921
9184.000000;0.679537
9183.000000;0.680017
9182.000000;0.680032
9181.000000;0.679736
9180.000000;0.679541
9179.000000;0.679593
9178.000000;0.679655
9177.000000;0.679462
9176.000000;0.679026
9175.000000;0.678566
9174.000000;0.678252
9173.000000;0.678092
9172.000000;0.678001
9171.000000;0.677916
9170.000000;0.677823
9169.000000;0.677730
9168.000000;0.677661
9167.000000;0.677680
9166.000000;0.677847
9165.000000;0.678085
9164.000000;0.678184
9163.000000;0.678018
9162.000000;0.677739
9161.000000;0.677618
9160.000000;0.677706
9159.000000;0.677763
9158.000000;0.677585
9157.000000;0.677252
9156.000000;0.677023
9155.000000;0.677050
9154.000000;0.677283
9153.000000;0.677566
9152.000000;0.677739
9151.000000;0.677691
9150.000000;0.677433
9149.000000;0.677104
9148.000000;0.676866
9147.000000;0.676773
9146.000000;0.676755
9145.000000;0.676720
9144.000000;0.676634
9143.000000;0.676508
9142.000000;0.676337
9141.000000;0.676106
9140.000000;0.675854
9139.000000;0.675690
9138.000000;0.675667
9137.000000;0.675653
9136.000000;0.675462
9135.000000;0.675159
9134.000000;0.675099
9133.000000;0.675512
9132.000000;0.676129
9131.000000;0.676402
9130.000000;0.676093
9129.000000;0.675502
9128.000000;0.675097
9127.000000;0.675068
9126.000000;0.675301
9125.000000;0.675616
9124.000000;0.675902
9123.000000;0.676108
9122.000000;0.676228
9121.000000;0.676293
9120.000000;0.676307
9119.000000;0.676230
9118.000000;0.676040
9117.000000;0.675802
9116.000000;0.675609
9115.000000;0.675473
9114.000000;0.675319
9113.000000;0.675096
9112.000000;0.674873
9111.000000;0.674795
9110.000000;0.674950
9109.000000;0.675264
9108.000000;0.675548
9107.000000;0.675647
9106.000000;0.675529
9105.000000;0.675248
9104.000000;0.674877
9103.000000;0.674509
9102.000000;0.674224
9101.000000;0.674021
9100.000000;0.673824
9099.000000;0.673624
9098.000000;0.673534
9097.000000;0.673615
9096.000000;0.673738
9095.000000;0.673716
9094.000000;0.673545
9093.000000;0.673392
9092.000000;0.673371
9091.000000;0.673450
9090.000000;0.673542
9089.000000;0.673580
9088.000000;0.673527
9087.000000;0.673415
9086.000000;0.673367
9085.000000;0.673472
9084.000000;0.673651
9083.000000;0.673752
9082.000000;0.673745
9081.000000;0.673700
9080.000000;0.673606
9079.000000;0.673373
9078.000000;0.673024
9077.000000;0.672734
9076.000000;0.672617
9075.000000;0.672627
9074.000000;0.672693
9073.000000;0.672817
9072.000000;0.672960
9071.000000;0.672983
9070.000000;0.672790
9069.000000;0.672464
9068.000000;0.672165
9067.000000;0.671970
9066.000000;0.671871
9065.000000;0.671864
9064.000000;0.671965
9063.000000;0.672171
9062.000000;0.672446
9061.000000;0.672702
9060.000000;0.672789
9059.000000;0.672612
9058.000000;0.672295
9057.000000;0.672113
9056.000000;0.672192
9055.000000;0.672357
9054.000000;0.672344
9053.000000;0.672098
