Criado como novo conjunto de dados;"2706_e01_daniel.spp","10802.5 Secs"
cm-1;Abs
10000.000000;0.755123
9999.000000;0.754195
9998.000000;0.753717
9997.000000;0.753766
9996.000000;0.754038
9995.000000;0.754091
9994.000000;0.753697
9993.000000;0.753228
9992.000000;0.753237
9991.000000;0.753824
9990.000000;0.754510
9989.000000;0.754779
9988.000000;0.754495
9987.000000;0.753835
9986.000000;0.753090
9985.000000;0.752573
9984.000000;0.752431
9983.000000;0.752441
9982.000000;0.752206
9981.000000;0.751671
9980.000000;0.751256
9979.000000;0.751384
9978.000000;0.752031
9977.000000;0.752817
9976.000000;0.753353
9975.000000;0.753439
9974.000000;0.753110
9973.000000;0.752631
9972.000000;0.752331
9971.000000;0.752326
9970.000000;0.752474
9969.000000;0.752638
9968.000000;0.752853
9967.000000;0.753134
9966.000000;0.753274
9965.000000;0.753002
9964.000000;0.752322
9963.000000;0.751592
9962.000000;0.751247
9961.000000;0.751457
9960.000000;0.752001
9959.000000;0.752431
9958.000000;0.752398
9957.000000;0.751935
9956.000000;0.751412
9955.000000;0.751216
9954.000000;0.751435
9953.000000;0.751852
9952.000000;0.752186
9951.000000;0.752297
9950.000000;0.752175
9949.000000;0.751814
9948.000000;0.751214
9947.000000;0.750505
9946.000000;0.749943
9945.000000;0.749649
9944.000000;0.749452
9943.000000;0.749146
9942.000000;0.748869
9941.000000;0.749024
9940.000000;0.749798
9939.000000;0.750919
9938.000000;0.751918
9937.000000;0.752417
9936.000000;0.752159
9935.000000;0.751078
9934.000000;0.749551
9933.000000;0.748309
9932.000000;0.747814
9931.000000;0.747816
9930.000000;0.747747
9929.000000;0.747426
9928.000000;0.747148
9927.000000;0.747188
9926.000000;0.747517
9925.000000;0.747979
9924.000000;0.748447
9923.000000;0.748775
9922.000000;0.748789
9921.000000;0.748470
9920.000000;0.748045
9919.000000;0.747839
9918.000000;0.748045
9917.000000;0.748556
9916.000000;0.748973
9915.000000;0.748895
9914.000000;0.748356
9913.000000;0.747847
9912.000000;0.747768
9911.000000;0.747974
9910.000000;0.748033
9909.000000;0.747782
9908.000000;0.747362
9907.000000;0.746857
9906.000000;0.746275
9905.000000;0.745854
9904.000000;0.745993
9903.000000;0.746720
9902.000000;0.747546
9901.000000;0.747981
9900.000000;0.748003
9899.000000;0.747882
9898.000000;0.747804
9897.000000;0.747822
9896.000000;0.747964
9895.000000;0.748146
9894.000000;0.748095
9893.000000;0.747607
9892.000000;0.746842
9891.000000;0.746189
9890.000000;0.745855
9889.000000;0.745735
9888.000000;0.745655
9887.000000;0.745580
9886.000000;0.745537
9885.000000;0.745461
9884.000000;0.745211
9883.000000;0.744747
9882.000000;0.744252
9881.000000;0.744057
9880.000000;0.744419
9879.000000;0.745282
9878.000000;0.746224
9877.000000;0.746660
9876.000000;0.746249
9875.000000;0.745194
9874.000000;0.744126
9873.000000;0.743596
9872.000000;0.743647
9871.000000;0.743921
9870.000000;0.744159
9869.000000;0.744445
9868.000000;0.744923
9867.000000;0.745443
9866.000000;0.745691
9865.000000;0.745555
9864.000000;0.745214
9863.000000;0.744894
9862.000000;0.744727
9861.000000;0.744810
9860.000000;0.745178
9859.000000;0.745620
9858.000000;0.745693
9857.000000;0.745096
9856.000000;0.744011
9855.000000;0.743019
9854.000000;0.742604
9853.000000;0.742739
9852.000000;0.742919
9851.000000;0.742651
9850.000000;0.741951
9849.000000;0.741323
9848.000000;0.741192
9847.000000;0.741463
9846.000000;0.741717
9845.000000;0.741766
9844.000000;0.741812
9843.000000;0.742058
9842.000000;0.742384
9841.000000;0.742494
9840.000000;0.742296
9839.000000;0.741987
9838.000000;0.741834
9837.000000;0.741941
9836.000000;0.742194
9835.000000;0.742374
9834.000000;0.742358
9833.000000;0.742215
9832.000000;0.742056
9831.000000;0.741796
9830.000000;0.741204
9829.000000;0.740261
9828.000000;0.739348
9827.000000;0.738934
9826.000000;0.739122
9825.000000;0.739635
9824.000000;0.740186
9823.000000;0.740687
9822.000000;0.741103
9821.000000;0.741329
9820.000000;0.741330
9819.000000;0.741259
9818.000000;0.741270
9817.000000;0.741259
9816.000000;0.740981
9815.000000;0.740406
9814.000000;0.739797
9813.000000;0.739412
9812.000000;0.739260
9811.000000;0.739212
9810.000000;0.739224
9809.000000;0.739353
9808.000000;0.739640
9807.000000;0.740049
9806.000000;0.740484
9805.000000;0.740803
9804.000000;0.740905
9803.000000;0.740850
9802.000000;0.740817
9801.000000;0.740868
9800.000000;0.740844
9799.000000;0.740588
9798.000000;0.740187
9797.000000;0.739856
9796.000000;0.739674
9795.000000;0.739537
9794.000000;0.739313
9793.000000;0.738951
9792.000000;0.738480
9791.000000;0.738046
9790.000000;0.737850
9789.000000;0.737922
9788.000000;0.738031
9787.000000;0.737977
9786.000000;0.737882
9785.000000;0.737994
9784.000000;0.738288
9783.000000;0.738526
9782.000000;0.738660
9781.000000;0.738890
9780.000000;0.739258
9779.000000;0.739492
9778.000000;0.739375
9777.000000;0.739025
9776.000000;0.738663
9775.000000;0.738286
9774.000000;0.737739
9773.000000;0.736986
9772.000000;0.736169
9771.000000;0.735516
9770.000000;0.735272
9769.000000;0.735571
9768.000000;0.736223
9767.000000;0.736748
9766.000000;0.736812
9765.000000;0.736546
9764.000000;0.736323
9763.000000;0.736308
9762.000000;0.736371
9761.000000;0.736343
9760.000000;0.736213
9759.000000;0.736083
9758.000000;0.736061
9757.000000;0.736157
9756.000000;0.736240
9755.000000;0.736141
9754.000000;0.735864
9753.000000;0.735620
9752.000000;0.735581
9751.000000;0.735698
9750.000000;0.735828
9749.000000;0.735911
9748.000000;0.735906
9747.000000;0.735694
9746.000000;0.735230
9745.000000;0.734735
9744.000000;0.734520
9743.000000;0.734618
9742.000000;0.734729
9741.000000;0.734598
9740.000000;0.734291
9739.000000;0.734063
9738.000000;0.734030
9737.000000;0.734103
9736.000000;0.734186
9735.000000;0.734322
9734.000000;0.734559
9733.000000;0.734755
9732.000000;0.734649
9731.000000;0.734199
9730.000000;0.733730
9729.000000;0.733636
9728.000000;0.733957
9727.000000;0.734360
9726.000000;0.734514
9725.000000;0.734346
9724.000000;0.733991
9723.000000;0.733645
9722.000000;0.733512
9721.000000;0.733710
9720.000000;0.734124
9719.000000;0.734456
9718.000000;0.734504
9717.000000;0.734339
9716.000000;0.734204
9715.000000;0.734288
9714.000000;0.734583
9713.000000;0.734857
9712.000000;0.734796
9711.000000;0.734325
9710.000000;0.733783
9709.000000;0.733599
9708.000000;0.733797
9707.000000;0.733992
9706.000000;0.733907
9705.000000;0.733625
9704.000000;0.733289
9703.000000;0.732864
9702.000000;0.732370
9701.000000;0.732071
9700.000000;0.732168
9699.000000;0.732468
9698.000000;0.732644
9697.000000;0.732690
9696.000000;0.732841
9695.000000;0.733117
9694.000000;0.733249
9693.000000;0.733079
9692.000000;0.732772
9691.000000;0.732527
9690.000000;0.732283
9689.000000;0.731856
9688.000000;0.731276
9687.000000;0.730844
9686.000000;0.730840
9685.000000;0.731228
9684.000000;0.731694
9683.000000;0.731944
9682.000000;0.731960
9681.000000;0.731907
9680.000000;0.731877
9679.000000;0.731817
9678.000000;0.731680
9677.000000;0.731517
9676.000000;0.731394
9675.000000;0.731334
9674.000000;0.731331
9673.000000;0.731311
9672.000000;0.731123
9671.000000;0.730719
9670.000000;0.730346
9669.000000;0.730299
9668.000000;0.730455
9667.000000;0.730315
9666.000000;0.729655
9665.000000;0.728884
9664.000000;0.728564
9663.000000;0.728802
9662.000000;0.729299
9661.000000;0.729793
9660.000000;0.730176
9659.000000;0.730334
9658.000000;0.730211
9657.000000;0.729978
9656.000000;0.729866
9655.000000;0.729836
9654.000000;0.729668
9653.000000;0.729368
9652.000000;0.729228
9651.000000;0.729413
9650.000000;0.729723
9649.000000;0.729810
9648.000000;0.729507
9647.000000;0.728896
9646.000000;0.728233
9645.000000;0.727850
9644.000000;0.727963
9643.000000;0.728470
9642.000000;0.729030
9641.000000;0.729388
9640.000000;0.729560
9639.000000;0.729678
9638.000000;0.729776
9637.000000;0.729790
9636.000000;0.729675
9635.000000;0.729458
9634.000000;0.729217
9633.000000;0.729034
9632.000000;0.728907
9631.000000;0.728710
9630.000000;0.728293
9629.000000;0.727673
9628.000000;0.727091
9627.000000;0.726861
9626.000000;0.727169
9625.000000;0.727944
9624.000000;0.728851
9623.000000;0.729429
9622.000000;0.729382
9621.000000;0.728776
9620.000000;0.727949
9619.000000;0.727231
9618.000000;0.726773
9617.000000;0.726557
9616.000000;0.726485
9615.000000;0.726465
9614.000000;0.726482
9613.000000;0.726601
9612.000000;0.726859
9611.000000;0.727186
9610.000000;0.727493
9609.000000;0.727764
9608.000000;0.727981
9607.000000;0.728016
9606.000000;0.727724
9605.000000;0.727140
9604.000000;0.726469
9603.000000;0.725909
9602.000000;0.725567
9601.000000;0.725524
9600.000000;0.725816
9599.000000;0.726322
9598.000000;0.726772
9597.000000;0.726955
9596.000000;0.726868
9595.000000;0.726658
9594.000000;0.726471
9593.000000;0.726375
9592.000000;0.726345
9591.000000;0.726279
9590.000000;0.726080
9589.000000;0.725778
9588.000000;0.725527
9587.000000;0.725463
9586.000000;0.725572
9585.000000;0.725714
9584.000000;0.725761
9583.000000;0.725669
9582.000000;0.725471
9581.000000;0.725263
9580.000000;0.725160
9579.000000;0.725218
9578.000000;0.725354
9577.000000;0.725374
9576.000000;0.725145
9575.000000;0.724758
9574.000000;0.724479
9573.000000;0.724501
9572.000000;0.724766
9571.000000;0.725040
9570.000000;0.725119
9569.000000;0.724935
9568.000000;0.724565
9567.000000;0.724193
9566.000000;0.724034
9565.000000;0.724129
9564.000000;0.724269
9563.000000;0.724225
9562.000000;0.724044
9561.000000;0.723955
9560.000000;0.724012
9559.000000;0.724022
9558.000000;0.723874
9557.000000;0.723708
9556.000000;0.723648
9555.000000;0.723551
9554.000000;0.723227
9553.000000;0.722773
9552.000000;0.722468
9551.000000;0.722416
9550.000000;0.722493
9549.000000;0.722617
9548.000000;0.722868
9547.000000;0.723306
9546.000000;0.723812
9545.000000;0.724182
9544.000000;0.724279
9543.000000;0.724067
9542.000000;0.723586
9541.000000;0.722960
9540.000000;0.722372
9539.000000;0.721990
9538.000000;0.721895
9537.000000;0.722052
9536.000000;0.722290
9535.000000;0.722351
9534.000000;0.722069
9533.000000;0.721537
9532.000000;0.721046
9531.000000;0.720845
9530.000000;0.720965
9529.000000;0.721245
9528.000000;0.721488
9527.000000;0.721607
9526.000000;0.721680
9525.000000;0.721859
9524.000000;0.722199
9523.000000;0.722586
9522.000000;0.722864
9521.000000;0.722948
9520.000000;0.722781
9519.000000;0.722300
9518.000000;0.721577
9517.000000;0.720908
9516.000000;0.720594
9515.000000;0.720609
9514.000000;0.720642
9513.000000;0.720494
9512.000000;0.720296
9511.000000;0.720277
9510.000000;0.720461
9509.000000;0.720717
9508.000000;0.720969
9507.000000;0.721214
9506.000000;0.721367
9505.000000;0.721271
9504.000000;0.720900
9503.000000;0.720443
9502.000000;0.720131
9501.000000;0.720041
9500.000000;0.720103
9499.000000;0.720226
9498.000000;0.720364
9497.000000;0.720495
9496.000000;0.720608
9495.000000;0.720702
9494.000000;0.720734
9493.000000;0.720618
9492.000000;0.720343
9491.000000;0.720072
9490.000000;0.720007
9489.000000;0.720129
9488.000000;0.720172
9487.000000;0.719935
9486.000000;0.719555
9485.000000;0.719361
9484.000000;0.719491
9483.000000;0.719752
9482.000000;0.719836
9481.000000;0.719602
9480.000000;0.719149
9479.000000;0.718711
9478.000000;0.718501
9477.000000;0.718595
9476.000000;0.718905
9475.000000;0.719254
9474.000000;0.719464
9473.000000;0.719413
9472.000000;0.719083
9471.000000;0.718630
9470.000000;0.718327
9469.000000;0.718324
9468.000000;0.718495
9467.000000;0.718613
9466.000000;0.718638
9465.000000;0.718702
9464.000000;0.718857
9463.000000;0.718999
9462.000000;0.719062
9461.000000;0.719124
9460.000000;0.719233
9459.000000;0.719270
9458.000000;0.719089
9457.000000;0.718700
9456.000000;0.718228
9455.000000;0.717761
9454.000000;0.717356
9453.000000;0.717108
9452.000000;0.717098
9451.000000;0.717260
9450.000000;0.717402
9449.000000;0.717370
9448.000000;0.717160
9447.000000;0.716874
9446.000000;0.716623
9445.000000;0.716462
9444.000000;0.716420
9443.000000;0.716549
9442.000000;0.716895
9441.000000;0.717373
9440.000000;0.717715
9439.000000;0.717664
9438.000000;0.717236
9437.000000;0.716700
9436.000000;0.716280
9435.000000;0.715985
9434.000000;0.715752
9433.000000;0.715621
9432.000000;0.715653
9431.000000;0.715793
9430.000000;0.715930
9429.000000;0.716030
9428.000000;0.716112
9427.000000;0.716122
9426.000000;0.715958
9425.000000;0.715619
9424.000000;0.715248
9423.000000;0.715002
9422.000000;0.714951
9421.000000;0.715064
9420.000000;0.715230
9419.000000;0.715295
9418.000000;0.715190
9417.000000;0.715028
9416.000000;0.714988
9415.000000;0.715088
9414.000000;0.715157
9413.000000;0.715061
9412.000000;0.714851
9411.000000;0.714657
9410.000000;0.714514
9409.000000;0.714410
9408.000000;0.714424
9407.000000;0.714664
9406.000000;0.715030
9405.000000;0.715191
9404.000000;0.714906
9403.000000;0.714330
9402.000000;0.713886
9401.000000;0.713845
9400.000000;0.714109
9399.000000;0.714387
9398.000000;0.714476
9397.000000;0.714362
9396.000000;0.714140
9395.000000;0.713917
9394.000000;0.713756
9393.000000;0.713645
9392.000000;0.713548
9391.000000;0.713509
9390.000000;0.713644
9389.000000;0.713963
9388.000000;0.714272
9387.000000;0.714321
9386.000000;0.714037
9385.000000;0.713579
9384.000000;0.713178
9383.000000;0.712968
9382.000000;0.712934
9381.000000;0.712962
9380.000000;0.712959
9379.000000;0.712961
9378.000000;0.713068
9377.000000;0.713280
9376.000000;0.713451
9375.000000;0.713460
9374.000000;0.713326
9373.000000;0.713116
9372.000000;0.712837
9371.000000;0.712507
9370.000000;0.712235
9369.000000;0.712096
9368.000000;0.712034
9367.000000;0.711992
9366.000000;0.712052
9365.000000;0.712288
9364.000000;0.712565
9363.000000;0.712668
9362.000000;0.712590
9361.000000;0.712527
9360.000000;0.712584
9359.000000;0.712668
9358.000000;0.712696
9357.000000;0.712703
9356.000000;0.712720
9355.000000;0.712686
9354.000000;0.712561
9353.000000;0.712387
9352.000000;0.712196
9351.000000;0.711951
9350.000000;0.711630
9349.000000;0.711269
9348.000000;0.710912
9347.000000;0.710599
9346.000000;0.710406
9345.000000;0.710378
9344.000000;0.710415
9343.000000;0.710350
9342.000000;0.710153
9341.000000;0.709946
9340.000000;0.709817
9339.000000;0.709782
9338.000000;0.709901
9337.000000;0.710244
9336.000000;0.710681
9335.000000;0.710919
9334.000000;0.710836
9333.000000;0.710633
9332.000000;0.710551
9331.000000;0.710570
9330.000000;0.710517
9329.000000;0.710324
9328.000000;0.710043
9327.000000;0.709727
9326.000000;0.709437
9325.000000;0.709292
9324.000000;0.709380
9323.000000;0.709635
9322.000000;0.709893
9321.000000;0.710064
9320.000000;0.710167
9319.000000;0.710235
9318.000000;0.710258
9317.000000;0.710187
9316.000000;0.709970
9315.000000;0.709626
9314.000000;0.709276
9313.000000;0.709060
9312.000000;0.708972
9311.000000;0.708893
9310.000000;0.708799
9309.000000;0.708852
9308.000000;0.709197
9307.000000;0.709740
9306.000000;0.710204
9305.000000;0.710362
9304.000000;0.710181
9303.000000;0.709784
9302.000000;0.709358
9301.000000;0.709050
9300.000000;0.708937
9299.000000;0.709056
9298.000000;0.709402
9297.000000;0.709806
9296.000000;0.709923
9295.000000;0.709509
9294.000000;0.708731
9293.000000;0.708034
9292.000000;0.707693
9291.000000;0.707639
9290.000000;0.707744
9289.000000;0.708003
9288.000000;0.708349
9287.000000;0.708522
9286.000000;0.708337
9285.000000;0.707947
9284.000000;0.707666
9283.000000;0.707602
9282.000000;0.707641
9281.000000;0.707705
9280.000000;0.707818
9279.000000;0.707971
9278.000000;0.708076
9277.000000;0.708087
9276.000000;0.708023
9275.000000;0.707899
9274.000000;0.707729
9273.000000;0.707582
9272.000000;0.707514
9271.000000;0.707452
9270.000000;0.707272
9269.000000;0.706986
9268.000000;0.706758
9267.000000;0.706696
9266.000000;0.706744
9265.000000;0.706795
9264.000000;0.706819
9263.000000;0.706832
9262.000000;0.706812
9261.000000;0.706700
9260.000000;0.706485
9259.000000;0.706235
9258.000000;0.706055
9257.000000;0.706001
9256.000000;0.706036
9255.000000;0.706049
9254.000000;0.705940
9253.000000;0.705707
9252.000000;0.705471
9251.000000;0.705436
9250.000000;0.705737
9249.000000;0.706270
9248.000000;0.706690
9247.000000;0.706695
9246.000000;0.706313
9245.000000;0.705855
9244.000000;0.705570
9243.000000;0.705446
9242.000000;0.705355
9241.000000;0.705274
9240.000000;0.705293
9239.000000;0.705468
9238.000000;0.705752
9237.000000;0.706012
9236.000000;0.706080
9235.000000;0.705857
9234.000000;0.705420
9233.000000;0.704990
9232.000000;0.704750
9231.000000;0.704732
9230.000000;0.704889
9229.000000;0.705167
9228.000000;0.705457
9227.000000;0.705568
9226.000000;0.705387
9225.000000;0.705021
9224.000000;0.704703
9223.000000;0.704579
9222.000000;0.704610
9221.000000;0.704675
9220.000000;0.704693
9219.000000;0.704669
9218.000000;0.704631
9217.000000;0.704554
9216.000000;0.704367
9215.000000;0.704073
9214.000000;0.703819
9213.000000;0.703748
9212.000000;0.703781
9211.000000;0.703683
9210.000000;0.703340
9209.000000;0.702886
9208.000000;0.702504
9207.000000;0.702263
9206.000000;0.702193
9205.000000;0.702379
9204.000000;0.702827
9203.000000;0.703320
9202.000000;0.703556
9201.000000;0.703435
9200.000000;0.703112
9199.000000;0.702809
9198.000000;0.702655
9197.000000;0.702656
9196.000000;0.702732
9195.000000;0.702759
9194.000000;0.702648
9193.000000;0.702409
9192.000000;0.702113
9191.000000;0.701831
9190.000000;0.701622
9189.000000;0.701549
9188.000000;0.701652
9187.000000;0.701922
9186.000000;0.702296
9185.000000;0.702665
9184.000000;0.702893
9183.000000;0.702898
9182.000000;0.702754
9181.000000;0.702636
9180.000000;0.702637
9179.000000;0.702685
9178.000000;0.702650
9177.000000;0.702465
9176.000000;0.702132
9175.000000;0.701708
9174.000000;0.701310
9173.000000;0.701068
9172.000000;0.701018
9171.000000;0.701098
9170.000000;0.701257
9169.000000;0.701479
9168.000000;0.701701
9167.000000;0.701825
9166.000000;0.701858
9165.000000;0.701909
9164.000000;0.701994
9163.000000;0.701975
9162.000000;0.701780
9161.000000;0.701541
9160.000000;0.701427
9159.000000;0.701438
9158.000000;0.701456
9157.000000;0.701396
9156.000000;0.701228
9155.000000;0.700933
9154.000000;0.700579
9153.000000;0.700342
9152.000000;0.700320
9151.000000;0.700416
9150.000000;0.700485
9149.000000;0.700520
9148.000000;0.700566
9147.000000;0.700559
9146.000000;0.700422
9145.000000;0.700227
9144.000000;0.700111
9143.000000;0.700068
9142.000000;0.700000
9141.000000;0.699943
9140.000000;0.700015
9139.000000;0.700170
9138.000000;0.700198
9137.000000;0.700032
9136.000000;0.699860
9135.000000;0.699842
9134.000000;0.699874
9133.000000;0.699747
9132.000000;0.699457
9131.000000;0.699214
9130.000000;0.699183
9129.000000;0.699336
9128.000000;0.699531
9127.000000;0.699652
9126.000000;0.699658
9125.000000;0.699550
9124.000000;0.699376
9123.000000;0.699239
9122.000000;0.699262
9121.000000;0.699457
9120.000000;0.699659
9119.000000;0.699645
9118.000000;0.699357
9117.000000;0.698941
9116.000000;0.698576
9115.000000;0.698315
9114.000000;0.698149
9113.000000;0.698115
9112.000000;0.698225
9111.000000;0.698376
9110.000000;0.698426
9109.000000;0.698367
9108.000000;0.698303
9107.000000;0.698276
9106.000000;0.698200
9105.000000;0.697975
9104.000000;0.697601
9103.000000;0.697159
9102.000000;0.696769
9101.000000;0.696567
9100.000000;0.696653
9099.000000;0.697012
9098.000000;0.697499
9097.000000;0.697934
9096.000000;0.698179
9095.000000;0.698169
9094.000000;0.697936
9093.000000;0.697628
9092.000000;0.697423
9091.000000;0.697412
9090.000000;0.697537
9089.000000;0.697666
9088.000000;0.697686
9087.000000;0.697550
9086.000000;0.697289
9085.000000;0.696992
9084.000000;0.696754
9083.000000;0.696629
9082.000000;0.696621
9081.000000;0.696691
9080.000000;0.696753
9079.000000;0.696716
9078.000000;0.696565
9077.000000;0.696402
9076.000000;0.696333
9075.000000;0.696355
9074.000000;0.696384
9073.000000;0.696357
9072.000000;0.696261
9071.000000;0.696077
9070.000000;0.695809
9069.000000;0.695562
9068.000000;0.695486
9067.000000;0.695611
9066.000000;0.695767
9065.000000;0.695751
9064.000000;0.695552
9063.000000;0.695382
9062.000000;0.695465
9061.000000;0.695828
9060.000000;0.696266
9059.000000;0.696523
9058.000000;0.696487
9057.000000;0.696225
9056.000000;0.695852
9055.000000;0.695433
9054.000000;0.695015
9053.000000;0.694685
