Criado como novo conjunto de dados;"2706_e01_daniel.spp","27723.2 Secs"
cm-1;Abs
10000.000000;0.782755
9999.000000;0.781805
9998.000000;0.780680
9997.000000;0.779979
9996.000000;0.779989
9995.000000;0.780459
9994.000000;0.780901
9993.000000;0.781064
9992.000000;0.781115
9991.000000;0.781350
9990.000000;0.781734
9989.000000;0.781860
9988.000000;0.781438
9987.000000;0.780699
9986.000000;0.780136
9985.000000;0.779909
9984.000000;0.779751
9983.000000;0.779476
9982.000000;0.779281
9981.000000;0.779412
9980.000000;0.779775
9979.000000;0.780083
9978.000000;0.780226
9977.000000;0.780298
9976.000000;0.780341
9975.000000;0.780277
9974.000000;0.780094
9973.000000;0.779917
9972.000000;0.779831
9971.000000;0.779744
9970.000000;0.779480
9969.000000;0.778992
9968.000000;0.778458
9967.000000;0.778156
9966.000000;0.778222
9965.000000;0.778486
9964.000000;0.778609
9963.000000;0.778413
9962.000000;0.778040
9961.000000;0.777751
9960.000000;0.777620
9959.000000;0.777483
9958.000000;0.777163
9957.000000;0.776656
9956.000000;0.776111
9955.000000;0.775714
9954.000000;0.775594
9953.000000;0.775782
9952.000000;0.776202
9951.000000;0.776728
9950.000000;0.777235
9949.000000;0.777596
9948.000000;0.777655
9947.000000;0.777320
9946.000000;0.776748
9945.000000;0.776311
9944.000000;0.776234
9943.000000;0.776289
9942.000000;0.775990
9941.000000;0.775172
9940.000000;0.774204
9939.000000;0.773541
9938.000000;0.773244
9937.000000;0.773106
9936.000000;0.773111
9935.000000;0.773435
9934.000000;0.774001
9933.000000;0.774395
9932.000000;0.774372
9931.000000;0.774213
9930.000000;0.774347
9929.000000;0.774752
9928.000000;0.774988
9927.000000;0.774758
9926.000000;0.774259
9925.000000;0.773985
9924.000000;0.774282
9923.000000;0.775053
9922.000000;0.775760
9921.000000;0.775799
9920.000000;0.775066
9919.000000;0.774118
9918.000000;0.773637
9917.000000;0.773736
9916.000000;0.773933
9915.000000;0.773756
9914.000000;0.773216
9913.000000;0.772669
9912.000000;0.772404
9911.000000;0.772444
9910.000000;0.772617
9909.000000;0.772695
9908.000000;0.772506
9907.000000;0.772035
9906.000000;0.771447
9905.000000;0.771024
9904.000000;0.771021
9903.000000;0.771474
9902.000000;0.772112
9901.000000;0.772530
9900.000000;0.772528
9899.000000;0.772231
9898.000000;0.771842
9897.000000;0.771399
9896.000000;0.770890
9895.000000;0.770487
9894.000000;0.770462
9893.000000;0.770854
9892.000000;0.771368
9891.000000;0.771652
9890.000000;0.771577
9889.000000;0.771254
9888.000000;0.770852
9887.000000;0.770475
9886.000000;0.770170
9885.000000;0.769989
9884.000000;0.770002
9883.000000;0.770182
9882.000000;0.770292
9881.000000;0.770002
9880.000000;0.769233
9879.000000;0.768331
9878.000000;0.767815
9877.000000;0.767927
9876.000000;0.768452
9875.000000;0.768890
9874.000000;0.768826
9873.000000;0.768265
9872.000000;0.767664
9871.000000;0.767551
9870.000000;0.767987
9869.000000;0.768527
9868.000000;0.768765
9867.000000;0.768761
9866.000000;0.768815
9865.000000;0.769031
9864.000000;0.769307
9863.000000;0.769611
9862.000000;0.769958
9861.000000;0.770175
9860.000000;0.769989
9859.000000;0.769392
9858.000000;0.768702
9857.000000;0.768205
9856.000000;0.767947
9855.000000;0.767865
9854.000000;0.767929
9853.000000;0.768055
9852.000000;0.768084
9851.000000;0.767936
9850.000000;0.767693
9849.000000;0.767478
9848.000000;0.767374
9847.000000;0.767477
9846.000000;0.767848
9845.000000;0.768320
9844.000000;0.768530
9843.000000;0.768262
9842.000000;0.767690
9841.000000;0.767196
9840.000000;0.767022
9839.000000;0.767158
9838.000000;0.767420
9837.000000;0.767569
9836.000000;0.767429
9835.000000;0.767018
9834.000000;0.766557
9833.000000;0.766282
9832.000000;0.766250
9831.000000;0.766304
9830.000000;0.766183
9829.000000;0.765692
9828.000000;0.764898
9827.000000;0.764185
9826.000000;0.763959
9825.000000;0.764241
9824.000000;0.764634
9823.000000;0.764769
9822.000000;0.764678
9821.000000;0.764661
9820.000000;0.764857
9819.000000;0.765063
9818.000000;0.764969
9817.000000;0.764499
9816.000000;0.763903
9815.000000;0.763515
9814.000000;0.763424
9813.000000;0.763409
9812.000000;0.763240
9811.000000;0.762998
9810.000000;0.762982
9809.000000;0.763315
9808.000000;0.763785
9807.000000;0.764120
9806.000000;0.764259
9805.000000;0.764279
9804.000000;0.764198
9803.000000;0.763999
9802.000000;0.763739
9801.000000;0.763508
9800.000000;0.763308
9799.000000;0.763119
9798.000000;0.763013
9797.000000;0.763074
9796.000000;0.763187
9795.000000;0.763088
9794.000000;0.762679
9793.000000;0.762201
9792.000000;0.761976
9791.000000;0.762073
9790.000000;0.762287
9789.000000;0.762412
9788.000000;0.762417
9787.000000;0.762380
9786.000000;0.762328
9785.000000;0.762216
9784.000000;0.762047
9783.000000;0.761925
9782.000000;0.761925
9781.000000;0.761931
9780.000000;0.761694
9779.000000;0.761102
9778.000000;0.760388
9777.000000;0.759983
9776.000000;0.760140
9775.000000;0.760727
9774.000000;0.761400
9773.000000;0.761907
9772.000000;0.762193
9771.000000;0.762282
9770.000000;0.762192
9769.000000;0.761973
9768.000000;0.761730
9767.000000;0.761565
9766.000000;0.761528
9765.000000;0.761614
9764.000000;0.761715
9763.000000;0.761581
9762.000000;0.761021
9761.000000;0.760223
9760.000000;0.759713
9759.000000;0.759811
9758.000000;0.760197
9757.000000;0.760190
9756.000000;0.759485
9755.000000;0.758440
9754.000000;0.757657
9753.000000;0.757469
9752.000000;0.757833
9751.000000;0.758499
9750.000000;0.759141
9749.000000;0.759505
9748.000000;0.759561
9747.000000;0.759457
9746.000000;0.759251
9745.000000;0.758832
9744.000000;0.758207
9743.000000;0.757688
9742.000000;0.757592
9741.000000;0.757829
9740.000000;0.757983
9739.000000;0.757784
9738.000000;0.757363
9737.000000;0.757038
9736.000000;0.757004
9735.000000;0.757237
9734.000000;0.757576
9733.000000;0.757827
9732.000000;0.757879
9731.000000;0.757791
9730.000000;0.757753
9729.000000;0.757885
9728.000000;0.758096
9727.000000;0.758173
9726.000000;0.758011
9725.000000;0.757726
9724.000000;0.757508
9723.000000;0.757370
9722.000000;0.757129
9721.000000;0.756688
9720.000000;0.756245
9719.000000;0.756086
9718.000000;0.756199
9717.000000;0.756268
9716.000000;0.756060
9715.000000;0.755675
9714.000000;0.755359
9713.000000;0.755241
9712.000000;0.755352
9711.000000;0.755722
9710.000000;0.756286
9709.000000;0.756797
9708.000000;0.757007
9707.000000;0.756878
9706.000000;0.756502
9705.000000;0.755903
9704.000000;0.755116
9703.000000;0.754362
9702.000000;0.753916
9701.000000;0.753812
9700.000000;0.753847
9699.000000;0.753916
9698.000000;0.754149
9697.000000;0.754657
9696.000000;0.755298
9695.000000;0.755804
9694.000000;0.756028
9693.000000;0.756032
9692.000000;0.755966
9691.000000;0.755915
9690.000000;0.755799
9689.000000;0.755432
9688.000000;0.754781
9687.000000;0.754129
9686.000000;0.753857
9685.000000;0.754004
9684.000000;0.754231
9683.000000;0.754260
9682.000000;0.754191
9681.000000;0.754262
9680.000000;0.754425
9679.000000;0.754384
9678.000000;0.754005
9677.000000;0.753497
9676.000000;0.753172
9675.000000;0.753141
9674.000000;0.753301
9673.000000;0.753510
9672.000000;0.753693
9671.000000;0.753816
9670.000000;0.753822
9669.000000;0.753616
9668.000000;0.753158
9667.000000;0.752595
9666.000000;0.752257
9665.000000;0.752367
9664.000000;0.752757
9663.000000;0.752987
9662.000000;0.752828
9661.000000;0.752534
9660.000000;0.752547
9659.000000;0.752996
9658.000000;0.753605
9657.000000;0.754015
9656.000000;0.754040
9655.000000;0.753633
9654.000000;0.752843
9653.000000;0.751916
9652.000000;0.751274
9651.000000;0.751191
9650.000000;0.751497
9649.000000;0.751724
9648.000000;0.751544
9647.000000;0.751036
9646.000000;0.750555
9645.000000;0.750427
9644.000000;0.750722
9643.000000;0.751207
9642.000000;0.751507
9641.000000;0.751401
9640.000000;0.751018
9639.000000;0.750693
9638.000000;0.750627
9637.000000;0.750727
9636.000000;0.750753
9635.000000;0.750570
9634.000000;0.750267
9633.000000;0.750068
9632.000000;0.750134
9631.000000;0.750378
9630.000000;0.750499
9629.000000;0.750256
9628.000000;0.749728
9627.000000;0.749267
9626.000000;0.749195
9625.000000;0.749548
9624.000000;0.750071
9623.000000;0.750402
9622.000000;0.750299
9621.000000;0.749821
9620.000000;0.749270
9619.000000;0.748912
9618.000000;0.748759
9617.000000;0.748628
9616.000000;0.748388
9615.000000;0.748075
9614.000000;0.747833
9613.000000;0.747843
9612.000000;0.748228
9611.000000;0.748895
9610.000000;0.749488
9609.000000;0.749651
9608.000000;0.749373
9607.000000;0.748972
9606.000000;0.748724
9605.000000;0.748624
9604.000000;0.748524
9603.000000;0.748362
9602.000000;0.748187
9601.000000;0.748029
9600.000000;0.747849
9599.000000;0.747615
9598.000000;0.747394
9597.000000;0.747320
9596.000000;0.747419
9595.000000;0.747479
9594.000000;0.747240
9593.000000;0.746791
9592.000000;0.746586
9591.000000;0.746913
9590.000000;0.747472
9589.000000;0.747703
9588.000000;0.747443
9587.000000;0.747028
9586.000000;0.746802
9585.000000;0.746798
9584.000000;0.746924
9583.000000;0.747133
9582.000000;0.747319
9581.000000;0.747294
9580.000000;0.747012
9579.000000;0.746633
9578.000000;0.746275
9577.000000;0.745911
9576.000000;0.745590
9575.000000;0.745514
9574.000000;0.745736
9573.000000;0.745991
9572.000000;0.745998
9571.000000;0.745791
9570.000000;0.745566
9569.000000;0.745400
9568.000000;0.745321
9567.000000;0.745473
9566.000000;0.745933
9565.000000;0.746425
9564.000000;0.746501
9563.000000;0.746034
9562.000000;0.745338
9561.000000;0.744785
9560.000000;0.744454
9559.000000;0.744181
9558.000000;0.743827
9557.000000;0.743445
9556.000000;0.743262
9555.000000;0.743486
9554.000000;0.744053
9553.000000;0.744611
9552.000000;0.744839
9551.000000;0.744746
9550.000000;0.744569
9549.000000;0.744440
9548.000000;0.744287
9547.000000;0.744033
9546.000000;0.743755
9545.000000;0.743598
9544.000000;0.743615
9543.000000;0.743746
9542.000000;0.743882
9541.000000;0.743927
9540.000000;0.743840
9539.000000;0.743644
9538.000000;0.743397
9537.000000;0.743171
9536.000000;0.743019
9535.000000;0.742931
9534.000000;0.742833
9533.000000;0.742693
9532.000000;0.742632
9531.000000;0.742797
9530.000000;0.743096
9529.000000;0.743185
9528.000000;0.742812
9527.000000;0.742112
9526.000000;0.741487
9525.000000;0.741271
9524.000000;0.741563
9523.000000;0.742230
9522.000000;0.742922
9521.000000;0.743175
9520.000000;0.742725
9519.000000;0.741783
9518.000000;0.740906
9517.000000;0.740542
9516.000000;0.740737
9515.000000;0.741228
9514.000000;0.741725
9513.000000;0.742063
9512.000000;0.742176
9511.000000;0.742022
9510.000000;0.741575
9509.000000;0.740910
9508.000000;0.740231
9507.000000;0.739762
9506.000000;0.739598
9505.000000;0.739693
9504.000000;0.739945
9503.000000;0.740241
9502.000000;0.740449
9501.000000;0.740524
9500.000000;0.740611
9499.000000;0.740911
9498.000000;0.741366
9497.000000;0.741611
9496.000000;0.741348
9495.000000;0.740680
9494.000000;0.739987
9493.000000;0.739535
9492.000000;0.739310
9491.000000;0.739171
9490.000000;0.739050
9489.000000;0.738995
9488.000000;0.739053
9487.000000;0.739155
9486.000000;0.739139
9485.000000;0.738943
9484.000000;0.738716
9483.000000;0.738662
9482.000000;0.738779
9481.000000;0.738896
9480.000000;0.738934
9479.000000;0.738969
9478.000000;0.739010
9477.000000;0.738901
9476.000000;0.738572
9475.000000;0.738222
9474.000000;0.738106
9473.000000;0.738260
9472.000000;0.738524
9471.000000;0.738760
9470.000000;0.738884
9469.000000;0.738814
9468.000000;0.738534
9467.000000;0.738198
9466.000000;0.737996
9465.000000;0.737925
9464.000000;0.737804
9463.000000;0.737543
9462.000000;0.737283
9461.000000;0.737234
9460.000000;0.737423
9459.000000;0.737644
9458.000000;0.737664
9457.000000;0.737473
9456.000000;0.737300
9455.000000;0.737348
9454.000000;0.737564
9453.000000;0.737732
9452.000000;0.737741
9451.000000;0.737625
9450.000000;0.737396
9449.000000;0.737022
9448.000000;0.736606
9447.000000;0.736396
9446.000000;0.736518
9445.000000;0.736823
9444.000000;0.737060
9443.000000;0.737080
9442.000000;0.736845
9441.000000;0.736433
9440.000000;0.736092
9439.000000;0.736083
9438.000000;0.736306
9437.000000;0.736285
9436.000000;0.735693
9435.000000;0.734785
9434.000000;0.734143
9433.000000;0.734094
9432.000000;0.734525
9431.000000;0.735134
9430.000000;0.735663
9429.000000;0.735960
9428.000000;0.735997
9427.000000;0.735863
9426.000000;0.735644
9425.000000;0.735356
9424.000000;0.735047
9423.000000;0.734838
9422.000000;0.734767
9421.000000;0.734722
9420.000000;0.734634
9419.000000;0.734592
9418.000000;0.734626
9417.000000;0.734558
9416.000000;0.734276
9415.000000;0.733976
9414.000000;0.733903
9413.000000;0.733973
9412.000000;0.733922
9411.000000;0.733727
9410.000000;0.733581
9409.000000;0.733508
9408.000000;0.733354
9407.000000;0.733145
9406.000000;0.733105
9405.000000;0.733238
9404.000000;0.733208
9403.000000;0.732795
9402.000000;0.732226
9401.000000;0.731864
9400.000000;0.731785
9399.000000;0.731810
9398.000000;0.731818
9397.000000;0.731808
9396.000000;0.731782
9395.000000;0.731732
9394.000000;0.731720
9393.000000;0.731814
9392.000000;0.731991
9391.000000;0.732199
9390.000000;0.732463
9389.000000;0.732801
9388.000000;0.733083
9387.000000;0.733096
9386.000000;0.732774
9385.000000;0.732265
9384.000000;0.731769
9383.000000;0.731395
9382.000000;0.731177
9381.000000;0.731147
9380.000000;0.731305
9379.000000;0.731556
9378.000000;0.731735
9377.000000;0.731744
9376.000000;0.731639
9375.000000;0.731570
9374.000000;0.731594
9373.000000;0.731581
9372.000000;0.731311
9371.000000;0.730713
9370.000000;0.730004
9369.000000;0.729589
9368.000000;0.729758
9367.000000;0.730456
9366.000000;0.731315
9365.000000;0.731948
9364.000000;0.732203
9363.000000;0.732134
9362.000000;0.731816
9361.000000;0.731309
9360.000000;0.730768
9359.000000;0.730436
9358.000000;0.730434
9357.000000;0.730641
9356.000000;0.730823
9355.000000;0.730818
9354.000000;0.730565
9353.000000;0.730096
9352.000000;0.729585
9351.000000;0.729319
9350.000000;0.729432
9349.000000;0.729718
9348.000000;0.729812
9347.000000;0.729564
9346.000000;0.729159
9345.000000;0.728866
9344.000000;0.728779
9343.000000;0.728787
9342.000000;0.728718
9341.000000;0.728499
9340.000000;0.728231
9339.000000;0.728100
9338.000000;0.728169
9337.000000;0.728319
9336.000000;0.728423
9335.000000;0.728501
9334.000000;0.728586
9333.000000;0.728544
9332.000000;0.728214
9331.000000;0.727723
9330.000000;0.727463
9329.000000;0.727668
9328.000000;0.728129
9327.000000;0.728444
9326.000000;0.728451
9325.000000;0.728332
9324.000000;0.728301
9323.000000;0.728333
9322.000000;0.728237
9321.000000;0.727941
9320.000000;0.727612
9319.000000;0.727477
9318.000000;0.727546
9317.000000;0.727594
9316.000000;0.727414
9315.000000;0.727025
9314.000000;0.726616
9313.000000;0.726337
9312.000000;0.726214
9311.000000;0.726212
9310.000000;0.726290
9309.000000;0.726411
9308.000000;0.726546
9307.000000;0.726683
9306.000000;0.726797
9305.000000;0.726824
9304.000000;0.726711
9303.000000;0.726472
9302.000000;0.726158
9301.000000;0.725805
9300.000000;0.725472
9299.000000;0.725270
9298.000000;0.725292
9297.000000;0.725501
9296.000000;0.725751
9295.000000;0.725916
9294.000000;0.725934
9293.000000;0.725763
9292.000000;0.725388
9291.000000;0.724881
9290.000000;0.724408
9289.000000;0.724119
9288.000000;0.724063
9287.000000;0.724213
9286.000000;0.724510
9285.000000;0.724844
9284.000000;0.725056
9283.000000;0.725037
9282.000000;0.724847
9281.000000;0.724681
9280.000000;0.724659
9279.000000;0.724675
9278.000000;0.724520
9277.000000;0.724174
9276.000000;0.723879
9275.000000;0.723869
9274.000000;0.724072
9273.000000;0.724198
9272.000000;0.724082
9271.000000;0.723843
9270.000000;0.723702
9269.000000;0.723747
9268.000000;0.723915
9267.000000;0.724088
9266.000000;0.724182
9265.000000;0.724206
9264.000000;0.724294
9263.000000;0.724577
9262.000000;0.724978
9261.000000;0.725219
9260.000000;0.725107
9259.000000;0.724740
9258.000000;0.724370
9257.000000;0.724134
9256.000000;0.723993
9255.000000;0.723840
9254.000000;0.723565
9253.000000;0.723094
9252.000000;0.722502
9251.000000;0.722033
9250.000000;0.721898
9249.000000;0.722034
9248.000000;0.722177
9247.000000;0.722151
9246.000000;0.722004
9245.000000;0.721864
9244.000000;0.721764
9243.000000;0.721644
9242.000000;0.721453
9241.000000;0.721222
9240.000000;0.721090
9239.000000;0.721217
9238.000000;0.721603
9237.000000;0.721992
9236.000000;0.722051
9235.000000;0.721712
9234.000000;0.721269
9233.000000;0.721069
9232.000000;0.721158
9231.000000;0.721284
9230.000000;0.721207
9229.000000;0.720933
9228.000000;0.720633
9227.000000;0.720417
9226.000000;0.720272
9225.000000;0.720171
9224.000000;0.720152
9223.000000;0.720248
9222.000000;0.720414
9221.000000;0.720566
9220.000000;0.720654
9219.000000;0.720645
9218.000000;0.720484
9217.000000;0.720189
9216.000000;0.719925
9215.000000;0.719889
9214.000000;0.720094
9213.000000;0.720364
9212.000000;0.720551
9211.000000;0.720641
9210.000000;0.720649
9209.000000;0.720520
9208.000000;0.720225
9207.000000;0.719878
9206.000000;0.719657
9205.000000;0.719625
9204.000000;0.719655
9203.000000;0.719541
9202.000000;0.719201
9201.000000;0.718810
9200.000000;0.718663
9199.000000;0.718865
9198.000000;0.719180
9197.000000;0.719298
9196.000000;0.719182
9195.000000;0.719010
9194.000000;0.718845
9193.000000;0.718606
9192.000000;0.718337
9191.000000;0.718247
9190.000000;0.718367
9189.000000;0.718425
9188.000000;0.718220
9187.000000;0.717935
9186.000000;0.717868
9185.000000;0.718023
9184.000000;0.718167
9183.000000;0.718199
9182.000000;0.718211
9181.000000;0.718231
9180.000000;0.718143
9179.000000;0.717887
9178.000000;0.717560
9177.000000;0.717290
9176.000000;0.717136
9175.000000;0.717113
9174.000000;0.717200
9173.000000;0.717295
9172.000000;0.717281
9171.000000;0.717135
9170.000000;0.716918
9169.000000;0.716682
9168.000000;0.716482
9167.000000;0.716431
9166.000000;0.716601
9165.000000;0.716874
9164.000000;0.717024
9163.000000;0.716972
9162.000000;0.716853
9161.000000;0.716820
9160.000000;0.716868
9159.000000;0.716887
9158.000000;0.716788
9157.000000;0.716568
9156.000000;0.716320
9155.000000;0.716174
9154.000000;0.716149
9153.000000;0.716077
9152.000000;0.715783
9151.000000;0.715336
9150.000000;0.715019
9149.000000;0.714998
9148.000000;0.715153
9147.000000;0.715265
9146.000000;0.715278
9145.000000;0.715299
9144.000000;0.715399
9143.000000;0.715515
9142.000000;0.715515
9141.000000;0.715321
9140.000000;0.714959
9139.000000;0.714546
9138.000000;0.714226
9137.000000;0.714097
9136.000000;0.714174
9135.000000;0.714396
9134.000000;0.714646
9133.000000;0.714823
9132.000000;0.714927
9131.000000;0.715016
9130.000000;0.715068
9129.000000;0.714949
9128.000000;0.714589
9127.000000;0.714133
9126.000000;0.713808
9125.000000;0.713657
9124.000000;0.713535
9123.000000;0.713360
9122.000000;0.713237
9121.000000;0.713300
9120.000000;0.713536
9119.000000;0.713818
9118.000000;0.714056
9117.000000;0.714250
9116.000000;0.714439
9115.000000;0.714616
9114.000000;0.714701
9113.000000;0.714596
9112.000000;0.714318
9111.000000;0.714060
9110.000000;0.714020
9109.000000;0.714164
9108.000000;0.714233
9107.000000;0.714031
9106.000000;0.713615
9105.000000;0.713155
9104.000000;0.712715
9103.000000;0.712284
9102.000000;0.711933
9101.000000;0.711790
9100.000000;0.711822
9099.000000;0.711798
9098.000000;0.711560
9097.000000;0.711261
9096.000000;0.711222
9095.000000;0.711549
9094.000000;0.711971
9093.000000;0.712126
9092.000000;0.711962
9091.000000;0.711762
9090.000000;0.711774
9089.000000;0.711927
9088.000000;0.711963
9087.000000;0.711800
9086.000000;0.711634
9085.000000;0.711670
9084.000000;0.711843
9083.000000;0.711907
9082.000000;0.711747
9081.000000;0.711528
9080.000000;0.711491
9079.000000;0.711645
9078.000000;0.711727
9077.000000;0.711473
9076.000000;0.710884
9075.000000;0.710222
9074.000000;0.709781
9073.000000;0.709688
9072.000000;0.709881
9071.000000;0.710191
9070.000000;0.710436
9069.000000;0.710515
9068.000000;0.710470
9067.000000;0.710439
9066.000000;0.710528
9065.000000;0.710702
9064.000000;0.710819
9063.000000;0.710763
9062.000000;0.710556
9061.000000;0.710347
9060.000000;0.710288
9059.000000;0.710382
9058.000000;0.710472
9057.000000;0.710398
9056.000000;0.710171
9055.000000;0.709932
9054.000000;0.709770
9053.000000;0.709638
