Criado como novo conjunto de dados;"2706_e01_daniel.spp","23403.3 Secs"
cm-1;Abs
10000.000000;0.743556
9999.000000;0.743039
9998.000000;0.742522
9997.000000;0.742006
9996.000000;0.741489
9995.000000;0.740976
9994.000000;0.740458
9993.000000;0.739952
9992.000000;0.739426
9991.000000;0.738936
9990.000000;0.738374
9989.000000;0.738142
9988.000000;0.738419
9987.000000;0.738787
9986.000000;0.738928
9985.000000;0.738637
9984.000000;0.738088
9983.000000;0.737643
9982.000000;0.737479
9981.000000;0.737379
9980.000000;0.737061
9979.000000;0.736538
9978.000000;0.735999
9977.000000;0.735507
9976.000000;0.735064
9975.000000;0.734836
9974.000000;0.735038
9973.000000;0.735606
9972.000000;0.736233
9971.000000;0.736703
9970.000000;0.736993
9969.000000;0.737084
9968.000000;0.736919
9967.000000;0.736585
9966.000000;0.736344
9965.000000;0.736385
9964.000000;0.736668
9963.000000;0.737006
9962.000000;0.737206
9961.000000;0.737129
9960.000000;0.736748
9959.000000;0.736219
9958.000000;0.735804
9957.000000;0.735682
9956.000000;0.735848
9955.000000;0.736129
9954.000000;0.736252
9953.000000;0.735999
9952.000000;0.735406
9951.000000;0.734791
9950.000000;0.734448
9949.000000;0.734369
9948.000000;0.734339
9947.000000;0.734233
9946.000000;0.734126
9945.000000;0.734151
9944.000000;0.734389
9943.000000;0.734837
9942.000000;0.735349
9941.000000;0.735630
9940.000000;0.735422
9939.000000;0.734732
9938.000000;0.733828
9937.000000;0.733027
9936.000000;0.732532
9935.000000;0.732379
9934.000000;0.732405
9933.000000;0.732349
9932.000000;0.732091
9931.000000;0.731797
9930.000000;0.731749
9929.000000;0.732082
9928.000000;0.732716
9927.000000;0.733437
9926.000000;0.733931
9925.000000;0.733888
9924.000000;0.733261
9923.000000;0.732405
9922.000000;0.731817
9921.000000;0.731733
9920.000000;0.732057
9919.000000;0.732568
9918.000000;0.733070
9917.000000;0.733429
9916.000000;0.733616
9915.000000;0.733698
9914.000000;0.733669
9913.000000;0.733388
9912.000000;0.732798
9911.000000;0.732147
9910.000000;0.731799
9909.000000;0.731840
9908.000000;0.732002
9907.000000;0.731986
9906.000000;0.731728
9905.000000;0.731390
9904.000000;0.731197
9903.000000;0.731250
9902.000000;0.731389
9901.000000;0.731281
9900.000000;0.730768
9899.000000;0.730081
9898.000000;0.729579
9897.000000;0.729352
9896.000000;0.729224
9895.000000;0.729081
9894.000000;0.728974
9893.000000;0.728922
9892.000000;0.728858
9891.000000;0.728810
9890.000000;0.728937
9889.000000;0.729263
9888.000000;0.729563
9887.000000;0.729603
9886.000000;0.729404
9885.000000;0.729170
9884.000000;0.729079
9883.000000;0.729191
9882.000000;0.729460
9881.000000;0.729689
9880.000000;0.729612
9879.000000;0.729168
9878.000000;0.728669
9877.000000;0.728524
9876.000000;0.728789
9875.000000;0.729091
9874.000000;0.729047
9873.000000;0.728651
9872.000000;0.728207
9871.000000;0.727959
9870.000000;0.727917
9869.000000;0.728000
9868.000000;0.728155
9867.000000;0.728271
9866.000000;0.728135
9865.000000;0.727656
9864.000000;0.727089
9863.000000;0.726858
9862.000000;0.727095
9861.000000;0.727519
9860.000000;0.727783
9859.000000;0.727819
9858.000000;0.727743
9857.000000;0.727577
9856.000000;0.727241
9855.000000;0.726744
9854.000000;0.726225
9853.000000;0.725790
9852.000000;0.725437
9851.000000;0.725163
9850.000000;0.725048
9849.000000;0.725198
9848.000000;0.725633
9847.000000;0.726236
9846.000000;0.726788
9845.000000;0.727075
9844.000000;0.726990
9843.000000;0.726569
9842.000000;0.725961
9841.000000;0.725367
9840.000000;0.724968
9839.000000;0.724826
9838.000000;0.724842
9837.000000;0.724883
9836.000000;0.724941
9835.000000;0.725097
9834.000000;0.725308
9833.000000;0.725375
9832.000000;0.725172
9831.000000;0.724789
9830.000000;0.724373
9829.000000;0.723923
9828.000000;0.723362
9827.000000;0.722731
9826.000000;0.722205
9825.000000;0.721948
9824.000000;0.722051
9823.000000;0.722535
9822.000000;0.723283
9821.000000;0.723994
9820.000000;0.724326
9819.000000;0.724179
9818.000000;0.723781
9817.000000;0.723468
9816.000000;0.723395
9815.000000;0.723465
9814.000000;0.723483
9813.000000;0.723352
9812.000000;0.723128
9811.000000;0.722934
9810.000000;0.722873
9809.000000;0.723020
9808.000000;0.723395
9807.000000;0.723869
9806.000000;0.724166
9805.000000;0.724097
9804.000000;0.723790
9803.000000;0.723572
9802.000000;0.723591
9801.000000;0.723656
9800.000000;0.723470
9799.000000;0.722944
9798.000000;0.722250
9797.000000;0.721679
9796.000000;0.721452
9795.000000;0.721565
9794.000000;0.721757
9793.000000;0.721729
9792.000000;0.721445
9791.000000;0.721126
9790.000000;0.720939
9789.000000;0.720814
9788.000000;0.720623
9787.000000;0.720388
9786.000000;0.720210
9785.000000;0.720107
9784.000000;0.720012
9783.000000;0.719908
9782.000000;0.719867
9781.000000;0.720007
9780.000000;0.720398
9779.000000;0.720925
9778.000000;0.721259
9777.000000;0.721131
9776.000000;0.720666
9775.000000;0.720308
9774.000000;0.720318
9773.000000;0.720510
9772.000000;0.720559
9771.000000;0.720421
9770.000000;0.720321
9769.000000;0.720459
9768.000000;0.720845
9767.000000;0.721313
9766.000000;0.721575
9765.000000;0.721365
9764.000000;0.720719
9763.000000;0.720019
9762.000000;0.719609
9761.000000;0.719432
9760.000000;0.719178
9759.000000;0.718712
9758.000000;0.718207
9757.000000;0.717883
9756.000000;0.717779
9755.000000;0.717784
9754.000000;0.717774
9753.000000;0.717708
9752.000000;0.717643
9751.000000;0.717656
9750.000000;0.717710
9749.000000;0.717698
9748.000000;0.717670
9747.000000;0.717871
9746.000000;0.718404
9745.000000;0.718962
9744.000000;0.719090
9743.000000;0.718709
9742.000000;0.718192
9741.000000;0.717916
9740.000000;0.717891
9739.000000;0.717879
9738.000000;0.717725
9737.000000;0.717488
9736.000000;0.717295
9735.000000;0.717150
9734.000000;0.716910
9733.000000;0.716479
9732.000000;0.716026
9731.000000;0.715915
9730.000000;0.716330
9729.000000;0.717019
9728.000000;0.717508
9727.000000;0.717546
9726.000000;0.717242
9725.000000;0.716824
9724.000000;0.716397
9723.000000;0.715981
9722.000000;0.715646
9721.000000;0.715541
9720.000000;0.715759
9719.000000;0.716185
9718.000000;0.716483
9717.000000;0.716326
9716.000000;0.715705
9715.000000;0.714985
9714.000000;0.714582
9713.000000;0.714613
9712.000000;0.714905
9711.000000;0.715250
9710.000000;0.715576
9709.000000;0.715888
9708.000000;0.716168
9707.000000;0.716379
9706.000000;0.716518
9705.000000;0.716617
9704.000000;0.716659
9703.000000;0.716493
9702.000000;0.715919
9701.000000;0.714951
9700.000000;0.713986
9699.000000;0.713528
9698.000000;0.713715
9697.000000;0.714203
9696.000000;0.714578
9695.000000;0.714728
9694.000000;0.714748
9693.000000;0.714669
9692.000000;0.714463
9691.000000;0.714227
9690.000000;0.714121
9689.000000;0.714158
9688.000000;0.714212
9687.000000;0.714205
9686.000000;0.714135
9685.000000;0.713932
9684.000000;0.713486
9683.000000;0.712885
9682.000000;0.712462
9681.000000;0.712481
9680.000000;0.712845
9679.000000;0.713207
9678.000000;0.713319
9677.000000;0.713211
9676.000000;0.713071
9675.000000;0.713034
9674.000000;0.713106
9673.000000;0.713200
9672.000000;0.713202
9671.000000;0.713047
9670.000000;0.712803
9669.000000;0.712670
9668.000000;0.712782
9667.000000;0.712996
9666.000000;0.712967
9665.000000;0.712542
9664.000000;0.711989
9663.000000;0.711722
9662.000000;0.711863
9661.000000;0.712208
9660.000000;0.712529
9659.000000;0.712700
9658.000000;0.712592
9657.000000;0.712121
9656.000000;0.711480
9655.000000;0.711078
9654.000000;0.711106
9653.000000;0.711358
9652.000000;0.711574
9651.000000;0.711745
9650.000000;0.711909
9649.000000;0.711884
9648.000000;0.711491
9647.000000;0.710937
9646.000000;0.710662
9645.000000;0.710830
9644.000000;0.711159
9643.000000;0.711272
9642.000000;0.711024
9641.000000;0.710524
9640.000000;0.710009
9639.000000;0.709741
9638.000000;0.709851
9637.000000;0.710197
9636.000000;0.710466
9635.000000;0.710467
9634.000000;0.710265
9633.000000;0.710032
9632.000000;0.709851
9631.000000;0.709688
9630.000000;0.709463
9629.000000;0.709165
9628.000000;0.708920
9627.000000;0.708908
9626.000000;0.709138
9625.000000;0.709383
9624.000000;0.709411
9623.000000;0.709232
9622.000000;0.709009
9621.000000;0.708801
9620.000000;0.708529
9619.000000;0.708167
9618.000000;0.707803
9617.000000;0.707525
9616.000000;0.707367
9615.000000;0.707361
9614.000000;0.707520
9613.000000;0.707742
9612.000000;0.707863
9611.000000;0.707821
9610.000000;0.707694
9609.000000;0.707581
9608.000000;0.707575
9607.000000;0.707805
9606.000000;0.708331
9605.000000;0.708915
9604.000000;0.709083
9603.000000;0.708566
9602.000000;0.707635
9601.000000;0.706879
9600.000000;0.706662
9599.000000;0.706835
9598.000000;0.706982
9597.000000;0.706878
9596.000000;0.706673
9595.000000;0.706632
9594.000000;0.706773
9593.000000;0.706865
9592.000000;0.706759
9591.000000;0.706568
9590.000000;0.706449
9589.000000;0.706362
9588.000000;0.706200
9587.000000;0.706027
9586.000000;0.706022
9585.000000;0.706196
9584.000000;0.706375
9583.000000;0.706456
9582.000000;0.706505
9581.000000;0.706559
9580.000000;0.706511
9579.000000;0.706253
9578.000000;0.705816
9577.000000;0.705313
9576.000000;0.704880
9575.000000;0.704693
9574.000000;0.704903
9573.000000;0.705406
9572.000000;0.705811
9571.000000;0.705777
9570.000000;0.705366
9569.000000;0.704966
9568.000000;0.704883
9567.000000;0.705102
9566.000000;0.705382
9565.000000;0.705522
9564.000000;0.705496
9563.000000;0.705423
9562.000000;0.705414
9561.000000;0.705445
9560.000000;0.705370
9559.000000;0.705056
9558.000000;0.704503
9557.000000;0.703852
9556.000000;0.703341
9555.000000;0.703209
9554.000000;0.703537
9553.000000;0.704118
9552.000000;0.704561
9551.000000;0.704601
9550.000000;0.704284
9549.000000;0.703829
9548.000000;0.703402
9547.000000;0.703100
9546.000000;0.703047
9545.000000;0.703342
9544.000000;0.703877
9543.000000;0.704343
9542.000000;0.704464
9541.000000;0.704191
9540.000000;0.703668
9539.000000;0.703083
9538.000000;0.702613
9537.000000;0.702379
9536.000000;0.702356
9535.000000;0.702351
9534.000000;0.702179
9533.000000;0.701867
9532.000000;0.701603
9531.000000;0.701497
9530.000000;0.701482
9529.000000;0.701459
9528.000000;0.701457
9527.000000;0.701565
9526.000000;0.701784
9525.000000;0.702003
9524.000000;0.702124
9523.000000;0.702146
9522.000000;0.702133
9521.000000;0.702140
9520.000000;0.702154
9519.000000;0.702087
9518.000000;0.701826
9517.000000;0.701351
9516.000000;0.700807
9515.000000;0.700421
9514.000000;0.700345
9513.000000;0.700568
9512.000000;0.700945
9511.000000;0.701281
9510.000000;0.701446
9509.000000;0.701462
9508.000000;0.701452
9507.000000;0.701466
9506.000000;0.701404
9505.000000;0.701182
9504.000000;0.700906
9503.000000;0.700766
9502.000000;0.700775
9501.000000;0.700741
9500.000000;0.700518
9499.000000;0.700201
9498.000000;0.699995
9497.000000;0.699976
9496.000000;0.700034
9495.000000;0.699991
9494.000000;0.699752
9493.000000;0.699389
9492.000000;0.699117
9491.000000;0.699126
9490.000000;0.699378
9489.000000;0.699609
9488.000000;0.699568
9487.000000;0.699247
9486.000000;0.698867
9485.000000;0.698691
9484.000000;0.698851
9483.000000;0.699268
9482.000000;0.699658
9481.000000;0.699683
9480.000000;0.699213
9479.000000;0.698460
9478.000000;0.697820
9477.000000;0.697578
9476.000000;0.697750
9475.000000;0.698126
9474.000000;0.698433
9473.000000;0.698483
9472.000000;0.698249
9471.000000;0.697850
9470.000000;0.697472
9469.000000;0.697289
9468.000000;0.697415
9467.000000;0.697828
9466.000000;0.698343
9465.000000;0.698701
9464.000000;0.698728
9463.000000;0.698428
9462.000000;0.697945
9461.000000;0.697461
9460.000000;0.697124
9459.000000;0.696958
9458.000000;0.696855
9457.000000;0.696692
9456.000000;0.696493
9455.000000;0.696404
9454.000000;0.696501
9453.000000;0.696698
9452.000000;0.696864
9451.000000;0.696950
9450.000000;0.696951
9449.000000;0.696857
9448.000000;0.696707
9447.000000;0.696640
9446.000000;0.696761
9445.000000;0.696992
9444.000000;0.697138
9443.000000;0.697119
9442.000000;0.697059
9441.000000;0.697121
9440.000000;0.697289
9439.000000;0.697367
9438.000000;0.697192
9437.000000;0.696796
9436.000000;0.696361
9435.000000;0.696023
9434.000000;0.695761
9433.000000;0.695474
9432.000000;0.695128
9431.000000;0.694802
9430.000000;0.694639
9429.000000;0.694745
9428.000000;0.695102
9427.000000;0.695512
9426.000000;0.695683
9425.000000;0.695457
9424.000000;0.694955
9423.000000;0.694457
9422.000000;0.694186
9421.000000;0.694206
9420.000000;0.694458
9419.000000;0.694774
9418.000000;0.694951
9417.000000;0.694921
9416.000000;0.694821
9415.000000;0.694802
9414.000000;0.694803
9413.000000;0.694653
9412.000000;0.694359
9411.000000;0.694094
9410.000000;0.693953
9409.000000;0.693889
9408.000000;0.693930
9407.000000;0.694188
9406.000000;0.694591
9405.000000;0.694817
9404.000000;0.694663
9403.000000;0.694323
9402.000000;0.694133
9401.000000;0.694152
9400.000000;0.694186
9399.000000;0.694110
9398.000000;0.693976
9397.000000;0.693840
9396.000000;0.693683
9395.000000;0.693522
9394.000000;0.693441
9393.000000;0.693465
9392.000000;0.693516
9391.000000;0.693533
9390.000000;0.693530
9389.000000;0.693515
9388.000000;0.693440
9387.000000;0.693284
9386.000000;0.693091
9385.000000;0.692891
9384.000000;0.692616
9383.000000;0.692197
9382.000000;0.691711
9381.000000;0.691370
9380.000000;0.691333
9379.000000;0.691537
9378.000000;0.691745
9377.000000;0.691775
9376.000000;0.691662
9375.000000;0.691562
9374.000000;0.691542
9373.000000;0.691514
9372.000000;0.691394
9371.000000;0.691238
9370.000000;0.691189
9369.000000;0.691314
9368.000000;0.691546
9367.000000;0.691751
9366.000000;0.691812
9365.000000;0.691672
9364.000000;0.691331
9363.000000;0.690844
9362.000000;0.690327
9361.000000;0.689948
9360.000000;0.689842
9359.000000;0.689985
9358.000000;0.690173
9357.000000;0.690209
9356.000000;0.690110
9355.000000;0.690047
9354.000000;0.690104
9353.000000;0.690175
9352.000000;0.690132
9351.000000;0.689984
9350.000000;0.689828
9349.000000;0.689718
9348.000000;0.689644
9347.000000;0.689605
9346.000000;0.689625
9345.000000;0.689714
9344.000000;0.689845
9343.000000;0.689948
9342.000000;0.689929
9341.000000;0.689748
9340.000000;0.689506
9339.000000;0.689402
9338.000000;0.689553
9337.000000;0.689881
9336.000000;0.690180
9335.000000;0.690263
9334.000000;0.690052
9333.000000;0.689589
9332.000000;0.689028
9331.000000;0.688568
9330.000000;0.688344
9329.000000;0.688365
9328.000000;0.688546
9327.000000;0.688778
9326.000000;0.688973
9325.000000;0.689125
9324.000000;0.689282
9323.000000;0.689419
9322.000000;0.689375
9321.000000;0.689015
9320.000000;0.688446
9319.000000;0.687964
9318.000000;0.687776
9317.000000;0.687879
9316.000000;0.688189
9315.000000;0.688612
9314.000000;0.688969
9313.000000;0.689014
9312.000000;0.688666
9311.000000;0.688123
9310.000000;0.687649
9309.000000;0.687330
9308.000000;0.687116
9307.000000;0.687006
9306.000000;0.687046
9305.000000;0.687196
9304.000000;0.687317
9303.000000;0.687295
9302.000000;0.687131
9301.000000;0.686927
9300.000000;0.686844
9299.000000;0.686987
9298.000000;0.687267
9297.000000;0.687431
9296.000000;0.687306
9295.000000;0.686974
9294.000000;0.686630
9293.000000;0.686355
9292.000000;0.686117
9291.000000;0.685939
9290.000000;0.685914
9289.000000;0.686065
9288.000000;0.686282
9287.000000;0.686412
9286.000000;0.686333
9285.000000;0.685975
9284.000000;0.685390
9283.000000;0.684824
9282.000000;0.684586
9281.000000;0.684762
9280.000000;0.685107
9279.000000;0.685281
9278.000000;0.685190
9277.000000;0.685043
9276.000000;0.685082
9275.000000;0.685296
9274.000000;0.685457
9273.000000;0.685381
9272.000000;0.685102
9271.000000;0.684774
9270.000000;0.684501
9269.000000;0.684345
9268.000000;0.684410
9267.000000;0.684734
9266.000000;0.685110
9265.000000;0.685197
9264.000000;0.684910
9263.000000;0.684553
9262.000000;0.684473
9261.000000;0.684667
9260.000000;0.684853
9259.000000;0.684840
9258.000000;0.684683
9257.000000;0.684504
9256.000000;0.684329
9255.000000;0.684136
9254.000000;0.683952
9253.000000;0.683825
9252.000000;0.683767
9251.000000;0.683780
9250.000000;0.683885
9249.000000;0.684074
9248.000000;0.684248
9247.000000;0.684244
9246.000000;0.683963
9245.000000;0.683466
9244.000000;0.682951
9243.000000;0.682617
9242.000000;0.682545
9241.000000;0.682684
9240.000000;0.682934
9239.000000;0.683213
9238.000000;0.683463
9237.000000;0.683633
9236.000000;0.683693
9235.000000;0.683641
9234.000000;0.683499
9233.000000;0.683296
9232.000000;0.683059
9231.000000;0.682824
9230.000000;0.682643
9229.000000;0.682566
9228.000000;0.682580
9227.000000;0.682582
9226.000000;0.682464
9225.000000;0.682259
9224.000000;0.682131
9223.000000;0.682169
9222.000000;0.682264
9221.000000;0.682277
9220.000000;0.682244
9219.000000;0.682285
9218.000000;0.682361
9217.000000;0.682303
9216.000000;0.682097
9215.000000;0.681956
9214.000000;0.682031
9213.000000;0.682176
9212.000000;0.682111
9211.000000;0.681723
9210.000000;0.681144
9209.000000;0.680602
9208.000000;0.680295
9207.000000;0.680314
9206.000000;0.680578
9205.000000;0.680850
9204.000000;0.680901
9203.000000;0.680665
9202.000000;0.680237
9201.000000;0.679769
9200.000000;0.679407
9199.000000;0.679251
9198.000000;0.679314
9197.000000;0.679521
9196.000000;0.679780
9195.000000;0.680022
9194.000000;0.680194
9193.000000;0.680275
9192.000000;0.680318
9191.000000;0.680398
9190.000000;0.680490
9189.000000;0.680478
9188.000000;0.680314
9187.000000;0.680075
9186.000000;0.679842
9185.000000;0.679634
9184.000000;0.679486
9183.000000;0.679471
9182.000000;0.679555
9181.000000;0.679556
9180.000000;0.679354
9179.000000;0.679065
9178.000000;0.678895
9177.000000;0.678896
9176.000000;0.678988
9175.000000;0.679120
9174.000000;0.679290
9173.000000;0.679431
9172.000000;0.679427
9171.000000;0.679237
9170.000000;0.678919
9169.000000;0.678566
9168.000000;0.678293
9167.000000;0.678243
9166.000000;0.678462
9165.000000;0.678779
9164.000000;0.678910
9163.000000;0.678753
9162.000000;0.678485
9161.000000;0.678343
9160.000000;0.678359
9159.000000;0.678351
9158.000000;0.678153
9157.000000;0.677817
9156.000000;0.677590
9155.000000;0.677673
9154.000000;0.678009
9153.000000;0.678356
9152.000000;0.678537
9151.000000;0.678548
9150.000000;0.678442
9149.000000;0.678223
9148.000000;0.677939
9147.000000;0.677763
9146.000000;0.677837
9145.000000;0.678072
9144.000000;0.678204
9143.000000;0.678055
9142.000000;0.677665
9141.000000;0.677216
9140.000000;0.676885
9139.000000;0.676764
9138.000000;0.676819
9137.000000;0.676914
9136.000000;0.676932
9135.000000;0.676871
9134.000000;0.676817
9133.000000;0.676835
9132.000000;0.676921
9131.000000;0.677013
9130.000000;0.676993
9129.000000;0.676746
9128.000000;0.676310
9127.000000;0.675924
9126.000000;0.675819
9125.000000;0.675968
9124.000000;0.676135
9123.000000;0.676162
9122.000000;0.676097
9121.000000;0.676034
9120.000000;0.675946
9119.000000;0.675778
9118.000000;0.675608
9117.000000;0.675599
9116.000000;0.675784
9115.000000;0.675983
9114.000000;0.675974
9113.000000;0.675734
9112.000000;0.675448
9111.000000;0.675277
9110.000000;0.675192
9109.000000;0.675048
9108.000000;0.674806
9107.000000;0.674598
9106.000000;0.674576
9105.000000;0.674746
9104.000000;0.674972
9103.000000;0.675090
9102.000000;0.675004
9101.000000;0.674723
9100.000000;0.674327
9099.000000;0.673898
9098.000000;0.673476
9097.000000;0.673123
9096.000000;0.672982
9095.000000;0.673175
9094.000000;0.673622
9093.000000;0.674054
9092.000000;0.674243
9091.000000;0.674161
9090.000000;0.673930
9089.000000;0.673695
9088.000000;0.673588
9087.000000;0.673689
9086.000000;0.673934
9085.000000;0.674130
9084.000000;0.674130
9083.000000;0.673950
9082.000000;0.673690
9081.000000;0.673420
9080.000000;0.673176
9079.000000;0.672982
9078.000000;0.672807
9077.000000;0.672592
9076.000000;0.672367
9075.000000;0.672225
9074.000000;0.672149
9073.000000;0.672002
9072.000000;0.671767
9071.000000;0.671643
9070.000000;0.671751
9069.000000;0.671918
9068.000000;0.671936
9067.000000;0.671921
9066.000000;0.672158
9065.000000;0.672642
9064.000000;0.673020
9063.000000;0.673024
9062.000000;0.672759
9061.000000;0.672495
9060.000000;0.672365
9059.000000;0.672340
9058.000000;0.672340
9057.000000;0.672263
9056.000000;0.672035
9055.000000;0.671716
9054.000000;0.671481
9053.000000;0.671420
