Criado como novo conjunto de dados;"2706_e01_daniel.spp","77765.8 Secs"
cm-1;Abs
10000.000000;0.775178
9999.000000;0.775530
9998.000000;0.775878
9997.000000;0.776233
9996.000000;0.776576
9995.000000;0.776946
9994.000000;0.777227
9993.000000;0.777082
9992.000000;0.776621
9991.000000;0.776149
9990.000000;0.775842
9989.000000;0.775548
9988.000000;0.775045
9987.000000;0.774395
9986.000000;0.773994
9985.000000;0.774169
9984.000000;0.774761
9983.000000;0.775220
9982.000000;0.775174
9981.000000;0.774725
9980.000000;0.774153
9979.000000;0.773635
9978.000000;0.773421
9977.000000;0.773901
9976.000000;0.775116
9975.000000;0.776447
9974.000000;0.777165
9973.000000;0.777120
9972.000000;0.776579
9971.000000;0.775686
9970.000000;0.774543
9969.000000;0.773527
9968.000000;0.772965
9967.000000;0.772692
9966.000000;0.772446
9965.000000;0.772514
9964.000000;0.773309
9963.000000;0.774448
9962.000000;0.774954
9961.000000;0.774402
9960.000000;0.773203
9959.000000;0.771752
9958.000000;0.770096
9957.000000;0.768571
9956.000000;0.767925
9955.000000;0.768426
9954.000000;0.769460
9953.000000;0.770372
9952.000000;0.771176
9951.000000;0.772080
9950.000000;0.772828
9949.000000;0.772996
9948.000000;0.772552
9947.000000;0.771742
9946.000000;0.770728
9945.000000;0.769709
9944.000000;0.769093
9943.000000;0.769157
9942.000000;0.769691
9941.000000;0.770251
9940.000000;0.770600
9939.000000;0.770694
9938.000000;0.770490
9937.000000;0.770029
9936.000000;0.769571
9935.000000;0.769384
9934.000000;0.769475
9933.000000;0.769626
9932.000000;0.769594
9931.000000;0.769235
9930.000000;0.768641
9929.000000;0.768156
9928.000000;0.768066
9927.000000;0.768273
9926.000000;0.768508
9925.000000;0.768782
9924.000000;0.769243
9923.000000;0.769654
9922.000000;0.769489
9921.000000;0.768651
9920.000000;0.767660
9919.000000;0.766935
9918.000000;0.766342
9917.000000;0.765632
9916.000000;0.764957
9915.000000;0.764723
9914.000000;0.765194
9913.000000;0.766447
9912.000000;0.768362
9911.000000;0.770413
9910.000000;0.771738
9909.000000;0.771747
9908.000000;0.770593
9907.000000;0.768958
9906.000000;0.767544
9905.000000;0.766780
9904.000000;0.766660
9903.000000;0.766717
9902.000000;0.766386
9901.000000;0.765542
9900.000000;0.764557
9899.000000;0.763824
9898.000000;0.763493
9897.000000;0.763647
9896.000000;0.764338
9895.000000;0.765303
9894.000000;0.766011
9893.000000;0.766177
9892.000000;0.765926
9891.000000;0.765384
9890.000000;0.764492
9889.000000;0.763402
9888.000000;0.762666
9887.000000;0.762687
9886.000000;0.763249
9885.000000;0.763815
9884.000000;0.764078
9883.000000;0.764003
9882.000000;0.763594
9881.000000;0.762924
9880.000000;0.762241
9879.000000;0.761771
9878.000000;0.761522
9877.000000;0.761416
9876.000000;0.761466
9875.000000;0.761628
9874.000000;0.761641
9873.000000;0.761235
9872.000000;0.760487
9871.000000;0.759821
9870.000000;0.759713
9869.000000;0.760447
9868.000000;0.762020
9867.000000;0.764101
9866.000000;0.766041
9865.000000;0.767084
9864.000000;0.766724
9863.000000;0.765047
9862.000000;0.762796
9861.000000;0.760935
9860.000000;0.759941
9859.000000;0.759572
9858.000000;0.759389
9857.000000;0.759297
9856.000000;0.759380
9855.000000;0.759483
9854.000000;0.759341
9853.000000;0.759028
9852.000000;0.758875
9851.000000;0.758972
9850.000000;0.759141
9849.000000;0.759379
9848.000000;0.759904
9847.000000;0.760710
9846.000000;0.761418
9845.000000;0.761668
9844.000000;0.761407
9843.000000;0.760798
9842.000000;0.760133
9841.000000;0.759808
9840.000000;0.760010
9839.000000;0.760363
9838.000000;0.760226
9837.000000;0.759415
9836.000000;0.758349
9835.000000;0.757446
9834.000000;0.756750
9833.000000;0.756178
9832.000000;0.755772
9831.000000;0.755591
9830.000000;0.755643
9829.000000;0.755987
9828.000000;0.756607
9827.000000;0.757166
9826.000000;0.757221
9825.000000;0.756750
9824.000000;0.756130
9823.000000;0.755611
9822.000000;0.755217
9821.000000;0.755186
9820.000000;0.755962
9819.000000;0.757486
9818.000000;0.758929
9817.000000;0.759446
9816.000000;0.758992
9815.000000;0.758156
9814.000000;0.757456
9813.000000;0.757002
9812.000000;0.756597
9811.000000;0.755942
9810.000000;0.754882
9809.000000;0.753660
9808.000000;0.752804
9807.000000;0.752650
9806.000000;0.753080
9805.000000;0.753724
9804.000000;0.754269
9803.000000;0.754583
9802.000000;0.754779
9801.000000;0.755184
9800.000000;0.755977
9799.000000;0.756827
9798.000000;0.757164
9797.000000;0.756878
9796.000000;0.756440
9795.000000;0.756264
9794.000000;0.756288
9793.000000;0.756276
9792.000000;0.756175
9791.000000;0.755985
9790.000000;0.755576
9789.000000;0.754862
9788.000000;0.753994
9787.000000;0.753226
9786.000000;0.752723
9785.000000;0.752559
9784.000000;0.752688
9783.000000;0.752860
9782.000000;0.752787
9781.000000;0.752448
9780.000000;0.752019
9779.000000;0.751547
9778.000000;0.751004
9777.000000;0.750653
9776.000000;0.750881
9775.000000;0.751557
9774.000000;0.752006
9773.000000;0.751898
9772.000000;0.751754
9771.000000;0.752222
9770.000000;0.753152
9769.000000;0.753779
9768.000000;0.753674
9767.000000;0.753167
9766.000000;0.752857
9765.000000;0.752996
9764.000000;0.753362
9763.000000;0.753557
9762.000000;0.753406
9761.000000;0.753114
9760.000000;0.753000
9759.000000;0.753080
9758.000000;0.753044
9757.000000;0.752655
9756.000000;0.752009
9755.000000;0.751374
9754.000000;0.750949
9753.000000;0.750811
9752.000000;0.750854
9751.000000;0.750683
9750.000000;0.749820
9749.000000;0.748242
9748.000000;0.746564
9747.000000;0.745553
9746.000000;0.745498
9745.000000;0.746150
9744.000000;0.747108
9743.000000;0.748121
9742.000000;0.749074
9741.000000;0.749826
9740.000000;0.750214
9739.000000;0.750218
9738.000000;0.750067
9737.000000;0.750011
9736.000000;0.749979
9735.000000;0.749625
9734.000000;0.748825
9733.000000;0.747935
9732.000000;0.747399
9731.000000;0.747304
9730.000000;0.747474
9729.000000;0.747793
9728.000000;0.748162
9727.000000;0.748335
9726.000000;0.748130
9725.000000;0.747681
9724.000000;0.747181
9723.000000;0.746532
9722.000000;0.745640
9721.000000;0.744901
9720.000000;0.744886
9719.000000;0.745537
9718.000000;0.746165
9717.000000;0.746349
9716.000000;0.746410
9715.000000;0.746806
9714.000000;0.747425
9713.000000;0.747739
9712.000000;0.747444
9711.000000;0.746739
9710.000000;0.746118
9709.000000;0.745977
9708.000000;0.746287
9707.000000;0.746570
9706.000000;0.746332
9705.000000;0.745550
9704.000000;0.744619
9703.000000;0.743871
9702.000000;0.743364
9701.000000;0.743075
9700.000000;0.743005
9699.000000;0.743079
9698.000000;0.743216
9697.000000;0.743483
9696.000000;0.743952
9695.000000;0.744415
9694.000000;0.744561
9693.000000;0.744452
9692.000000;0.744492
9691.000000;0.744864
9690.000000;0.745296
9689.000000;0.745429
9688.000000;0.745145
9687.000000;0.744466
9686.000000;0.743488
9685.000000;0.742532
9684.000000;0.742047
9683.000000;0.742158
9682.000000;0.742522
9681.000000;0.742752
9680.000000;0.742829
9679.000000;0.742959
9678.000000;0.743246
9677.000000;0.743628
9676.000000;0.744011
9675.000000;0.744359
9674.000000;0.744740
9673.000000;0.745259
9672.000000;0.745811
9671.000000;0.745943
9670.000000;0.745225
9669.000000;0.743775
9668.000000;0.742204
9667.000000;0.741024
9666.000000;0.740337
9665.000000;0.740046
9664.000000;0.740040
9663.000000;0.740128
9662.000000;0.740103
9661.000000;0.740016
9660.000000;0.740142
9659.000000;0.740573
9658.000000;0.741028
9657.000000;0.741165
9656.000000;0.740909
9655.000000;0.740426
9654.000000;0.739968
9653.000000;0.739800
9652.000000;0.740071
9651.000000;0.740632
9650.000000;0.741139
9649.000000;0.741372
9648.000000;0.741333
9647.000000;0.741056
9646.000000;0.740537
9645.000000;0.739884
9644.000000;0.739288
9643.000000;0.738783
9642.000000;0.738246
9641.000000;0.737683
9640.000000;0.737319
9639.000000;0.737326
9638.000000;0.737615
9637.000000;0.737972
9636.000000;0.738260
9635.000000;0.738449
9634.000000;0.738577
9633.000000;0.738721
9632.000000;0.738939
9631.000000;0.739192
9630.000000;0.739365
9629.000000;0.739309
9628.000000;0.738865
9627.000000;0.738039
9626.000000;0.737230
9625.000000;0.737008
9624.000000;0.737429
9623.000000;0.737854
9622.000000;0.737765
9621.000000;0.737537
9620.000000;0.737959
9619.000000;0.739124
9618.000000;0.740280
9617.000000;0.740738
9616.000000;0.740465
9615.000000;0.739738
9614.000000;0.738706
9613.000000;0.737492
9612.000000;0.736342
9611.000000;0.735419
9610.000000;0.734672
9609.000000;0.734071
9608.000000;0.733754
9607.000000;0.733863
9606.000000;0.734387
9605.000000;0.735209
9604.000000;0.736115
9603.000000;0.736748
9602.000000;0.736823
9601.000000;0.736451
9600.000000;0.736016
9599.000000;0.735721
9598.000000;0.735448
9597.000000;0.735077
9596.000000;0.734646
9595.000000;0.734191
9594.000000;0.733730
9593.000000;0.733454
9592.000000;0.733641
9591.000000;0.734259
9590.000000;0.734920
9589.000000;0.735300
9588.000000;0.735381
9587.000000;0.735257
9586.000000;0.734985
9585.000000;0.734727
9584.000000;0.734707
9583.000000;0.734874
9582.000000;0.734886
9581.000000;0.734594
9580.000000;0.734303
9579.000000;0.734323
9578.000000;0.734479
9577.000000;0.734352
9576.000000;0.733855
9575.000000;0.733362
9574.000000;0.733247
9573.000000;0.733467
9572.000000;0.733629
9571.000000;0.733396
9570.000000;0.732829
9569.000000;0.732311
9568.000000;0.732193
9567.000000;0.732540
9566.000000;0.733192
9565.000000;0.733899
9564.000000;0.734331
9563.000000;0.734194
9562.000000;0.733553
9561.000000;0.732916
9560.000000;0.732744
9559.000000;0.732934
9558.000000;0.732960
9557.000000;0.732437
9556.000000;0.731413
9555.000000;0.730234
9554.000000;0.729330
9553.000000;0.729028
9552.000000;0.729309
9551.000000;0.729817
9550.000000;0.730268
9549.000000;0.730735
9548.000000;0.731327
9547.000000;0.731793
9546.000000;0.731777
9545.000000;0.731327
9544.000000;0.730824
9543.000000;0.730520
9542.000000;0.730433
9541.000000;0.730592
9540.000000;0.730982
9539.000000;0.731336
9538.000000;0.731388
9537.000000;0.731298
9536.000000;0.731446
9535.000000;0.731806
9534.000000;0.731895
9533.000000;0.731408
9532.000000;0.730571
9531.000000;0.729826
9530.000000;0.729488
9529.000000;0.729697
9528.000000;0.730354
9527.000000;0.731006
9526.000000;0.731098
9525.000000;0.730471
9524.000000;0.729417
9523.000000;0.728301
9522.000000;0.727389
9521.000000;0.726922
9520.000000;0.726985
9519.000000;0.727260
9518.000000;0.727281
9517.000000;0.727009
9516.000000;0.726845
9515.000000;0.727067
9514.000000;0.727550
9513.000000;0.728073
9512.000000;0.728515
9511.000000;0.728687
9510.000000;0.728324
9509.000000;0.727429
9508.000000;0.726361
9507.000000;0.725517
9506.000000;0.725138
9505.000000;0.725384
9504.000000;0.726252
9503.000000;0.727362
9502.000000;0.728171
9501.000000;0.728486
9500.000000;0.728524
9499.000000;0.728433
9498.000000;0.728136
9497.000000;0.727687
9496.000000;0.727386
9495.000000;0.727368
9494.000000;0.727388
9493.000000;0.727190
9492.000000;0.726865
9491.000000;0.726667
9490.000000;0.726693
9489.000000;0.726852
9488.000000;0.726970
9487.000000;0.726840
9486.000000;0.726358
9485.000000;0.725676
9484.000000;0.725053
9483.000000;0.724578
9482.000000;0.724246
9481.000000;0.724214
9480.000000;0.724632
9479.000000;0.725214
9478.000000;0.725390
9477.000000;0.724983
9476.000000;0.724404
9475.000000;0.724067
9474.000000;0.723933
9473.000000;0.723743
9472.000000;0.723403
9471.000000;0.723002
9470.000000;0.722720
9469.000000;0.722832
9468.000000;0.723510
9467.000000;0.724475
9466.000000;0.725102
9465.000000;0.725003
9464.000000;0.724327
9463.000000;0.723459
9462.000000;0.722709
9461.000000;0.722331
9460.000000;0.722473
9459.000000;0.722928
9458.000000;0.723231
9457.000000;0.723186
9456.000000;0.723077
9455.000000;0.723217
9454.000000;0.723550
9453.000000;0.723845
9452.000000;0.724001
9451.000000;0.723980
9450.000000;0.723660
9449.000000;0.723009
9448.000000;0.722249
9447.000000;0.721629
9446.000000;0.721155
9445.000000;0.720706
9444.000000;0.720309
9443.000000;0.720148
9442.000000;0.720353
9441.000000;0.720853
9440.000000;0.721380
9439.000000;0.721624
9438.000000;0.721479
9437.000000;0.721118
9436.000000;0.720711
9435.000000;0.720175
9434.000000;0.719413
9433.000000;0.718693
9432.000000;0.718477
9431.000000;0.718828
9430.000000;0.719321
9429.000000;0.719603
9428.000000;0.719731
9427.000000;0.719845
9426.000000;0.719839
9425.000000;0.719575
9424.000000;0.719169
9423.000000;0.718862
9422.000000;0.718746
9421.000000;0.718792
9420.000000;0.718998
9419.000000;0.719323
9418.000000;0.719628
9417.000000;0.719809
9416.000000;0.719914
9415.000000;0.720003
9414.000000;0.720003
9413.000000;0.719781
9412.000000;0.719313
9411.000000;0.718701
9410.000000;0.718108
9409.000000;0.717708
9408.000000;0.717585
9407.000000;0.717651
9406.000000;0.717716
9405.000000;0.717658
9404.000000;0.717466
9403.000000;0.717194
9402.000000;0.716962
9401.000000;0.716944
9400.000000;0.717190
9399.000000;0.717527
9398.000000;0.717783
9397.000000;0.718037
9396.000000;0.718434
9395.000000;0.718856
9394.000000;0.718984
9393.000000;0.718664
9392.000000;0.718015
9391.000000;0.717245
9390.000000;0.716582
9389.000000;0.716289
9388.000000;0.716468
9387.000000;0.716889
9386.000000;0.717255
9385.000000;0.717579
9384.000000;0.717984
9383.000000;0.718245
9382.000000;0.717939
9381.000000;0.717083
9380.000000;0.716233
9379.000000;0.715843
9378.000000;0.715842
9377.000000;0.715952
9376.000000;0.716067
9375.000000;0.716175
9374.000000;0.716177
9373.000000;0.715984
9372.000000;0.715639
9371.000000;0.715220
9370.000000;0.714780
9369.000000;0.714445
9368.000000;0.714352
9367.000000;0.714429
9366.000000;0.714426
9365.000000;0.714243
9364.000000;0.714018
9363.000000;0.713829
9362.000000;0.713546
9361.000000;0.713076
9360.000000;0.712579
9359.000000;0.712320
9358.000000;0.712435
9357.000000;0.712871
9356.000000;0.713426
9355.000000;0.713832
9354.000000;0.713957
9353.000000;0.713932
9352.000000;0.713943
9351.000000;0.713973
9350.000000;0.713920
9349.000000;0.713886
9348.000000;0.714038
9347.000000;0.714275
9346.000000;0.714331
9345.000000;0.714171
9344.000000;0.713954
9343.000000;0.713608
9342.000000;0.712858
9341.000000;0.711774
9340.000000;0.710913
9339.000000;0.710741
9338.000000;0.711186
9337.000000;0.711848
9336.000000;0.712397
9335.000000;0.712654
9334.000000;0.712566
9333.000000;0.712288
9332.000000;0.712089
9331.000000;0.712080
9330.000000;0.712162
9329.000000;0.712281
9328.000000;0.712465
9327.000000;0.712605
9326.000000;0.712505
9325.000000;0.712221
9324.000000;0.712029
9323.000000;0.711980
9322.000000;0.711799
9321.000000;0.711374
9320.000000;0.710981
9319.000000;0.710837
9318.000000;0.710739
9317.000000;0.710398
9316.000000;0.709876
9315.000000;0.709455
9314.000000;0.709258
9313.000000;0.709225
9312.000000;0.709304
9311.000000;0.709437
9310.000000;0.709495
9309.000000;0.709416
9308.000000;0.709319
9307.000000;0.709373
9306.000000;0.709620
9305.000000;0.710011
9304.000000;0.710445
9303.000000;0.710700
9302.000000;0.710534
9301.000000;0.709971
9300.000000;0.709330
9299.000000;0.708854
9298.000000;0.708492
9297.000000;0.708143
9296.000000;0.707878
9295.000000;0.707767
9294.000000;0.707696
9293.000000;0.707561
9292.000000;0.707452
9291.000000;0.707443
9290.000000;0.707369
9289.000000;0.707022
9288.000000;0.706519
9287.000000;0.706244
9286.000000;0.706458
9285.000000;0.707099
9284.000000;0.707926
9283.000000;0.708711
9282.000000;0.709286
9281.000000;0.709495
9280.000000;0.709177
9279.000000;0.708264
9278.000000;0.706959
9277.000000;0.705761
9276.000000;0.705158
9275.000000;0.705264
9274.000000;0.705857
9273.000000;0.706698
9272.000000;0.707643
9271.000000;0.708435
9270.000000;0.708662
9269.000000;0.708065
9268.000000;0.706807
9267.000000;0.705367
9266.000000;0.704231
9265.000000;0.703675
9264.000000;0.703695
9263.000000;0.704064
9262.000000;0.704560
9261.000000;0.705143
9260.000000;0.705827
9259.000000;0.706423
9258.000000;0.706631
9257.000000;0.706386
9256.000000;0.705912
9255.000000;0.705426
9254.000000;0.704959
9253.000000;0.704536
9252.000000;0.704295
9251.000000;0.704341
9250.000000;0.704610
9249.000000;0.704934
9248.000000;0.705137
9247.000000;0.705042
9246.000000;0.704560
9245.000000;0.703833
9244.000000;0.703181
9243.000000;0.702849
9242.000000;0.702901
9241.000000;0.703301
9240.000000;0.703960
9239.000000;0.704687
9238.000000;0.705286
9237.000000;0.705688
9236.000000;0.705869
9235.000000;0.705692
9234.000000;0.705025
9233.000000;0.703978
9232.000000;0.702816
9231.000000;0.701695
9230.000000;0.700725
9229.000000;0.700222
9228.000000;0.700517
9227.000000;0.701479
9226.000000;0.702517
9225.000000;0.703169
9224.000000;0.703426
9223.000000;0.703452
9222.000000;0.703267
9221.000000;0.702864
9220.000000;0.702357
9219.000000;0.701847
9218.000000;0.701359
9217.000000;0.701038
9216.000000;0.701150
9215.000000;0.701714
9214.000000;0.702319
9213.000000;0.702509
9212.000000;0.702215
9211.000000;0.701711
9210.000000;0.701270
9209.000000;0.700988
9208.000000;0.700786
9207.000000;0.700462
9206.000000;0.699887
9205.000000;0.699241
9204.000000;0.698891
9203.000000;0.698952
9202.000000;0.699142
9201.000000;0.699166
9200.000000;0.699088
9199.000000;0.699167
9198.000000;0.699478
9197.000000;0.699831
9196.000000;0.699990
9195.000000;0.699853
9194.000000;0.699508
9193.000000;0.699193
9192.000000;0.699107
9191.000000;0.699216
9190.000000;0.699298
9189.000000;0.699220
9188.000000;0.699037
9187.000000;0.698822
9186.000000;0.698574
9185.000000;0.698322
9184.000000;0.698161
9183.000000;0.698122
9182.000000;0.698153
9181.000000;0.698252
9180.000000;0.698458
9179.000000;0.698681
9178.000000;0.698758
9177.000000;0.698708
9176.000000;0.698735
9175.000000;0.698882
9174.000000;0.698914
9173.000000;0.698665
9172.000000;0.698292
9171.000000;0.698054
9170.000000;0.698014
9169.000000;0.698076
9168.000000;0.698159
9167.000000;0.698200
9166.000000;0.698104
9165.000000;0.697842
9164.000000;0.697515
9163.000000;0.697218
9162.000000;0.696937
9161.000000;0.696632
9160.000000;0.696309
9159.000000;0.695976
9158.000000;0.695665
9157.000000;0.695519
9156.000000;0.695682
9155.000000;0.696046
9154.000000;0.696312
9153.000000;0.696369
9152.000000;0.696397
9151.000000;0.696507
9150.000000;0.696493
9149.000000;0.696136
9148.000000;0.695553
9147.000000;0.695042
9146.000000;0.694715
9145.000000;0.694486
9144.000000;0.694330
9143.000000;0.694329
9142.000000;0.694493
9141.000000;0.694680
9140.000000;0.694714
9139.000000;0.694507
9138.000000;0.694106
9137.000000;0.693683
9136.000000;0.693450
9135.000000;0.693490
9134.000000;0.693702
9133.000000;0.693933
9132.000000;0.694082
9131.000000;0.694069
9130.000000;0.693865
9129.000000;0.693618
9128.000000;0.693623
9127.000000;0.694017
9126.000000;0.694574
9125.000000;0.694914
9124.000000;0.694893
9123.000000;0.694666
9122.000000;0.694439
9121.000000;0.694267
9120.000000;0.694103
9119.000000;0.693932
9118.000000;0.693774
9117.000000;0.693593
9116.000000;0.693282
9115.000000;0.692817
9114.000000;0.692384
9113.000000;0.692268
9112.000000;0.692556
9111.000000;0.693029
9110.000000;0.693391
9109.000000;0.693527
9108.000000;0.693452
9107.000000;0.693127
9106.000000;0.692483
9105.000000;0.691596
9104.000000;0.690703
9103.000000;0.690037
9102.000000;0.689737
9101.000000;0.689856
9100.000000;0.690323
9099.000000;0.690922
9098.000000;0.691418
9097.000000;0.691687
9096.000000;0.691664
9095.000000;0.691278
9094.000000;0.690598
9093.000000;0.689951
9092.000000;0.689691
9091.000000;0.689878
9090.000000;0.690324
9089.000000;0.690841
9088.000000;0.691274
9087.000000;0.691387
9086.000000;0.691007
9085.000000;0.690265
9084.000000;0.689489
9083.000000;0.688878
9082.000000;0.688499
9081.000000;0.688507
9080.000000;0.689044
9079.000000;0.689881
9078.000000;0.690502
9077.000000;0.690654
9076.000000;0.690573
9075.000000;0.690525
9074.000000;0.690412
9073.000000;0.689993
9072.000000;0.689304
9071.000000;0.688622
9070.000000;0.688126
9069.000000;0.687803
9068.000000;0.687624
9067.000000;0.687680
9066.000000;0.688113
9065.000000;0.688920
9064.000000;0.689781
9063.000000;0.690167
9062.000000;0.689774
9061.000000;0.688850
9060.000000;0.687949
9059.000000;0.687360
9058.000000;0.686981
9057.000000;0.686729
9056.000000;0.686782
9055.000000;0.687272
9054.000000;0.687934
9053.000000;0.688271
