Criado como novo conjunto de dados;"2706_e01_daniel.spp","50584.7 Secs"
cm-1;Abs
10000.000000;0.650844
9999.000000;0.652062
9998.000000;0.653283
9997.000000;0.654508
9996.000000;0.655737
9995.000000;0.656968
9994.000000;0.658204
9993.000000;0.659441
9992.000000;0.660691
9991.000000;0.661628
9990.000000;0.662059
9989.000000;0.662168
9988.000000;0.662122
9987.000000;0.661953
9986.000000;0.661676
9985.000000;0.661330
9984.000000;0.660940
9983.000000;0.660540
9982.000000;0.660178
9981.000000;0.659872
9980.000000;0.659627
9979.000000;0.659527
9978.000000;0.659665
9977.000000;0.659926
9976.000000;0.659969
9975.000000;0.659544
9974.000000;0.658755
9973.000000;0.657958
9972.000000;0.657494
9971.000000;0.657536
9970.000000;0.658031
9969.000000;0.658685
9968.000000;0.659106
9967.000000;0.659124
9966.000000;0.658917
9965.000000;0.658746
9964.000000;0.658622
9963.000000;0.658361
9962.000000;0.657910
9961.000000;0.657479
9960.000000;0.657315
9959.000000;0.657424
9958.000000;0.657576
9957.000000;0.657573
9956.000000;0.657473
9955.000000;0.657495
9954.000000;0.657727
9953.000000;0.658016
9952.000000;0.658184
9951.000000;0.658200
9950.000000;0.658055
9949.000000;0.657598
9948.000000;0.656741
9947.000000;0.655787
9946.000000;0.655293
9945.000000;0.655508
9944.000000;0.656086
9943.000000;0.656459
9942.000000;0.656416
9941.000000;0.656255
9940.000000;0.656397
9939.000000;0.656917
9938.000000;0.657439
9937.000000;0.657534
9936.000000;0.657233
9935.000000;0.657007
9934.000000;0.657124
9933.000000;0.657198
9932.000000;0.656623
9931.000000;0.655356
9930.000000;0.653993
9929.000000;0.653097
9928.000000;0.652790
9927.000000;0.652993
9926.000000;0.653657
9925.000000;0.654575
9924.000000;0.655291
9923.000000;0.655457
9922.000000;0.655154
9921.000000;0.654686
9920.000000;0.654256
9919.000000;0.653983
9918.000000;0.653983
9917.000000;0.654174
9916.000000;0.654203
9915.000000;0.653874
9914.000000;0.653531
9913.000000;0.653713
9912.000000;0.654448
9911.000000;0.655167
9910.000000;0.655332
9909.000000;0.654930
9908.000000;0.654298
9907.000000;0.653715
9906.000000;0.653307
9905.000000;0.653134
9904.000000;0.653172
9903.000000;0.653235
9902.000000;0.653046
9901.000000;0.652456
9900.000000;0.651602
9899.000000;0.650846
9898.000000;0.650532
9897.000000;0.650729
9896.000000;0.651154
9895.000000;0.651380
9894.000000;0.651180
9893.000000;0.650690
9892.000000;0.650260
9891.000000;0.650141
9890.000000;0.650291
9889.000000;0.650462
9888.000000;0.650426
9887.000000;0.650140
9886.000000;0.649736
9885.000000;0.649443
9884.000000;0.649464
9883.000000;0.649836
9882.000000;0.650318
9881.000000;0.650530
9880.000000;0.650293
9879.000000;0.649791
9878.000000;0.649352
9877.000000;0.649119
9876.000000;0.648992
9875.000000;0.648814
9874.000000;0.648490
9873.000000;0.648028
9872.000000;0.647569
9871.000000;0.647326
9870.000000;0.647331
9869.000000;0.647333
9868.000000;0.647101
9867.000000;0.646789
9866.000000;0.646781
9865.000000;0.647157
9864.000000;0.647532
9863.000000;0.647513
9862.000000;0.647175
9861.000000;0.646960
9860.000000;0.647199
9859.000000;0.647801
9858.000000;0.648364
9857.000000;0.648548
9856.000000;0.648368
9855.000000;0.648112
9854.000000;0.647975
9853.000000;0.647855
9852.000000;0.647580
9851.000000;0.647187
9850.000000;0.646825
9849.000000;0.646516
9848.000000;0.646224
9847.000000;0.646105
9846.000000;0.646412
9845.000000;0.647132
9844.000000;0.647918
9843.000000;0.648398
9842.000000;0.648385
9841.000000;0.647791
9840.000000;0.646646
9839.000000;0.645294
9838.000000;0.644310
9837.000000;0.644062
9836.000000;0.644458
9835.000000;0.645160
9834.000000;0.645892
9833.000000;0.646453
9832.000000;0.646675
9831.000000;0.646542
9830.000000;0.646251
9829.000000;0.646015
9828.000000;0.645880
9827.000000;0.645797
9826.000000;0.645738
9825.000000;0.645674
9824.000000;0.645566
9823.000000;0.645464
9822.000000;0.645499
9821.000000;0.645680
9820.000000;0.645830
9819.000000;0.645787
9818.000000;0.645561
9817.000000;0.645240
9816.000000;0.644913
9815.000000;0.644745
9814.000000;0.644940
9813.000000;0.645464
9812.000000;0.645948
9811.000000;0.646057
9810.000000;0.645856
9809.000000;0.645684
9808.000000;0.645731
9807.000000;0.645877
9806.000000;0.645891
9805.000000;0.645631
9804.000000;0.645109
9803.000000;0.644488
9802.000000;0.643989
9801.000000;0.643685
9800.000000;0.643420
9799.000000;0.642992
9798.000000;0.642391
9797.000000;0.641776
9796.000000;0.641310
9795.000000;0.641105
9794.000000;0.641279
9793.000000;0.641886
9792.000000;0.642738
9791.000000;0.643412
9790.000000;0.643544
9789.000000;0.643172
9788.000000;0.642738
9787.000000;0.642682
9786.000000;0.643007
9785.000000;0.643305
9784.000000;0.643265
9783.000000;0.643045
9782.000000;0.643022
9781.000000;0.643232
9780.000000;0.643293
9779.000000;0.642913
9778.000000;0.642288
9777.000000;0.641864
9776.000000;0.641851
9775.000000;0.642094
9774.000000;0.642347
9773.000000;0.642512
9772.000000;0.642607
9771.000000;0.642622
9770.000000;0.642477
9769.000000;0.642118
9768.000000;0.641595
9767.000000;0.641022
9766.000000;0.640473
9765.000000;0.640016
9764.000000;0.639814
9763.000000;0.640023
9762.000000;0.640502
9761.000000;0.640806
9760.000000;0.640649
9759.000000;0.640276
9758.000000;0.640159
9757.000000;0.640395
9756.000000;0.640624
9755.000000;0.640532
9754.000000;0.640169
9753.000000;0.639775
9752.000000;0.639522
9751.000000;0.639474
9750.000000;0.639579
9749.000000;0.639642
9748.000000;0.639474
9747.000000;0.639157
9746.000000;0.638950
9745.000000;0.638923
9744.000000;0.638873
9743.000000;0.638678
9742.000000;0.638502
9741.000000;0.638516
9740.000000;0.638596
9739.000000;0.638473
9738.000000;0.638065
9737.000000;0.637558
9736.000000;0.637230
9735.000000;0.637259
9734.000000;0.637617
9733.000000;0.638092
9732.000000;0.638508
9731.000000;0.638905
9730.000000;0.639352
9729.000000;0.639657
9728.000000;0.639527
9727.000000;0.639048
9726.000000;0.638680
9725.000000;0.638658
9724.000000;0.638694
9723.000000;0.638450
9722.000000;0.638050
9721.000000;0.637878
9720.000000;0.638028
9719.000000;0.638209
9718.000000;0.638094
9717.000000;0.637558
9716.000000;0.636709
9715.000000;0.635872
9714.000000;0.635453
9713.000000;0.635590
9712.000000;0.635978
9711.000000;0.636199
9710.000000;0.636156
9709.000000;0.636074
9708.000000;0.636171
9707.000000;0.636480
9706.000000;0.636911
9705.000000;0.637288
9704.000000;0.637382
9703.000000;0.637083
9702.000000;0.636537
9701.000000;0.636001
9700.000000;0.635602
9699.000000;0.635320
9698.000000;0.635128
9697.000000;0.635001
9696.000000;0.634865
9695.000000;0.634667
9694.000000;0.634453
9693.000000;0.634301
9692.000000;0.634234
9691.000000;0.634280
9690.000000;0.634500
9689.000000;0.634834
9688.000000;0.635061
9687.000000;0.635048
9686.000000;0.634942
9685.000000;0.634949
9684.000000;0.635058
9683.000000;0.635149
9682.000000;0.635264
9681.000000;0.635490
9680.000000;0.635644
9679.000000;0.635392
9678.000000;0.634715
9677.000000;0.634038
9676.000000;0.633790
9675.000000;0.634002
9674.000000;0.634397
9673.000000;0.634692
9672.000000;0.634742
9671.000000;0.634511
9670.000000;0.634071
9669.000000;0.633577
9668.000000;0.633182
9667.000000;0.632966
9666.000000;0.632927
9665.000000;0.632972
9664.000000;0.632913
9663.000000;0.632614
9662.000000;0.632179
9661.000000;0.631931
9660.000000;0.632118
9659.000000;0.632650
9658.000000;0.633178
9657.000000;0.633421
9656.000000;0.633399
9655.000000;0.633341
9654.000000;0.633394
9653.000000;0.633440
9652.000000;0.633237
9651.000000;0.632711
9650.000000;0.632060
9649.000000;0.631562
9648.000000;0.631343
9647.000000;0.631359
9646.000000;0.631518
9645.000000;0.631748
9644.000000;0.632001
9643.000000;0.632252
9642.000000;0.632456
9641.000000;0.632477
9640.000000;0.632139
9639.000000;0.631445
9638.000000;0.630690
9637.000000;0.630250
9636.000000;0.630270
9635.000000;0.630596
9634.000000;0.630971
9633.000000;0.631222
9632.000000;0.631275
9631.000000;0.631134
9630.000000;0.630869
9629.000000;0.630569
9628.000000;0.630274
9627.000000;0.629977
9626.000000;0.629715
9625.000000;0.629606
9624.000000;0.629763
9623.000000;0.630182
9622.000000;0.630696
9621.000000;0.631040
9620.000000;0.631010
9619.000000;0.630584
9618.000000;0.629921
9617.000000;0.629249
9616.000000;0.628763
9615.000000;0.628577
9614.000000;0.628683
9613.000000;0.628932
9612.000000;0.629138
9611.000000;0.629249
9610.000000;0.629342
9609.000000;0.629458
9608.000000;0.629515
9607.000000;0.629434
9606.000000;0.629254
9605.000000;0.629055
9604.000000;0.628835
9603.000000;0.628584
9602.000000;0.628397
9601.000000;0.628416
9600.000000;0.628615
9599.000000;0.628752
9598.000000;0.628564
9597.000000;0.628005
9596.000000;0.627283
9595.000000;0.626682
9594.000000;0.626352
9593.000000;0.626258
9592.000000;0.626337
9591.000000;0.626626
9590.000000;0.627141
9589.000000;0.627670
9588.000000;0.627844
9587.000000;0.627533
9586.000000;0.627040
9585.000000;0.626804
9584.000000;0.626934
9583.000000;0.627154
9582.000000;0.627187
9581.000000;0.627084
9580.000000;0.627116
9579.000000;0.627404
9578.000000;0.627742
9577.000000;0.627814
9576.000000;0.627578
9575.000000;0.627326
9574.000000;0.627338
9573.000000;0.627539
9572.000000;0.627623
9571.000000;0.627472
9570.000000;0.627260
9569.000000;0.627121
9568.000000;0.626913
9567.000000;0.626453
9566.000000;0.625820
9565.000000;0.625274
9564.000000;0.624946
9563.000000;0.624810
9562.000000;0.624888
9561.000000;0.625251
9560.000000;0.625790
9559.000000;0.626181
9558.000000;0.626210
9557.000000;0.625999
9556.000000;0.625830
9555.000000;0.625802
9554.000000;0.625778
9553.000000;0.625619
9552.000000;0.625361
9551.000000;0.625154
9550.000000;0.625102
9549.000000;0.625182
9548.000000;0.625274
9547.000000;0.625282
9546.000000;0.625208
9545.000000;0.625129
9544.000000;0.625064
9543.000000;0.624948
9542.000000;0.624761
9541.000000;0.624643
9540.000000;0.624753
9539.000000;0.625020
9538.000000;0.625160
9537.000000;0.625000
9536.000000;0.624698
9535.000000;0.624520
9534.000000;0.624469
9533.000000;0.624270
9532.000000;0.623740
9531.000000;0.623047
9530.000000;0.622539
9529.000000;0.622415
9528.000000;0.622597
9527.000000;0.622853
9526.000000;0.622992
9525.000000;0.623008
9524.000000;0.623064
9523.000000;0.623289
9522.000000;0.623576
9521.000000;0.623663
9520.000000;0.623461
9519.000000;0.623169
9518.000000;0.622989
9517.000000;0.622864
9516.000000;0.622636
9515.000000;0.622352
9514.000000;0.622216
9513.000000;0.622232
9512.000000;0.622130
9511.000000;0.621739
9510.000000;0.621283
9509.000000;0.621170
9508.000000;0.621522
9507.000000;0.622022
9506.000000;0.622268
9505.000000;0.622219
9504.000000;0.622203
9503.000000;0.622475
9502.000000;0.622850
9501.000000;0.622908
9500.000000;0.622531
9499.000000;0.622062
9498.000000;0.621874
9497.000000;0.621952
9496.000000;0.622024
9495.000000;0.621958
9494.000000;0.621831
9493.000000;0.621674
9492.000000;0.621369
9491.000000;0.620854
9490.000000;0.620263
9489.000000;0.619801
9488.000000;0.619579
9487.000000;0.619587
9486.000000;0.619744
9485.000000;0.619927
9484.000000;0.620040
9483.000000;0.620061
9482.000000;0.620017
9481.000000;0.619939
9480.000000;0.619888
9479.000000;0.619965
9478.000000;0.620173
9477.000000;0.620334
9476.000000;0.620263
9475.000000;0.619995
9474.000000;0.619726
9473.000000;0.619554
9472.000000;0.619426
9471.000000;0.619318
9470.000000;0.619290
9469.000000;0.619354
9468.000000;0.619443
9467.000000;0.619540
9466.000000;0.619691
9465.000000;0.619843
9464.000000;0.619815
9463.000000;0.619526
9462.000000;0.619126
9461.000000;0.618830
9460.000000;0.618708
9459.000000;0.618703
9458.000000;0.618744
9457.000000;0.618775
9456.000000;0.618723
9455.000000;0.618562
9454.000000;0.618355
9453.000000;0.618190
9452.000000;0.618090
9451.000000;0.618019
9450.000000;0.617944
9449.000000;0.617873
9448.000000;0.617852
9447.000000;0.617926
9446.000000;0.618069
9445.000000;0.618150
9444.000000;0.618033
9443.000000;0.617697
9442.000000;0.617215
9441.000000;0.616678
9440.000000;0.616214
9439.000000;0.616008
9438.000000;0.616157
9437.000000;0.616518
9436.000000;0.616808
9435.000000;0.616897
9434.000000;0.616878
9433.000000;0.616874
9432.000000;0.616878
9431.000000;0.616824
9430.000000;0.616675
9429.000000;0.616418
9428.000000;0.616061
9427.000000;0.615671
9426.000000;0.615338
9425.000000;0.615075
9424.000000;0.614863
9423.000000;0.614763
9422.000000;0.614882
9421.000000;0.615192
9420.000000;0.615502
9419.000000;0.615659
9418.000000;0.615689
9417.000000;0.615693
9416.000000;0.615699
9415.000000;0.615668
9414.000000;0.615572
9413.000000;0.615443
9412.000000;0.615365
9411.000000;0.615407
9410.000000;0.615481
9409.000000;0.615354
9408.000000;0.614923
9407.000000;0.614422
9406.000000;0.614180
9405.000000;0.614212
9404.000000;0.614265
9403.000000;0.614242
9402.000000;0.614346
9401.000000;0.614703
9400.000000;0.615076
9399.000000;0.615124
9398.000000;0.614793
9397.000000;0.614322
9396.000000;0.613978
9395.000000;0.613912
9394.000000;0.614142
9393.000000;0.614508
9392.000000;0.614697
9391.000000;0.614484
9390.000000;0.613959
9389.000000;0.613424
9388.000000;0.613098
9387.000000;0.612983
9386.000000;0.612947
9385.000000;0.612894
9384.000000;0.612860
9383.000000;0.612986
9382.000000;0.613322
9381.000000;0.613658
9380.000000;0.613661
9379.000000;0.613263
9378.000000;0.612806
9377.000000;0.612690
9376.000000;0.612934
9375.000000;0.613186
9374.000000;0.613136
9373.000000;0.612824
9372.000000;0.612538
9371.000000;0.612452
9370.000000;0.612446
9369.000000;0.612283
9368.000000;0.611966
9367.000000;0.611785
9366.000000;0.611960
9365.000000;0.612333
9364.000000;0.612549
9363.000000;0.612485
9362.000000;0.612289
9361.000000;0.612063
9360.000000;0.611752
9359.000000;0.611369
9358.000000;0.611083
9357.000000;0.610985
9356.000000;0.610976
9355.000000;0.610994
9354.000000;0.611152
9353.000000;0.611488
9352.000000;0.611784
9351.000000;0.611831
9350.000000;0.611709
9349.000000;0.611609
9348.000000;0.611486
9347.000000;0.611151
9346.000000;0.610654
9345.000000;0.610316
9344.000000;0.610341
9343.000000;0.610569
9342.000000;0.610666
9341.000000;0.610477
9340.000000;0.610163
9339.000000;0.610059
9338.000000;0.610362
9337.000000;0.610888
9336.000000;0.611196
9335.000000;0.611019
9334.000000;0.610513
9333.000000;0.610030
9332.000000;0.609753
9331.000000;0.609686
9330.000000;0.609828
9329.000000;0.610116
9328.000000;0.610268
9327.000000;0.609976
9326.000000;0.609311
9325.000000;0.608713
9324.000000;0.608495
9323.000000;0.608561
9322.000000;0.608700
9321.000000;0.608917
9320.000000;0.609295
9319.000000;0.609662
9318.000000;0.609682
9317.000000;0.609269
9316.000000;0.608723
9315.000000;0.608381
9314.000000;0.608296
9313.000000;0.608318
9312.000000;0.608372
9311.000000;0.608512
9310.000000;0.608739
9309.000000;0.608899
9308.000000;0.608823
9307.000000;0.608519
9306.000000;0.608184
9305.000000;0.608025
9304.000000;0.608085
9303.000000;0.608226
9302.000000;0.608261
9301.000000;0.608123
9300.000000;0.607901
9299.000000;0.607709
9298.000000;0.607551
9297.000000;0.607342
9296.000000;0.607054
9295.000000;0.606752
9294.000000;0.606499
9293.000000;0.606301
9292.000000;0.606183
9291.000000;0.606219
9290.000000;0.606420
9289.000000;0.606670
9288.000000;0.606838
9287.000000;0.606897
9286.000000;0.606869
9285.000000;0.606733
9284.000000;0.606509
9283.000000;0.606338
9282.000000;0.606348
9281.000000;0.606461
9280.000000;0.606495
9279.000000;0.606423
9278.000000;0.606394
9277.000000;0.606456
9276.000000;0.606453
9275.000000;0.606251
9274.000000;0.605946
9273.000000;0.605755
9272.000000;0.605764
9271.000000;0.605869
9270.000000;0.605898
9269.000000;0.605762
9268.000000;0.605521
9267.000000;0.605354
9266.000000;0.605400
9265.000000;0.605601
9264.000000;0.605751
9263.000000;0.605713
9262.000000;0.605515
9261.000000;0.605236
9260.000000;0.604922
9259.000000;0.604645
9258.000000;0.604522
9257.000000;0.604585
9256.000000;0.604695
9255.000000;0.604681
9254.000000;0.604524
9253.000000;0.604344
9252.000000;0.604226
9251.000000;0.604135
9250.000000;0.603997
9249.000000;0.603819
9248.000000;0.603673
9247.000000;0.603590
9246.000000;0.603472
9245.000000;0.603209
9244.000000;0.602873
9243.000000;0.602716
9242.000000;0.602865
9241.000000;0.603118
9240.000000;0.603185
9239.000000;0.603077
9238.000000;0.603071
9237.000000;0.603299
9236.000000;0.603566
9235.000000;0.603627
9234.000000;0.603481
9233.000000;0.603275
9232.000000;0.603096
9231.000000;0.602961
9230.000000;0.602895
9229.000000;0.602856
9228.000000;0.602685
9227.000000;0.602289
9226.000000;0.601831
9225.000000;0.601623
9224.000000;0.601799
9223.000000;0.602181
9222.000000;0.602459
9221.000000;0.602434
9220.000000;0.602130
9219.000000;0.601735
9218.000000;0.601419
9217.000000;0.601191
9216.000000;0.600952
9215.000000;0.600710
9214.000000;0.600633
9213.000000;0.600818
9212.000000;0.601110
9211.000000;0.601245
9210.000000;0.601143
9209.000000;0.600941
9208.000000;0.600778
9207.000000;0.600683
9206.000000;0.600656
9205.000000;0.600732
9204.000000;0.600891
9203.000000;0.600999
9202.000000;0.600922
9201.000000;0.600679
9200.000000;0.600455
9199.000000;0.600439
9198.000000;0.600633
9197.000000;0.600830
9196.000000;0.600772
9195.000000;0.600386
9194.000000;0.599853
9193.000000;0.599433
9192.000000;0.599232
9191.000000;0.599167
9190.000000;0.599132
9189.000000;0.599148
9188.000000;0.599304
9187.000000;0.599586
9186.000000;0.599854
9185.000000;0.599988
9184.000000;0.600001
9183.000000;0.599959
9182.000000;0.599834
9181.000000;0.599549
9180.000000;0.599157
9179.000000;0.598857
9178.000000;0.598777
9177.000000;0.598844
9176.000000;0.598916
9175.000000;0.598962
9174.000000;0.599013
9173.000000;0.599040
9172.000000;0.598999
9171.000000;0.598928
9170.000000;0.598881
9169.000000;0.598796
9168.000000;0.598561
9167.000000;0.598211
9166.000000;0.597898
9165.000000;0.597695
9164.000000;0.597551
9163.000000;0.597460
9162.000000;0.597500
9161.000000;0.597675
9160.000000;0.597842
9159.000000;0.597896
9158.000000;0.597888
9157.000000;0.597898
9156.000000;0.597900
9155.000000;0.597834
9154.000000;0.597755
9153.000000;0.597770
9152.000000;0.597881
9151.000000;0.597966
9150.000000;0.597929
9149.000000;0.597830
9148.000000;0.597817
9147.000000;0.597935
9146.000000;0.598003
9145.000000;0.597759
9144.000000;0.597174
9143.000000;0.596558
9142.000000;0.596240
9141.000000;0.596212
9140.000000;0.596189
9139.000000;0.595994
9138.000000;0.595738
9137.000000;0.595631
9136.000000;0.595760
9135.000000;0.596075
9134.000000;0.596428
9133.000000;0.596584
9132.000000;0.596356
9131.000000;0.595801
9130.000000;0.595189
9129.000000;0.594721
9128.000000;0.594396
9127.000000;0.594183
9126.000000;0.594142
9125.000000;0.594285
9124.000000;0.594471
9123.000000;0.594565
9122.000000;0.594598
9121.000000;0.594659
9120.000000;0.594716
9119.000000;0.594702
9118.000000;0.594691
9117.000000;0.594827
9116.000000;0.595112
9115.000000;0.595392
9114.000000;0.595542
9113.000000;0.595546
9112.000000;0.595417
9111.000000;0.595157
9110.000000;0.594817
9109.000000;0.594489
9108.000000;0.594222
9107.000000;0.593980
9106.000000;0.593731
9105.000000;0.593510
9104.000000;0.593384
9103.000000;0.593389
9102.000000;0.593511
9101.000000;0.593725
9100.000000;0.594011
9099.000000;0.594325
9098.000000;0.594541
9097.000000;0.594485
9096.000000;0.594098
9095.000000;0.593548
9094.000000;0.593105
9093.000000;0.592905
9092.000000;0.592885
9091.000000;0.592935
9090.000000;0.593003
9089.000000;0.593056
9088.000000;0.593050
9087.000000;0.593021
9086.000000;0.593072
9085.000000;0.593209
9084.000000;0.593264
9083.000000;0.593073
9082.000000;0.592682
9081.000000;0.592305
9080.000000;0.592107
9079.000000;0.592083
9078.000000;0.592112
9077.000000;0.592091
9076.000000;0.592032
9075.000000;0.592029
9074.000000;0.592112
9073.000000;0.592147
9072.000000;0.591996
9071.000000;0.591732
9070.000000;0.591583
9069.000000;0.591617
9068.000000;0.591647
9067.000000;0.591525
9066.000000;0.591377
9065.000000;0.591421
9064.000000;0.591657
9063.000000;0.591877
9062.000000;0.591929
9061.000000;0.591822
9060.000000;0.591626
9059.000000;0.591378
9058.000000;0.591120
9057.000000;0.590914
9056.000000;0.590805
9055.000000;0.590811
9054.000000;0.590917
9053.000000;0.591030
