Criado como novo conjunto de dados;"2706_e01_daniel.spp","79925.9 Secs"
cm-1;Abs
10000.000000;0.799533
9999.000000;0.799663
9998.000000;0.799437
9997.000000;0.798836
9996.000000;0.798184
9995.000000;0.797782
9994.000000;0.797728
9993.000000;0.797920
9992.000000;0.798272
9991.000000;0.798669
9990.000000;0.798912
9989.000000;0.798824
9988.000000;0.798412
9987.000000;0.797824
9986.000000;0.797198
9985.000000;0.796605
9984.000000;0.796050
9983.000000;0.795506
9982.000000;0.795035
9981.000000;0.794850
9980.000000;0.795077
9979.000000;0.795523
9978.000000;0.795890
9977.000000;0.796150
9976.000000;0.796435
9975.000000;0.796596
9974.000000;0.796298
9973.000000;0.795637
9972.000000;0.795185
9971.000000;0.795241
9970.000000;0.795449
9969.000000;0.795419
9968.000000;0.795285
9967.000000;0.795283
9966.000000;0.795165
9965.000000;0.794500
9964.000000;0.793371
9963.000000;0.792359
9962.000000;0.791932
9961.000000;0.792121
9960.000000;0.792603
9959.000000;0.792834
9958.000000;0.792336
9957.000000;0.791281
9956.000000;0.790637
9955.000000;0.791289
9954.000000;0.792988
9953.000000;0.794488
9952.000000;0.794795
9951.000000;0.794024
9950.000000;0.792996
9949.000000;0.792285
9948.000000;0.791813
9947.000000;0.791205
9946.000000;0.790385
9945.000000;0.789802
9944.000000;0.790031
9943.000000;0.791094
9942.000000;0.792273
9941.000000;0.792738
9940.000000;0.792347
9939.000000;0.791713
9938.000000;0.791508
9937.000000;0.791863
9936.000000;0.792404
9935.000000;0.792686
9934.000000;0.792509
9933.000000;0.791924
9932.000000;0.791114
9931.000000;0.790319
9930.000000;0.789791
9929.000000;0.789649
9928.000000;0.789746
9927.000000;0.789817
9926.000000;0.789827
9925.000000;0.790013
9924.000000;0.790460
9923.000000;0.790832
9922.000000;0.790746
9921.000000;0.790262
9920.000000;0.789723
9919.000000;0.789265
9918.000000;0.788787
9917.000000;0.788313
9916.000000;0.788026
9915.000000;0.787950
9914.000000;0.787960
9913.000000;0.788082
9912.000000;0.788412
9911.000000;0.788734
9910.000000;0.788653
9909.000000;0.788197
9908.000000;0.787862
9907.000000;0.787915
9906.000000;0.788052
9905.000000;0.787896
9904.000000;0.787466
9903.000000;0.786928
9902.000000;0.786252
9901.000000;0.785432
9900.000000;0.784760
9899.000000;0.784539
9898.000000;0.784730
9897.000000;0.785131
9896.000000;0.785689
9895.000000;0.786348
9894.000000;0.786777
9893.000000;0.786636
9892.000000;0.786057
9891.000000;0.785584
9890.000000;0.785603
9889.000000;0.786019
9888.000000;0.786444
9887.000000;0.786542
9886.000000;0.786207
9885.000000;0.785571
9884.000000;0.784902
9883.000000;0.784406
9882.000000;0.784117
9881.000000;0.783987
9880.000000;0.784011
9879.000000;0.784220
9878.000000;0.784565
9877.000000;0.784890
9876.000000;0.784985
9875.000000;0.784705
9874.000000;0.784098
9873.000000;0.783428
9872.000000;0.782992
9871.000000;0.782908
9870.000000;0.783076
9869.000000;0.783298
9868.000000;0.783392
9867.000000;0.783299
9866.000000;0.783169
9865.000000;0.783224
9864.000000;0.783451
9863.000000;0.783560
9862.000000;0.783393
9861.000000;0.783174
9860.000000;0.783155
9859.000000;0.783201
9858.000000;0.783042
9857.000000;0.782736
9856.000000;0.782543
9855.000000;0.782429
9854.000000;0.782121
9853.000000;0.781645
9852.000000;0.781356
9851.000000;0.781374
9850.000000;0.781371
9849.000000;0.781078
9848.000000;0.780681
9847.000000;0.780518
9846.000000;0.780646
9845.000000;0.780890
9844.000000;0.781132
9843.000000;0.781339
9842.000000;0.781468
9841.000000;0.781480
9840.000000;0.781418
9839.000000;0.781358
9838.000000;0.781319
9837.000000;0.781242
9836.000000;0.781015
9835.000000;0.780607
9834.000000;0.780208
9833.000000;0.780083
9832.000000;0.780195
9831.000000;0.780140
9830.000000;0.779656
9829.000000;0.779011
9828.000000;0.778664
9827.000000;0.778699
9826.000000;0.778879
9825.000000;0.779066
9824.000000;0.779232
9823.000000;0.779236
9822.000000;0.778979
9821.000000;0.778690
9820.000000;0.778658
9819.000000;0.778746
9818.000000;0.778609
9817.000000;0.778323
9816.000000;0.778301
9815.000000;0.778575
9814.000000;0.778640
9813.000000;0.778150
9812.000000;0.777343
9811.000000;0.776656
9810.000000;0.776270
9809.000000;0.776151
9808.000000;0.776193
9807.000000;0.776187
9806.000000;0.775953
9805.000000;0.775633
9804.000000;0.775561
9803.000000;0.775752
9802.000000;0.775815
9801.000000;0.775479
9800.000000;0.774937
9799.000000;0.774580
9798.000000;0.774668
9797.000000;0.775266
9796.000000;0.776155
9795.000000;0.776736
9794.000000;0.776439
9793.000000;0.775394
9792.000000;0.774382
9791.000000;0.774010
9790.000000;0.774228
9789.000000;0.774700
9788.000000;0.775256
9787.000000;0.775812
9786.000000;0.776222
9785.000000;0.776442
9784.000000;0.776613
9783.000000;0.776762
9782.000000;0.776650
9781.000000;0.776098
9780.000000;0.775259
9779.000000;0.774429
9778.000000;0.773787
9777.000000;0.773375
9776.000000;0.773130
9775.000000;0.772844
9774.000000;0.772361
9773.000000;0.771886
9772.000000;0.771855
9771.000000;0.772430
9770.000000;0.773325
9769.000000;0.774135
9768.000000;0.774565
9767.000000;0.774386
9766.000000;0.773543
9765.000000;0.772462
9764.000000;0.771833
9763.000000;0.771927
9762.000000;0.772377
9761.000000;0.772745
9760.000000;0.772967
9759.000000;0.773085
9758.000000;0.772930
9757.000000;0.772381
9756.000000;0.771681
9755.000000;0.771192
9754.000000;0.770988
9753.000000;0.770888
9752.000000;0.770759
9751.000000;0.770608
9750.000000;0.770529
9749.000000;0.770667
9748.000000;0.771081
9747.000000;0.771511
9746.000000;0.771480
9745.000000;0.770802
9744.000000;0.769853
9743.000000;0.769192
9742.000000;0.769040
9741.000000;0.769218
9740.000000;0.769443
9739.000000;0.769562
9738.000000;0.769608
9737.000000;0.769733
9736.000000;0.770042
9735.000000;0.770444
9734.000000;0.770724
9733.000000;0.770758
9732.000000;0.770539
9731.000000;0.770072
9730.000000;0.769423
9729.000000;0.768833
9728.000000;0.768543
9727.000000;0.768537
9726.000000;0.768631
9725.000000;0.768780
9724.000000;0.769028
9723.000000;0.769216
9722.000000;0.769057
9721.000000;0.768584
9720.000000;0.768230
9719.000000;0.768333
9718.000000;0.768770
9717.000000;0.769168
9716.000000;0.769298
9715.000000;0.769184
9714.000000;0.768988
9713.000000;0.768839
9712.000000;0.768652
9711.000000;0.768156
9710.000000;0.767239
9709.000000;0.766214
9708.000000;0.765541
9707.000000;0.765355
9706.000000;0.765454
9705.000000;0.765631
9704.000000;0.765755
9703.000000;0.765644
9702.000000;0.765233
9701.000000;0.764832
9700.000000;0.764858
9699.000000;0.765263
9698.000000;0.765570
9697.000000;0.765522
9696.000000;0.765366
9695.000000;0.765431
9694.000000;0.765752
9693.000000;0.766181
9692.000000;0.766575
9691.000000;0.766758
9690.000000;0.766579
9689.000000;0.766137
9688.000000;0.765727
9687.000000;0.765483
9686.000000;0.765268
9685.000000;0.764991
9684.000000;0.764788
9683.000000;0.764796
9682.000000;0.764936
9681.000000;0.765011
9680.000000;0.764864
9679.000000;0.764462
9678.000000;0.763983
9677.000000;0.763748
9676.000000;0.763848
9675.000000;0.763924
9674.000000;0.763596
9673.000000;0.763039
9672.000000;0.762775
9671.000000;0.762962
9670.000000;0.763254
9669.000000;0.763357
9668.000000;0.763330
9667.000000;0.763289
9666.000000;0.763190
9665.000000;0.763022
9664.000000;0.762882
9663.000000;0.762752
9662.000000;0.762498
9661.000000;0.762189
9660.000000;0.762065
9659.000000;0.762100
9658.000000;0.761931
9657.000000;0.761380
9656.000000;0.760755
9655.000000;0.760486
9654.000000;0.760701
9653.000000;0.761270
9652.000000;0.761975
9651.000000;0.762506
9650.000000;0.762531
9649.000000;0.762000
9648.000000;0.761242
9647.000000;0.760652
9646.000000;0.760414
9645.000000;0.760511
9644.000000;0.760790
9643.000000;0.760985
9642.000000;0.760918
9641.000000;0.760743
9640.000000;0.760808
9639.000000;0.761224
9638.000000;0.761761
9637.000000;0.762153
9636.000000;0.762275
9635.000000;0.762061
9634.000000;0.761522
9633.000000;0.760861
9632.000000;0.760311
9631.000000;0.759865
9630.000000;0.759422
9629.000000;0.759130
9628.000000;0.759255
9627.000000;0.759696
9626.000000;0.759989
9625.000000;0.759869
9624.000000;0.759503
9623.000000;0.759139
9622.000000;0.758846
9621.000000;0.758700
9620.000000;0.758864
9619.000000;0.759314
9618.000000;0.759736
9617.000000;0.759860
9616.000000;0.759717
9615.000000;0.759500
9614.000000;0.759371
9613.000000;0.759423
9612.000000;0.759588
9611.000000;0.759547
9610.000000;0.759023
9609.000000;0.758177
9608.000000;0.757478
9607.000000;0.757192
9606.000000;0.757246
9605.000000;0.757535
9604.000000;0.757970
9603.000000;0.758260
9602.000000;0.758086
9601.000000;0.757575
9600.000000;0.757218
9599.000000;0.757166
9598.000000;0.757002
9597.000000;0.756362
9596.000000;0.755442
9595.000000;0.754720
9594.000000;0.754477
9593.000000;0.754747
9592.000000;0.755402
9591.000000;0.756092
9590.000000;0.756375
9589.000000;0.756141
9588.000000;0.755739
9587.000000;0.755546
9586.000000;0.755622
9585.000000;0.755837
9584.000000;0.756063
9583.000000;0.756148
9582.000000;0.755966
9581.000000;0.755632
9580.000000;0.755404
9579.000000;0.755312
9578.000000;0.755140
9577.000000;0.754875
9576.000000;0.754822
9575.000000;0.755150
9574.000000;0.755625
9573.000000;0.755941
9572.000000;0.756037
9571.000000;0.755919
9570.000000;0.755508
9569.000000;0.754859
9568.000000;0.754267
9567.000000;0.753957
9566.000000;0.753872
9565.000000;0.753921
9564.000000;0.754162
9563.000000;0.754549
9562.000000;0.754781
9561.000000;0.754631
9560.000000;0.754231
9559.000000;0.753842
9558.000000;0.753571
9557.000000;0.753475
9556.000000;0.753695
9555.000000;0.754173
9554.000000;0.754461
9553.000000;0.754138
9552.000000;0.753351
9551.000000;0.752686
9550.000000;0.752532
9549.000000;0.752759
9548.000000;0.752957
9547.000000;0.752844
9546.000000;0.752435
9545.000000;0.751969
9544.000000;0.751680
9543.000000;0.751619
9542.000000;0.751704
9541.000000;0.751894
9540.000000;0.752185
9539.000000;0.752448
9538.000000;0.752443
9537.000000;0.752090
9536.000000;0.751582
9535.000000;0.751200
9534.000000;0.751077
9533.000000;0.751164
9532.000000;0.751284
9531.000000;0.751218
9530.000000;0.750848
9529.000000;0.750287
9528.000000;0.749771
9527.000000;0.749433
9526.000000;0.749276
9525.000000;0.749305
9524.000000;0.749502
9523.000000;0.749757
9522.000000;0.749957
9521.000000;0.750128
9520.000000;0.750286
9519.000000;0.750257
9518.000000;0.749876
9517.000000;0.749306
9516.000000;0.748916
9515.000000;0.748840
9514.000000;0.748919
9513.000000;0.749018
9512.000000;0.749112
9511.000000;0.749087
9510.000000;0.748785
9509.000000;0.748309
9508.000000;0.747992
9507.000000;0.747966
9506.000000;0.748021
9505.000000;0.747957
9504.000000;0.747808
9503.000000;0.747636
9502.000000;0.747388
9501.000000;0.747086
9500.000000;0.746928
9499.000000;0.747041
9498.000000;0.747294
9497.000000;0.747479
9496.000000;0.747533
9495.000000;0.747500
9494.000000;0.747403
9493.000000;0.747250
9492.000000;0.747052
9491.000000;0.746834
9490.000000;0.746691
9489.000000;0.746767
9488.000000;0.747026
9487.000000;0.747142
9486.000000;0.746845
9485.000000;0.746310
9484.000000;0.745929
9483.000000;0.745769
9482.000000;0.745546
9481.000000;0.745121
9480.000000;0.744673
9479.000000;0.744338
9478.000000;0.744052
9477.000000;0.743844
9476.000000;0.743967
9475.000000;0.744535
9474.000000;0.745256
9473.000000;0.745702
9472.000000;0.745721
9471.000000;0.745463
9470.000000;0.745177
9469.000000;0.745054
9468.000000;0.745147
9467.000000;0.745355
9466.000000;0.745573
9465.000000;0.745827
9464.000000;0.746108
9463.000000;0.746170
9462.000000;0.745746
9461.000000;0.744952
9460.000000;0.744218
9459.000000;0.743796
9458.000000;0.743587
9457.000000;0.743435
9456.000000;0.743296
9455.000000;0.743102
9454.000000;0.742771
9453.000000;0.742433
9452.000000;0.742364
9451.000000;0.742574
9450.000000;0.742721
9449.000000;0.742573
9448.000000;0.742326
9447.000000;0.742306
9446.000000;0.742552
9445.000000;0.742835
9444.000000;0.742960
9443.000000;0.742890
9442.000000;0.742681
9441.000000;0.742407
9440.000000;0.742108
9439.000000;0.741797
9438.000000;0.741555
9437.000000;0.741541
9436.000000;0.741753
9435.000000;0.741876
9434.000000;0.741600
9433.000000;0.741044
9432.000000;0.740649
9431.000000;0.740687
9430.000000;0.741088
9429.000000;0.741679
9428.000000;0.742279
9427.000000;0.742569
9426.000000;0.742237
9425.000000;0.741399
9424.000000;0.740601
9423.000000;0.740283
9422.000000;0.740399
9421.000000;0.740591
9420.000000;0.740530
9419.000000;0.740057
9418.000000;0.739250
9417.000000;0.738463
9416.000000;0.738104
9415.000000;0.738266
9414.000000;0.738657
9413.000000;0.738938
9412.000000;0.739005
9411.000000;0.738948
9410.000000;0.738924
9409.000000;0.739055
9408.000000;0.739292
9407.000000;0.739395
9406.000000;0.739215
9405.000000;0.738934
9404.000000;0.738817
9403.000000;0.738809
9402.000000;0.738662
9401.000000;0.738375
9400.000000;0.738201
9399.000000;0.738236
9398.000000;0.738328
9397.000000;0.738414
9396.000000;0.738594
9395.000000;0.738810
9394.000000;0.738781
9393.000000;0.738383
9392.000000;0.737836
9391.000000;0.737401
9390.000000;0.737111
9389.000000;0.736875
9388.000000;0.736652
9387.000000;0.736437
9386.000000;0.736281
9385.000000;0.736329
9384.000000;0.736639
9383.000000;0.736976
9382.000000;0.737017
9381.000000;0.736752
9380.000000;0.736428
9379.000000;0.736169
9378.000000;0.735964
9377.000000;0.735974
9376.000000;0.736380
9375.000000;0.736894
9374.000000;0.736884
9373.000000;0.736199
9372.000000;0.735459
9371.000000;0.735288
9370.000000;0.735599
9369.000000;0.735862
9368.000000;0.735786
9367.000000;0.735464
9366.000000;0.735078
9365.000000;0.734743
9364.000000;0.734530
9363.000000;0.734425
9362.000000;0.734344
9361.000000;0.734297
9360.000000;0.734398
9359.000000;0.734613
9358.000000;0.734710
9357.000000;0.734564
9356.000000;0.734331
9355.000000;0.734193
9354.000000;0.734117
9353.000000;0.734007
9352.000000;0.733923
9351.000000;0.733956
9350.000000;0.734047
9349.000000;0.734060
9348.000000;0.733958
9347.000000;0.733786
9346.000000;0.733594
9345.000000;0.733451
9344.000000;0.733392
9343.000000;0.733299
9342.000000;0.732967
9341.000000;0.732383
9340.000000;0.731794
9339.000000;0.731462
9338.000000;0.731495
9337.000000;0.731904
9336.000000;0.732607
9335.000000;0.733289
9334.000000;0.733529
9333.000000;0.733196
9332.000000;0.732580
9331.000000;0.732039
9330.000000;0.731706
9329.000000;0.731593
9328.000000;0.731703
9327.000000;0.731908
9326.000000;0.731929
9325.000000;0.731662
9324.000000;0.731353
9323.000000;0.731310
9322.000000;0.731525
9321.000000;0.731756
9320.000000;0.731837
9319.000000;0.731781
9318.000000;0.731682
9317.000000;0.731632
9316.000000;0.731674
9315.000000;0.731719
9314.000000;0.731572
9313.000000;0.731126
9312.000000;0.730479
9311.000000;0.729839
9310.000000;0.729375
9309.000000;0.729198
9308.000000;0.729332
9307.000000;0.729662
9306.000000;0.729989
9305.000000;0.730189
9304.000000;0.730233
9303.000000;0.730093
9302.000000;0.729799
9301.000000;0.729553
9300.000000;0.729574
9299.000000;0.729759
9298.000000;0.729721
9297.000000;0.729261
9296.000000;0.728611
9295.000000;0.728118
9294.000000;0.727852
9293.000000;0.727647
9292.000000;0.727407
9291.000000;0.727211
9290.000000;0.727186
9289.000000;0.727380
9288.000000;0.727729
9287.000000;0.728076
9286.000000;0.728299
9285.000000;0.728408
9284.000000;0.728479
9283.000000;0.728503
9282.000000;0.728429
9281.000000;0.728331
9280.000000;0.728359
9279.000000;0.728501
9278.000000;0.728558
9277.000000;0.728395
9276.000000;0.728089
9275.000000;0.727757
9274.000000;0.727393
9273.000000;0.726946
9272.000000;0.726451
9271.000000;0.725996
9270.000000;0.725659
9269.000000;0.725508
9268.000000;0.725584
9267.000000;0.725840
9266.000000;0.726179
9265.000000;0.726544
9264.000000;0.726878
9263.000000;0.727016
9262.000000;0.726775
9261.000000;0.726190
9260.000000;0.725527
9259.000000;0.725028
9258.000000;0.724747
9257.000000;0.724638
9256.000000;0.724665
9255.000000;0.724780
9254.000000;0.724919
9253.000000;0.725058
9252.000000;0.725202
9251.000000;0.725311
9250.000000;0.725306
9249.000000;0.725132
9248.000000;0.724775
9247.000000;0.724259
9246.000000;0.723738
9245.000000;0.723487
9244.000000;0.723627
9243.000000;0.723928
9242.000000;0.724044
9241.000000;0.723915
9240.000000;0.723763
9239.000000;0.723747
9238.000000;0.723826
9237.000000;0.723933
9236.000000;0.724037
9235.000000;0.724020
9234.000000;0.723716
9233.000000;0.723161
9232.000000;0.722643
9231.000000;0.722407
9230.000000;0.722439
9229.000000;0.722563
9228.000000;0.722620
9227.000000;0.722531
9226.000000;0.722317
9225.000000;0.722105
9224.000000;0.722023
9223.000000;0.722062
9222.000000;0.722115
9221.000000;0.722105
9220.000000;0.721984
9219.000000;0.721671
9218.000000;0.721178
9217.000000;0.720743
9216.000000;0.720666
9215.000000;0.720984
9214.000000;0.721450
9213.000000;0.721810
9212.000000;0.721952
9211.000000;0.721850
9210.000000;0.721562
9209.000000;0.721297
9208.000000;0.721280
9207.000000;0.721484
9206.000000;0.721637
9205.000000;0.721520
9204.000000;0.721148
9203.000000;0.720676
9202.000000;0.720253
9201.000000;0.719982
9200.000000;0.719872
9199.000000;0.719837
9198.000000;0.719852
9197.000000;0.720023
9196.000000;0.720391
9195.000000;0.720736
9194.000000;0.720777
9193.000000;0.720524
9192.000000;0.720207
9191.000000;0.719907
9190.000000;0.719510
9189.000000;0.718998
9188.000000;0.718543
9187.000000;0.718257
9186.000000;0.718083
9185.000000;0.717974
9184.000000;0.717998
9183.000000;0.718200
9182.000000;0.718505
9181.000000;0.718805
9180.000000;0.719020
9179.000000;0.719079
9178.000000;0.718978
9177.000000;0.718862
9176.000000;0.718896
9175.000000;0.719042
9174.000000;0.719097
9173.000000;0.718930
9172.000000;0.718556
9171.000000;0.718024
9170.000000;0.717400
9169.000000;0.716834
9168.000000;0.716474
9167.000000;0.716323
9166.000000;0.716315
9165.000000;0.716444
9164.000000;0.716669
9163.000000;0.716787
9162.000000;0.716631
9161.000000;0.716340
9160.000000;0.716191
9159.000000;0.716210
9158.000000;0.716168
9157.000000;0.715935
9156.000000;0.715596
9155.000000;0.715251
9154.000000;0.714958
9153.000000;0.714847
9152.000000;0.715028
9151.000000;0.715353
9150.000000;0.715516
9149.000000;0.715419
9148.000000;0.715246
9147.000000;0.715181
9146.000000;0.715272
9145.000000;0.715534
9144.000000;0.715893
9143.000000;0.716037
9142.000000;0.715654
9141.000000;0.714892
9140.000000;0.714283
9139.000000;0.714129
9138.000000;0.714208
9137.000000;0.714170
9136.000000;0.713959
9135.000000;0.713717
9134.000000;0.713546
9133.000000;0.713508
9132.000000;0.713652
9131.000000;0.713868
9130.000000;0.713866
9129.000000;0.713473
9128.000000;0.712865
9127.000000;0.712398
9126.000000;0.712293
9125.000000;0.712521
9124.000000;0.712873
9123.000000;0.713071
9122.000000;0.712969
9121.000000;0.712714
9120.000000;0.712598
9119.000000;0.712734
9118.000000;0.712946
9117.000000;0.713002
9116.000000;0.712803
9115.000000;0.712381
9114.000000;0.711878
9113.000000;0.711548
9112.000000;0.711586
9111.000000;0.711891
9110.000000;0.712146
9109.000000;0.712175
9108.000000;0.712063
9107.000000;0.711941
9106.000000;0.711844
9105.000000;0.711794
9104.000000;0.711823
9103.000000;0.711834
9102.000000;0.711658
9101.000000;0.711319
9100.000000;0.711082
9099.000000;0.711134
9098.000000;0.711361
9097.000000;0.711497
9096.000000;0.711389
9095.000000;0.711068
9094.000000;0.710691
9093.000000;0.710448
9092.000000;0.710394
9091.000000;0.710357
9090.000000;0.710135
9089.000000;0.709801
9088.000000;0.709629
9087.000000;0.709718
9086.000000;0.709872
9085.000000;0.709893
9084.000000;0.709805
9083.000000;0.709726
9082.000000;0.709712
9081.000000;0.709782
9080.000000;0.709945
9079.000000;0.710097
9078.000000;0.710058
9077.000000;0.709778
9076.000000;0.709411
9075.000000;0.709124
9074.000000;0.708951
9073.000000;0.708850
9072.000000;0.708768
9071.000000;0.708617
9070.000000;0.708329
9069.000000;0.707987
9068.000000;0.707787
9067.000000;0.707820
9066.000000;0.707996
9065.000000;0.708188
9064.000000;0.708310
9063.000000;0.708260
9062.000000;0.707962
9061.000000;0.707514
9060.000000;0.707149
9059.000000;0.706997
9058.000000;0.706980
9057.000000;0.706969
9056.000000;0.706912
9055.000000;0.706813
9054.000000;0.706710
9053.000000;0.706693
