Criado como novo conjunto de dados;"2706_e01_daniel.spp","89466.7 Secs"
cm-1;Abs
10000.000000;0.651536
9999.000000;0.651319
9998.000000;0.651279
9997.000000;0.651335
9996.000000;0.651300
9995.000000;0.650875
9994.000000;0.650033
9993.000000;0.649233
9992.000000;0.648991
9991.000000;0.649323
9990.000000;0.649840
9989.000000;0.650266
9988.000000;0.650632
9987.000000;0.651014
9986.000000;0.651304
9985.000000;0.651274
9984.000000;0.650746
9983.000000;0.649768
9982.000000;0.648707
9981.000000;0.648066
9980.000000;0.648086
9979.000000;0.648563
9978.000000;0.649105
9977.000000;0.649473
9976.000000;0.649592
9975.000000;0.649430
9974.000000;0.649035
9973.000000;0.648574
9972.000000;0.648220
9971.000000;0.648040
9970.000000;0.648062
9969.000000;0.648283
9968.000000;0.648545
9967.000000;0.648588
9966.000000;0.648352
9965.000000;0.648068
9964.000000;0.647940
9963.000000;0.647935
9962.000000;0.647986
9961.000000;0.648156
9960.000000;0.648420
9959.000000;0.648478
9958.000000;0.648073
9957.000000;0.647378
9956.000000;0.646845
9955.000000;0.646723
9954.000000;0.646881
9953.000000;0.647057
9952.000000;0.647089
9951.000000;0.646964
9950.000000;0.646753
9949.000000;0.646521
9948.000000;0.646235
9947.000000;0.645848
9946.000000;0.645513
9945.000000;0.645532
9944.000000;0.645999
9943.000000;0.646597
9942.000000;0.646874
9941.000000;0.646644
9940.000000;0.646066
9939.000000;0.645424
9938.000000;0.644944
9937.000000;0.644701
9936.000000;0.644654
9935.000000;0.644765
9934.000000;0.645072
9933.000000;0.645535
9932.000000;0.645884
9931.000000;0.645843
9930.000000;0.645487
9929.000000;0.645121
9928.000000;0.644835
9927.000000;0.644460
9926.000000;0.644001
9925.000000;0.643767
9924.000000;0.643937
9923.000000;0.644267
9922.000000;0.644405
9921.000000;0.644272
9920.000000;0.644010
9919.000000;0.643773
9918.000000;0.643680
9917.000000;0.643762
9916.000000;0.643855
9915.000000;0.643755
9914.000000;0.643564
9913.000000;0.643593
9912.000000;0.643849
9911.000000;0.643904
9910.000000;0.643461
9909.000000;0.642744
9908.000000;0.642147
9907.000000;0.641791
9906.000000;0.641638
9905.000000;0.641753
9904.000000;0.642177
9903.000000;0.642696
9902.000000;0.643004
9901.000000;0.642978
9900.000000;0.642647
9899.000000;0.642092
9898.000000;0.641490
9897.000000;0.641092
9896.000000;0.640982
9895.000000;0.641042
9894.000000;0.641227
9893.000000;0.641601
9892.000000;0.641990
9891.000000;0.641947
9890.000000;0.641332
9889.000000;0.640633
9888.000000;0.640428
9887.000000;0.640767
9886.000000;0.641321
9885.000000;0.641866
9884.000000;0.642289
9883.000000;0.642330
9882.000000;0.641732
9881.000000;0.640611
9880.000000;0.639430
9879.000000;0.638630
9878.000000;0.638414
9877.000000;0.638725
9876.000000;0.639216
9875.000000;0.639432
9874.000000;0.639233
9873.000000;0.638912
9872.000000;0.638736
9871.000000;0.638586
9870.000000;0.638282
9869.000000;0.638020
9868.000000;0.638157
9867.000000;0.638669
9866.000000;0.639126
9865.000000;0.639153
9864.000000;0.638743
9863.000000;0.638194
9862.000000;0.637910
9861.000000;0.638156
9860.000000;0.638775
9859.000000;0.639275
9858.000000;0.639359
9857.000000;0.639246
9856.000000;0.639265
9855.000000;0.639338
9854.000000;0.639137
9853.000000;0.638590
9852.000000;0.637962
9851.000000;0.637498
9850.000000;0.637249
9849.000000;0.637197
9848.000000;0.637297
9847.000000;0.637448
9846.000000;0.637581
9845.000000;0.637731
9844.000000;0.637840
9843.000000;0.637666
9842.000000;0.637094
9841.000000;0.636422
9840.000000;0.636050
9839.000000;0.635995
9838.000000;0.635961
9837.000000;0.635838
9836.000000;0.635831
9835.000000;0.636112
9834.000000;0.636576
9833.000000;0.636975
9832.000000;0.637118
9831.000000;0.636942
9830.000000;0.636580
9829.000000;0.636320
9828.000000;0.636335
9827.000000;0.636446
9826.000000;0.636345
9825.000000;0.636032
9824.000000;0.635833
9823.000000;0.635965
9822.000000;0.636256
9821.000000;0.636348
9820.000000;0.636063
9819.000000;0.635502
9818.000000;0.634903
9817.000000;0.634457
9816.000000;0.634253
9815.000000;0.634319
9814.000000;0.634658
9813.000000;0.635180
9812.000000;0.635671
9811.000000;0.635954
9810.000000;0.636064
9809.000000;0.636111
9808.000000;0.636010
9807.000000;0.635586
9806.000000;0.634974
9805.000000;0.634643
9804.000000;0.634837
9803.000000;0.635235
9802.000000;0.635313
9801.000000;0.634921
9800.000000;0.634308
9799.000000;0.633757
9798.000000;0.633391
9797.000000;0.633209
9796.000000;0.633076
9795.000000;0.632782
9794.000000;0.632279
9793.000000;0.631816
9792.000000;0.631659
9791.000000;0.631768
9790.000000;0.631873
9789.000000;0.631821
9788.000000;0.631689
9787.000000;0.631655
9786.000000;0.631868
9785.000000;0.632351
9784.000000;0.632882
9783.000000;0.633093
9782.000000;0.632836
9781.000000;0.632395
9780.000000;0.632149
9779.000000;0.632114
9778.000000;0.632002
9777.000000;0.631665
9776.000000;0.631298
9775.000000;0.631183
9774.000000;0.631387
9773.000000;0.631728
9772.000000;0.631923
9771.000000;0.631778
9770.000000;0.631336
9769.000000;0.630873
9768.000000;0.630695
9767.000000;0.630916
9766.000000;0.631398
9765.000000;0.631834
9764.000000;0.631897
9763.000000;0.631439
9762.000000;0.630643
9761.000000;0.629908
9760.000000;0.629543
9759.000000;0.629613
9758.000000;0.630005
9757.000000;0.630467
9756.000000;0.630605
9755.000000;0.630106
9754.000000;0.629099
9753.000000;0.628131
9752.000000;0.627673
9751.000000;0.627750
9750.000000;0.628108
9749.000000;0.628556
9748.000000;0.629006
9747.000000;0.629355
9746.000000;0.629509
9745.000000;0.629456
9744.000000;0.629206
9743.000000;0.628773
9742.000000;0.628306
9741.000000;0.628092
9740.000000;0.628276
9739.000000;0.628663
9738.000000;0.628934
9737.000000;0.628978
9736.000000;0.628938
9735.000000;0.628976
9734.000000;0.629103
9733.000000;0.629168
9732.000000;0.628982
9731.000000;0.628530
9730.000000;0.628077
9729.000000;0.627958
9728.000000;0.628225
9727.000000;0.628618
9726.000000;0.628892
9725.000000;0.628976
9724.000000;0.628820
9723.000000;0.628355
9722.000000;0.627720
9721.000000;0.627269
9720.000000;0.627168
9719.000000;0.627179
9718.000000;0.627002
9717.000000;0.626675
9716.000000;0.626462
9715.000000;0.626468
9714.000000;0.626546
9713.000000;0.626516
9712.000000;0.626324
9711.000000;0.626070
9710.000000;0.625965
9709.000000;0.626157
9708.000000;0.626523
9707.000000;0.626735
9706.000000;0.626607
9705.000000;0.626235
9704.000000;0.625740
9703.000000;0.625119
9702.000000;0.624479
9701.000000;0.624160
9700.000000;0.624398
9699.000000;0.624964
9698.000000;0.625360
9697.000000;0.625311
9696.000000;0.624931
9695.000000;0.624506
9694.000000;0.624260
9693.000000;0.624252
9692.000000;0.624350
9691.000000;0.624386
9690.000000;0.624381
9689.000000;0.624511
9688.000000;0.624766
9687.000000;0.624843
9686.000000;0.624519
9685.000000;0.623971
9684.000000;0.623550
9683.000000;0.623381
9682.000000;0.623370
9681.000000;0.623461
9680.000000;0.623661
9679.000000;0.623920
9678.000000;0.624177
9677.000000;0.624476
9676.000000;0.624838
9675.000000;0.625059
9674.000000;0.624855
9673.000000;0.624188
9672.000000;0.623347
9671.000000;0.622711
9670.000000;0.622519
9669.000000;0.622781
9668.000000;0.623229
9667.000000;0.623431
9666.000000;0.623132
9665.000000;0.622507
9664.000000;0.621981
9663.000000;0.621816
9662.000000;0.621955
9661.000000;0.622192
9660.000000;0.622370
9659.000000;0.622415
9658.000000;0.622324
9657.000000;0.622164
9656.000000;0.622041
9655.000000;0.622055
9654.000000;0.622244
9653.000000;0.622534
9652.000000;0.622739
9651.000000;0.622686
9650.000000;0.622376
9649.000000;0.621940
9648.000000;0.621469
9647.000000;0.620987
9646.000000;0.620571
9645.000000;0.620343
9644.000000;0.620308
9643.000000;0.620355
9642.000000;0.620430
9641.000000;0.620559
9640.000000;0.620675
9639.000000;0.620622
9638.000000;0.620411
9637.000000;0.620264
9636.000000;0.620316
9635.000000;0.620443
9634.000000;0.620514
9633.000000;0.620610
9632.000000;0.620847
9631.000000;0.621091
9630.000000;0.621060
9629.000000;0.620642
9628.000000;0.620017
9627.000000;0.619506
9626.000000;0.619358
9625.000000;0.619584
9624.000000;0.619923
9623.000000;0.620053
9622.000000;0.619900
9621.000000;0.619655
9620.000000;0.619477
9619.000000;0.619310
9618.000000;0.619073
9617.000000;0.618841
9616.000000;0.618741
9615.000000;0.618782
9614.000000;0.618885
9613.000000;0.618963
9612.000000;0.618915
9611.000000;0.618663
9610.000000;0.618286
9609.000000;0.617989
9608.000000;0.617858
9607.000000;0.617782
9606.000000;0.617666
9605.000000;0.617583
9604.000000;0.617618
9603.000000;0.617739
9602.000000;0.617893
9601.000000;0.618089
9600.000000;0.618273
9599.000000;0.618271
9598.000000;0.618005
9597.000000;0.617656
9596.000000;0.617487
9595.000000;0.617594
9594.000000;0.617880
9593.000000;0.618174
9592.000000;0.618301
9591.000000;0.618157
9590.000000;0.617778
9589.000000;0.617270
9588.000000;0.616664
9587.000000;0.615997
9586.000000;0.615501
9585.000000;0.615471
9584.000000;0.615871
9583.000000;0.616312
9582.000000;0.616503
9581.000000;0.616521
9580.000000;0.616517
9579.000000;0.616433
9578.000000;0.616171
9577.000000;0.615848
9576.000000;0.615680
9575.000000;0.615738
9574.000000;0.615944
9573.000000;0.616186
9572.000000;0.616334
9571.000000;0.616314
9570.000000;0.616253
9569.000000;0.616353
9568.000000;0.616524
9567.000000;0.616360
9566.000000;0.615657
9565.000000;0.614753
9564.000000;0.614181
9563.000000;0.614185
9562.000000;0.614684
9561.000000;0.615453
9560.000000;0.616138
9559.000000;0.616342
9558.000000;0.616016
9557.000000;0.615604
9556.000000;0.615533
9555.000000;0.615671
9554.000000;0.615535
9553.000000;0.614926
9552.000000;0.614127
9551.000000;0.613545
9550.000000;0.613405
9549.000000;0.613694
9548.000000;0.614161
9547.000000;0.614423
9546.000000;0.614273
9545.000000;0.613890
9544.000000;0.613590
9543.000000;0.613460
9542.000000;0.613382
9541.000000;0.613311
9540.000000;0.613313
9539.000000;0.613391
9538.000000;0.613464
9537.000000;0.613503
9536.000000;0.613516
9535.000000;0.613471
9534.000000;0.613345
9533.000000;0.613207
9532.000000;0.613089
9531.000000;0.612905
9530.000000;0.612629
9529.000000;0.612443
9528.000000;0.612481
9527.000000;0.612541
9526.000000;0.612294
9525.000000;0.611750
9524.000000;0.611274
9523.000000;0.611167
9522.000000;0.611409
9521.000000;0.611791
9520.000000;0.612081
9519.000000;0.612088
9518.000000;0.611789
9517.000000;0.611442
9516.000000;0.611400
9515.000000;0.611737
9514.000000;0.612151
9513.000000;0.612265
9512.000000;0.611936
9511.000000;0.611296
9510.000000;0.610615
9509.000000;0.610141
9508.000000;0.609947
9507.000000;0.609915
9506.000000;0.609913
9505.000000;0.609943
9504.000000;0.610052
9503.000000;0.610189
9502.000000;0.610304
9501.000000;0.610508
9500.000000;0.610956
9499.000000;0.611560
9498.000000;0.611984
9497.000000;0.611951
9496.000000;0.611487
9495.000000;0.610863
9494.000000;0.610378
9493.000000;0.610166
9492.000000;0.610112
9491.000000;0.609969
9490.000000;0.609652
9489.000000;0.609362
9488.000000;0.609334
9487.000000;0.609518
9486.000000;0.609634
9485.000000;0.609503
9484.000000;0.609173
9483.000000;0.608768
9482.000000;0.608379
9481.000000;0.608133
9480.000000;0.608171
9479.000000;0.608490
9478.000000;0.608888
9477.000000;0.609139
9476.000000;0.609174
9475.000000;0.609057
9474.000000;0.608858
9473.000000;0.608628
9472.000000;0.608455
9471.000000;0.608450
9470.000000;0.608634
9469.000000;0.608850
9468.000000;0.608867
9467.000000;0.608606
9466.000000;0.608235
9465.000000;0.607974
9464.000000;0.607846
9463.000000;0.607738
9462.000000;0.607640
9461.000000;0.607669
9460.000000;0.607817
9459.000000;0.607879
9458.000000;0.607726
9457.000000;0.607504
9456.000000;0.607429
9455.000000;0.607504
9454.000000;0.607562
9453.000000;0.607522
9452.000000;0.607423
9451.000000;0.607295
9450.000000;0.607126
9449.000000;0.606954
9448.000000;0.606832
9447.000000;0.606735
9446.000000;0.606609
9445.000000;0.606490
9444.000000;0.606468
9443.000000;0.606522
9442.000000;0.606507
9441.000000;0.606334
9440.000000;0.606093
9439.000000;0.605966
9438.000000;0.606047
9437.000000;0.606276
9436.000000;0.606493
9435.000000;0.606579
9434.000000;0.606551
9433.000000;0.606491
9432.000000;0.606395
9431.000000;0.606158
9430.000000;0.605768
9429.000000;0.605400
9428.000000;0.605237
9427.000000;0.605245
9426.000000;0.605222
9425.000000;0.605043
9424.000000;0.604771
9423.000000;0.604547
9422.000000;0.604455
9421.000000;0.604497
9420.000000;0.604612
9419.000000;0.604716
9418.000000;0.604763
9417.000000;0.604769
9416.000000;0.604745
9415.000000;0.604633
9414.000000;0.604369
9413.000000;0.604017
9412.000000;0.603776
9411.000000;0.603812
9410.000000;0.604071
9409.000000;0.604296
9408.000000;0.604243
9407.000000;0.603911
9406.000000;0.603519
9405.000000;0.603271
9404.000000;0.603179
9403.000000;0.603165
9402.000000;0.603213
9401.000000;0.603340
9400.000000;0.603456
9399.000000;0.603404
9398.000000;0.603154
9397.000000;0.602827
9396.000000;0.602551
9395.000000;0.602388
9394.000000;0.602399
9393.000000;0.602616
9392.000000;0.602906
9391.000000;0.603027
9390.000000;0.602894
9389.000000;0.602690
9388.000000;0.602617
9387.000000;0.602661
9386.000000;0.602674
9385.000000;0.602595
9384.000000;0.602475
9383.000000;0.602353
9382.000000;0.602230
9381.000000;0.602140
9380.000000;0.602154
9379.000000;0.602319
9378.000000;0.602618
9377.000000;0.602949
9376.000000;0.603110
9375.000000;0.602894
9374.000000;0.602278
9373.000000;0.601488
9372.000000;0.600831
9371.000000;0.600480
9370.000000;0.600433
9369.000000;0.600616
9368.000000;0.600955
9367.000000;0.601370
9366.000000;0.601767
9365.000000;0.602028
9364.000000;0.602023
9363.000000;0.601689
9362.000000;0.601125
9361.000000;0.600582
9360.000000;0.600286
9359.000000;0.600284
9358.000000;0.600451
9357.000000;0.600644
9356.000000;0.600815
9355.000000;0.600981
9354.000000;0.601091
9353.000000;0.600982
9352.000000;0.600546
9351.000000;0.599953
9350.000000;0.599573
9349.000000;0.599583
9348.000000;0.599769
9347.000000;0.599812
9346.000000;0.599668
9345.000000;0.599534
9344.000000;0.599503
9343.000000;0.599478
9342.000000;0.599381
9341.000000;0.599264
9340.000000;0.599184
9339.000000;0.599134
9338.000000;0.599111
9337.000000;0.599100
9336.000000;0.598983
9335.000000;0.598653
9334.000000;0.598245
9333.000000;0.598077
9332.000000;0.598276
9331.000000;0.598617
9330.000000;0.598810
9329.000000;0.598805
9328.000000;0.598725
9327.000000;0.598633
9326.000000;0.598514
9325.000000;0.598383
9324.000000;0.598297
9323.000000;0.598291
9322.000000;0.598361
9321.000000;0.598471
9320.000000;0.598538
9319.000000;0.598473
9318.000000;0.598278
9317.000000;0.598016
9316.000000;0.597708
9315.000000;0.597338
9314.000000;0.596987
9313.000000;0.596832
9312.000000;0.596963
9311.000000;0.597265
9310.000000;0.597548
9309.000000;0.597699
9308.000000;0.597710
9307.000000;0.597653
9306.000000;0.597654
9305.000000;0.597765
9304.000000;0.597849
9303.000000;0.597692
9302.000000;0.597267
9301.000000;0.596776
9300.000000;0.596418
9299.000000;0.596216
9298.000000;0.596100
9297.000000;0.596011
9296.000000;0.595877
9295.000000;0.595641
9294.000000;0.595368
9293.000000;0.595203
9292.000000;0.595174
9291.000000;0.595162
9290.000000;0.595106
9289.000000;0.595109
9288.000000;0.595249
9287.000000;0.595427
9286.000000;0.595490
9285.000000;0.595388
9284.000000;0.595156
9283.000000;0.594834
9282.000000;0.594523
9281.000000;0.594382
9280.000000;0.594475
9279.000000;0.594702
9278.000000;0.594937
9277.000000;0.595148
9276.000000;0.595284
9275.000000;0.595171
9274.000000;0.594690
9273.000000;0.593987
9272.000000;0.593386
9271.000000;0.593098
9270.000000;0.593100
9269.000000;0.593266
9268.000000;0.593499
9267.000000;0.593743
9266.000000;0.593936
9265.000000;0.594005
9264.000000;0.593921
9263.000000;0.593745
9262.000000;0.593611
9261.000000;0.593599
9260.000000;0.593637
9259.000000;0.593602
9258.000000;0.593489
9257.000000;0.593405
9256.000000;0.593376
9255.000000;0.593287
9254.000000;0.593026
9253.000000;0.592629
9252.000000;0.592242
9251.000000;0.592006
9250.000000;0.592018
9249.000000;0.592281
9248.000000;0.592661
9247.000000;0.592957
9246.000000;0.593060
9245.000000;0.592995
9244.000000;0.592804
9243.000000;0.592494
9242.000000;0.592124
9241.000000;0.591851
9240.000000;0.591797
9239.000000;0.591918
9238.000000;0.592051
9237.000000;0.592054
9236.000000;0.591906
9235.000000;0.591710
9234.000000;0.591616
9233.000000;0.591678
9232.000000;0.591788
9231.000000;0.591802
9230.000000;0.591700
9229.000000;0.591552
9228.000000;0.591364
9227.000000;0.591072
9226.000000;0.590702
9225.000000;0.590436
9224.000000;0.590459
9223.000000;0.590789
9222.000000;0.591234
9221.000000;0.591500
9220.000000;0.591399
9219.000000;0.591023
9218.000000;0.590663
9217.000000;0.590488
9216.000000;0.590389
9215.000000;0.590262
9214.000000;0.590272
9213.000000;0.590630
9212.000000;0.591183
9211.000000;0.591474
9210.000000;0.591237
9209.000000;0.590620
9208.000000;0.589925
9207.000000;0.589341
9206.000000;0.588980
9205.000000;0.588929
9204.000000;0.589141
9203.000000;0.589426
9202.000000;0.589638
9201.000000;0.589757
9200.000000;0.589769
9199.000000;0.589628
9198.000000;0.589409
9197.000000;0.589312
9196.000000;0.589427
9195.000000;0.589605
9194.000000;0.589636
9193.000000;0.589437
9192.000000;0.589037
9191.000000;0.588523
9190.000000;0.588085
9189.000000;0.587929
9188.000000;0.588047
9187.000000;0.588198
9186.000000;0.588196
9185.000000;0.588092
9184.000000;0.588014
9183.000000;0.587982
9182.000000;0.587972
9181.000000;0.588032
9180.000000;0.588188
9179.000000;0.588344
9178.000000;0.588399
9177.000000;0.588382
9176.000000;0.588389
9175.000000;0.588442
9174.000000;0.588506
9173.000000;0.588575
9172.000000;0.588660
9171.000000;0.588730
9170.000000;0.588741
9169.000000;0.588658
9168.000000;0.588441
9167.000000;0.588080
9166.000000;0.587662
9165.000000;0.587326
9164.000000;0.587110
9163.000000;0.586955
9162.000000;0.586857
9161.000000;0.586903
9160.000000;0.587097
9159.000000;0.587283
9158.000000;0.587317
9157.000000;0.587204
9156.000000;0.587024
9155.000000;0.586816
9154.000000;0.586622
9153.000000;0.586521
9152.000000;0.586549
9151.000000;0.586641
9150.000000;0.586702
9149.000000;0.586684
9148.000000;0.586559
9147.000000;0.586343
9146.000000;0.586163
9145.000000;0.586174
9144.000000;0.586354
9143.000000;0.586478
9142.000000;0.586369
9141.000000;0.586072
9140.000000;0.585751
9139.000000;0.585530
9138.000000;0.585479
9137.000000;0.585616
9136.000000;0.585844
9135.000000;0.585979
9134.000000;0.585926
9133.000000;0.585764
9132.000000;0.585618
9131.000000;0.585532
9130.000000;0.585480
9129.000000;0.585413
9128.000000;0.585268
9127.000000;0.585026
9126.000000;0.584796
9125.000000;0.584712
9124.000000;0.584714
9123.000000;0.584586
9122.000000;0.584257
9121.000000;0.583923
9120.000000;0.583792
9119.000000;0.583845
9118.000000;0.583940
9117.000000;0.584026
9116.000000;0.584138
9115.000000;0.584262
9114.000000;0.584332
9113.000000;0.584324
9112.000000;0.584253
9111.000000;0.584130
9110.000000;0.583963
9109.000000;0.583767
9108.000000;0.583570
9107.000000;0.583425
9106.000000;0.583392
9105.000000;0.583427
9104.000000;0.583332
9103.000000;0.582952
9102.000000;0.582418
9101.000000;0.582050
9100.000000;0.582019
9099.000000;0.582247
9098.000000;0.582595
9097.000000;0.582964
9096.000000;0.583190
9095.000000;0.583075
9094.000000;0.582648
9093.000000;0.582202
9092.000000;0.581982
9091.000000;0.581983
9090.000000;0.582119
9089.000000;0.582381
9088.000000;0.582702
9087.000000;0.582855
9086.000000;0.582683
9085.000000;0.582336
9084.000000;0.582130
9083.000000;0.582203
9082.000000;0.582414
9081.000000;0.582508
9080.000000;0.582319
9079.000000;0.581888
9078.000000;0.581463
9077.000000;0.581271
9076.000000;0.581246
9075.000000;0.581113
9074.000000;0.580784
9073.000000;0.580515
9072.000000;0.580563
9071.000000;0.580866
9070.000000;0.581176
9069.000000;0.581377
9068.000000;0.581508
9067.000000;0.581585
9066.000000;0.581580
9065.000000;0.581514
9064.000000;0.581417
9063.000000;0.581250
9062.000000;0.581003
9061.000000;0.580798
9060.000000;0.580751
9059.000000;0.580780
9058.000000;0.580692
9057.000000;0.580455
9056.000000;0.580255
9055.000000;0.580278
9054.000000;0.580509
9053.000000;0.580748
