Criado como novo conjunto de dados;"2706_e01_daniel.spp","32403.7 Secs"
cm-1;Abs
10000.000000;0.785949
9999.000000;0.785893
9998.000000;0.785838
9997.000000;0.785782
9996.000000;0.785728
9995.000000;0.785671
9994.000000;0.785618
9993.000000;0.785558
9992.000000;0.785518
9991.000000;0.784961
9990.000000;0.784156
9989.000000;0.783482
9988.000000;0.783226
9987.000000;0.783538
9986.000000;0.784237
9985.000000;0.784771
9984.000000;0.784649
9983.000000;0.783997
9982.000000;0.783503
9981.000000;0.783709
9980.000000;0.784406
9979.000000;0.784849
9978.000000;0.784539
9977.000000;0.783723
9976.000000;0.783121
9975.000000;0.783242
9974.000000;0.784007
9973.000000;0.784924
9972.000000;0.785484
9971.000000;0.785394
9970.000000;0.784642
9969.000000;0.783503
9968.000000;0.782427
9967.000000;0.781716
9966.000000;0.781266
9965.000000;0.780746
9964.000000;0.780070
9963.000000;0.779545
9962.000000;0.779509
9961.000000;0.779914
9960.000000;0.780387
9959.000000;0.780618
9958.000000;0.780583
9957.000000;0.780491
9956.000000;0.780595
9955.000000;0.780998
9954.000000;0.781538
9953.000000;0.781898
9952.000000;0.781915
9951.000000;0.781748
9950.000000;0.781621
9949.000000;0.781449
9948.000000;0.780904
9947.000000;0.779906
9946.000000;0.778902
9945.000000;0.778492
9944.000000;0.778823
9943.000000;0.779469
9942.000000;0.779886
9941.000000;0.779873
9940.000000;0.779591
9939.000000;0.779301
9938.000000;0.779186
9937.000000;0.779320
9936.000000;0.779627
9935.000000;0.779858
9934.000000;0.779762
9933.000000;0.779349
9932.000000;0.778918
9931.000000;0.778791
9930.000000;0.779020
9929.000000;0.779341
9928.000000;0.779392
9927.000000;0.779037
9926.000000;0.778561
9925.000000;0.778458
9924.000000;0.778907
9923.000000;0.779487
9922.000000;0.779589
9921.000000;0.779085
9920.000000;0.778405
9919.000000;0.777947
9918.000000;0.777670
9917.000000;0.777353
9916.000000;0.776995
9915.000000;0.776806
9914.000000;0.776930
9913.000000;0.777342
9912.000000;0.777865
9911.000000;0.778208
9910.000000;0.778128
9909.000000;0.777698
9908.000000;0.777228
9907.000000;0.776821
9906.000000;0.776245
9905.000000;0.775407
9904.000000;0.774695
9903.000000;0.774550
9902.000000;0.774877
9901.000000;0.775189
9900.000000;0.775188
9899.000000;0.774915
9898.000000;0.774462
9897.000000;0.773941
9896.000000;0.773663
9895.000000;0.773943
9894.000000;0.774669
9893.000000;0.775371
9892.000000;0.775767
9891.000000;0.775911
9890.000000;0.775827
9889.000000;0.775397
9888.000000;0.774754
9887.000000;0.774376
9886.000000;0.774532
9885.000000;0.774900
9884.000000;0.774917
9883.000000;0.774367
9882.000000;0.773456
9881.000000;0.772524
9880.000000;0.771873
9879.000000;0.771731
9878.000000;0.772139
9877.000000;0.772922
9876.000000;0.773840
9875.000000;0.774689
9874.000000;0.775221
9873.000000;0.775191
9872.000000;0.774609
9871.000000;0.773789
9870.000000;0.773051
9869.000000;0.772479
9868.000000;0.772049
9867.000000;0.771813
9866.000000;0.771850
9865.000000;0.772150
9864.000000;0.772602
9863.000000;0.772968
9862.000000;0.772872
9861.000000;0.772131
9860.000000;0.771176
9859.000000;0.770821
9858.000000;0.771377
9857.000000;0.772237
9856.000000;0.772574
9855.000000;0.772290
9854.000000;0.771946
9853.000000;0.771927
9852.000000;0.772066
9851.000000;0.772057
9850.000000;0.771882
9849.000000;0.771716
9848.000000;0.771637
9847.000000;0.771566
9846.000000;0.771377
9845.000000;0.771024
9844.000000;0.770652
9843.000000;0.770564
9842.000000;0.770942
9841.000000;0.771570
9840.000000;0.771972
9839.000000;0.771867
9838.000000;0.771406
9837.000000;0.770949
9836.000000;0.770729
9835.000000;0.770753
9834.000000;0.770877
9833.000000;0.770930
9832.000000;0.770823
9831.000000;0.770621
9830.000000;0.770472
9829.000000;0.770448
9828.000000;0.770480
9827.000000;0.770448
9826.000000;0.770281
9825.000000;0.769982
9824.000000;0.769638
9823.000000;0.769410
9822.000000;0.769426
9821.000000;0.769639
9820.000000;0.769846
9819.000000;0.769861
9818.000000;0.769660
9817.000000;0.769333
9816.000000;0.768979
9815.000000;0.768645
9814.000000;0.768332
9813.000000;0.768037
9812.000000;0.767826
9811.000000;0.767859
9810.000000;0.768240
9809.000000;0.768797
9808.000000;0.769096
9807.000000;0.768797
9806.000000;0.767988
9805.000000;0.767069
9804.000000;0.766350
9803.000000;0.765881
9802.000000;0.765679
9801.000000;0.765891
9800.000000;0.766572
9799.000000;0.767393
9798.000000;0.767827
9797.000000;0.767667
9796.000000;0.767194
9795.000000;0.766779
9794.000000;0.766485
9793.000000;0.766135
9792.000000;0.765652
9791.000000;0.765199
9790.000000;0.765019
9789.000000;0.765255
9788.000000;0.765850
9787.000000;0.766540
9786.000000;0.766978
9785.000000;0.766983
9784.000000;0.766665
9783.000000;0.766300
9782.000000;0.766134
9781.000000;0.766290
9780.000000;0.766703
9779.000000;0.767045
9778.000000;0.766864
9777.000000;0.766031
9776.000000;0.764988
9775.000000;0.764366
9774.000000;0.764389
9773.000000;0.764749
9772.000000;0.765019
9771.000000;0.765001
9770.000000;0.764714
9769.000000;0.764285
9768.000000;0.763938
9767.000000;0.763921
9766.000000;0.764287
9765.000000;0.764836
9764.000000;0.765331
9763.000000;0.765696
9762.000000;0.765919
9761.000000;0.765859
9760.000000;0.765337
9759.000000;0.764449
9758.000000;0.763655
9757.000000;0.763430
9756.000000;0.763776
9755.000000;0.764158
9754.000000;0.764004
9753.000000;0.763248
9752.000000;0.762318
9751.000000;0.761622
9750.000000;0.761237
9749.000000;0.761098
9748.000000;0.761271
9747.000000;0.761840
9746.000000;0.762632
9745.000000;0.763248
9744.000000;0.763383
9743.000000;0.763047
9742.000000;0.762517
9741.000000;0.762168
9740.000000;0.762241
9739.000000;0.762613
9738.000000;0.762834
9737.000000;0.762549
9736.000000;0.761905
9735.000000;0.761407
9734.000000;0.761395
9733.000000;0.761748
9732.000000;0.762044
9731.000000;0.761897
9730.000000;0.761217
9729.000000;0.760316
9728.000000;0.759736
9727.000000;0.759799
9726.000000;0.760293
9725.000000;0.760696
9724.000000;0.760689
9723.000000;0.760342
9722.000000;0.759848
9721.000000;0.759312
9720.000000;0.758818
9719.000000;0.758514
9718.000000;0.758516
9717.000000;0.758810
9716.000000;0.759290
9715.000000;0.759767
9714.000000;0.759970
9713.000000;0.759677
9712.000000;0.758941
9711.000000;0.758120
9710.000000;0.757611
9709.000000;0.757603
9708.000000;0.758030
9707.000000;0.758665
9706.000000;0.759236
9705.000000;0.759571
9704.000000;0.759666
9703.000000;0.759548
9702.000000;0.759155
9701.000000;0.758439
9700.000000;0.757594
9699.000000;0.756997
9698.000000;0.756881
9697.000000;0.757140
9696.000000;0.757458
9695.000000;0.757562
9694.000000;0.757402
9693.000000;0.757178
9692.000000;0.757174
9691.000000;0.757423
9690.000000;0.757615
9689.000000;0.757493
9688.000000;0.757276
9687.000000;0.757468
9686.000000;0.758241
9685.000000;0.759197
9684.000000;0.759764
9683.000000;0.759647
9682.000000;0.758892
9681.000000;0.757776
9680.000000;0.756757
9679.000000;0.756286
9678.000000;0.756458
9677.000000;0.756918
9676.000000;0.757210
9675.000000;0.757168
9674.000000;0.756911
9673.000000;0.756597
9672.000000;0.756316
9671.000000;0.756117
9670.000000;0.755973
9669.000000;0.755757
9668.000000;0.755374
9667.000000;0.754943
9666.000000;0.754770
9665.000000;0.755103
9664.000000;0.755900
9663.000000;0.756790
9662.000000;0.757295
9661.000000;0.757182
9660.000000;0.756622
9659.000000;0.756010
9658.000000;0.755622
9657.000000;0.755500
9656.000000;0.755583
9655.000000;0.755796
9654.000000;0.756027
9653.000000;0.756135
9652.000000;0.756058
9651.000000;0.755800
9650.000000;0.755325
9649.000000;0.754582
9648.000000;0.753722
9647.000000;0.753174
9646.000000;0.753344
9645.000000;0.754185
9644.000000;0.755121
9643.000000;0.755488
9642.000000;0.755098
9641.000000;0.754349
9640.000000;0.753775
9639.000000;0.753514
9638.000000;0.753332
9637.000000;0.753092
9636.000000;0.752981
9635.000000;0.753171
9634.000000;0.753469
9633.000000;0.753496
9632.000000;0.753148
9631.000000;0.752678
9630.000000;0.752358
9629.000000;0.752230
9628.000000;0.752157
9627.000000;0.751998
9626.000000;0.751726
9625.000000;0.751490
9624.000000;0.751520
9623.000000;0.751859
9622.000000;0.752256
9621.000000;0.752418
9620.000000;0.752321
9619.000000;0.752129
9618.000000;0.751923
9617.000000;0.751699
9616.000000;0.751539
9615.000000;0.751528
9614.000000;0.751543
9613.000000;0.751356
9612.000000;0.750972
9611.000000;0.750628
9610.000000;0.750473
9609.000000;0.750439
9608.000000;0.750460
9607.000000;0.750552
9606.000000;0.750648
9605.000000;0.750575
9604.000000;0.750285
9603.000000;0.749920
9602.000000;0.749602
9601.000000;0.749337
9600.000000;0.749186
9599.000000;0.749267
9598.000000;0.749526
9597.000000;0.749729
9596.000000;0.749791
9595.000000;0.749904
9594.000000;0.750201
9593.000000;0.750483
9592.000000;0.750462
9591.000000;0.750098
9590.000000;0.749541
9589.000000;0.748927
9588.000000;0.748437
9587.000000;0.748397
9586.000000;0.749023
9585.000000;0.750047
9584.000000;0.750815
9583.000000;0.750831
9582.000000;0.750106
9581.000000;0.749016
9580.000000;0.747966
9579.000000;0.747241
9578.000000;0.746995
9577.000000;0.747239
9576.000000;0.747825
9575.000000;0.748491
9574.000000;0.748968
9573.000000;0.749090
9572.000000;0.748865
9571.000000;0.748471
9570.000000;0.748154
9569.000000;0.748081
9568.000000;0.748215
9567.000000;0.748317
9566.000000;0.748134
9565.000000;0.747640
9564.000000;0.747075
9563.000000;0.746720
9562.000000;0.746652
9561.000000;0.746747
9560.000000;0.746835
9559.000000;0.746817
9558.000000;0.746683
9557.000000;0.746504
9556.000000;0.746394
9555.000000;0.746406
9554.000000;0.746499
9553.000000;0.746607
9552.000000;0.746686
9551.000000;0.746680
9550.000000;0.746564
9549.000000;0.746467
9548.000000;0.746604
9547.000000;0.746976
9546.000000;0.747275
9545.000000;0.747211
9544.000000;0.746826
9543.000000;0.746356
9542.000000;0.745913
9541.000000;0.745481
9540.000000;0.745103
9539.000000;0.744839
9538.000000;0.744624
9537.000000;0.744381
9536.000000;0.744211
9535.000000;0.744268
9534.000000;0.744481
9533.000000;0.744626
9532.000000;0.744622
9531.000000;0.744564
9530.000000;0.744482
9529.000000;0.744327
9528.000000;0.744176
9527.000000;0.744229
9526.000000;0.744568
9525.000000;0.745097
9524.000000;0.745709
9523.000000;0.746294
9522.000000;0.746619
9521.000000;0.746431
9520.000000;0.745752
9519.000000;0.744877
9518.000000;0.744056
9517.000000;0.743375
9516.000000;0.742934
9515.000000;0.742866
9514.000000;0.743119
9513.000000;0.743411
9512.000000;0.743482
9511.000000;0.743264
9510.000000;0.742849
9509.000000;0.742491
9508.000000;0.742526
9507.000000;0.743012
9506.000000;0.743481
9505.000000;0.743402
9504.000000;0.742893
9503.000000;0.742608
9502.000000;0.742870
9501.000000;0.743322
9500.000000;0.743536
9499.000000;0.743558
9498.000000;0.743614
9497.000000;0.743647
9496.000000;0.743476
9495.000000;0.743154
9494.000000;0.742842
9493.000000;0.742498
9492.000000;0.742005
9491.000000;0.741483
9490.000000;0.741213
9489.000000;0.741292
9488.000000;0.741560
9487.000000;0.741783
9486.000000;0.741776
9485.000000;0.741474
9484.000000;0.741041
9483.000000;0.740802
9482.000000;0.740889
9481.000000;0.741046
9480.000000;0.740947
9479.000000;0.740583
9478.000000;0.740175
9477.000000;0.739832
9476.000000;0.739530
9475.000000;0.739328
9474.000000;0.739381
9473.000000;0.739717
9472.000000;0.740135
9471.000000;0.740340
9470.000000;0.740136
9469.000000;0.739595
9468.000000;0.739099
9467.000000;0.739055
9466.000000;0.739450
9465.000000;0.739793
9464.000000;0.739699
9463.000000;0.739362
9462.000000;0.739282
9461.000000;0.739599
9460.000000;0.739965
9459.000000;0.740009
9458.000000;0.739707
9457.000000;0.739259
9456.000000;0.738816
9455.000000;0.738424
9454.000000;0.738112
9453.000000;0.737954
9452.000000;0.738059
9451.000000;0.738457
9450.000000;0.738954
9449.000000;0.739187
9448.000000;0.738952
9447.000000;0.738453
9446.000000;0.738107
9445.000000;0.738112
9444.000000;0.738305
9443.000000;0.738415
9442.000000;0.738325
9441.000000;0.738077
9440.000000;0.737762
9439.000000;0.737488
9438.000000;0.737365
9437.000000;0.737435
9436.000000;0.737614
9435.000000;0.737770
9434.000000;0.737855
9433.000000;0.737934
9432.000000;0.738046
9431.000000;0.738101
9430.000000;0.737982
9429.000000;0.737748
9428.000000;0.737614
9427.000000;0.737657
9426.000000;0.737666
9425.000000;0.737395
9424.000000;0.736891
9423.000000;0.736433
9422.000000;0.736215
9421.000000;0.736249
9420.000000;0.736491
9419.000000;0.736832
9418.000000;0.737002
9417.000000;0.736743
9416.000000;0.736147
9415.000000;0.735599
9414.000000;0.735322
9413.000000;0.735200
9412.000000;0.735117
9411.000000;0.735180
9410.000000;0.735433
9409.000000;0.735595
9408.000000;0.735361
9407.000000;0.734844
9406.000000;0.734464
9405.000000;0.734462
9404.000000;0.734728
9403.000000;0.735069
9402.000000;0.735421
9401.000000;0.735793
9400.000000;0.736129
9399.000000;0.736320
9398.000000;0.736254
9397.000000;0.735877
9396.000000;0.735252
9395.000000;0.734589
9394.000000;0.734138
9393.000000;0.734022
9392.000000;0.734175
9391.000000;0.734415
9390.000000;0.734577
9389.000000;0.734609
9388.000000;0.734550
9387.000000;0.734402
9386.000000;0.734088
9385.000000;0.733618
9384.000000;0.733217
9383.000000;0.733126
9382.000000;0.733289
9381.000000;0.733379
9380.000000;0.733168
9379.000000;0.732719
9378.000000;0.732233
9377.000000;0.731895
9376.000000;0.731889
9375.000000;0.732297
9374.000000;0.732890
9373.000000;0.733204
9372.000000;0.733019
9371.000000;0.732592
9370.000000;0.732297
9369.000000;0.732203
9368.000000;0.732153
9367.000000;0.732074
9366.000000;0.731989
9365.000000;0.731833
9364.000000;0.731518
9363.000000;0.731131
9362.000000;0.730881
9361.000000;0.730842
9360.000000;0.730917
9359.000000;0.731020
9358.000000;0.731181
9357.000000;0.731438
9356.000000;0.731741
9355.000000;0.731970
9354.000000;0.732012
9353.000000;0.731860
9352.000000;0.731663
9351.000000;0.731585
9350.000000;0.731576
9349.000000;0.731395
9348.000000;0.730951
9347.000000;0.730477
9346.000000;0.730261
9345.000000;0.730296
9344.000000;0.730345
9343.000000;0.730268
9342.000000;0.730132
9341.000000;0.730068
9340.000000;0.730160
9339.000000;0.730405
9338.000000;0.730688
9337.000000;0.730819
9336.000000;0.730746
9335.000000;0.730648
9334.000000;0.730710
9333.000000;0.730851
9332.000000;0.730792
9331.000000;0.730373
9330.000000;0.729692
9329.000000;0.728994
9328.000000;0.728534
9327.000000;0.728476
9326.000000;0.728795
9325.000000;0.729287
9324.000000;0.729722
9323.000000;0.729956
9322.000000;0.729880
9321.000000;0.729417
9320.000000;0.728702
9319.000000;0.728110
9318.000000;0.727932
9317.000000;0.728084
9316.000000;0.728288
9315.000000;0.728422
9314.000000;0.728515
9313.000000;0.728525
9312.000000;0.728374
9311.000000;0.728161
9310.000000;0.728098
9309.000000;0.728226
9308.000000;0.728392
9307.000000;0.728521
9306.000000;0.728688
9305.000000;0.728908
9304.000000;0.729055
9303.000000;0.729055
9302.000000;0.728983
9301.000000;0.728885
9300.000000;0.728656
9299.000000;0.728192
9298.000000;0.727578
9297.000000;0.727039
9296.000000;0.726770
9295.000000;0.726809
9294.000000;0.726990
9293.000000;0.727007
9292.000000;0.726668
9291.000000;0.726107
9290.000000;0.725670
9289.000000;0.725577
9288.000000;0.725792
9287.000000;0.726187
9286.000000;0.726660
9285.000000;0.727049
9284.000000;0.727134
9283.000000;0.726851
9282.000000;0.726414
9281.000000;0.726117
9280.000000;0.726049
9279.000000;0.726073
9278.000000;0.726010
9277.000000;0.725782
9276.000000;0.725457
9275.000000;0.725193
9274.000000;0.725106
9273.000000;0.725144
9272.000000;0.725137
9271.000000;0.725000
9270.000000;0.724818
9269.000000;0.724713
9268.000000;0.724701
9267.000000;0.724720
9266.000000;0.724706
9265.000000;0.724584
9264.000000;0.724302
9263.000000;0.723940
9262.000000;0.723707
9261.000000;0.723741
9260.000000;0.723943
9259.000000;0.724092
9258.000000;0.724092
9257.000000;0.724018
9256.000000;0.723970
9255.000000;0.723966
9254.000000;0.723959
9253.000000;0.723900
9252.000000;0.723772
9251.000000;0.723618
9250.000000;0.723503
9249.000000;0.723410
9248.000000;0.723218
9247.000000;0.722862
9246.000000;0.722470
9245.000000;0.722263
9244.000000;0.722306
9243.000000;0.722472
9242.000000;0.722648
9241.000000;0.722870
9240.000000;0.723197
9239.000000;0.723533
9238.000000;0.723694
9237.000000;0.723626
9236.000000;0.723485
9235.000000;0.723453
9234.000000;0.723526
9233.000000;0.723506
9232.000000;0.723197
9231.000000;0.722595
9230.000000;0.721887
9229.000000;0.721274
9228.000000;0.720840
9227.000000;0.720595
9226.000000;0.720581
9225.000000;0.720844
9224.000000;0.721271
9223.000000;0.721564
9222.000000;0.721467
9221.000000;0.721012
9220.000000;0.720495
9219.000000;0.720219
9218.000000;0.720294
9217.000000;0.720622
9216.000000;0.720993
9215.000000;0.721197
9214.000000;0.721158
9213.000000;0.720994
9212.000000;0.720889
9211.000000;0.720856
9210.000000;0.720713
9209.000000;0.720316
9208.000000;0.719766
9207.000000;0.719327
9206.000000;0.719206
9205.000000;0.719454
9204.000000;0.719989
9203.000000;0.720622
9202.000000;0.721112
9201.000000;0.721294
9200.000000;0.721176
9199.000000;0.720872
9198.000000;0.720473
9197.000000;0.720059
9196.000000;0.719742
9195.000000;0.719597
9194.000000;0.719557
9193.000000;0.719480
9192.000000;0.719342
9191.000000;0.719249
9190.000000;0.719262
9189.000000;0.719296
9188.000000;0.719233
9187.000000;0.719069
9186.000000;0.718900
9185.000000;0.718810
9184.000000;0.718783
9183.000000;0.718715
9182.000000;0.718503
9181.000000;0.718183
9180.000000;0.717938
9179.000000;0.717930
9178.000000;0.718132
9177.000000;0.718380
9176.000000;0.718573
9175.000000;0.718719
9174.000000;0.718796
9173.000000;0.718697
9172.000000;0.718340
9171.000000;0.717778
9170.000000;0.717166
9169.000000;0.716715
9168.000000;0.716658
9167.000000;0.717099
9166.000000;0.717811
9165.000000;0.718308
9164.000000;0.718248
9163.000000;0.717750
9162.000000;0.717233
9161.000000;0.716994
9160.000000;0.717011
9159.000000;0.717078
9158.000000;0.717024
9157.000000;0.716831
9156.000000;0.716633
9155.000000;0.716610
9154.000000;0.716818
9153.000000;0.717103
9152.000000;0.717239
9151.000000;0.717145
9150.000000;0.716909
9149.000000;0.716620
9148.000000;0.716253
9147.000000;0.715761
9146.000000;0.715219
9145.000000;0.714826
9144.000000;0.714733
9143.000000;0.714884
9142.000000;0.715044
9141.000000;0.715006
9140.000000;0.714783
9139.000000;0.714593
9138.000000;0.714639
9137.000000;0.714907
9136.000000;0.715185
9135.000000;0.715250
9134.000000;0.715051
9133.000000;0.714711
9132.000000;0.714396
9131.000000;0.714186
9130.000000;0.714080
9129.000000;0.714090
9128.000000;0.714254
9127.000000;0.714533
9126.000000;0.714763
9125.000000;0.714784
9124.000000;0.714602
9123.000000;0.714339
9122.000000;0.714066
9121.000000;0.713788
9120.000000;0.713590
9119.000000;0.713651
9118.000000;0.714023
9117.000000;0.714486
9116.000000;0.714727
9115.000000;0.714633
9114.000000;0.714344
9113.000000;0.714059
9112.000000;0.713872
9111.000000;0.713757
9110.000000;0.713619
9109.000000;0.713348
9108.000000;0.712917
9107.000000;0.712460
9106.000000;0.712199
9105.000000;0.712244
9104.000000;0.712489
9103.000000;0.712720
9102.000000;0.712800
9101.000000;0.712731
9100.000000;0.712573
9099.000000;0.712360
9098.000000;0.712120
9097.000000;0.711922
9096.000000;0.711868
9095.000000;0.712011
9094.000000;0.712269
9093.000000;0.712459
9092.000000;0.712430
9091.000000;0.712198
9090.000000;0.711950
9089.000000;0.711872
9088.000000;0.711968
9087.000000;0.712057
9086.000000;0.711978
9085.000000;0.711772
9084.000000;0.711613
9083.000000;0.711583
9082.000000;0.711579
9081.000000;0.711470
9080.000000;0.711274
9079.000000;0.711121
9078.000000;0.711084
9077.000000;0.711107
9076.000000;0.711092
9075.000000;0.710995
9074.000000;0.710819
9073.000000;0.710582
9072.000000;0.710323
9071.000000;0.710112
9070.000000;0.710020
9069.000000;0.710060
9068.000000;0.710178
9067.000000;0.710299
9066.000000;0.710405
9065.000000;0.710550
9064.000000;0.710788
9063.000000;0.711071
9062.000000;0.711237
9061.000000;0.711141
9060.000000;0.710802
9059.000000;0.710402
9058.000000;0.710139
9057.000000;0.710071
9056.000000;0.710074
9055.000000;0.709959
9054.000000;0.709643
9053.000000;0.709231
