Criado como novo conjunto de dados;"2706_e01_daniel.spp","19983.0 Secs"
cm-1;Abs
10000.000000;0.667655
9999.000000;0.667969
9998.000000;0.667076
9997.000000;0.665775
9996.000000;0.664769
9995.000000;0.664127
9994.000000;0.663277
9993.000000;0.661920
9992.000000;0.660929
9991.000000;0.661689
9990.000000;0.664434
9989.000000;0.667692
9988.000000;0.669413
9987.000000;0.668381
9986.000000;0.664850
9985.000000;0.660471
9984.000000;0.657512
9983.000000;0.657343
9982.000000;0.659289
9981.000000;0.661431
9980.000000;0.662719
9979.000000;0.663607
9978.000000;0.664521
9977.000000;0.664928
9976.000000;0.664410
9975.000000;0.663533
9974.000000;0.662967
9973.000000;0.662588
9972.000000;0.662047
9971.000000;0.661528
9970.000000;0.661318
9969.000000;0.661205
9968.000000;0.660842
9967.000000;0.660157
9966.000000;0.659111
9965.000000;0.657785
9964.000000;0.657074
9963.000000;0.658310
9962.000000;0.661485
9961.000000;0.664538
9960.000000;0.665279
9959.000000;0.663636
9958.000000;0.661256
9957.000000;0.659555
9956.000000;0.658919
9955.000000;0.659039
9954.000000;0.659200
9953.000000;0.658669
9952.000000;0.657534
9951.000000;0.656892
9950.000000;0.657682
9949.000000;0.659586
9948.000000;0.661369
9947.000000;0.662018
9946.000000;0.661256
9945.000000;0.659496
9944.000000;0.657795
9943.000000;0.657330
9942.000000;0.658258
9941.000000;0.659400
9940.000000;0.659604
9939.000000;0.659103
9938.000000;0.658933
9937.000000;0.659453
9936.000000;0.660114
9935.000000;0.660327
9934.000000;0.659913
9933.000000;0.658966
9932.000000;0.657877
9931.000000;0.657287
9930.000000;0.657424
9929.000000;0.657626
9928.000000;0.657072
9927.000000;0.655905
9926.000000;0.655170
9925.000000;0.655667
9924.000000;0.657228
9923.000000;0.658970
9922.000000;0.659973
9921.000000;0.659899
9920.000000;0.659253
9919.000000;0.658841
9918.000000;0.658822
9917.000000;0.658550
9916.000000;0.657567
9915.000000;0.656346
9914.000000;0.655684
9913.000000;0.655692
9912.000000;0.655809
9911.000000;0.655589
9910.000000;0.655069
9909.000000;0.654532
9908.000000;0.654302
9907.000000;0.654716
9906.000000;0.655884
9905.000000;0.657342
9904.000000;0.658124
9903.000000;0.657453
9902.000000;0.655567
9901.000000;0.653791
9900.000000;0.653574
9899.000000;0.655206
9898.000000;0.657424
9897.000000;0.658491
9896.000000;0.657751
9895.000000;0.655861
9894.000000;0.653717
9893.000000;0.651837
9892.000000;0.650626
9891.000000;0.650568
9890.000000;0.651913
9889.000000;0.654421
9888.000000;0.657354
9887.000000;0.659574
9886.000000;0.659999
9885.000000;0.658531
9884.000000;0.656360
9883.000000;0.654815
9882.000000;0.654119
9881.000000;0.653634
9880.000000;0.652973
9879.000000;0.652255
9878.000000;0.651523
9877.000000;0.650709
9876.000000;0.650135
9875.000000;0.650351
9874.000000;0.651452
9873.000000;0.653082
9872.000000;0.654946
9871.000000;0.656646
9870.000000;0.657237
9869.000000;0.655903
9868.000000;0.653198
9867.000000;0.650731
9866.000000;0.649588
9865.000000;0.649777
9864.000000;0.651012
9863.000000;0.653015
9862.000000;0.655003
9861.000000;0.655887
9860.000000;0.655340
9859.000000;0.653987
9858.000000;0.652386
9857.000000;0.650676
9856.000000;0.649334
9855.000000;0.649261
9854.000000;0.650669
9853.000000;0.652511
9852.000000;0.653393
9851.000000;0.652739
9850.000000;0.651048
9849.000000;0.649589
9848.000000;0.649762
9847.000000;0.651816
9846.000000;0.654064
9845.000000;0.654262
9844.000000;0.652130
9843.000000;0.649654
9842.000000;0.648646
9841.000000;0.649030
9840.000000;0.649699
9839.000000;0.649920
9838.000000;0.649504
9837.000000;0.648643
9836.000000;0.648131
9835.000000;0.648842
9834.000000;0.650451
9833.000000;0.651508
9832.000000;0.651374
9831.000000;0.651205
9830.000000;0.652258
9829.000000;0.653969
9828.000000;0.654333
9827.000000;0.651961
9826.000000;0.647531
9825.000000;0.643517
9824.000000;0.642648
9823.000000;0.645912
9822.000000;0.651308
9821.000000;0.655032
9820.000000;0.654892
9819.000000;0.652169
9818.000000;0.649477
9817.000000;0.648001
9816.000000;0.647405
9815.000000;0.647281
9814.000000;0.647681
9813.000000;0.648559
9812.000000;0.649492
9811.000000;0.649991
9810.000000;0.649740
9809.000000;0.648782
9808.000000;0.647737
9807.000000;0.647444
9806.000000;0.648142
9805.000000;0.649305
9804.000000;0.650316
9803.000000;0.650763
9802.000000;0.650072
9801.000000;0.647848
9800.000000;0.645041
9799.000000;0.643739
9798.000000;0.645067
9797.000000;0.647792
9796.000000;0.649542
9795.000000;0.649218
9794.000000;0.647726
9793.000000;0.646630
9792.000000;0.646738
9791.000000;0.647744
9790.000000;0.648656
9789.000000;0.648701
9788.000000;0.648020
9787.000000;0.647204
9786.000000;0.646238
9785.000000;0.644635
9784.000000;0.642747
9783.000000;0.642040
9782.000000;0.643463
9781.000000;0.646136
9780.000000;0.648181
9779.000000;0.648498
9778.000000;0.647318
9777.000000;0.645515
9776.000000;0.644039
9775.000000;0.643677
9774.000000;0.644634
9773.000000;0.646271
9772.000000;0.647573
9771.000000;0.647827
9770.000000;0.646816
9769.000000;0.644791
9768.000000;0.642551
9767.000000;0.641196
9766.000000;0.641358
9765.000000;0.642726
9764.000000;0.644350
9763.000000;0.645242
9762.000000;0.644815
9761.000000;0.643337
9760.000000;0.642088
9759.000000;0.642472
9758.000000;0.644549
9757.000000;0.646722
9756.000000;0.647223
9755.000000;0.645758
9754.000000;0.643482
9753.000000;0.641758
9752.000000;0.641218
9751.000000;0.641589
9750.000000;0.642093
9749.000000;0.642246
9748.000000;0.642393
9747.000000;0.643177
9746.000000;0.644455
9745.000000;0.645162
9744.000000;0.644469
9743.000000;0.642754
9742.000000;0.641270
9741.000000;0.641159
9740.000000;0.642727
9739.000000;0.645086
9738.000000;0.646488
9737.000000;0.645723
9736.000000;0.643456
9735.000000;0.641587
9734.000000;0.641198
9733.000000;0.641714
9732.000000;0.642095
9731.000000;0.642209
9730.000000;0.642672
9729.000000;0.643776
9728.000000;0.644973
9727.000000;0.645211
9726.000000;0.643765
9725.000000;0.641080
9724.000000;0.638807
9723.000000;0.638548
9722.000000;0.640336
9721.000000;0.642515
9720.000000;0.643226
9719.000000;0.641936
9718.000000;0.639661
9717.000000;0.638203
9716.000000;0.639026
9715.000000;0.642012
9714.000000;0.644993
9713.000000;0.645304
9712.000000;0.642479
9711.000000;0.638819
9710.000000;0.637062
9709.000000;0.638147
9708.000000;0.640963
9707.000000;0.643450
9706.000000;0.643954
9705.000000;0.642324
9704.000000;0.640014
9703.000000;0.638788
9702.000000;0.639220
9701.000000;0.640556
9700.000000;0.641748
9699.000000;0.642171
9698.000000;0.641611
9697.000000;0.640417
9696.000000;0.639680
9695.000000;0.640345
9694.000000;0.641909
9693.000000;0.642752
9692.000000;0.642038
9691.000000;0.640579
9690.000000;0.639506
9689.000000;0.638916
9688.000000;0.638218
9687.000000;0.637229
9686.000000;0.636448
9685.000000;0.636555
9684.000000;0.637812
9683.000000;0.639579
9682.000000;0.640436
9681.000000;0.639471
9680.000000;0.637543
9679.000000;0.636550
9678.000000;0.637368
9677.000000;0.639054
9676.000000;0.640083
9675.000000;0.639780
9674.000000;0.638449
9673.000000;0.636810
9672.000000;0.635652
9671.000000;0.635437
9670.000000;0.635937
9669.000000;0.636602
9668.000000;0.637352
9667.000000;0.638515
9666.000000;0.639990
9665.000000;0.641123
9664.000000;0.641470
9663.000000;0.641018
9662.000000;0.639656
9661.000000;0.637357
9660.000000;0.635024
9659.000000;0.634174
9658.000000;0.635375
9657.000000;0.637541
9656.000000;0.638982
9655.000000;0.638823
9654.000000;0.637432
9653.000000;0.636065
9652.000000;0.636092
9651.000000;0.637746
9650.000000;0.639427
9649.000000;0.639095
9648.000000;0.636617
9647.000000;0.633891
9646.000000;0.632628
9645.000000;0.633024
9644.000000;0.634503
9643.000000;0.636603
9642.000000;0.638700
9641.000000;0.639807
9640.000000;0.639340
9639.000000;0.637652
9638.000000;0.635539
9637.000000;0.633799
9636.000000;0.633288
9635.000000;0.634422
9634.000000;0.636249
9633.000000;0.636904
9632.000000;0.635622
9631.000000;0.633675
9630.000000;0.632886
9629.000000;0.633909
9628.000000;0.636082
9627.000000;0.638115
9626.000000;0.638725
9625.000000;0.637495
9624.000000;0.635534
9623.000000;0.634567
9622.000000;0.635081
9621.000000;0.635902
9620.000000;0.635841
9619.000000;0.634981
9618.000000;0.633984
9617.000000;0.633149
9616.000000;0.632724
9615.000000;0.633214
9614.000000;0.634671
9613.000000;0.636238
9612.000000;0.636976
9611.000000;0.636665
9610.000000;0.635437
9609.000000;0.633407
9608.000000;0.631210
9607.000000;0.630122
9606.000000;0.630895
9605.000000;0.632831
9604.000000;0.634515
9603.000000;0.635154
9602.000000;0.634844
9601.000000;0.633989
9600.000000;0.633036
9599.000000;0.632439
9598.000000;0.632440
9597.000000;0.633045
9596.000000;0.634222
9595.000000;0.635627
9594.000000;0.636171
9593.000000;0.634834
9592.000000;0.632248
9591.000000;0.630533
9590.000000;0.631046
9589.000000;0.632936
9588.000000;0.634249
9587.000000;0.634012
9586.000000;0.632834
9585.000000;0.631886
9584.000000;0.631841
9583.000000;0.632433
9582.000000;0.632672
9581.000000;0.631888
9580.000000;0.630756
9579.000000;0.630681
9578.000000;0.631986
9577.000000;0.633370
9576.000000;0.633464
9575.000000;0.632328
9574.000000;0.631050
9573.000000;0.630535
9572.000000;0.631058
9571.000000;0.632262
9570.000000;0.633111
9569.000000;0.632569
9568.000000;0.630921
9567.000000;0.629785
9566.000000;0.630338
9565.000000;0.632088
9564.000000;0.633656
9563.000000;0.634147
9562.000000;0.633444
9561.000000;0.631868
9560.000000;0.630158
9559.000000;0.629219
9558.000000;0.629283
9557.000000;0.629645
9556.000000;0.629652
9555.000000;0.629529
9554.000000;0.629773
9553.000000;0.630324
9552.000000;0.630856
9551.000000;0.631363
9550.000000;0.631876
9549.000000;0.632042
9548.000000;0.631529
9547.000000;0.630510
9546.000000;0.629365
9545.000000;0.628330
9544.000000;0.627751
9543.000000;0.628103
9542.000000;0.629242
9541.000000;0.630179
9540.000000;0.630169
9539.000000;0.629614
9538.000000;0.629354
9537.000000;0.629499
9536.000000;0.629551
9535.000000;0.629237
9534.000000;0.628648
9533.000000;0.627879
9532.000000;0.627134
9531.000000;0.626911
9530.000000;0.627504
9529.000000;0.628522
9528.000000;0.629350
9527.000000;0.629877
9526.000000;0.630307
9525.000000;0.630492
9524.000000;0.629953
9523.000000;0.628485
9522.000000;0.626453
9521.000000;0.624631
9520.000000;0.623930
9519.000000;0.624935
9518.000000;0.627290
9517.000000;0.629725
9516.000000;0.631049
9515.000000;0.631047
9514.000000;0.630249
9513.000000;0.629140
9512.000000;0.627947
9511.000000;0.626848
9510.000000;0.625957
9509.000000;0.625280
9508.000000;0.624940
9507.000000;0.625245
9506.000000;0.626276
9505.000000;0.627630
9504.000000;0.628796
9503.000000;0.629548
9502.000000;0.629766
9501.000000;0.629250
9500.000000;0.628024
9499.000000;0.626580
9498.000000;0.625476
9497.000000;0.624857
9496.000000;0.624606
9495.000000;0.624761
9494.000000;0.625429
9493.000000;0.626399
9492.000000;0.627159
9491.000000;0.627365
9490.000000;0.627142
9489.000000;0.626907
9488.000000;0.626934
9487.000000;0.627036
9486.000000;0.626695
9485.000000;0.625624
9484.000000;0.624185
9483.000000;0.623124
9482.000000;0.622983
9481.000000;0.623863
9480.000000;0.625493
9479.000000;0.627227
9478.000000;0.628173
9477.000000;0.627802
9476.000000;0.626434
9475.000000;0.624846
9474.000000;0.623530
9473.000000;0.622639
9472.000000;0.622385
9471.000000;0.622973
9470.000000;0.624181
9469.000000;0.625466
9468.000000;0.626419
9467.000000;0.626779
9466.000000;0.626224
9465.000000;0.624772
9464.000000;0.623292
9463.000000;0.622912
9462.000000;0.623806
9461.000000;0.624965
9460.000000;0.625280
9459.000000;0.624541
9458.000000;0.623414
9457.000000;0.622870
9456.000000;0.623564
9455.000000;0.625220
9454.000000;0.626572
9453.000000;0.626365
9452.000000;0.624591
9451.000000;0.622434
9450.000000;0.621133
9449.000000;0.621294
9448.000000;0.622892
9447.000000;0.625135
9446.000000;0.626475
9445.000000;0.625719
9444.000000;0.623377
9443.000000;0.621302
9442.000000;0.620961
9441.000000;0.622408
9440.000000;0.624560
9439.000000;0.625949
9438.000000;0.625522
9437.000000;0.623417
9436.000000;0.621013
9435.000000;0.619748
9434.000000;0.619919
9433.000000;0.620867
9432.000000;0.621978
9431.000000;0.622893
9430.000000;0.623142
9429.000000;0.622520
9428.000000;0.621666
9427.000000;0.621403
9426.000000;0.621662
9425.000000;0.621824
9424.000000;0.621882
9423.000000;0.622252
9422.000000;0.622620
9421.000000;0.622117
9420.000000;0.620727
9419.000000;0.619494
9418.000000;0.619205
9417.000000;0.619818
9416.000000;0.621089
9415.000000;0.622661
9414.000000;0.623559
9413.000000;0.622838
9412.000000;0.621069
9411.000000;0.619987
9410.000000;0.620316
9409.000000;0.620978
9408.000000;0.620737
9407.000000;0.619658
9406.000000;0.618611
9405.000000;0.618283
9404.000000;0.619044
9403.000000;0.620740
9402.000000;0.622232
9401.000000;0.622193
9400.000000;0.620847
9399.000000;0.619819
9398.000000;0.619895
9397.000000;0.620067
9396.000000;0.619269
9395.000000;0.618026
9394.000000;0.617534
9393.000000;0.618052
9392.000000;0.619072
9391.000000;0.620298
9390.000000;0.621503
9389.000000;0.622014
9388.000000;0.621319
9387.000000;0.619851
9386.000000;0.618471
9385.000000;0.617572
9384.000000;0.617173
9383.000000;0.617365
9382.000000;0.618043
9381.000000;0.618656
9380.000000;0.618815
9379.000000;0.618786
9378.000000;0.618941
9377.000000;0.619196
9376.000000;0.619429
9375.000000;0.619856
9374.000000;0.620446
9373.000000;0.620464
9372.000000;0.619303
9371.000000;0.617493
9370.000000;0.616311
9369.000000;0.616554
9368.000000;0.618009
9367.000000;0.619727
9366.000000;0.620531
9365.000000;0.619785
9364.000000;0.618079
9363.000000;0.616759
9362.000000;0.616520
9361.000000;0.616817
9360.000000;0.616832
9359.000000;0.616558
9358.000000;0.616519
9357.000000;0.616888
9356.000000;0.617444
9355.000000;0.618009
9354.000000;0.618476
9353.000000;0.618670
9352.000000;0.618504
9351.000000;0.618074
9350.000000;0.617474
9349.000000;0.616815
9348.000000;0.616442
9347.000000;0.616615
9346.000000;0.616912
9345.000000;0.616599
9344.000000;0.615753
9343.000000;0.615321
9342.000000;0.615837
9341.000000;0.616766
9340.000000;0.617398
9339.000000;0.617694
9338.000000;0.617813
9337.000000;0.617446
9336.000000;0.616231
9335.000000;0.614463
9334.000000;0.612947
9333.000000;0.612408
9332.000000;0.613184
9331.000000;0.615020
9330.000000;0.616966
9329.000000;0.617995
9328.000000;0.617989
9327.000000;0.617651
9326.000000;0.617409
9325.000000;0.617067
9324.000000;0.616546
9323.000000;0.616115
9322.000000;0.615708
9321.000000;0.614870
9320.000000;0.613732
9319.000000;0.613196
9318.000000;0.613726
9317.000000;0.614665
9316.000000;0.615170
9315.000000;0.615159
9314.000000;0.614942
9313.000000;0.614594
9312.000000;0.614181
9311.000000;0.613980
9310.000000;0.614029
9309.000000;0.614039
9308.000000;0.614092
9307.000000;0.614683
9306.000000;0.615693
9305.000000;0.616113
9304.000000;0.615393
9303.000000;0.614369
9302.000000;0.614157
9301.000000;0.614767
9300.000000;0.615341
9299.000000;0.615252
9298.000000;0.614447
9297.000000;0.613238
9296.000000;0.612260
9295.000000;0.612143
9294.000000;0.612730
9293.000000;0.613140
9292.000000;0.613021
9291.000000;0.613071
9290.000000;0.613809
9289.000000;0.614549
9288.000000;0.614310
9287.000000;0.613187
9286.000000;0.612051
9285.000000;0.611378
9284.000000;0.611120
9283.000000;0.611278
9282.000000;0.611877
9281.000000;0.612634
9280.000000;0.613257
9279.000000;0.613783
9278.000000;0.614146
9277.000000;0.613858
9276.000000;0.612773
9275.000000;0.611716
9274.000000;0.611628
9273.000000;0.612352
9272.000000;0.612869
9271.000000;0.612530
9270.000000;0.611573
9269.000000;0.610623
9268.000000;0.610239
9267.000000;0.610685
9266.000000;0.611589
9265.000000;0.612035
9264.000000;0.611525
9263.000000;0.610680
9262.000000;0.610516
9261.000000;0.611235
9260.000000;0.612168
9259.000000;0.612699
9258.000000;0.612772
9257.000000;0.612627
9256.000000;0.612444
9255.000000;0.612250
9254.000000;0.611871
9253.000000;0.611085
9252.000000;0.610023
9251.000000;0.609253
9250.000000;0.609264
9249.000000;0.610019
9248.000000;0.611069
9247.000000;0.611856
9246.000000;0.611874
9245.000000;0.611014
9244.000000;0.609921
9243.000000;0.609556
9242.000000;0.610171
9241.000000;0.611090
9240.000000;0.611619
9239.000000;0.611681
9238.000000;0.611393
9237.000000;0.610634
9236.000000;0.609463
9235.000000;0.608429
9234.000000;0.608032
9233.000000;0.608247
9232.000000;0.608863
9231.000000;0.609837
9230.000000;0.610995
9229.000000;0.611829
9228.000000;0.612011
9227.000000;0.611734
9226.000000;0.611242
9225.000000;0.610436
9224.000000;0.609294
9223.000000;0.608236
9222.000000;0.607747
9221.000000;0.607961
9220.000000;0.608757
9219.000000;0.609753
9218.000000;0.610115
9217.000000;0.609143
9216.000000;0.607424
9215.000000;0.606644
9214.000000;0.607713
9213.000000;0.609589
9212.000000;0.610418
9211.000000;0.609518
9210.000000;0.607724
9209.000000;0.606237
9208.000000;0.605785
9207.000000;0.606498
9206.000000;0.607860
9205.000000;0.608959
9204.000000;0.609295
9203.000000;0.609174
9202.000000;0.609008
9201.000000;0.608633
9200.000000;0.607659
9199.000000;0.606163
9198.000000;0.604689
9197.000000;0.603863
9196.000000;0.604217
9195.000000;0.605898
9194.000000;0.608168
9193.000000;0.609681
9192.000000;0.609741
9191.000000;0.608920
9190.000000;0.608078
9189.000000;0.607351
9188.000000;0.606556
9187.000000;0.605931
9186.000000;0.605825
9185.000000;0.606058
9184.000000;0.606208
9183.000000;0.606210
9182.000000;0.606174
9181.000000;0.605969
9180.000000;0.605573
9179.000000;0.605453
9178.000000;0.606039
9177.000000;0.607042
9176.000000;0.607799
9175.000000;0.608050
9174.000000;0.607962
9173.000000;0.607693
9172.000000;0.607402
9171.000000;0.607326
9170.000000;0.607349
9169.000000;0.606866
9168.000000;0.605611
9167.000000;0.604294
9166.000000;0.603832
9165.000000;0.604294
9164.000000;0.605060
9163.000000;0.605701
9162.000000;0.606122
9161.000000;0.606191
9160.000000;0.605884
9159.000000;0.605597
9158.000000;0.605691
9157.000000;0.605906
9156.000000;0.605733
9155.000000;0.605202
9154.000000;0.604736
9153.000000;0.604426
9152.000000;0.604098
9151.000000;0.603948
9150.000000;0.604430
9149.000000;0.605477
9148.000000;0.606355
9147.000000;0.606371
9146.000000;0.605394
9145.000000;0.603818
9144.000000;0.602406
9143.000000;0.602033
9142.000000;0.603033
9141.000000;0.604748
9140.000000;0.606045
9139.000000;0.606276
9138.000000;0.605528
9137.000000;0.604225
9136.000000;0.602953
9135.000000;0.602475
9134.000000;0.603249
9133.000000;0.604824
9132.000000;0.606076
9131.000000;0.606151
9130.000000;0.605005
9129.000000;0.603195
9128.000000;0.601533
9127.000000;0.600818
9126.000000;0.601380
9125.000000;0.602750
9124.000000;0.604045
9123.000000;0.604746
9122.000000;0.604922
9121.000000;0.604815
9120.000000;0.604529
9119.000000;0.604085
9118.000000;0.603482
9117.000000;0.602741
9116.000000;0.602052
9115.000000;0.601762
9114.000000;0.602000
9113.000000;0.602439
9112.000000;0.602680
9111.000000;0.602753
9110.000000;0.603010
9109.000000;0.603617
9108.000000;0.604362
9107.000000;0.604804
9106.000000;0.604458
9105.000000;0.603111
9104.000000;0.601265
9103.000000;0.600021
9102.000000;0.600159
9101.000000;0.601367
9100.000000;0.602543
9099.000000;0.602831
9098.000000;0.602249
9097.000000;0.601451
9096.000000;0.601118
9095.000000;0.601448
9094.000000;0.602011
9093.000000;0.602180
9092.000000;0.601819
9091.000000;0.601356
9090.000000;0.601110
9089.000000;0.600946
9088.000000;0.600796
9087.000000;0.601030
9086.000000;0.601884
9085.000000;0.602841
9084.000000;0.603062
9083.000000;0.602310
9082.000000;0.601096
9081.000000;0.600094
9080.000000;0.599758
9079.000000;0.600272
9078.000000;0.601356
9077.000000;0.602182
9076.000000;0.601947
9075.000000;0.600654
9074.000000;0.599105
9073.000000;0.598133
9072.000000;0.598049
9071.000000;0.598647
9070.000000;0.599443
9069.000000;0.600003
9068.000000;0.600305
9067.000000;0.600673
9066.000000;0.601160
9065.000000;0.601265
9064.000000;0.600624
9063.000000;0.599739
9062.000000;0.599532
9061.000000;0.600194
9060.000000;0.600889
9059.000000;0.600663
9058.000000;0.599404
9057.000000;0.597876
9056.000000;0.597076
9055.000000;0.597572
9054.000000;0.599102
9053.000000;0.600631
