Criado como novo conjunto de dados;"2706_e01_daniel.spp","106567.4 Secs"
cm-1;Abs
10000.000000;0.867352
9999.000000;0.866594
9998.000000;0.865840
9997.000000;0.865083
9996.000000;0.864334
9995.000000;0.863573
9994.000000;0.862856
9993.000000;0.862408
9992.000000;0.862414
9991.000000;0.862946
9990.000000;0.863791
9989.000000;0.864565
9988.000000;0.865039
9987.000000;0.865273
9986.000000;0.865366
9985.000000;0.865244
9984.000000;0.864827
9983.000000;0.864213
9982.000000;0.863550
9981.000000;0.862835
9980.000000;0.862085
9979.000000;0.861606
9978.000000;0.861784
9977.000000;0.862574
9976.000000;0.863441
9975.000000;0.863896
9974.000000;0.863899
9973.000000;0.863689
9972.000000;0.863440
9971.000000;0.863237
9970.000000;0.863198
9969.000000;0.863371
9968.000000;0.863562
9967.000000;0.863445
9966.000000;0.862872
9965.000000;0.861998
9964.000000;0.861112
9963.000000;0.860452
9962.000000;0.860184
9961.000000;0.860383
9960.000000;0.860923
9959.000000;0.861450
9958.000000;0.861626
9957.000000;0.861485
9956.000000;0.861432
9955.000000;0.861777
9954.000000;0.862300
9953.000000;0.862438
9952.000000;0.861928
9951.000000;0.861099
9950.000000;0.860479
9949.000000;0.860251
9948.000000;0.860209
9947.000000;0.860117
9946.000000;0.859946
9945.000000;0.859819
9944.000000;0.859869
9943.000000;0.860102
9942.000000;0.860321
9941.000000;0.860268
9940.000000;0.859961
9939.000000;0.859815
9938.000000;0.860216
9937.000000;0.860995
9936.000000;0.861486
9935.000000;0.861145
9934.000000;0.860038
9933.000000;0.858754
9932.000000;0.857967
9931.000000;0.858026
9930.000000;0.858735
9929.000000;0.859489
9928.000000;0.859782
9927.000000;0.859638
9926.000000;0.859452
9925.000000;0.859457
9924.000000;0.859510
9923.000000;0.859394
9922.000000;0.859123
9921.000000;0.858876
9920.000000;0.858774
9919.000000;0.858798
9918.000000;0.858793
9917.000000;0.858526
9916.000000;0.857906
9915.000000;0.857190
9914.000000;0.856848
9913.000000;0.857111
9912.000000;0.857733
9911.000000;0.858238
9910.000000;0.858311
9909.000000;0.857957
9908.000000;0.857422
9907.000000;0.857033
9906.000000;0.856999
9905.000000;0.857273
9904.000000;0.857621
9903.000000;0.857836
9902.000000;0.857797
9901.000000;0.857403
9900.000000;0.856633
9899.000000;0.855720
9898.000000;0.855049
9897.000000;0.854831
9896.000000;0.854970
9895.000000;0.855280
9894.000000;0.855633
9893.000000;0.855877
9892.000000;0.855818
9891.000000;0.855436
9890.000000;0.855001
9889.000000;0.854842
9888.000000;0.855092
9887.000000;0.855670
9886.000000;0.856379
9885.000000;0.856954
9884.000000;0.857236
9883.000000;0.857345
9882.000000;0.857489
9881.000000;0.857525
9880.000000;0.857019
9879.000000;0.855904
9878.000000;0.854780
9877.000000;0.854294
9876.000000;0.854416
9875.000000;0.854607
9874.000000;0.854555
9873.000000;0.854405
9872.000000;0.854373
9871.000000;0.854473
9870.000000;0.854643
9869.000000;0.854843
9868.000000;0.854940
9867.000000;0.854752
9866.000000;0.854298
9865.000000;0.853828
9864.000000;0.853529
9863.000000;0.853345
9862.000000;0.853173
9861.000000;0.853070
9860.000000;0.853186
9859.000000;0.853559
9858.000000;0.854039
9857.000000;0.854373
9856.000000;0.854387
9855.000000;0.854127
9854.000000;0.853848
9853.000000;0.853774
9852.000000;0.853904
9851.000000;0.854098
9850.000000;0.854302
9849.000000;0.854554
9848.000000;0.854781
9847.000000;0.854773
9846.000000;0.854410
9845.000000;0.853829
9844.000000;0.853297
9843.000000;0.852976
9842.000000;0.852825
9841.000000;0.852648
9840.000000;0.852244
9839.000000;0.851604
9838.000000;0.850981
9837.000000;0.850674
9836.000000;0.850719
9835.000000;0.850886
9834.000000;0.850984
9833.000000;0.851048
9832.000000;0.851185
9831.000000;0.851364
9830.000000;0.851461
9829.000000;0.851464
9828.000000;0.851516
9827.000000;0.851732
9826.000000;0.852021
9825.000000;0.852134
9824.000000;0.851906
9823.000000;0.851447
9822.000000;0.851062
9821.000000;0.850990
9820.000000;0.851261
9819.000000;0.851767
9818.000000;0.852346
9817.000000;0.852755
9816.000000;0.852724
9815.000000;0.852200
9814.000000;0.851491
9813.000000;0.850980
9812.000000;0.850722
9811.000000;0.850470
9810.000000;0.850086
9809.000000;0.849764
9808.000000;0.849769
9807.000000;0.850086
9806.000000;0.850408
9805.000000;0.850416
9804.000000;0.850034
9803.000000;0.849466
9802.000000;0.849033
9801.000000;0.848929
9800.000000;0.849104
9799.000000;0.849369
9798.000000;0.849612
9797.000000;0.849839
9796.000000;0.850043
9795.000000;0.850137
9794.000000;0.850049
9793.000000;0.849796
9792.000000;0.849404
9791.000000;0.848845
9790.000000;0.848159
9789.000000;0.847586
9788.000000;0.847473
9787.000000;0.847968
9786.000000;0.848807
9785.000000;0.849458
9784.000000;0.849555
9783.000000;0.849200
9782.000000;0.848797
9781.000000;0.848584
9780.000000;0.848409
9779.000000;0.848009
9778.000000;0.847393
9777.000000;0.846847
9776.000000;0.846621
9775.000000;0.846752
9774.000000;0.847158
9773.000000;0.847744
9772.000000;0.848359
9771.000000;0.848770
9770.000000;0.848800
9769.000000;0.848484
9768.000000;0.848058
9767.000000;0.847779
9766.000000;0.847710
9765.000000;0.847651
9764.000000;0.847311
9763.000000;0.846612
9762.000000;0.845798
9761.000000;0.845212
9760.000000;0.845035
9759.000000;0.845247
9758.000000;0.845731
9757.000000;0.846253
9756.000000;0.846467
9755.000000;0.846159
9754.000000;0.845523
9753.000000;0.845029
9752.000000;0.844944
9751.000000;0.845128
9750.000000;0.845318
9749.000000;0.845436
9748.000000;0.845564
9747.000000;0.845732
9746.000000;0.845886
9745.000000;0.845990
9744.000000;0.846064
9743.000000;0.846172
9742.000000;0.846411
9741.000000;0.846797
9740.000000;0.847134
9739.000000;0.847124
9738.000000;0.846705
9737.000000;0.846190
9736.000000;0.845929
9735.000000;0.845899
9734.000000;0.845758
9733.000000;0.845273
9732.000000;0.844577
9731.000000;0.844007
9730.000000;0.843830
9729.000000;0.844133
9728.000000;0.844820
9727.000000;0.845613
9726.000000;0.846117
9725.000000;0.846053
9724.000000;0.845481
9723.000000;0.844748
9722.000000;0.844168
9721.000000;0.843791
9720.000000;0.843517
9719.000000;0.843373
9718.000000;0.843524
9717.000000;0.843981
9716.000000;0.844416
9715.000000;0.844412
9714.000000;0.843861
9713.000000;0.843047
9712.000000;0.842379
9711.000000;0.842121
9710.000000;0.842284
9709.000000;0.842655
9708.000000;0.842954
9707.000000;0.843104
9706.000000;0.843269
9705.000000;0.843528
9704.000000;0.843616
9703.000000;0.843228
9702.000000;0.842517
9701.000000;0.841995
9700.000000;0.841928
9699.000000;0.842123
9698.000000;0.842344
9697.000000;0.842620
9696.000000;0.842986
9695.000000;0.843242
9694.000000;0.843225
9693.000000;0.843111
9692.000000;0.843183
9691.000000;0.843421
9690.000000;0.843544
9689.000000;0.843332
9688.000000;0.842717
9687.000000;0.841721
9686.000000;0.840573
9685.000000;0.839768
9684.000000;0.839659
9683.000000;0.840033
9682.000000;0.840353
9681.000000;0.840393
9680.000000;0.840372
9679.000000;0.840482
9678.000000;0.840637
9677.000000;0.840737
9676.000000;0.840873
9675.000000;0.841114
9674.000000;0.841339
9673.000000;0.841433
9672.000000;0.841456
9671.000000;0.841481
9670.000000;0.841429
9669.000000;0.841228
9668.000000;0.840978
9667.000000;0.840825
9666.000000;0.840756
9665.000000;0.840650
9664.000000;0.840467
9663.000000;0.840272
9662.000000;0.840144
9661.000000;0.840131
9660.000000;0.840247
9659.000000;0.840435
9658.000000;0.840602
9657.000000;0.840732
9656.000000;0.840856
9655.000000;0.840916
9654.000000;0.840810
9653.000000;0.840623
9652.000000;0.840611
9651.000000;0.840848
9650.000000;0.841060
9649.000000;0.840960
9648.000000;0.840601
9647.000000;0.840241
9646.000000;0.839991
9645.000000;0.839788
9644.000000;0.839620
9643.000000;0.839564
9642.000000;0.839646
9641.000000;0.839804
9640.000000;0.839984
9639.000000;0.840098
9638.000000;0.839996
9637.000000;0.839654
9636.000000;0.839332
9635.000000;0.839301
9634.000000;0.839438
9633.000000;0.839319
9632.000000;0.838765
9631.000000;0.838081
9630.000000;0.837675
9629.000000;0.837641
9628.000000;0.837817
9627.000000;0.838070
9626.000000;0.838370
9625.000000;0.838672
9624.000000;0.838869
9623.000000;0.838858
9622.000000;0.838578
9621.000000;0.838044
9620.000000;0.837397
9619.000000;0.836863
9618.000000;0.836558
9617.000000;0.836402
9616.000000;0.836291
9615.000000;0.836271
9614.000000;0.836457
9613.000000;0.836792
9612.000000;0.837026
9611.000000;0.836958
9610.000000;0.836655
9609.000000;0.836367
9608.000000;0.836262
9607.000000;0.836238
9606.000000;0.836011
9605.000000;0.835411
9604.000000;0.834617
9603.000000;0.834064
9602.000000;0.834089
9601.000000;0.834646
9600.000000;0.835357
9599.000000;0.835802
9598.000000;0.835803
9597.000000;0.835505
9596.000000;0.835223
9595.000000;0.835179
9594.000000;0.835345
9593.000000;0.835526
9592.000000;0.835606
9591.000000;0.835629
9590.000000;0.835659
9589.000000;0.835626
9588.000000;0.835439
9587.000000;0.835193
9586.000000;0.835137
9585.000000;0.835376
9584.000000;0.835689
9583.000000;0.835709
9582.000000;0.835282
9581.000000;0.834629
9580.000000;0.834134
9579.000000;0.834008
9578.000000;0.834145
9577.000000;0.834279
9576.000000;0.834267
9575.000000;0.834200
9574.000000;0.834252
9573.000000;0.834413
9572.000000;0.834438
9571.000000;0.834096
9570.000000;0.833465
9569.000000;0.832943
9568.000000;0.832901
9567.000000;0.833341
9566.000000;0.833880
9565.000000;0.834082
9564.000000;0.833798
9563.000000;0.833256
9562.000000;0.832869
9561.000000;0.832919
9560.000000;0.833348
9559.000000;0.833813
9558.000000;0.833986
9557.000000;0.833836
9556.000000;0.833586
9555.000000;0.833419
9554.000000;0.833297
9553.000000;0.833095
9552.000000;0.832811
9551.000000;0.832601
9550.000000;0.832634
9549.000000;0.832964
9548.000000;0.833471
9547.000000;0.833873
9546.000000;0.833896
9545.000000;0.833511
9544.000000;0.832979
9543.000000;0.832587
9542.000000;0.832385
9541.000000;0.832251
9540.000000;0.832140
9539.000000;0.832138
9538.000000;0.832280
9537.000000;0.832466
9536.000000;0.832581
9535.000000;0.832577
9534.000000;0.832421
9533.000000;0.832060
9532.000000;0.831527
9531.000000;0.830984
9530.000000;0.830591
9529.000000;0.830379
9528.000000;0.830316
9527.000000;0.830417
9526.000000;0.830703
9525.000000;0.831056
9524.000000;0.831257
9523.000000;0.831212
9522.000000;0.831087
9521.000000;0.831131
9520.000000;0.831375
9519.000000;0.831564
9518.000000;0.831456
9517.000000;0.831120
9516.000000;0.830856
9515.000000;0.830826
9514.000000;0.830888
9513.000000;0.830843
9512.000000;0.830705
9511.000000;0.830639
9510.000000;0.830718
9509.000000;0.830874
9508.000000;0.831044
9507.000000;0.831208
9506.000000;0.831284
9505.000000;0.831138
9504.000000;0.830717
9503.000000;0.830118
9502.000000;0.829520
9501.000000;0.829138
9500.000000;0.829155
9499.000000;0.829538
9498.000000;0.829938
9497.000000;0.829980
9496.000000;0.829709
9495.000000;0.829558
9494.000000;0.829787
9493.000000;0.830153
9492.000000;0.830240
9491.000000;0.829943
9490.000000;0.829461
9489.000000;0.828955
9488.000000;0.828465
9487.000000;0.828121
9486.000000;0.828156
9485.000000;0.828643
9484.000000;0.829318
9483.000000;0.829778
9482.000000;0.829814
9481.000000;0.829516
9480.000000;0.829099
9479.000000;0.828685
9478.000000;0.828244
9477.000000;0.827718
9476.000000;0.827158
9475.000000;0.826708
9474.000000;0.826475
9473.000000;0.826461
9472.000000;0.826603
9471.000000;0.826808
9470.000000;0.826963
9469.000000;0.827025
9468.000000;0.827104
9467.000000;0.827350
9466.000000;0.827702
9465.000000;0.827892
9464.000000;0.827765
9463.000000;0.827467
9462.000000;0.827228
9461.000000;0.827086
9460.000000;0.826963
9459.000000;0.826893
9458.000000;0.826978
9457.000000;0.827166
9456.000000;0.827247
9455.000000;0.827092
9454.000000;0.826777
9453.000000;0.826471
9452.000000;0.826283
9451.000000;0.826228
9450.000000;0.826243
9449.000000;0.826229
9448.000000;0.826133
9447.000000;0.825999
9446.000000;0.825868
9445.000000;0.825699
9444.000000;0.825448
9443.000000;0.825183
9442.000000;0.825004
9441.000000;0.824896
9440.000000;0.824762
9439.000000;0.824600
9438.000000;0.824522
9437.000000;0.824617
9436.000000;0.824867
9435.000000;0.825172
9434.000000;0.825386
9433.000000;0.825397
9432.000000;0.825266
9431.000000;0.825233
9430.000000;0.825444
9429.000000;0.825712
9428.000000;0.825712
9427.000000;0.825384
9426.000000;0.824969
9425.000000;0.824668
9424.000000;0.824444
9423.000000;0.824206
9422.000000;0.823980
9421.000000;0.823837
9420.000000;0.823794
9419.000000;0.823853
9418.000000;0.824011
9417.000000;0.824158
9416.000000;0.824132
9415.000000;0.823944
9414.000000;0.823786
9413.000000;0.823733
9412.000000;0.823612
9411.000000;0.823301
9410.000000;0.823005
9409.000000;0.823019
9408.000000;0.823329
9407.000000;0.823630
9406.000000;0.823709
9405.000000;0.823612
9404.000000;0.823470
9403.000000;0.823352
9402.000000;0.823317
9401.000000;0.823408
9400.000000;0.823514
9399.000000;0.823381
9398.000000;0.822899
9397.000000;0.822306
9396.000000;0.821978
9395.000000;0.822042
9394.000000;0.822285
9393.000000;0.822417
9392.000000;0.822343
9391.000000;0.822158
9390.000000;0.821978
9389.000000;0.821868
9388.000000;0.821863
9387.000000;0.821957
9386.000000;0.822040
9385.000000;0.821947
9384.000000;0.821640
9383.000000;0.821289
9382.000000;0.821109
9381.000000;0.821148
9380.000000;0.821302
9379.000000;0.821469
9378.000000;0.821606
9377.000000;0.821655
9376.000000;0.821535
9375.000000;0.821246
9374.000000;0.820918
9373.000000;0.820740
9372.000000;0.820870
9371.000000;0.821333
9370.000000;0.821930
9369.000000;0.822278
9368.000000;0.822100
9367.000000;0.821514
9366.000000;0.820940
9365.000000;0.820686
9364.000000;0.820703
9363.000000;0.820746
9362.000000;0.820626
9361.000000;0.820280
9360.000000;0.819750
9359.000000;0.819212
9358.000000;0.818905
9357.000000;0.818931
9356.000000;0.819176
9355.000000;0.819486
9354.000000;0.819832
9353.000000;0.820192
9352.000000;0.820407
9351.000000;0.820315
9350.000000;0.819989
9349.000000;0.819687
9348.000000;0.819574
9347.000000;0.819599
9346.000000;0.819647
9345.000000;0.819662
9344.000000;0.819619
9343.000000;0.819491
9342.000000;0.819338
9341.000000;0.819311
9340.000000;0.819496
9339.000000;0.819773
9338.000000;0.819914
9337.000000;0.819828
9336.000000;0.819662
9335.000000;0.819617
9334.000000;0.819694
9333.000000;0.819674
9332.000000;0.819381
9331.000000;0.818926
9330.000000;0.818599
9329.000000;0.818562
9328.000000;0.818711
9327.000000;0.818868
9326.000000;0.818977
9325.000000;0.819069
9324.000000;0.819121
9323.000000;0.819072
9322.000000;0.818935
9321.000000;0.818779
9320.000000;0.818638
9319.000000;0.818480
9318.000000;0.818276
9317.000000;0.818028
9316.000000;0.817764
9315.000000;0.817558
9314.000000;0.817521
9313.000000;0.817686
9312.000000;0.817922
9311.000000;0.818032
9310.000000;0.817944
9309.000000;0.817738
9308.000000;0.817512
9307.000000;0.817308
9306.000000;0.817164
9305.000000;0.817151
9304.000000;0.817298
9303.000000;0.817500
9302.000000;0.817555
9301.000000;0.817287
9300.000000;0.816698
9299.000000;0.816015
9298.000000;0.815567
9297.000000;0.815535
9296.000000;0.815812
9295.000000;0.816126
9294.000000;0.816291
9293.000000;0.816296
9292.000000;0.816211
9291.000000;0.816094
9290.000000;0.815983
9289.000000;0.815888
9288.000000;0.815773
9287.000000;0.815602
9286.000000;0.815421
9285.000000;0.815342
9284.000000;0.815414
9283.000000;0.815575
9282.000000;0.815758
9281.000000;0.815960
9280.000000;0.816158
9279.000000;0.816231
9278.000000;0.816056
9277.000000;0.815692
9276.000000;0.815367
9275.000000;0.815241
9274.000000;0.815211
9273.000000;0.815031
9272.000000;0.814619
9271.000000;0.814189
9270.000000;0.814036
9269.000000;0.814216
9268.000000;0.814506
9267.000000;0.814631
9266.000000;0.814503
9265.000000;0.814228
9264.000000;0.813978
9263.000000;0.813864
9262.000000;0.813873
9261.000000;0.813882
9260.000000;0.813781
9259.000000;0.813623
9258.000000;0.813598
9257.000000;0.813831
9256.000000;0.814255
9255.000000;0.814693
9254.000000;0.814971
9253.000000;0.814904
9252.000000;0.814351
9251.000000;0.813420
9250.000000;0.812560
9249.000000;0.812242
9248.000000;0.812524
9247.000000;0.813003
9246.000000;0.813234
9245.000000;0.813109
9244.000000;0.812829
9243.000000;0.812619
9242.000000;0.812559
9241.000000;0.812606
9240.000000;0.812680
9239.000000;0.812716
9238.000000;0.812688
9237.000000;0.812614
9236.000000;0.812549
9235.000000;0.812524
9234.000000;0.812487
9233.000000;0.812288
9232.000000;0.811822
9231.000000;0.811224
9230.000000;0.810855
9229.000000;0.811005
9228.000000;0.811606
9227.000000;0.812280
9226.000000;0.812669
9225.000000;0.812680
9224.000000;0.812455
9223.000000;0.812163
9222.000000;0.811863
9221.000000;0.811509
9220.000000;0.811095
9219.000000;0.810752
9218.000000;0.810652
9217.000000;0.810771
9216.000000;0.810870
9215.000000;0.810791
9214.000000;0.810683
9213.000000;0.810813
9212.000000;0.811195
9211.000000;0.811569
9210.000000;0.811702
9209.000000;0.811567
9208.000000;0.811235
9207.000000;0.810790
9206.000000;0.810397
9205.000000;0.810274
9204.000000;0.810464
9203.000000;0.810755
9202.000000;0.810926
9201.000000;0.810986
9200.000000;0.811063
9199.000000;0.811159
9198.000000;0.811156
9197.000000;0.811006
9196.000000;0.810760
9195.000000;0.810431
9194.000000;0.809969
9193.000000;0.809419
9192.000000;0.809010
9191.000000;0.808975
9190.000000;0.809308
9189.000000;0.809734
9188.000000;0.809962
9187.000000;0.809948
9186.000000;0.809909
9185.000000;0.810053
9184.000000;0.810329
9183.000000;0.810470
9182.000000;0.810273
9181.000000;0.809805
9180.000000;0.809324
9179.000000;0.809060
9178.000000;0.809073
9177.000000;0.809230
9176.000000;0.809311
9175.000000;0.809184
9174.000000;0.808904
9173.000000;0.808622
9172.000000;0.808401
9171.000000;0.808183
9170.000000;0.807954
9169.000000;0.807817
9168.000000;0.807856
9167.000000;0.808009
9166.000000;0.808138
9165.000000;0.808159
9164.000000;0.808062
9163.000000;0.807868
9162.000000;0.807672
9161.000000;0.807629
9160.000000;0.807784
9159.000000;0.807932
9158.000000;0.807785
9157.000000;0.807300
9156.000000;0.806767
9155.000000;0.806536
9154.000000;0.806734
9153.000000;0.807231
9152.000000;0.807788
9151.000000;0.808178
9150.000000;0.808246
9149.000000;0.807949
9148.000000;0.807377
9147.000000;0.806718
9146.000000;0.806204
9145.000000;0.806028
9144.000000;0.806250
9143.000000;0.806716
9142.000000;0.807121
9141.000000;0.807229
9140.000000;0.807082
9139.000000;0.806976
9138.000000;0.807176
9137.000000;0.807633
9136.000000;0.807979
9135.000000;0.807856
9134.000000;0.807244
9133.000000;0.806470
9132.000000;0.805932
9131.000000;0.805830
9130.000000;0.806107
9129.000000;0.806519
9128.000000;0.806774
9127.000000;0.806694
9126.000000;0.806344
9125.000000;0.805972
9124.000000;0.805760
9123.000000;0.805673
9122.000000;0.805590
9121.000000;0.805506
9120.000000;0.805528
9119.000000;0.805677
9118.000000;0.805804
9117.000000;0.805744
9116.000000;0.805507
9115.000000;0.805265
9114.000000;0.805166
9113.000000;0.805191
9112.000000;0.805198
9111.000000;0.805105
9110.000000;0.804982
9109.000000;0.804949
9108.000000;0.804988
9107.000000;0.804920
9106.000000;0.804607
9105.000000;0.804117
9104.000000;0.803671
9103.000000;0.803453
9102.000000;0.803504
9101.000000;0.803741
9100.000000;0.804011
9099.000000;0.804165
9098.000000;0.804152
9097.000000;0.804041
9096.000000;0.803916
9095.000000;0.803798
9094.000000;0.803723
9093.000000;0.803786
9092.000000;0.804011
9091.000000;0.804194
9090.000000;0.804063
9089.000000;0.803643
9088.000000;0.803323
9087.000000;0.803436
9086.000000;0.803882
9085.000000;0.804245
9084.000000;0.804250
9083.000000;0.803963
9082.000000;0.803598
9081.000000;0.803281
9080.000000;0.803038
9079.000000;0.802900
9078.000000;0.802889
9077.000000;0.802959
9076.000000;0.803019
9075.000000;0.803005
9074.000000;0.802890
9073.000000;0.802662
9072.000000;0.802360
9071.000000;0.802119
9070.000000;0.802073
9069.000000;0.802218
9068.000000;0.802420
9067.000000;0.802580
9066.000000;0.802723
9065.000000;0.802898
9064.000000;0.803072
9063.000000;0.803183
9062.000000;0.803219
9061.000000;0.803164
9060.000000;0.802931
9059.000000;0.802465
9058.000000;0.801893
9057.000000;0.801467
9056.000000;0.801326
9055.000000;0.801389
9054.000000;0.801482
9053.000000;0.801498
