Criado como novo conjunto de dados;"2706_e01_daniel.spp","54904.6 Secs"
cm-1;Abs
10000.000000;0.678011
9999.000000;0.678357
9998.000000;0.678721
9997.000000;0.678713
9996.000000;0.678117
9995.000000;0.677170
9994.000000;0.676311
9993.000000;0.675799
9992.000000;0.675497
9991.000000;0.675160
9990.000000;0.674769
9989.000000;0.674539
9988.000000;0.674649
9987.000000;0.675113
9986.000000;0.675787
9985.000000;0.676379
9984.000000;0.676546
9983.000000;0.676196
9982.000000;0.675665
9981.000000;0.675404
9980.000000;0.675506
9979.000000;0.675699
9978.000000;0.675726
9977.000000;0.675537
9976.000000;0.675148
9975.000000;0.674605
9974.000000;0.674117
9973.000000;0.673916
9972.000000;0.673904
9971.000000;0.673701
9970.000000;0.673175
9969.000000;0.672684
9968.000000;0.672633
9967.000000;0.672972
9966.000000;0.673334
9965.000000;0.673502
9964.000000;0.673554
9963.000000;0.673659
9962.000000;0.673925
9961.000000;0.674379
9960.000000;0.674907
9959.000000;0.675255
9958.000000;0.675239
9957.000000;0.674920
9956.000000;0.674484
9955.000000;0.674024
9954.000000;0.673556
9953.000000;0.673165
9952.000000;0.672991
9951.000000;0.673067
9950.000000;0.673248
9949.000000;0.673321
9948.000000;0.673189
9947.000000;0.672977
9946.000000;0.672916
9945.000000;0.673007
9944.000000;0.672899
9943.000000;0.672315
9942.000000;0.671565
9941.000000;0.671312
9940.000000;0.671744
9939.000000;0.672277
9938.000000;0.672259
9937.000000;0.671718
9936.000000;0.671148
9935.000000;0.670795
9934.000000;0.670503
9933.000000;0.670121
9932.000000;0.669749
9931.000000;0.669553
9930.000000;0.669556
9929.000000;0.669643
9928.000000;0.669647
9927.000000;0.669492
9926.000000;0.669374
9925.000000;0.669663
9924.000000;0.670461
9923.000000;0.671363
9922.000000;0.671848
9921.000000;0.671800
9920.000000;0.671458
9919.000000;0.671009
9918.000000;0.670485
9917.000000;0.669959
9916.000000;0.669527
9915.000000;0.669118
9914.000000;0.668613
9913.000000;0.668159
9912.000000;0.668087
9911.000000;0.668479
9910.000000;0.669041
9909.000000;0.669424
9908.000000;0.669480
9907.000000;0.669195
9906.000000;0.668650
9905.000000;0.668095
9904.000000;0.667811
9903.000000;0.667784
9902.000000;0.667702
9901.000000;0.667356
9900.000000;0.666861
9899.000000;0.666427
9898.000000;0.666138
9897.000000;0.666060
9896.000000;0.666322
9895.000000;0.666919
9894.000000;0.667563
9893.000000;0.667928
9892.000000;0.667954
9891.000000;0.667825
9890.000000;0.667719
9889.000000;0.667693
9888.000000;0.667699
9887.000000;0.667605
9886.000000;0.667272
9885.000000;0.666713
9884.000000;0.666111
9883.000000;0.665643
9882.000000;0.665336
9881.000000;0.665166
9880.000000;0.665192
9879.000000;0.665466
9878.000000;0.665871
9877.000000;0.666165
9876.000000;0.666178
9875.000000;0.665889
9874.000000;0.665350
9873.000000;0.664628
9872.000000;0.663869
9871.000000;0.663334
9870.000000;0.663280
9869.000000;0.663754
9868.000000;0.664468
9867.000000;0.664987
9866.000000;0.665087
9865.000000;0.664899
9864.000000;0.664652
9863.000000;0.664385
9862.000000;0.664040
9861.000000;0.663738
9860.000000;0.663712
9859.000000;0.663940
9858.000000;0.664072
9857.000000;0.663861
9856.000000;0.663509
9855.000000;0.663412
9854.000000;0.663637
9853.000000;0.663803
9852.000000;0.663504
9851.000000;0.662747
9850.000000;0.661965
9849.000000;0.661626
9848.000000;0.661842
9847.000000;0.662319
9846.000000;0.662683
9845.000000;0.662825
9844.000000;0.662867
9843.000000;0.662861
9842.000000;0.662651
9841.000000;0.662111
9840.000000;0.661391
9839.000000;0.660843
9838.000000;0.660704
9837.000000;0.660912
9836.000000;0.661203
9835.000000;0.661355
9834.000000;0.661380
9833.000000;0.661463
9832.000000;0.661719
9831.000000;0.662028
9830.000000;0.662166
9829.000000;0.662060
9828.000000;0.661815
9827.000000;0.661508
9826.000000;0.661121
9825.000000;0.660694
9824.000000;0.660381
9823.000000;0.660270
9822.000000;0.660284
9821.000000;0.660348
9820.000000;0.660519
9819.000000;0.660796
9818.000000;0.660925
9817.000000;0.660602
9816.000000;0.659896
9815.000000;0.659262
9814.000000;0.659077
9813.000000;0.659250
9812.000000;0.659373
9811.000000;0.659179
9810.000000;0.658820
9809.000000;0.658715
9808.000000;0.659127
9807.000000;0.659858
9806.000000;0.660349
9805.000000;0.660167
9804.000000;0.659401
9803.000000;0.658556
9802.000000;0.658061
9801.000000;0.657969
9800.000000;0.658122
9799.000000;0.658408
9798.000000;0.658744
9797.000000;0.658924
9796.000000;0.658706
9795.000000;0.658122
9794.000000;0.657540
9793.000000;0.657324
9792.000000;0.657458
9791.000000;0.657579
9790.000000;0.657352
9789.000000;0.656790
9788.000000;0.656230
9787.000000;0.656029
9786.000000;0.656261
9785.000000;0.656697
9784.000000;0.657090
9783.000000;0.657447
9782.000000;0.657911
9781.000000;0.658376
9780.000000;0.658406
9779.000000;0.657721
9778.000000;0.656663
9777.000000;0.655974
9776.000000;0.656069
9775.000000;0.656688
9774.000000;0.657276
9773.000000;0.657550
9772.000000;0.657598
9771.000000;0.657563
9770.000000;0.657414
9769.000000;0.657022
9768.000000;0.656380
9767.000000;0.655707
9766.000000;0.655350
9765.000000;0.655511
9764.000000;0.656037
9763.000000;0.656534
9762.000000;0.656699
9761.000000;0.656508
9760.000000;0.656079
9759.000000;0.655508
9758.000000;0.654940
9757.000000;0.654615
9756.000000;0.654674
9755.000000;0.654938
9754.000000;0.655039
9753.000000;0.654800
9752.000000;0.654396
9751.000000;0.654127
9750.000000;0.654146
9749.000000;0.654407
9748.000000;0.654789
9747.000000;0.655156
9746.000000;0.655354
9745.000000;0.655220
9744.000000;0.654709
9743.000000;0.654031
9742.000000;0.653599
9741.000000;0.653712
9740.000000;0.654225
9739.000000;0.654624
9738.000000;0.654505
9737.000000;0.653938
9736.000000;0.653341
9735.000000;0.653061
9734.000000;0.653164
9733.000000;0.653491
9732.000000;0.653797
9731.000000;0.653851
9730.000000;0.653580
9729.000000;0.653144
9728.000000;0.652789
9727.000000;0.652610
9726.000000;0.652515
9725.000000;0.652429
9724.000000;0.652416
9723.000000;0.652553
9722.000000;0.652759
9721.000000;0.652828
9720.000000;0.652636
9719.000000;0.652292
9718.000000;0.652037
9717.000000;0.652009
9716.000000;0.652120
9715.000000;0.652172
9714.000000;0.652071
9713.000000;0.651866
9712.000000;0.651651
9711.000000;0.651506
9710.000000;0.651505
9709.000000;0.651636
9708.000000;0.651711
9707.000000;0.651518
9706.000000;0.651119
9705.000000;0.650843
9704.000000;0.650899
9703.000000;0.651112
9702.000000;0.651172
9701.000000;0.651000
9700.000000;0.650736
9699.000000;0.650473
9698.000000;0.650212
9697.000000;0.650013
9696.000000;0.649983
9695.000000;0.650119
9694.000000;0.650303
9693.000000;0.650464
9692.000000;0.650624
9691.000000;0.650791
9690.000000;0.650909
9689.000000;0.650900
9688.000000;0.650684
9687.000000;0.650229
9686.000000;0.649686
9685.000000;0.649371
9684.000000;0.649431
9683.000000;0.649608
9682.000000;0.649537
9681.000000;0.649220
9680.000000;0.648991
9679.000000;0.649032
9678.000000;0.649183
9677.000000;0.649243
9676.000000;0.649181
9675.000000;0.648973
9674.000000;0.648522
9673.000000;0.647883
9672.000000;0.647349
9671.000000;0.647162
9670.000000;0.647275
9669.000000;0.647534
9668.000000;0.647883
9667.000000;0.648218
9666.000000;0.648261
9665.000000;0.647891
9664.000000;0.647450
9663.000000;0.647436
9662.000000;0.647895
9661.000000;0.648367
9660.000000;0.648458
9659.000000;0.648227
9658.000000;0.647977
9657.000000;0.647893
9656.000000;0.647977
9655.000000;0.648128
9654.000000;0.648160
9653.000000;0.647903
9652.000000;0.647418
9651.000000;0.647015
9650.000000;0.646923
9649.000000;0.647047
9648.000000;0.647133
9647.000000;0.647069
9646.000000;0.646877
9645.000000;0.646524
9644.000000;0.645987
9643.000000;0.645477
9642.000000;0.645364
9641.000000;0.645749
9640.000000;0.646287
9639.000000;0.646549
9638.000000;0.646462
9637.000000;0.646274
9636.000000;0.646171
9635.000000;0.646092
9634.000000;0.645883
9633.000000;0.645494
9632.000000;0.645028
9631.000000;0.644684
9630.000000;0.644667
9629.000000;0.645019
9628.000000;0.645524
9627.000000;0.645863
9626.000000;0.645888
9625.000000;0.645660
9624.000000;0.645252
9623.000000;0.644676
9622.000000;0.644041
9621.000000;0.643595
9620.000000;0.643511
9619.000000;0.643705
9618.000000;0.643957
9617.000000;0.644103
9616.000000;0.644047
9615.000000;0.643732
9614.000000;0.643257
9613.000000;0.642920
9612.000000;0.642978
9611.000000;0.643364
9610.000000;0.643771
9609.000000;0.643978
9608.000000;0.643990
9607.000000;0.643921
9606.000000;0.643896
9605.000000;0.644046
9604.000000;0.644417
9603.000000;0.644827
9602.000000;0.644973
9601.000000;0.644746
9600.000000;0.644342
9599.000000;0.644024
9598.000000;0.643859
9597.000000;0.643733
9596.000000;0.643520
9595.000000;0.643196
9594.000000;0.642839
9593.000000;0.642563
9592.000000;0.642404
9591.000000;0.642274
9590.000000;0.642104
9589.000000;0.641990
9588.000000;0.642065
9587.000000;0.642234
9586.000000;0.642217
9585.000000;0.641923
9584.000000;0.641607
9583.000000;0.641548
9582.000000;0.641687
9581.000000;0.641755
9580.000000;0.641639
9579.000000;0.641466
9578.000000;0.641363
9577.000000;0.641309
9576.000000;0.641248
9575.000000;0.641203
9574.000000;0.641242
9573.000000;0.641387
9572.000000;0.641567
9571.000000;0.641624
9570.000000;0.641400
9569.000000;0.640937
9568.000000;0.640540
9567.000000;0.640500
9566.000000;0.640704
9565.000000;0.640711
9564.000000;0.640291
9563.000000;0.639765
9562.000000;0.639653
9561.000000;0.640025
9560.000000;0.640389
9559.000000;0.640247
9558.000000;0.639640
9557.000000;0.639070
9556.000000;0.638970
9555.000000;0.639330
9554.000000;0.639794
9553.000000;0.639999
9552.000000;0.639852
9551.000000;0.639553
9550.000000;0.639385
9549.000000;0.639465
9548.000000;0.639673
9547.000000;0.639817
9546.000000;0.639827
9545.000000;0.639732
9544.000000;0.639508
9543.000000;0.639085
9542.000000;0.638546
9541.000000;0.638199
9540.000000;0.638320
9539.000000;0.638818
9538.000000;0.639257
9537.000000;0.639259
9536.000000;0.638843
9535.000000;0.638339
9534.000000;0.638011
9533.000000;0.637843
9532.000000;0.637680
9531.000000;0.637507
9530.000000;0.637456
9529.000000;0.637561
9528.000000;0.637625
9527.000000;0.637439
9526.000000;0.637086
9525.000000;0.636887
9524.000000;0.637053
9523.000000;0.637468
9522.000000;0.637844
9521.000000;0.637977
9520.000000;0.637825
9519.000000;0.637451
9518.000000;0.636983
9517.000000;0.636587
9516.000000;0.636359
9515.000000;0.636263
9514.000000;0.636196
9513.000000;0.636128
9512.000000;0.636120
9511.000000;0.636223
9510.000000;0.636385
9509.000000;0.636459
9508.000000;0.636307
9507.000000;0.635956
9506.000000;0.635636
9505.000000;0.635557
9504.000000;0.635640
9503.000000;0.635589
9502.000000;0.635318
9501.000000;0.635144
9500.000000;0.635411
9499.000000;0.635980
9498.000000;0.636300
9497.000000;0.636001
9496.000000;0.635277
9495.000000;0.634631
9494.000000;0.634362
9493.000000;0.634366
9492.000000;0.634365
9491.000000;0.634250
9490.000000;0.634190
9489.000000;0.634387
9488.000000;0.634763
9487.000000;0.634958
9486.000000;0.634728
9485.000000;0.634252
9484.000000;0.633928
9483.000000;0.633912
9482.000000;0.634005
9481.000000;0.633986
9480.000000;0.633863
9479.000000;0.633725
9478.000000;0.633537
9477.000000;0.633231
9476.000000;0.632916
9475.000000;0.632785
9474.000000;0.632830
9473.000000;0.632820
9472.000000;0.632611
9471.000000;0.632375
9470.000000;0.632397
9469.000000;0.632715
9468.000000;0.633067
9467.000000;0.633220
9466.000000;0.633232
9465.000000;0.633309
9464.000000;0.633475
9463.000000;0.633521
9462.000000;0.633297
9461.000000;0.632938
9460.000000;0.632708
9459.000000;0.632694
9458.000000;0.632735
9457.000000;0.632628
9456.000000;0.632326
9455.000000;0.631931
9454.000000;0.631600
9453.000000;0.631469
9452.000000;0.631586
9451.000000;0.631853
9450.000000;0.632064
9449.000000;0.632054
9448.000000;0.631823
9447.000000;0.631516
9446.000000;0.631275
9445.000000;0.631108
9444.000000;0.630922
9443.000000;0.630694
9442.000000;0.630571
9441.000000;0.630733
9440.000000;0.631132
9439.000000;0.631477
9438.000000;0.631523
9437.000000;0.631310
9436.000000;0.631037
9435.000000;0.630820
9434.000000;0.630684
9433.000000;0.630707
9432.000000;0.630942
9431.000000;0.631207
9430.000000;0.631161
9429.000000;0.630704
9428.000000;0.630143
9427.000000;0.629862
9426.000000;0.629931
9425.000000;0.630124
9424.000000;0.630237
9423.000000;0.630235
9422.000000;0.630152
9421.000000;0.629995
9420.000000;0.629800
9419.000000;0.629650
9418.000000;0.629586
9417.000000;0.629549
9416.000000;0.629444
9415.000000;0.629243
9414.000000;0.628979
9413.000000;0.628690
9412.000000;0.628400
9411.000000;0.628143
9410.000000;0.627969
9409.000000;0.627927
9408.000000;0.628030
9407.000000;0.628226
9406.000000;0.628379
9405.000000;0.628333
9404.000000;0.628034
9403.000000;0.627613
9402.000000;0.627316
9401.000000;0.627299
9400.000000;0.627520
9399.000000;0.627823
9398.000000;0.628117
9397.000000;0.628393
9396.000000;0.628601
9395.000000;0.628611
9394.000000;0.628347
9393.000000;0.627894
9392.000000;0.627435
9391.000000;0.627108
9390.000000;0.626970
9389.000000;0.627031
9388.000000;0.627214
9387.000000;0.627348
9386.000000;0.627291
9385.000000;0.627077
9384.000000;0.626861
9383.000000;0.626718
9382.000000;0.626598
9381.000000;0.626482
9380.000000;0.626430
9379.000000;0.626438
9378.000000;0.626380
9377.000000;0.626195
9376.000000;0.626045
9375.000000;0.626133
9374.000000;0.626415
9373.000000;0.626617
9372.000000;0.626564
9371.000000;0.626364
9370.000000;0.626217
9369.000000;0.626161
9368.000000;0.626089
9367.000000;0.625952
9366.000000;0.625830
9365.000000;0.625806
9364.000000;0.625854
9363.000000;0.625875
9362.000000;0.625773
9361.000000;0.625486
9360.000000;0.625019
9359.000000;0.624505
9358.000000;0.624159
9357.000000;0.624093
9356.000000;0.624208
9355.000000;0.624324
9354.000000;0.624392
9353.000000;0.624479
9352.000000;0.624570
9351.000000;0.624523
9350.000000;0.624257
9349.000000;0.623893
9348.000000;0.623635
9347.000000;0.623567
9346.000000;0.623631
9345.000000;0.623711
9344.000000;0.623688
9343.000000;0.623463
9342.000000;0.623061
9341.000000;0.622684
9340.000000;0.622568
9339.000000;0.622767
9338.000000;0.623129
9337.000000;0.623459
9336.000000;0.623635
9335.000000;0.623596
9334.000000;0.623342
9333.000000;0.622981
9332.000000;0.622689
9331.000000;0.622567
9330.000000;0.622562
9329.000000;0.622566
9328.000000;0.622536
9327.000000;0.622507
9326.000000;0.622525
9325.000000;0.622597
9324.000000;0.622680
9323.000000;0.622701
9322.000000;0.622624
9321.000000;0.622521
9320.000000;0.622523
9319.000000;0.622674
9318.000000;0.622873
9317.000000;0.622979
9316.000000;0.622948
9315.000000;0.622832
9314.000000;0.622684
9313.000000;0.622504
9312.000000;0.622279
9311.000000;0.622030
9310.000000;0.621812
9309.000000;0.621675
9308.000000;0.621639
9307.000000;0.621689
9306.000000;0.621802
9305.000000;0.621932
9304.000000;0.621997
9303.000000;0.621907
9302.000000;0.621671
9301.000000;0.621421
9300.000000;0.621275
9299.000000;0.621182
9298.000000;0.620986
9297.000000;0.620643
9296.000000;0.620301
9295.000000;0.620119
9294.000000;0.620082
9293.000000;0.620060
9292.000000;0.619993
9291.000000;0.619932
9290.000000;0.619927
9289.000000;0.619952
9288.000000;0.619946
9287.000000;0.619884
9286.000000;0.619783
9285.000000;0.619669
9284.000000;0.619547
9283.000000;0.619400
9282.000000;0.619230
9281.000000;0.619103
9280.000000;0.619126
9279.000000;0.619324
9278.000000;0.619562
9277.000000;0.619656
9276.000000;0.619557
9275.000000;0.619373
9274.000000;0.619201
9273.000000;0.619011
9272.000000;0.618736
9271.000000;0.618404
9270.000000;0.618116
9269.000000;0.617906
9268.000000;0.617712
9267.000000;0.617486
9266.000000;0.617288
9265.000000;0.617228
9264.000000;0.617351
9263.000000;0.617571
9262.000000;0.617719
9261.000000;0.617667
9260.000000;0.617463
9259.000000;0.617340
9258.000000;0.617503
9257.000000;0.617887
9256.000000;0.618186
9255.000000;0.618150
9254.000000;0.617813
9253.000000;0.617401
9252.000000;0.617096
9251.000000;0.616964
9250.000000;0.617020
9249.000000;0.617199
9248.000000;0.617298
9247.000000;0.617108
9246.000000;0.616672
9245.000000;0.616298
9244.000000;0.616235
9243.000000;0.616409
9242.000000;0.616555
9241.000000;0.616556
9240.000000;0.616525
9239.000000;0.616596
9238.000000;0.616729
9237.000000;0.616761
9236.000000;0.616607
9235.000000;0.616353
9234.000000;0.616157
9233.000000;0.616087
9232.000000;0.616067
9231.000000;0.615986
9230.000000;0.615817
9229.000000;0.615598
9228.000000;0.615345
9227.000000;0.615091
9226.000000;0.614980
9225.000000;0.615192
9224.000000;0.615687
9223.000000;0.616129
9222.000000;0.616182
9221.000000;0.615836
9220.000000;0.615363
9219.000000;0.614986
9218.000000;0.614732
9217.000000;0.614554
9216.000000;0.614467
9215.000000;0.614494
9214.000000;0.614602
9213.000000;0.614731
9212.000000;0.614845
9211.000000;0.614918
9210.000000;0.614909
9209.000000;0.614805
9208.000000;0.614639
9207.000000;0.614429
9206.000000;0.614178
9205.000000;0.613962
9204.000000;0.613939
9203.000000;0.614174
9202.000000;0.614474
9201.000000;0.614507
9200.000000;0.614132
9199.000000;0.613551
9198.000000;0.613111
9197.000000;0.612992
9196.000000;0.613107
9195.000000;0.613254
9194.000000;0.613295
9193.000000;0.613200
9192.000000;0.613005
9191.000000;0.612795
9190.000000;0.612664
9189.000000;0.612635
9188.000000;0.612607
9187.000000;0.612456
9186.000000;0.612204
9185.000000;0.612037
9184.000000;0.612087
9183.000000;0.612262
9182.000000;0.612324
9181.000000;0.612170
9180.000000;0.611960
9179.000000;0.611934
9178.000000;0.612138
9177.000000;0.612372
9176.000000;0.612418
9175.000000;0.612289
9174.000000;0.612190
9173.000000;0.612274
9172.000000;0.612462
9171.000000;0.612536
9170.000000;0.612335
9169.000000;0.611859
9168.000000;0.611251
9167.000000;0.610751
9166.000000;0.610592
9165.000000;0.610814
9164.000000;0.611156
9163.000000;0.611247
9162.000000;0.610956
9161.000000;0.610488
9160.000000;0.610121
9159.000000;0.609925
9158.000000;0.609816
9157.000000;0.609760
9156.000000;0.609832
9155.000000;0.610076
9154.000000;0.610413
9153.000000;0.610700
9152.000000;0.610819
9151.000000;0.610719
9150.000000;0.610456
9149.000000;0.610177
9148.000000;0.610026
9147.000000;0.610034
9146.000000;0.610106
9145.000000;0.610130
9144.000000;0.610062
9143.000000;0.609928
9142.000000;0.609764
9141.000000;0.609575
9140.000000;0.609309
9139.000000;0.608918
9138.000000;0.608473
9137.000000;0.608175
9136.000000;0.608207
9135.000000;0.608543
9134.000000;0.608945
9133.000000;0.609149
9132.000000;0.609051
9131.000000;0.608726
9130.000000;0.608336
9129.000000;0.608012
9128.000000;0.607793
9127.000000;0.607647
9126.000000;0.607526
9125.000000;0.607406
9124.000000;0.607273
9123.000000;0.607136
9122.000000;0.607051
9121.000000;0.607094
9120.000000;0.607270
9119.000000;0.607488
9118.000000;0.607658
9117.000000;0.607776
9116.000000;0.607882
9115.000000;0.607955
9114.000000;0.607923
9113.000000;0.607752
9112.000000;0.607499
9111.000000;0.607269
9110.000000;0.607163
9109.000000;0.607213
9108.000000;0.607342
9107.000000;0.607405
9106.000000;0.607333
9105.000000;0.607191
9104.000000;0.607063
9103.000000;0.606924
9102.000000;0.606707
9101.000000;0.606456
9100.000000;0.606295
9099.000000;0.606281
9098.000000;0.606347
9097.000000;0.606409
9096.000000;0.606415
9095.000000;0.606303
9094.000000;0.606025
9093.000000;0.605659
9092.000000;0.605388
9091.000000;0.605317
9090.000000;0.605362
9089.000000;0.605392
9088.000000;0.605393
9087.000000;0.605437
9086.000000;0.605526
9085.000000;0.605574
9084.000000;0.605519
9083.000000;0.605409
9082.000000;0.605333
9081.000000;0.605323
9080.000000;0.605325
9079.000000;0.605256
9078.000000;0.605079
9077.000000;0.604835
9076.000000;0.604608
9075.000000;0.604455
9074.000000;0.604383
9073.000000;0.604354
9072.000000;0.604294
9071.000000;0.604123
9070.000000;0.603835
9069.000000;0.603551
9068.000000;0.603434
9067.000000;0.603540
9066.000000;0.603798
9065.000000;0.604104
9064.000000;0.604369
9063.000000;0.604486
9062.000000;0.604363
9061.000000;0.604061
9060.000000;0.603787
9059.000000;0.603689
9058.000000;0.603688
9057.000000;0.603595
9056.000000;0.603359
9055.000000;0.603103
9054.000000;0.602953
9053.000000;0.602918
