Criado como novo conjunto de dados;"2706_e01_daniel.spp","39964.1 Secs"
cm-1;Abs
10000.000000;0.717444
9999.000000;0.717707
9998.000000;0.718198
9997.000000;0.718860
9996.000000;0.719387
9995.000000;0.719542
9994.000000;0.719287
9993.000000;0.718734
9992.000000;0.718038
9991.000000;0.717372
9990.000000;0.716825
9989.000000;0.716334
9988.000000;0.715802
9987.000000;0.715271
9986.000000;0.714860
9985.000000;0.714572
9984.000000;0.714337
9983.000000;0.714220
9982.000000;0.714397
9981.000000;0.714825
9980.000000;0.715119
9979.000000;0.714928
9978.000000;0.714342
9977.000000;0.713799
9976.000000;0.713632
9975.000000;0.713846
9974.000000;0.714281
9973.000000;0.714810
9972.000000;0.715300
9971.000000;0.715536
9970.000000;0.715365
9969.000000;0.714918
9968.000000;0.714547
9967.000000;0.714513
9966.000000;0.714772
9965.000000;0.715112
9964.000000;0.715392
9963.000000;0.715591
9962.000000;0.715665
9961.000000;0.715504
9960.000000;0.715035
9959.000000;0.714304
9958.000000;0.713442
9957.000000;0.712621
9956.000000;0.712030
9955.000000;0.711796
9954.000000;0.711892
9953.000000;0.712206
9952.000000;0.712684
9951.000000;0.713313
9950.000000;0.713918
9949.000000;0.714169
9948.000000;0.713900
9947.000000;0.713328
9946.000000;0.712838
9945.000000;0.712612
9944.000000;0.712561
9943.000000;0.712513
9942.000000;0.712339
9941.000000;0.711994
9940.000000;0.711604
9939.000000;0.711444
9938.000000;0.711628
9937.000000;0.711832
9936.000000;0.711572
9935.000000;0.710829
9934.000000;0.710164
9933.000000;0.710095
9932.000000;0.710501
9931.000000;0.710809
9930.000000;0.710676
9929.000000;0.710302
9928.000000;0.710109
9927.000000;0.710294
9926.000000;0.710754
9925.000000;0.711271
9924.000000;0.711665
9923.000000;0.711848
9922.000000;0.711823
9921.000000;0.711656
9920.000000;0.711393
9919.000000;0.711032
9918.000000;0.710570
9917.000000;0.710091
9916.000000;0.709743
9915.000000;0.709616
9914.000000;0.709643
9913.000000;0.709661
9912.000000;0.709548
9911.000000;0.709319
9910.000000;0.709084
9909.000000;0.708944
9908.000000;0.708928
9907.000000;0.708995
9906.000000;0.709088
9905.000000;0.709185
9904.000000;0.709309
9903.000000;0.709477
9902.000000;0.709615
9901.000000;0.709567
9900.000000;0.709247
9899.000000;0.708785
9898.000000;0.708462
9897.000000;0.708459
9896.000000;0.708695
9895.000000;0.708928
9894.000000;0.708964
9893.000000;0.708740
9892.000000;0.708248
9891.000000;0.707537
9890.000000;0.706811
9889.000000;0.706428
9888.000000;0.706656
9887.000000;0.707366
9886.000000;0.708030
9885.000000;0.708125
9884.000000;0.707554
9883.000000;0.706684
9882.000000;0.705975
9881.000000;0.705626
9880.000000;0.705525
9879.000000;0.705471
9878.000000;0.705387
9877.000000;0.705376
9876.000000;0.705591
9875.000000;0.706033
9874.000000;0.706471
9873.000000;0.706630
9872.000000;0.706482
9871.000000;0.706273
9870.000000;0.706212
9869.000000;0.706211
9868.000000;0.706009
9867.000000;0.705539
9866.000000;0.705073
9865.000000;0.705003
9864.000000;0.705490
9863.000000;0.706273
9862.000000;0.706773
9861.000000;0.706514
9860.000000;0.705558
9859.000000;0.704481
9858.000000;0.703800
9857.000000;0.703495
9856.000000;0.703231
9855.000000;0.702940
9854.000000;0.702897
9853.000000;0.703200
9852.000000;0.703511
9851.000000;0.703496
9850.000000;0.703321
9849.000000;0.703424
9848.000000;0.703895
9847.000000;0.704361
9846.000000;0.704449
9845.000000;0.704156
9844.000000;0.703712
9843.000000;0.703309
9842.000000;0.703023
9841.000000;0.702866
9840.000000;0.702786
9839.000000;0.702704
9838.000000;0.702597
9837.000000;0.702500
9836.000000;0.702412
9835.000000;0.702314
9834.000000;0.702289
9833.000000;0.702455
9832.000000;0.702709
9831.000000;0.702716
9830.000000;0.702341
9829.000000;0.701947
9828.000000;0.702025
9827.000000;0.702547
9826.000000;0.702927
9825.000000;0.702726
9824.000000;0.702160
9823.000000;0.701750
9822.000000;0.701644
9821.000000;0.701558
9820.000000;0.701324
9819.000000;0.701167
9818.000000;0.701325
9817.000000;0.701656
9816.000000;0.701849
9815.000000;0.701885
9814.000000;0.702029
9813.000000;0.702405
9812.000000;0.702848
9811.000000;0.703189
9810.000000;0.703456
9809.000000;0.703658
9808.000000;0.703614
9807.000000;0.703144
9806.000000;0.702322
9805.000000;0.701385
9804.000000;0.700498
9803.000000;0.699721
9802.000000;0.699123
9801.000000;0.698768
9800.000000;0.698652
9799.000000;0.698803
9798.000000;0.699334
9797.000000;0.700198
9796.000000;0.700948
9795.000000;0.701030
9794.000000;0.700380
9793.000000;0.699538
9792.000000;0.699068
9791.000000;0.699054
9790.000000;0.699226
9789.000000;0.699374
9788.000000;0.699440
9787.000000;0.699340
9786.000000;0.698946
9785.000000;0.698317
9784.000000;0.697768
9783.000000;0.697621
9782.000000;0.697903
9781.000000;0.698333
9780.000000;0.698604
9779.000000;0.698650
9778.000000;0.698621
9777.000000;0.698615
9776.000000;0.698525
9775.000000;0.698193
9774.000000;0.697667
9773.000000;0.697183
9772.000000;0.696914
9771.000000;0.696860
9770.000000;0.696985
9769.000000;0.697335
9768.000000;0.697912
9767.000000;0.698543
9766.000000;0.698989
9765.000000;0.699165
9764.000000;0.699172
9763.000000;0.699120
9762.000000;0.698954
9761.000000;0.698524
9760.000000;0.697817
9759.000000;0.697088
9758.000000;0.696681
9757.000000;0.696652
9756.000000;0.696672
9755.000000;0.696387
9754.000000;0.695860
9753.000000;0.695510
9752.000000;0.695628
9751.000000;0.696102
9750.000000;0.696597
9749.000000;0.696837
9748.000000;0.696665
9747.000000;0.696061
9746.000000;0.695276
9745.000000;0.694783
9744.000000;0.694891
9743.000000;0.695448
9742.000000;0.696037
9741.000000;0.696406
9740.000000;0.696565
9739.000000;0.696541
9738.000000;0.696261
9737.000000;0.695717
9736.000000;0.695085
9735.000000;0.694596
9734.000000;0.694364
9733.000000;0.694345
9732.000000;0.694396
9731.000000;0.694385
9730.000000;0.694308
9729.000000;0.694300
9728.000000;0.694441
9727.000000;0.694592
9726.000000;0.694569
9725.000000;0.694446
9724.000000;0.694506
9723.000000;0.694847
9722.000000;0.695204
9721.000000;0.695261
9720.000000;0.695021
9719.000000;0.694713
9718.000000;0.694437
9717.000000;0.694077
9716.000000;0.693565
9715.000000;0.693060
9714.000000;0.692795
9713.000000;0.692828
9712.000000;0.693012
9711.000000;0.693143
9710.000000;0.693098
9709.000000;0.692863
9708.000000;0.692525
9707.000000;0.692222
9706.000000;0.692037
9705.000000;0.691908
9704.000000;0.691723
9703.000000;0.691519
9702.000000;0.691497
9701.000000;0.691771
9700.000000;0.692133
9699.000000;0.692213
9698.000000;0.691875
9697.000000;0.691359
9696.000000;0.691019
9695.000000;0.690997
9694.000000;0.691208
9693.000000;0.691508
9692.000000;0.691789
9691.000000;0.691986
9690.000000;0.692088
9689.000000;0.692140
9688.000000;0.692136
9687.000000;0.691956
9686.000000;0.691506
9685.000000;0.690893
9684.000000;0.690381
9683.000000;0.690154
9682.000000;0.690207
9681.000000;0.690413
9680.000000;0.690618
9679.000000;0.690657
9678.000000;0.690455
9677.000000;0.690161
9676.000000;0.690059
9675.000000;0.690242
9674.000000;0.690467
9673.000000;0.690433
9672.000000;0.690148
9671.000000;0.689882
9670.000000;0.689816
9669.000000;0.689865
9668.000000;0.689859
9667.000000;0.689747
9666.000000;0.689564
9665.000000;0.689347
9664.000000;0.689164
9663.000000;0.689151
9662.000000;0.689358
9661.000000;0.689606
9660.000000;0.689622
9659.000000;0.689349
9658.000000;0.689046
9657.000000;0.689005
9656.000000;0.689237
9655.000000;0.689476
9654.000000;0.689454
9653.000000;0.689145
9652.000000;0.688743
9651.000000;0.688460
9650.000000;0.688361
9649.000000;0.688358
9648.000000;0.688360
9647.000000;0.688398
9646.000000;0.688561
9645.000000;0.688813
9644.000000;0.688947
9643.000000;0.688785
9642.000000;0.688419
9641.000000;0.688176
9640.000000;0.688289
9639.000000;0.688632
9638.000000;0.688802
9637.000000;0.688523
9636.000000;0.687946
9635.000000;0.687503
9634.000000;0.687428
9633.000000;0.687501
9632.000000;0.687306
9631.000000;0.686722
9630.000000;0.686042
9629.000000;0.685632
9628.000000;0.685606
9627.000000;0.685865
9626.000000;0.686266
9625.000000;0.686644
9624.000000;0.686823
9623.000000;0.686785
9622.000000;0.686776
9621.000000;0.687050
9620.000000;0.687522
9619.000000;0.687838
9618.000000;0.687800
9617.000000;0.687564
9616.000000;0.687383
9615.000000;0.687324
9614.000000;0.687298
9613.000000;0.687207
9612.000000;0.686970
9611.000000;0.686533
9610.000000;0.685978
9609.000000;0.685536
9608.000000;0.685369
9607.000000;0.685392
9606.000000;0.685389
9605.000000;0.685278
9604.000000;0.685129
9603.000000;0.685001
9602.000000;0.684887
9601.000000;0.684819
9600.000000;0.684892
9599.000000;0.685110
9598.000000;0.685325
9597.000000;0.685383
9596.000000;0.685303
9595.000000;0.685224
9594.000000;0.685215
9593.000000;0.685215
9592.000000;0.685159
9591.000000;0.685081
9590.000000;0.685034
9589.000000;0.684978
9588.000000;0.684832
9587.000000;0.684638
9586.000000;0.684558
9585.000000;0.684656
9584.000000;0.684796
9583.000000;0.684821
9582.000000;0.684768
9581.000000;0.684772
9580.000000;0.684833
9579.000000;0.684801
9578.000000;0.684607
9577.000000;0.684352
9576.000000;0.684119
9575.000000;0.683849
9574.000000;0.683463
9573.000000;0.683050
9572.000000;0.682808
9571.000000;0.682837
9570.000000;0.683037
9569.000000;0.683203
9568.000000;0.683192
9567.000000;0.683043
9566.000000;0.682927
9565.000000;0.682969
9564.000000;0.683110
9563.000000;0.683182
9562.000000;0.683098
9561.000000;0.682903
9560.000000;0.682661
9559.000000;0.682382
9558.000000;0.682094
9557.000000;0.681897
9556.000000;0.681876
9555.000000;0.682029
9554.000000;0.682294
9553.000000;0.682590
9552.000000;0.682808
9551.000000;0.682840
9550.000000;0.682671
9549.000000;0.682389
9548.000000;0.682087
9547.000000;0.681830
9546.000000;0.681689
9545.000000;0.681715
9544.000000;0.681813
9543.000000;0.681767
9542.000000;0.681469
9541.000000;0.681067
9540.000000;0.680814
9539.000000;0.680829
9538.000000;0.681055
9537.000000;0.681346
9536.000000;0.681547
9535.000000;0.681543
9534.000000;0.681336
9533.000000;0.681037
9532.000000;0.680744
9531.000000;0.680478
9530.000000;0.680268
9529.000000;0.680172
9528.000000;0.680168
9527.000000;0.680119
9526.000000;0.679955
9525.000000;0.679799
9524.000000;0.679817
9523.000000;0.679984
9522.000000;0.680126
9521.000000;0.680123
9520.000000;0.679974
9519.000000;0.679678
9518.000000;0.679221
9517.000000;0.678683
9516.000000;0.678243
9515.000000;0.678033
9514.000000;0.678028
9513.000000;0.678123
9512.000000;0.678286
9511.000000;0.678594
9510.000000;0.679096
9509.000000;0.679649
9508.000000;0.679938
9507.000000;0.679761
9506.000000;0.679288
9505.000000;0.678928
9504.000000;0.678889
9503.000000;0.678993
9502.000000;0.678973
9501.000000;0.678840
9500.000000;0.678807
9499.000000;0.678953
9498.000000;0.679133
9497.000000;0.679187
9496.000000;0.679096
9495.000000;0.678894
9494.000000;0.678549
9493.000000;0.678011
9492.000000;0.677341
9491.000000;0.676766
9490.000000;0.676559
9489.000000;0.676819
9488.000000;0.677307
9487.000000;0.677598
9486.000000;0.677456
9485.000000;0.677031
9484.000000;0.676640
9483.000000;0.676450
9482.000000;0.676441
9481.000000;0.676570
9480.000000;0.676775
9479.000000;0.676876
9478.000000;0.676677
9477.000000;0.676238
9476.000000;0.675913
9475.000000;0.675994
9474.000000;0.676378
9473.000000;0.676638
9472.000000;0.676444
9471.000000;0.675862
9470.000000;0.675267
9469.000000;0.674994
9468.000000;0.675089
9467.000000;0.675368
9466.000000;0.675635
9465.000000;0.675777
9464.000000;0.675700
9463.000000;0.675352
9462.000000;0.674845
9461.000000;0.674448
9460.000000;0.674347
9459.000000;0.674481
9458.000000;0.674668
9457.000000;0.674804
9456.000000;0.674874
9455.000000;0.674888
9454.000000;0.674919
9453.000000;0.675090
9452.000000;0.675400
9451.000000;0.675621
9450.000000;0.675550
9449.000000;0.675284
9448.000000;0.675095
9447.000000;0.675062
9446.000000;0.675014
9445.000000;0.674799
9444.000000;0.674428
9443.000000;0.673992
9442.000000;0.673622
9441.000000;0.673540
9440.000000;0.673918
9439.000000;0.674582
9438.000000;0.675055
9437.000000;0.675006
9436.000000;0.674550
9435.000000;0.674027
9434.000000;0.673639
9433.000000;0.673408
9432.000000;0.673327
9431.000000;0.673359
9430.000000;0.673348
9429.000000;0.673151
9428.000000;0.672846
9427.000000;0.672700
9426.000000;0.672856
9425.000000;0.673143
9424.000000;0.673248
9423.000000;0.673027
9422.000000;0.672623
9421.000000;0.672295
9420.000000;0.672201
9419.000000;0.672316
9418.000000;0.672533
9417.000000;0.672754
9416.000000;0.672898
9415.000000;0.672899
9414.000000;0.672766
9413.000000;0.672611
9412.000000;0.672558
9411.000000;0.672613
9410.000000;0.672676
9409.000000;0.672652
9408.000000;0.672508
9407.000000;0.672246
9406.000000;0.671923
9405.000000;0.671686
9404.000000;0.671665
9403.000000;0.671817
9402.000000;0.671949
9401.000000;0.671926
9400.000000;0.671774
9399.000000;0.671564
9398.000000;0.671295
9397.000000;0.670952
9396.000000;0.670618
9395.000000;0.670439
9394.000000;0.670507
9393.000000;0.670778
9392.000000;0.671068
9391.000000;0.671135
9390.000000;0.670875
9389.000000;0.670469
9388.000000;0.670239
9387.000000;0.670289
9386.000000;0.670380
9385.000000;0.670242
9384.000000;0.669917
9383.000000;0.669684
9382.000000;0.669688
9381.000000;0.669799
9380.000000;0.669812
9379.000000;0.669695
9378.000000;0.669569
9377.000000;0.669558
9376.000000;0.669687
9375.000000;0.669856
9374.000000;0.669894
9373.000000;0.669686
9372.000000;0.669329
9371.000000;0.669099
9370.000000;0.669206
9369.000000;0.669602
9368.000000;0.670070
9367.000000;0.670431
9366.000000;0.670581
9365.000000;0.670400
9364.000000;0.669806
9363.000000;0.668947
9362.000000;0.668209
9361.000000;0.667883
9360.000000;0.667897
9359.000000;0.667964
9358.000000;0.667976
9357.000000;0.668082
9356.000000;0.668383
9355.000000;0.668703
9354.000000;0.668764
9353.000000;0.668509
9352.000000;0.668141
9351.000000;0.667897
9350.000000;0.667838
9349.000000;0.667847
9348.000000;0.667760
9347.000000;0.667523
9346.000000;0.667273
9345.000000;0.667225
9344.000000;0.667415
9343.000000;0.667572
9342.000000;0.667357
9341.000000;0.666731
9340.000000;0.665997
9339.000000;0.665494
9338.000000;0.665306
9337.000000;0.665316
9336.000000;0.665443
9335.000000;0.665695
9334.000000;0.666022
9333.000000;0.666225
9332.000000;0.666138
9331.000000;0.665886
9330.000000;0.665825
9329.000000;0.666144
9328.000000;0.666586
9327.000000;0.666717
9326.000000;0.666475
9325.000000;0.666259
9324.000000;0.666404
9323.000000;0.666743
9322.000000;0.666864
9321.000000;0.666676
9320.000000;0.666488
9319.000000;0.666539
9318.000000;0.666690
9317.000000;0.666651
9316.000000;0.666351
9315.000000;0.665958
9314.000000;0.665660
9313.000000;0.665530
9312.000000;0.665546
9311.000000;0.665631
9310.000000;0.665686
9309.000000;0.665652
9308.000000;0.665543
9307.000000;0.665406
9306.000000;0.665278
9305.000000;0.665192
9304.000000;0.665155
9303.000000;0.665113
9302.000000;0.665012
9301.000000;0.664906
9300.000000;0.664921
9299.000000;0.665040
9298.000000;0.665025
9297.000000;0.664662
9296.000000;0.664050
9295.000000;0.663539
9294.000000;0.663400
9293.000000;0.663622
9292.000000;0.663998
9291.000000;0.664301
9290.000000;0.664354
9289.000000;0.664073
9288.000000;0.663528
9287.000000;0.662950
9286.000000;0.662592
9285.000000;0.662555
9284.000000;0.662745
9283.000000;0.662961
9282.000000;0.663031
9281.000000;0.662913
9280.000000;0.662705
9279.000000;0.662567
9278.000000;0.662608
9277.000000;0.662805
9276.000000;0.663022
9275.000000;0.663108
9274.000000;0.662993
9273.000000;0.662733
9272.000000;0.662443
9271.000000;0.662207
9270.000000;0.662051
9269.000000;0.662005
9268.000000;0.662138
9267.000000;0.662452
9266.000000;0.662765
9265.000000;0.662795
9264.000000;0.662422
9263.000000;0.661855
9262.000000;0.661463
9261.000000;0.661444
9260.000000;0.661661
9259.000000;0.661807
9258.000000;0.661694
9257.000000;0.661384
9256.000000;0.661079
9255.000000;0.660917
9254.000000;0.660872
9253.000000;0.660818
9252.000000;0.660692
9251.000000;0.660589
9250.000000;0.660677
9249.000000;0.660984
9248.000000;0.661302
9247.000000;0.661340
9246.000000;0.660993
9245.000000;0.660439
9244.000000;0.659966
9243.000000;0.659740
9242.000000;0.659748
9241.000000;0.659897
9240.000000;0.660112
9239.000000;0.660327
9238.000000;0.660453
9237.000000;0.660418
9236.000000;0.660246
9235.000000;0.660077
9234.000000;0.660050
9233.000000;0.660176
9232.000000;0.660331
9231.000000;0.660387
9230.000000;0.660314
9229.000000;0.660147
9228.000000;0.659893
9227.000000;0.659552
9226.000000;0.659205
9225.000000;0.658998
9224.000000;0.658976
9223.000000;0.659012
9222.000000;0.658937
9221.000000;0.658731
9220.000000;0.658514
9219.000000;0.658389
9218.000000;0.658336
9217.000000;0.658280
9216.000000;0.658181
9215.000000;0.658046
9214.000000;0.657922
9213.000000;0.657887
9212.000000;0.658003
9211.000000;0.658215
9210.000000;0.658314
9209.000000;0.658107
9208.000000;0.657654
9207.000000;0.657256
9206.000000;0.657159
9205.000000;0.657300
9204.000000;0.657392
9203.000000;0.657252
9202.000000;0.656962
9201.000000;0.656715
9200.000000;0.656622
9199.000000;0.656693
9198.000000;0.656911
9197.000000;0.657208
9196.000000;0.657409
9195.000000;0.657348
9194.000000;0.657031
9193.000000;0.656635
9192.000000;0.656331
9191.000000;0.656207
9190.000000;0.656320
9189.000000;0.656683
9188.000000;0.657142
9187.000000;0.657390
9186.000000;0.657248
9185.000000;0.656880
9184.000000;0.656628
9183.000000;0.656648
9182.000000;0.656793
9181.000000;0.656851
9180.000000;0.656783
9179.000000;0.656702
9178.000000;0.656693
9177.000000;0.656742
9176.000000;0.656820
9175.000000;0.656925
9174.000000;0.657006
9173.000000;0.656915
9172.000000;0.656536
9171.000000;0.655959
9170.000000;0.655444
9169.000000;0.655180
9168.000000;0.655151
9167.000000;0.655264
9166.000000;0.655494
9165.000000;0.655822
9164.000000;0.656094
9163.000000;0.656112
9162.000000;0.655848
9161.000000;0.655476
9160.000000;0.655151
9159.000000;0.654884
9158.000000;0.654647
9157.000000;0.654477
9156.000000;0.654421
9155.000000;0.654459
9154.000000;0.654544
9153.000000;0.654656
9152.000000;0.654747
9151.000000;0.654746
9150.000000;0.654671
9149.000000;0.654639
9148.000000;0.654679
9147.000000;0.654610
9146.000000;0.654230
9145.000000;0.653586
9144.000000;0.652954
9143.000000;0.652584
9142.000000;0.652547
9141.000000;0.652765
9140.000000;0.653078
9139.000000;0.653286
9138.000000;0.653271
9137.000000;0.653129
9136.000000;0.653088
9135.000000;0.653261
9134.000000;0.653533
9133.000000;0.653710
9132.000000;0.653701
9131.000000;0.653540
9130.000000;0.653292
9129.000000;0.652994
9128.000000;0.652663
9127.000000;0.652320
9126.000000;0.652024
9125.000000;0.651864
9124.000000;0.651893
9123.000000;0.652057
9122.000000;0.652247
9121.000000;0.652409
9120.000000;0.652559
9119.000000;0.652675
9118.000000;0.652663
9117.000000;0.652463
9116.000000;0.652143
9115.000000;0.651841
9114.000000;0.651633
9113.000000;0.651495
9112.000000;0.651363
9111.000000;0.651184
9110.000000;0.650940
9109.000000;0.650697
9108.000000;0.650610
9107.000000;0.650803
9106.000000;0.651183
9105.000000;0.651456
9104.000000;0.651397
9103.000000;0.651096
9102.000000;0.650857
9101.000000;0.650856
9100.000000;0.650975
9099.000000;0.651024
9098.000000;0.650973
9097.000000;0.650901
9096.000000;0.650782
9095.000000;0.650515
9094.000000;0.650163
9093.000000;0.649975
9092.000000;0.650096
9091.000000;0.650358
9090.000000;0.650460
9089.000000;0.650296
9088.000000;0.650018
9087.000000;0.649839
9086.000000;0.649880
9085.000000;0.650133
9084.000000;0.650461
9083.000000;0.650633
9082.000000;0.650482
9081.000000;0.650064
9080.000000;0.649600
9079.000000;0.649265
9078.000000;0.649081
9077.000000;0.648995
9076.000000;0.648954
9075.000000;0.648910
9074.000000;0.648837
9073.000000;0.648784
9072.000000;0.648842
9071.000000;0.648990
9070.000000;0.649055
9069.000000;0.648889
9068.000000;0.648549
9067.000000;0.648252
9066.000000;0.648159
9065.000000;0.648248
9064.000000;0.648370
9063.000000;0.648408
9062.000000;0.648354
9061.000000;0.648298
9060.000000;0.648320
9059.000000;0.648409
9058.000000;0.648471
9057.000000;0.648428
9056.000000;0.648290
9055.000000;0.648122
9054.000000;0.647958
9053.000000;0.647784
