Criado como novo conjunto de dados;"2706_e01_daniel.spp","106207.4 Secs"
cm-1;Abs
10000.000000;0.866448
9999.000000;0.866308
9998.000000;0.866168
9997.000000;0.866027
9996.000000;0.865887
9995.000000;0.865747
9994.000000;0.865605
9993.000000;0.865468
9992.000000;0.865324
9991.000000;0.865193
9990.000000;0.865032
9989.000000;0.865021
9988.000000;0.865317
9987.000000;0.865881
9986.000000;0.866627
9985.000000;0.867219
9984.000000;0.867217
9983.000000;0.866457
9982.000000;0.865293
9981.000000;0.864298
9980.000000;0.863797
9979.000000;0.863741
9978.000000;0.863936
9977.000000;0.864248
9976.000000;0.864577
9975.000000;0.864772
9974.000000;0.864688
9973.000000;0.864320
9972.000000;0.863841
9971.000000;0.863464
9970.000000;0.863302
9969.000000;0.863348
9968.000000;0.863560
9967.000000;0.863866
9966.000000;0.864101
9965.000000;0.864058
9964.000000;0.863677
9963.000000;0.863154
9962.000000;0.862803
9961.000000;0.862815
9960.000000;0.863124
9959.000000;0.863454
9958.000000;0.863487
9957.000000;0.863111
9956.000000;0.862542
9955.000000;0.862108
9954.000000;0.861903
9953.000000;0.861763
9952.000000;0.861631
9951.000000;0.861720
9950.000000;0.862151
9949.000000;0.862598
9948.000000;0.862573
9947.000000;0.862045
9946.000000;0.861522
9945.000000;0.861475
9944.000000;0.861878
9943.000000;0.862368
9942.000000;0.862674
9941.000000;0.862797
9940.000000;0.862929
9939.000000;0.863293
9938.000000;0.863962
9937.000000;0.864700
9936.000000;0.865038
9935.000000;0.864610
9934.000000;0.863465
9933.000000;0.862029
9932.000000;0.860825
9931.000000;0.860186
9930.000000;0.860076
9929.000000;0.860125
9928.000000;0.859934
9927.000000;0.859425
9926.000000;0.858875
9925.000000;0.858581
9924.000000;0.858574
9923.000000;0.858699
9922.000000;0.858876
9921.000000;0.859218
9920.000000;0.859879
9919.000000;0.860772
9918.000000;0.861413
9917.000000;0.861160
9916.000000;0.859825
9915.000000;0.858039
9914.000000;0.856806
9913.000000;0.856636
9912.000000;0.857219
9911.000000;0.857946
9910.000000;0.858514
9909.000000;0.858920
9908.000000;0.859139
9907.000000;0.859100
9906.000000;0.858904
9905.000000;0.858789
9904.000000;0.858858
9903.000000;0.859006
9902.000000;0.859102
9901.000000;0.859125
9900.000000;0.859108
9899.000000;0.859056
9898.000000;0.858915
9897.000000;0.858590
9896.000000;0.858059
9895.000000;0.857546
9894.000000;0.857433
9893.000000;0.857855
9892.000000;0.858485
9891.000000;0.858881
9890.000000;0.858951
9889.000000;0.858905
9888.000000;0.858855
9887.000000;0.858748
9886.000000;0.858656
9885.000000;0.858807
9884.000000;0.859251
9883.000000;0.859694
9882.000000;0.859773
9881.000000;0.859336
9880.000000;0.858446
9879.000000;0.857327
9878.000000;0.856395
9877.000000;0.856077
9876.000000;0.856428
9875.000000;0.857043
9874.000000;0.857473
9873.000000;0.857629
9872.000000;0.857692
9871.000000;0.857772
9870.000000;0.857754
9869.000000;0.857420
9868.000000;0.856680
9867.000000;0.855777
9866.000000;0.855255
9865.000000;0.855485
9864.000000;0.856184
9863.000000;0.856655
9862.000000;0.856624
9861.000000;0.856532
9860.000000;0.856813
9859.000000;0.857203
9858.000000;0.857098
9857.000000;0.856391
9856.000000;0.855598
9855.000000;0.855232
9854.000000;0.855407
9853.000000;0.855965
9852.000000;0.856621
9851.000000;0.856953
9850.000000;0.856646
9849.000000;0.855890
9848.000000;0.855311
9847.000000;0.855354
9846.000000;0.855888
9845.000000;0.856414
9844.000000;0.856488
9843.000000;0.855940
9842.000000;0.854956
9841.000000;0.854043
9840.000000;0.853677
9839.000000;0.853826
9838.000000;0.853984
9837.000000;0.853791
9836.000000;0.853469
9835.000000;0.853477
9834.000000;0.853897
9833.000000;0.854375
9832.000000;0.854549
9831.000000;0.854377
9830.000000;0.854065
9829.000000;0.853846
9828.000000;0.853787
9827.000000;0.853760
9826.000000;0.853605
9825.000000;0.853359
9824.000000;0.853203
9823.000000;0.853159
9822.000000;0.853026
9821.000000;0.852742
9820.000000;0.852589
9819.000000;0.852801
9818.000000;0.853116
9817.000000;0.853005
9816.000000;0.852366
9815.000000;0.851695
9814.000000;0.851497
9813.000000;0.851764
9812.000000;0.852139
9811.000000;0.852407
9810.000000;0.852627
9809.000000;0.852877
9808.000000;0.853061
9807.000000;0.853035
9806.000000;0.852821
9805.000000;0.852607
9804.000000;0.852544
9803.000000;0.852567
9802.000000;0.852470
9801.000000;0.852168
9800.000000;0.851831
9799.000000;0.851701
9798.000000;0.851818
9797.000000;0.851971
9796.000000;0.851898
9795.000000;0.851512
9794.000000;0.850955
9793.000000;0.850490
9792.000000;0.850275
9791.000000;0.850192
9790.000000;0.849889
9789.000000;0.849149
9788.000000;0.848224
9787.000000;0.847690
9786.000000;0.847938
9785.000000;0.848846
9784.000000;0.849951
9783.000000;0.850847
9782.000000;0.851369
9781.000000;0.851526
9780.000000;0.851391
9779.000000;0.851043
9778.000000;0.850553
9777.000000;0.849995
9776.000000;0.849469
9775.000000;0.849078
9774.000000;0.848849
9773.000000;0.848708
9772.000000;0.848611
9771.000000;0.848661
9770.000000;0.849001
9769.000000;0.849576
9768.000000;0.850064
9767.000000;0.850156
9766.000000;0.849876
9765.000000;0.849575
9764.000000;0.849598
9763.000000;0.849967
9762.000000;0.850415
9761.000000;0.850645
9760.000000;0.850542
9759.000000;0.850155
9758.000000;0.849591
9757.000000;0.848966
9756.000000;0.848427
9755.000000;0.848133
9754.000000;0.848168
9753.000000;0.848450
9752.000000;0.848718
9751.000000;0.848686
9750.000000;0.848288
9749.000000;0.847798
9748.000000;0.847621
9747.000000;0.847915
9746.000000;0.848439
9745.000000;0.848794
9744.000000;0.848767
9743.000000;0.848379
9742.000000;0.847745
9741.000000;0.847037
9740.000000;0.846556
9739.000000;0.846611
9738.000000;0.847206
9737.000000;0.847925
9736.000000;0.848248
9735.000000;0.847992
9734.000000;0.847407
9733.000000;0.846871
9732.000000;0.846558
9731.000000;0.846375
9730.000000;0.846169
9729.000000;0.845954
9728.000000;0.845927
9727.000000;0.846248
9726.000000;0.846813
9725.000000;0.847304
9724.000000;0.847439
9723.000000;0.847130
9722.000000;0.846441
9721.000000;0.845541
9720.000000;0.844721
9719.000000;0.844304
9718.000000;0.844383
9717.000000;0.844711
9716.000000;0.844965
9715.000000;0.845084
9714.000000;0.845227
9713.000000;0.845465
9712.000000;0.845668
9711.000000;0.845674
9710.000000;0.845423
9709.000000;0.844932
9708.000000;0.844336
9707.000000;0.843962
9706.000000;0.844120
9705.000000;0.844677
9704.000000;0.845023
9703.000000;0.844687
9702.000000;0.843913
9701.000000;0.843401
9700.000000;0.843509
9699.000000;0.843935
9698.000000;0.844184
9697.000000;0.844135
9696.000000;0.844033
9695.000000;0.844095
9694.000000;0.844288
9693.000000;0.844454
9692.000000;0.844501
9691.000000;0.844440
9690.000000;0.844309
9689.000000;0.844123
9688.000000;0.843913
9687.000000;0.843769
9686.000000;0.843747
9685.000000;0.843718
9684.000000;0.843404
9683.000000;0.842711
9682.000000;0.842001
9681.000000;0.841822
9680.000000;0.842337
9679.000000;0.843130
9678.000000;0.843645
9677.000000;0.843700
9676.000000;0.843502
9675.000000;0.843299
9674.000000;0.843161
9673.000000;0.843019
9672.000000;0.842750
9671.000000;0.842267
9670.000000;0.841663
9669.000000;0.841262
9668.000000;0.841357
9667.000000;0.841901
9666.000000;0.842562
9665.000000;0.843035
9664.000000;0.843190
9663.000000;0.842963
9662.000000;0.842379
9661.000000;0.841739
9660.000000;0.841523
9659.000000;0.841907
9658.000000;0.842506
9657.000000;0.842781
9656.000000;0.842592
9655.000000;0.842186
9654.000000;0.841750
9653.000000;0.841286
9652.000000;0.840907
9651.000000;0.840905
9650.000000;0.841307
9649.000000;0.841603
9648.000000;0.841206
9647.000000;0.840166
9646.000000;0.839172
9645.000000;0.838832
9644.000000;0.839164
9643.000000;0.839801
9642.000000;0.840435
9641.000000;0.840887
9640.000000;0.840960
9639.000000;0.840535
9638.000000;0.839831
9637.000000;0.839325
9636.000000;0.839290
9635.000000;0.839535
9634.000000;0.839670
9633.000000;0.839532
9632.000000;0.839278
9631.000000;0.839132
9630.000000;0.839150
9629.000000;0.839228
9628.000000;0.839249
9627.000000;0.839240
9626.000000;0.839353
9625.000000;0.839686
9624.000000;0.840092
9623.000000;0.840283
9622.000000;0.840150
9621.000000;0.839876
9620.000000;0.839682
9619.000000;0.839569
9618.000000;0.839421
9617.000000;0.839230
9616.000000;0.839075
9615.000000;0.838939
9614.000000;0.838751
9613.000000;0.838593
9612.000000;0.838661
9611.000000;0.838956
9610.000000;0.839153
9609.000000;0.838900
9608.000000;0.838188
9607.000000;0.837382
9606.000000;0.836951
9605.000000;0.837160
9604.000000;0.837898
9603.000000;0.838715
9602.000000;0.839125
9601.000000;0.838999
9600.000000;0.838633
9599.000000;0.838386
9598.000000;0.838311
9597.000000;0.838211
9596.000000;0.837960
9595.000000;0.837631
9594.000000;0.837345
9593.000000;0.837121
9592.000000;0.836940
9591.000000;0.836821
9590.000000;0.836784
9589.000000;0.836767
9588.000000;0.836686
9587.000000;0.836566
9586.000000;0.836548
9585.000000;0.836690
9584.000000;0.836827
9583.000000;0.836708
9582.000000;0.836313
9581.000000;0.835932
9580.000000;0.835865
9579.000000;0.836082
9578.000000;0.836256
9577.000000;0.836140
9576.000000;0.835832
9575.000000;0.835668
9574.000000;0.835892
9573.000000;0.836439
9572.000000;0.836987
9571.000000;0.837204
9570.000000;0.836986
9569.000000;0.836467
9568.000000;0.835822
9567.000000;0.835151
9566.000000;0.834587
9565.000000;0.834400
9564.000000;0.834784
9563.000000;0.835557
9562.000000;0.836246
9561.000000;0.836523
9560.000000;0.836449
9559.000000;0.836243
9558.000000;0.835991
9557.000000;0.835692
9556.000000;0.835429
9555.000000;0.835291
9554.000000;0.835190
9553.000000;0.834949
9552.000000;0.834567
9551.000000;0.834270
9550.000000;0.834255
9549.000000;0.834486
9548.000000;0.834762
9547.000000;0.834923
9546.000000;0.834924
9545.000000;0.834776
9544.000000;0.834469
9543.000000;0.833992
9542.000000;0.833433
9541.000000;0.833055
9540.000000;0.833180
9539.000000;0.833914
9538.000000;0.834972
9537.000000;0.835834
9536.000000;0.836106
9535.000000;0.835739
9534.000000;0.834970
9533.000000;0.834117
9532.000000;0.833391
9531.000000;0.832807
9530.000000;0.832243
9529.000000;0.831632
9528.000000;0.831107
9527.000000;0.830914
9526.000000;0.831164
9525.000000;0.831721
9524.000000;0.832307
9523.000000;0.832686
9522.000000;0.832749
9521.000000;0.832514
9520.000000;0.832116
9519.000000;0.831782
9518.000000;0.831728
9517.000000;0.832011
9516.000000;0.832445
9515.000000;0.832733
9514.000000;0.832748
9513.000000;0.832679
9512.000000;0.832795
9511.000000;0.833076
9510.000000;0.833190
9509.000000;0.832906
9508.000000;0.832409
9507.000000;0.832076
9506.000000;0.832009
9505.000000;0.831957
9504.000000;0.831674
9503.000000;0.831186
9502.000000;0.830681
9501.000000;0.830316
9500.000000;0.830191
9499.000000;0.830363
9498.000000;0.830750
9497.000000;0.831086
9496.000000;0.831148
9495.000000;0.830993
9494.000000;0.830868
9493.000000;0.830861
9492.000000;0.830803
9491.000000;0.830547
9490.000000;0.830236
9489.000000;0.830180
9488.000000;0.830497
9487.000000;0.830999
9486.000000;0.831410
9485.000000;0.831592
9484.000000;0.831539
9483.000000;0.831253
9482.000000;0.830751
9481.000000;0.830156
9480.000000;0.829671
9479.000000;0.829418
9478.000000;0.829358
9477.000000;0.829362
9476.000000;0.829311
9475.000000;0.829136
9474.000000;0.828846
9473.000000;0.828564
9472.000000;0.828463
9471.000000;0.828596
9470.000000;0.828829
9469.000000;0.828974
9468.000000;0.828974
9467.000000;0.828904
9466.000000;0.828832
9465.000000;0.828752
9464.000000;0.828637
9463.000000;0.828496
9462.000000;0.828352
9461.000000;0.828206
9460.000000;0.828021
9459.000000;0.827782
9458.000000;0.827551
9457.000000;0.827455
9456.000000;0.827560
9455.000000;0.827760
9454.000000;0.827860
9453.000000;0.827783
9452.000000;0.827636
9451.000000;0.827545
9450.000000;0.827524
9449.000000;0.827552
9448.000000;0.827686
9447.000000;0.827962
9446.000000;0.828257
9445.000000;0.828354
9444.000000;0.828168
9443.000000;0.827810
9442.000000;0.827461
9441.000000;0.827234
9440.000000;0.827136
9439.000000;0.827068
9438.000000;0.826886
9437.000000;0.826545
9436.000000;0.826188
9435.000000;0.826020
9434.000000;0.826109
9433.000000;0.826370
9432.000000;0.826680
9431.000000;0.826915
9430.000000;0.826938
9429.000000;0.826707
9428.000000;0.826398
9427.000000;0.826264
9426.000000;0.826351
9425.000000;0.826478
9424.000000;0.826508
9423.000000;0.826476
9422.000000;0.826433
9421.000000;0.826342
9420.000000;0.826203
9419.000000;0.826128
9418.000000;0.826169
9417.000000;0.826210
9416.000000;0.826129
9415.000000;0.825944
9414.000000;0.825716
9413.000000;0.825432
9412.000000;0.825110
9411.000000;0.824870
9410.000000;0.824731
9409.000000;0.824493
9408.000000;0.824022
9407.000000;0.823565
9406.000000;0.823527
9405.000000;0.823952
9404.000000;0.824461
9403.000000;0.824702
9402.000000;0.824659
9401.000000;0.824489
9400.000000;0.824291
9399.000000;0.824128
9398.000000;0.824082
9397.000000;0.824138
9396.000000;0.824134
9395.000000;0.823953
9394.000000;0.823674
9393.000000;0.823443
9392.000000;0.823271
9391.000000;0.823093
9390.000000;0.822948
9389.000000;0.822985
9388.000000;0.823286
9387.000000;0.823756
9386.000000;0.824159
9385.000000;0.824279
9384.000000;0.824083
9383.000000;0.823771
9382.000000;0.823549
9381.000000;0.823360
9380.000000;0.822962
9379.000000;0.822356
9378.000000;0.821938
9377.000000;0.822060
9376.000000;0.822557
9375.000000;0.822930
9374.000000;0.822968
9373.000000;0.822932
9372.000000;0.823102
9371.000000;0.823356
9370.000000;0.823350
9369.000000;0.822987
9368.000000;0.822544
9367.000000;0.822348
9366.000000;0.822441
9365.000000;0.822596
9364.000000;0.822604
9363.000000;0.822494
9362.000000;0.822441
9361.000000;0.822508
9360.000000;0.822561
9359.000000;0.822482
9358.000000;0.822344
9357.000000;0.822274
9356.000000;0.822244
9355.000000;0.822125
9354.000000;0.821924
9353.000000;0.821782
9352.000000;0.821721
9351.000000;0.821599
9350.000000;0.821364
9349.000000;0.821187
9348.000000;0.821222
9347.000000;0.821372
9346.000000;0.821415
9345.000000;0.821286
9344.000000;0.821097
9343.000000;0.820950
9342.000000;0.820862
9341.000000;0.820822
9340.000000;0.820833
9339.000000;0.820887
9338.000000;0.820977
9337.000000;0.821096
9336.000000;0.821159
9335.000000;0.821026
9334.000000;0.820698
9333.000000;0.820398
9332.000000;0.820332
9331.000000;0.820424
9330.000000;0.820424
9329.000000;0.820257
9328.000000;0.820086
9327.000000;0.820037
9326.000000;0.820047
9325.000000;0.820001
9324.000000;0.819891
9323.000000;0.819789
9322.000000;0.819771
9321.000000;0.819904
9320.000000;0.820190
9319.000000;0.820493
9318.000000;0.820623
9317.000000;0.820527
9316.000000;0.820300
9315.000000;0.820002
9314.000000;0.819619
9313.000000;0.819228
9312.000000;0.819003
9311.000000;0.818987
9310.000000;0.818989
9309.000000;0.818857
9308.000000;0.818713
9307.000000;0.818774
9306.000000;0.819039
9305.000000;0.819309
9304.000000;0.819438
9303.000000;0.819422
9302.000000;0.819273
9301.000000;0.818997
9300.000000;0.818676
9299.000000;0.818431
9298.000000;0.818295
9297.000000;0.818207
9296.000000;0.818144
9295.000000;0.818140
9294.000000;0.818189
9293.000000;0.818214
9292.000000;0.818147
9291.000000;0.817965
9290.000000;0.817658
9289.000000;0.817292
9288.000000;0.817048
9287.000000;0.817094
9286.000000;0.817365
9285.000000;0.817614
9284.000000;0.817699
9283.000000;0.817712
9282.000000;0.817771
9281.000000;0.817834
9280.000000;0.817794
9279.000000;0.817654
9278.000000;0.817487
9277.000000;0.817287
9276.000000;0.816984
9275.000000;0.816603
9274.000000;0.816294
9273.000000;0.816177
9272.000000;0.816212
9271.000000;0.816233
9270.000000;0.816120
9269.000000;0.815912
9268.000000;0.815747
9267.000000;0.815708
9266.000000;0.815731
9265.000000;0.815698
9264.000000;0.815586
9263.000000;0.815477
9262.000000;0.815429
9261.000000;0.815427
9260.000000;0.815440
9259.000000;0.815482
9258.000000;0.815557
9257.000000;0.815621
9256.000000;0.815642
9255.000000;0.815644
9254.000000;0.815653
9253.000000;0.815636
9252.000000;0.815532
9251.000000;0.815329
9250.000000;0.815081
9249.000000;0.814863
9248.000000;0.814727
9247.000000;0.814654
9246.000000;0.814539
9245.000000;0.814282
9244.000000;0.813927
9243.000000;0.813680
9242.000000;0.813744
9241.000000;0.814145
9240.000000;0.814698
9239.000000;0.815125
9238.000000;0.815201
9237.000000;0.814889
9236.000000;0.814379
9235.000000;0.813935
9234.000000;0.813695
9233.000000;0.813629
9232.000000;0.813704
9231.000000;0.813965
9230.000000;0.814402
9229.000000;0.814820
9228.000000;0.814962
9227.000000;0.814743
9226.000000;0.814291
9225.000000;0.813791
9224.000000;0.813366
9223.000000;0.813069
9222.000000;0.812908
9221.000000;0.812847
9220.000000;0.812831
9219.000000;0.812830
9218.000000;0.812833
9217.000000;0.812852
9216.000000;0.812955
9215.000000;0.813224
9214.000000;0.813624
9213.000000;0.813937
9212.000000;0.813941
9211.000000;0.813601
9210.000000;0.813052
9209.000000;0.812437
9208.000000;0.811879
9207.000000;0.811564
9206.000000;0.811649
9205.000000;0.812050
9204.000000;0.812442
9203.000000;0.812565
9202.000000;0.812456
9201.000000;0.812307
9200.000000;0.812172
9199.000000;0.811931
9198.000000;0.811515
9197.000000;0.811063
9196.000000;0.810803
9195.000000;0.810822
9194.000000;0.810991
9193.000000;0.811116
9192.000000;0.811138
9191.000000;0.811164
9190.000000;0.811287
9189.000000;0.811425
9188.000000;0.811385
9187.000000;0.811088
9186.000000;0.810675
9185.000000;0.810392
9184.000000;0.810389
9183.000000;0.810625
9182.000000;0.810895
9181.000000;0.810971
9180.000000;0.810780
9179.000000;0.810474
9178.000000;0.810299
9177.000000;0.810372
9176.000000;0.810624
9175.000000;0.810929
9174.000000;0.811190
9173.000000;0.811283
9172.000000;0.811049
9171.000000;0.810449
9170.000000;0.809689
9169.000000;0.809101
9168.000000;0.808875
9167.000000;0.808945
9166.000000;0.809103
9165.000000;0.809178
9164.000000;0.809123
9163.000000;0.808968
9162.000000;0.808757
9161.000000;0.808519
9160.000000;0.808308
9159.000000;0.808213
9158.000000;0.808287
9157.000000;0.808482
9156.000000;0.808683
9155.000000;0.808816
9154.000000;0.808850
9153.000000;0.808759
9152.000000;0.808558
9151.000000;0.808382
9150.000000;0.808403
9149.000000;0.808616
9148.000000;0.808826
9147.000000;0.808897
9146.000000;0.808911
9145.000000;0.808999
9144.000000;0.809125
9143.000000;0.809145
9142.000000;0.809002
9141.000000;0.808750
9140.000000;0.808439
9139.000000;0.808131
9138.000000;0.807959
9137.000000;0.808017
9136.000000;0.808194
9135.000000;0.808253
9134.000000;0.808089
9133.000000;0.807798
9132.000000;0.807501
9131.000000;0.807240
9130.000000;0.807049
9129.000000;0.806983
9128.000000;0.807027
9127.000000;0.807086
9126.000000;0.807113
9125.000000;0.807139
9124.000000;0.807142
9123.000000;0.807040
9122.000000;0.806859
9121.000000;0.806764
9120.000000;0.806831
9119.000000;0.806889
9118.000000;0.806739
9117.000000;0.806429
9116.000000;0.806192
9115.000000;0.806161
9114.000000;0.806257
9113.000000;0.806313
9112.000000;0.806211
9111.000000;0.805921
9110.000000;0.805526
9109.000000;0.805222
9108.000000;0.805187
9107.000000;0.805421
9106.000000;0.805753
9105.000000;0.805993
9104.000000;0.806053
9103.000000;0.805970
9102.000000;0.805881
9101.000000;0.805928
9100.000000;0.806128
9099.000000;0.806348
9098.000000;0.806463
9097.000000;0.806474
9096.000000;0.806405
9095.000000;0.806196
9094.000000;0.805832
9093.000000;0.805507
9092.000000;0.805463
9091.000000;0.805647
9090.000000;0.805711
9089.000000;0.805430
9088.000000;0.804986
9087.000000;0.804749
9086.000000;0.804860
9085.000000;0.805142
9084.000000;0.805340
9083.000000;0.805346
9082.000000;0.805215
9081.000000;0.805044
9080.000000;0.804846
9079.000000;0.804535
9078.000000;0.804058
9077.000000;0.803542
9076.000000;0.803245
9075.000000;0.803314
9074.000000;0.803611
9073.000000;0.803836
9072.000000;0.803801
9071.000000;0.803569
9070.000000;0.803360
9069.000000;0.803327
9068.000000;0.803437
9067.000000;0.803526
9066.000000;0.803517
9065.000000;0.803510
9064.000000;0.803640
9063.000000;0.803854
9062.000000;0.803954
9061.000000;0.803846
9060.000000;0.803643
9059.000000;0.803469
9058.000000;0.803314
9057.000000;0.803125
9056.000000;0.802937
9055.000000;0.802802
9054.000000;0.802670
9053.000000;0.802478
