Criado como novo conjunto de dados;"2706_e01_daniel.spp","55985.0 Secs"
cm-1;Abs
10000.000000;0.802509
9999.000000;0.802788
9998.000000;0.803273
9997.000000;0.803592
9996.000000;0.803532
9995.000000;0.803203
9994.000000;0.802923
9993.000000;0.802796
9992.000000;0.802588
9991.000000;0.802155
9990.000000;0.801780
9989.000000;0.801892
9988.000000;0.802577
9987.000000;0.803509
9986.000000;0.804194
9985.000000;0.804174
9984.000000;0.803274
9983.000000;0.801914
9982.000000;0.800950
9981.000000;0.800901
9980.000000;0.801433
9979.000000;0.801807
9978.000000;0.801676
9977.000000;0.801197
9976.000000;0.800570
9975.000000;0.799900
9974.000000;0.799451
9973.000000;0.799582
9972.000000;0.800325
9971.000000;0.801286
9970.000000;0.802073
9969.000000;0.802557
9968.000000;0.802665
9967.000000;0.802224
9966.000000;0.801258
9965.000000;0.800247
9964.000000;0.799825
9963.000000;0.800181
9962.000000;0.800905
9961.000000;0.801430
9960.000000;0.801515
9959.000000;0.801256
9958.000000;0.800754
9957.000000;0.799992
9956.000000;0.799061
9955.000000;0.798324
9954.000000;0.798137
9953.000000;0.798442
9952.000000;0.798796
9951.000000;0.798828
9950.000000;0.798550
9949.000000;0.798210
9948.000000;0.798010
9947.000000;0.798028
9946.000000;0.798243
9945.000000;0.798493
9944.000000;0.798555
9943.000000;0.798380
9942.000000;0.798180
9941.000000;0.798161
9940.000000;0.798231
9939.000000;0.798078
9938.000000;0.797537
9937.000000;0.796780
9936.000000;0.796199
9935.000000;0.796108
9934.000000;0.796493
9933.000000;0.796990
9932.000000;0.797186
9931.000000;0.796975
9930.000000;0.796577
9929.000000;0.796218
9928.000000;0.795904
9927.000000;0.795526
9926.000000;0.795054
9925.000000;0.794625
9924.000000;0.794495
9923.000000;0.794853
9922.000000;0.795517
9921.000000;0.795910
9920.000000;0.795626
9919.000000;0.795016
9918.000000;0.794883
9917.000000;0.795532
9916.000000;0.796439
9915.000000;0.796993
9914.000000;0.797210
9913.000000;0.797439
9912.000000;0.797710
9911.000000;0.797751
9910.000000;0.797463
9909.000000;0.796965
9908.000000;0.796285
9907.000000;0.795407
9906.000000;0.794585
9905.000000;0.794212
9904.000000;0.794278
9903.000000;0.794287
9902.000000;0.793860
9901.000000;0.793204
9900.000000;0.792826
9899.000000;0.792967
9898.000000;0.793465
9897.000000;0.794035
9896.000000;0.794521
9895.000000;0.794922
9894.000000;0.795285
9893.000000;0.795574
9892.000000;0.795615
9891.000000;0.795216
9890.000000;0.794402
9889.000000;0.793512
9888.000000;0.792991
9887.000000;0.793022
9886.000000;0.793366
9885.000000;0.793570
9884.000000;0.793377
9883.000000;0.792955
9882.000000;0.792681
9881.000000;0.792689
9880.000000;0.792728
9879.000000;0.792513
9878.000000;0.792124
9877.000000;0.791910
9876.000000;0.792020
9875.000000;0.792167
9874.000000;0.791932
9873.000000;0.791230
9872.000000;0.790408
9871.000000;0.789895
9870.000000;0.789819
9869.000000;0.789989
9868.000000;0.790171
9867.000000;0.790299
9866.000000;0.790384
9865.000000;0.790339
9864.000000;0.790036
9863.000000;0.789528
9862.000000;0.789118
9861.000000;0.789094
9860.000000;0.789412
9859.000000;0.789684
9858.000000;0.789522
9857.000000;0.788929
9856.000000;0.788346
9855.000000;0.788224
9854.000000;0.788568
9853.000000;0.788996
9852.000000;0.789272
9851.000000;0.789581
9850.000000;0.790145
9849.000000;0.790735
9848.000000;0.790816
9847.000000;0.790152
9846.000000;0.789055
9845.000000;0.788074
9844.000000;0.787605
9843.000000;0.787731
9842.000000;0.788197
9841.000000;0.788498
9840.000000;0.788271
9839.000000;0.787675
9838.000000;0.787238
9837.000000;0.787277
9836.000000;0.787613
9835.000000;0.787879
9834.000000;0.787906
9833.000000;0.787753
9832.000000;0.787562
9831.000000;0.787478
9830.000000;0.787539
9829.000000;0.787556
9828.000000;0.787249
9827.000000;0.786623
9826.000000;0.786088
9825.000000;0.786081
9824.000000;0.786637
9823.000000;0.787379
9822.000000;0.787864
9821.000000;0.787893
9820.000000;0.787601
9819.000000;0.787256
9818.000000;0.786917
9817.000000;0.786371
9816.000000;0.785541
9815.000000;0.784832
9814.000000;0.784747
9813.000000;0.785206
9812.000000;0.785585
9811.000000;0.785509
9810.000000;0.785276
9809.000000;0.785351
9808.000000;0.785716
9807.000000;0.785955
9806.000000;0.785799
9805.000000;0.785389
9804.000000;0.785115
9803.000000;0.785287
9802.000000;0.785830
9801.000000;0.786237
9800.000000;0.786041
9799.000000;0.785358
9798.000000;0.784737
9797.000000;0.784429
9796.000000;0.784162
9795.000000;0.783733
9794.000000;0.783389
9793.000000;0.783332
9792.000000;0.783270
9791.000000;0.782869
9790.000000;0.782414
9789.000000;0.782547
9788.000000;0.783444
9787.000000;0.784622
9786.000000;0.785495
9785.000000;0.785799
9784.000000;0.785536
9783.000000;0.784874
9782.000000;0.784136
9781.000000;0.783599
9780.000000;0.783240
9779.000000;0.782863
9778.000000;0.782451
9777.000000;0.782170
9776.000000;0.782070
9775.000000;0.782032
9774.000000;0.782024
9773.000000;0.782171
9772.000000;0.782528
9771.000000;0.782983
9770.000000;0.783399
9769.000000;0.783664
9768.000000;0.783593
9767.000000;0.783031
9766.000000;0.782137
9765.000000;0.781394
9764.000000;0.781211
9763.000000;0.781559
9762.000000;0.782023
9761.000000;0.782180
9760.000000;0.781958
9759.000000;0.781680
9758.000000;0.781714
9757.000000;0.782027
9756.000000;0.782179
9755.000000;0.781871
9754.000000;0.781350
9753.000000;0.781093
9752.000000;0.781232
9751.000000;0.781490
9750.000000;0.781628
9749.000000;0.781656
9748.000000;0.781634
9747.000000;0.781508
9746.000000;0.781250
9745.000000;0.780957
9744.000000;0.780732
9743.000000;0.780599
9742.000000;0.780588
9741.000000;0.780754
9740.000000;0.781045
9739.000000;0.781255
9738.000000;0.781179
9737.000000;0.780748
9736.000000;0.780038
9735.000000;0.779251
9734.000000;0.778694
9733.000000;0.778606
9732.000000;0.778944
9731.000000;0.779418
9730.000000;0.779771
9729.000000;0.779996
9728.000000;0.780254
9727.000000;0.780662
9726.000000;0.781151
9725.000000;0.781448
9724.000000;0.781231
9723.000000;0.780394
9722.000000;0.779186
9721.000000;0.778046
9720.000000;0.777319
9719.000000;0.777138
9718.000000;0.777483
9717.000000;0.778161
9716.000000;0.778745
9715.000000;0.778743
9714.000000;0.777991
9713.000000;0.776860
9712.000000;0.776007
9711.000000;0.775853
9710.000000;0.776256
9709.000000;0.776689
9708.000000;0.776794
9707.000000;0.776750
9706.000000;0.776975
9705.000000;0.777504
9704.000000;0.777868
9703.000000;0.777692
9702.000000;0.777189
9701.000000;0.776828
9700.000000;0.776715
9699.000000;0.776565
9698.000000;0.776219
9697.000000;0.775864
9696.000000;0.775734
9695.000000;0.775850
9694.000000;0.776141
9693.000000;0.776605
9692.000000;0.777234
9691.000000;0.777878
9690.000000;0.778294
9689.000000;0.778288
9688.000000;0.777810
9687.000000;0.777004
9686.000000;0.776225
9685.000000;0.775862
9684.000000;0.776029
9683.000000;0.776465
9682.000000;0.776765
9681.000000;0.776706
9680.000000;0.776374
9679.000000;0.776007
9678.000000;0.775729
9677.000000;0.775454
9676.000000;0.775064
9675.000000;0.774661
9674.000000;0.774534
9673.000000;0.774793
9672.000000;0.775186
9671.000000;0.775402
9670.000000;0.775438
9669.000000;0.775470
9668.000000;0.775484
9667.000000;0.775263
9666.000000;0.774760
9665.000000;0.774234
9664.000000;0.773960
9663.000000;0.773976
9662.000000;0.774178
9661.000000;0.774482
9660.000000;0.774817
9659.000000;0.775051
9658.000000;0.775060
9657.000000;0.774797
9656.000000;0.774286
9655.000000;0.773614
9654.000000;0.772973
9653.000000;0.772591
9652.000000;0.772546
9651.000000;0.772698
9650.000000;0.772852
9649.000000;0.772933
9648.000000;0.772967
9647.000000;0.772964
9646.000000;0.772915
9645.000000;0.772869
9644.000000;0.772945
9643.000000;0.773239
9642.000000;0.773725
9641.000000;0.774239
9640.000000;0.774575
9639.000000;0.774611
9638.000000;0.774326
9637.000000;0.773721
9636.000000;0.772815
9635.000000;0.771771
9634.000000;0.770919
9633.000000;0.770520
9632.000000;0.770530
9631.000000;0.770696
9630.000000;0.770877
9629.000000;0.771164
9628.000000;0.771669
9627.000000;0.772300
9626.000000;0.772798
9625.000000;0.772948
9624.000000;0.772744
9623.000000;0.772374
9622.000000;0.772059
9621.000000;0.771846
9620.000000;0.771594
9619.000000;0.771196
9618.000000;0.770765
9617.000000;0.770504
9616.000000;0.770435
9615.000000;0.770391
9614.000000;0.770265
9613.000000;0.770129
9612.000000;0.770084
9611.000000;0.770127
9610.000000;0.770199
9609.000000;0.770248
9608.000000;0.770183
9607.000000;0.769907
9606.000000;0.769486
9605.000000;0.769203
9604.000000;0.769274
9603.000000;0.769573
9602.000000;0.769753
9601.000000;0.769663
9600.000000;0.769503
9599.000000;0.769510
9598.000000;0.769636
9597.000000;0.769631
9596.000000;0.769394
9595.000000;0.769080
9594.000000;0.768863
9593.000000;0.768744
9592.000000;0.768672
9591.000000;0.768717
9590.000000;0.768966
9589.000000;0.769289
9588.000000;0.769359
9587.000000;0.768992
9586.000000;0.768349
9585.000000;0.767767
9584.000000;0.767445
9583.000000;0.767338
9582.000000;0.767294
9581.000000;0.767268
9580.000000;0.767389
9579.000000;0.767828
9578.000000;0.768537
9577.000000;0.769156
9576.000000;0.769291
9575.000000;0.768911
9574.000000;0.768355
9573.000000;0.767931
9572.000000;0.767621
9571.000000;0.767253
9570.000000;0.766824
9569.000000;0.766540
9568.000000;0.766580
9567.000000;0.766886
9566.000000;0.767188
9565.000000;0.767205
9564.000000;0.766889
9563.000000;0.766492
9562.000000;0.766318
9561.000000;0.766400
9560.000000;0.766516
9559.000000;0.766523
9558.000000;0.766525
9557.000000;0.766626
9556.000000;0.766706
9555.000000;0.766577
9554.000000;0.766258
9553.000000;0.765960
9552.000000;0.765843
9551.000000;0.765922
9550.000000;0.766116
9549.000000;0.766298
9548.000000;0.766345
9547.000000;0.766269
9546.000000;0.766209
9545.000000;0.766227
9544.000000;0.766185
9543.000000;0.765952
9542.000000;0.765610
9541.000000;0.765292
9540.000000;0.764944
9539.000000;0.764451
9538.000000;0.763930
9537.000000;0.763655
9536.000000;0.763692
9535.000000;0.763828
9534.000000;0.763881
9533.000000;0.763862
9532.000000;0.763797
9531.000000;0.763597
9530.000000;0.763228
9529.000000;0.762840
9528.000000;0.762633
9527.000000;0.762681
9526.000000;0.762969
9525.000000;0.763459
9524.000000;0.764037
9523.000000;0.764479
9522.000000;0.764624
9521.000000;0.764545
9520.000000;0.764425
9519.000000;0.764321
9518.000000;0.764120
9517.000000;0.763733
9516.000000;0.763246
9515.000000;0.762842
9514.000000;0.762629
9513.000000;0.762571
9512.000000;0.762574
9511.000000;0.762590
9510.000000;0.762631
9509.000000;0.762677
9508.000000;0.762647
9507.000000;0.762493
9506.000000;0.762286
9505.000000;0.762174
9504.000000;0.762246
9503.000000;0.762467
9502.000000;0.762706
9501.000000;0.762810
9500.000000;0.762677
9499.000000;0.762337
9498.000000;0.761946
9497.000000;0.761621
9496.000000;0.761334
9495.000000;0.760978
9494.000000;0.760529
9493.000000;0.760060
9492.000000;0.759678
9491.000000;0.759528
9490.000000;0.759779
9489.000000;0.760449
9488.000000;0.761241
9487.000000;0.761724
9486.000000;0.761740
9485.000000;0.761529
9484.000000;0.761382
9483.000000;0.761300
9482.000000;0.761090
9481.000000;0.760690
9480.000000;0.760231
9479.000000;0.759806
9478.000000;0.759333
9477.000000;0.758749
9476.000000;0.758231
9475.000000;0.758114
9474.000000;0.758551
9473.000000;0.759283
9472.000000;0.759816
9471.000000;0.759830
9470.000000;0.759430
9469.000000;0.758987
9468.000000;0.758789
9467.000000;0.758844
9466.000000;0.758975
9465.000000;0.759005
9464.000000;0.758857
9463.000000;0.758581
9462.000000;0.758329
9461.000000;0.758259
9460.000000;0.758397
9459.000000;0.758609
9458.000000;0.758752
9457.000000;0.758818
9456.000000;0.758880
9455.000000;0.758916
9454.000000;0.758783
9453.000000;0.758409
9452.000000;0.757935
9451.000000;0.757626
9450.000000;0.757660
9449.000000;0.758041
9448.000000;0.758619
9447.000000;0.759133
9446.000000;0.759313
9445.000000;0.759083
9444.000000;0.758664
9443.000000;0.758365
9442.000000;0.758270
9441.000000;0.758224
9440.000000;0.758114
9439.000000;0.757983
9438.000000;0.757826
9437.000000;0.757463
9436.000000;0.756797
9435.000000;0.756072
9434.000000;0.755704
9433.000000;0.755868
9432.000000;0.756361
9431.000000;0.756836
9430.000000;0.757055
9429.000000;0.756972
9428.000000;0.756694
9427.000000;0.756377
9426.000000;0.756071
9425.000000;0.755684
9424.000000;0.755153
9423.000000;0.754598
9422.000000;0.754225
9421.000000;0.754132
9420.000000;0.754306
9419.000000;0.754697
9418.000000;0.755175
9417.000000;0.755516
9416.000000;0.755612
9415.000000;0.755634
9414.000000;0.755767
9413.000000;0.755865
9412.000000;0.755608
9411.000000;0.754998
9410.000000;0.754417
9409.000000;0.754169
9408.000000;0.754193
9407.000000;0.754303
9406.000000;0.754440
9405.000000;0.754592
9404.000000;0.754674
9403.000000;0.754676
9402.000000;0.754773
9401.000000;0.755107
9400.000000;0.755553
9399.000000;0.755818
9398.000000;0.755707
9397.000000;0.755228
9396.000000;0.754536
9395.000000;0.753873
9394.000000;0.753439
9393.000000;0.753265
9392.000000;0.753267
9391.000000;0.753441
9390.000000;0.753830
9389.000000;0.754301
9388.000000;0.754562
9387.000000;0.754523
9386.000000;0.754415
9385.000000;0.754414
9384.000000;0.754329
9383.000000;0.753870
9382.000000;0.753082
9381.000000;0.752314
9380.000000;0.751839
9379.000000;0.751689
9378.000000;0.751791
9377.000000;0.752046
9376.000000;0.752307
9375.000000;0.752434
9374.000000;0.752416
9373.000000;0.752370
9372.000000;0.752424
9371.000000;0.752623
9370.000000;0.752869
9369.000000;0.752903
9368.000000;0.752495
9367.000000;0.751745
9366.000000;0.751083
9365.000000;0.750853
9364.000000;0.751001
9363.000000;0.751249
9362.000000;0.751440
9361.000000;0.751554
9360.000000;0.751518
9359.000000;0.751238
9358.000000;0.750816
9357.000000;0.750529
9356.000000;0.750555
9355.000000;0.750802
9354.000000;0.751020
9353.000000;0.751020
9352.000000;0.750821
9351.000000;0.750617
9350.000000;0.750578
9349.000000;0.750659
9348.000000;0.750701
9347.000000;0.750694
9346.000000;0.750788
9345.000000;0.750961
9344.000000;0.750898
9343.000000;0.750386
9342.000000;0.749668
9341.000000;0.749210
9340.000000;0.749206
9339.000000;0.749483
9338.000000;0.749808
9337.000000;0.750036
9336.000000;0.750053
9335.000000;0.749831
9334.000000;0.749557
9333.000000;0.749492
9332.000000;0.749640
9331.000000;0.749734
9330.000000;0.749572
9329.000000;0.749232
9328.000000;0.748921
9327.000000;0.748742
9326.000000;0.748680
9325.000000;0.748676
9324.000000;0.748663
9323.000000;0.748593
9322.000000;0.748501
9321.000000;0.748484
9320.000000;0.748603
9319.000000;0.748846
9318.000000;0.749170
9317.000000;0.749473
9316.000000;0.749568
9315.000000;0.749289
9314.000000;0.748684
9313.000000;0.748009
9312.000000;0.747514
9311.000000;0.747274
9310.000000;0.747228
9309.000000;0.747300
9308.000000;0.747463
9307.000000;0.747752
9306.000000;0.748207
9305.000000;0.748768
9304.000000;0.749222
9303.000000;0.749336
9302.000000;0.749066
9301.000000;0.748594
9300.000000;0.748121
9299.000000;0.747662
9298.000000;0.747063
9297.000000;0.746219
9296.000000;0.745293
9295.000000;0.744665
9294.000000;0.744622
9293.000000;0.745086
9292.000000;0.745723
9291.000000;0.746309
9290.000000;0.746840
9289.000000;0.747289
9288.000000;0.747443
9287.000000;0.747146
9286.000000;0.746585
9285.000000;0.746127
9284.000000;0.745935
9283.000000;0.745877
9282.000000;0.745784
9281.000000;0.745651
9280.000000;0.745567
9279.000000;0.745578
9278.000000;0.745667
9277.000000;0.745794
9276.000000;0.745924
9275.000000;0.746029
9274.000000;0.746069
9273.000000;0.745998
9272.000000;0.745822
9271.000000;0.745648
9270.000000;0.745578
9269.000000;0.745554
9268.000000;0.745409
9267.000000;0.745134
9266.000000;0.744919
9265.000000;0.744844
9264.000000;0.744711
9263.000000;0.744324
9262.000000;0.743809
9261.000000;0.743444
9260.000000;0.743271
9259.000000;0.743127
9258.000000;0.743005
9257.000000;0.743121
9256.000000;0.743560
9255.000000;0.744061
9254.000000;0.744286
9253.000000;0.744184
9252.000000;0.743991
9251.000000;0.743952
9250.000000;0.744111
9249.000000;0.744308
9248.000000;0.744320
9247.000000;0.744048
9246.000000;0.743635
9245.000000;0.743345
9244.000000;0.743296
9243.000000;0.743323
9242.000000;0.743171
9241.000000;0.742805
9240.000000;0.742478
9239.000000;0.742457
9238.000000;0.742715
9237.000000;0.742944
9236.000000;0.742894
9235.000000;0.742642
9234.000000;0.742446
9233.000000;0.742387
9232.000000;0.742308
9231.000000;0.742091
9230.000000;0.741858
9229.000000;0.741776
9228.000000;0.741800
9227.000000;0.741721
9226.000000;0.741434
9225.000000;0.741076
9224.000000;0.740900
9223.000000;0.741065
9222.000000;0.741495
9221.000000;0.741925
9220.000000;0.742102
9219.000000;0.741994
9218.000000;0.741742
9217.000000;0.741454
9216.000000;0.741147
9215.000000;0.740912
9214.000000;0.740944
9213.000000;0.741293
9212.000000;0.741712
9211.000000;0.741876
9210.000000;0.741685
9209.000000;0.741272
9208.000000;0.740821
9207.000000;0.740491
9206.000000;0.740409
9205.000000;0.740553
9204.000000;0.740718
9203.000000;0.740713
9202.000000;0.740548
9201.000000;0.740340
9200.000000;0.740110
9199.000000;0.739842
9198.000000;0.739661
9197.000000;0.739752
9196.000000;0.740083
9195.000000;0.740407
9194.000000;0.740549
9193.000000;0.740552
9192.000000;0.740501
9191.000000;0.740356
9190.000000;0.740042
9189.000000;0.739613
9188.000000;0.739247
9187.000000;0.739103
9186.000000;0.739217
9185.000000;0.739464
9184.000000;0.739618
9183.000000;0.739489
9182.000000;0.739079
9181.000000;0.738595
9180.000000;0.738289
9179.000000;0.738277
9178.000000;0.738486
9177.000000;0.738765
9176.000000;0.739029
9175.000000;0.739279
9174.000000;0.739472
9173.000000;0.739452
9172.000000;0.739098
9171.000000;0.738492
9170.000000;0.737856
9169.000000;0.737342
9168.000000;0.737004
9167.000000;0.736932
9166.000000;0.737201
9165.000000;0.737662
9164.000000;0.737962
9163.000000;0.737889
9162.000000;0.737567
9161.000000;0.737243
9160.000000;0.737052
9159.000000;0.737055
9158.000000;0.737297
9157.000000;0.737657
9156.000000;0.737812
9155.000000;0.737574
9154.000000;0.737153
9153.000000;0.736915
9152.000000;0.736969
9151.000000;0.737138
9150.000000;0.737238
9149.000000;0.737188
9148.000000;0.736930
9147.000000;0.736474
9146.000000;0.736006
9145.000000;0.735751
9144.000000;0.735745
9143.000000;0.735854
9142.000000;0.735975
9141.000000;0.736062
9140.000000;0.736010
9139.000000;0.735756
9138.000000;0.735462
9137.000000;0.735390
9136.000000;0.735551
9135.000000;0.735669
9134.000000;0.735566
9133.000000;0.735383
9132.000000;0.735352
9131.000000;0.735487
9130.000000;0.735605
9129.000000;0.735540
9128.000000;0.735263
9127.000000;0.734855
9126.000000;0.734440
9125.000000;0.734093
9124.000000;0.733800
9123.000000;0.733544
9122.000000;0.733446
9121.000000;0.733703
9120.000000;0.734324
9119.000000;0.735003
9118.000000;0.735352
9117.000000;0.735253
9116.000000;0.734933
9115.000000;0.734673
9114.000000;0.734504
9113.000000;0.734237
9112.000000;0.733796
9111.000000;0.733403
9110.000000;0.733324
9109.000000;0.733484
9108.000000;0.733521
9107.000000;0.733260
9106.000000;0.732966
9105.000000;0.733001
9104.000000;0.733400
9103.000000;0.733904
9102.000000;0.734310
9101.000000;0.734583
9100.000000;0.734695
9099.000000;0.734570
9098.000000;0.734202
9097.000000;0.733707
9096.000000;0.733227
9095.000000;0.732863
9094.000000;0.732680
9093.000000;0.732661
9092.000000;0.732667
9091.000000;0.732551
9090.000000;0.732306
9089.000000;0.732040
9088.000000;0.731842
9087.000000;0.731756
9086.000000;0.731838
9085.000000;0.732084
9084.000000;0.732342
9083.000000;0.732418
9082.000000;0.732286
9081.000000;0.732085
9080.000000;0.731922
9079.000000;0.731790
9078.000000;0.731658
9077.000000;0.731527
9076.000000;0.731377
9075.000000;0.731184
9074.000000;0.731002
9073.000000;0.730942
9072.000000;0.731032
9071.000000;0.731170
9070.000000;0.731205
9069.000000;0.731034
9068.000000;0.730664
9067.000000;0.730263
9066.000000;0.730102
9065.000000;0.730310
9064.000000;0.730712
9063.000000;0.731002
9062.000000;0.731057
9061.000000;0.730993
9060.000000;0.730921
9059.000000;0.730816
9058.000000;0.730648
9057.000000;0.730483
9056.000000;0.730384
9055.000000;0.730301
9054.000000;0.730131
9053.000000;0.729835
