Criado como novo conjunto de dados;"2706_e01_daniel.spp","38523.7 Secs"
cm-1;Abs
10000.000000;0.680353
9999.000000;0.679733
9998.000000;0.679477
9997.000000;0.679432
9996.000000;0.679296
9995.000000;0.678991
9994.000000;0.678719
9993.000000;0.678657
9992.000000;0.678775
9991.000000;0.678997
9990.000000;0.679362
9989.000000;0.679900
9988.000000;0.680466
9987.000000;0.680815
9986.000000;0.680796
9985.000000;0.680439
9984.000000;0.679941
9983.000000;0.679582
9982.000000;0.679534
9981.000000;0.679695
9980.000000;0.679793
9979.000000;0.679673
9978.000000;0.679432
9977.000000;0.679263
9976.000000;0.679278
9975.000000;0.679459
9974.000000;0.679654
9973.000000;0.679638
9972.000000;0.679317
9971.000000;0.678908
9970.000000;0.678793
9969.000000;0.679160
9968.000000;0.679830
9967.000000;0.680423
9966.000000;0.680597
9965.000000;0.680219
9964.000000;0.679459
9963.000000;0.678691
9962.000000;0.678192
9961.000000;0.677935
9960.000000;0.677762
9959.000000;0.677687
9958.000000;0.677826
9957.000000;0.678122
9956.000000;0.678373
9955.000000;0.678502
9954.000000;0.678583
9953.000000;0.678557
9952.000000;0.678208
9951.000000;0.677502
9950.000000;0.676759
9949.000000;0.676323
9948.000000;0.676224
9947.000000;0.676245
9946.000000;0.676249
9945.000000;0.676299
9944.000000;0.676511
9943.000000;0.676870
9942.000000;0.677215
9941.000000;0.677395
9940.000000;0.677438
9939.000000;0.677507
9938.000000;0.677612
9937.000000;0.677479
9936.000000;0.676845
9935.000000;0.675821
9934.000000;0.674824
9933.000000;0.674162
9932.000000;0.673864
9931.000000;0.673863
9930.000000;0.674140
9929.000000;0.674635
9928.000000;0.675182
9927.000000;0.675592
9926.000000;0.675765
9925.000000;0.675727
9924.000000;0.675661
9923.000000;0.675823
9922.000000;0.676273
9921.000000;0.676715
9920.000000;0.676745
9919.000000;0.676264
9918.000000;0.675536
9917.000000;0.674897
9916.000000;0.674526
9915.000000;0.674441
9914.000000;0.674533
9913.000000;0.674615
9912.000000;0.674594
9911.000000;0.674574
9910.000000;0.674659
9909.000000;0.674732
9908.000000;0.674614
9907.000000;0.674392
9906.000000;0.674356
9905.000000;0.674619
9904.000000;0.674968
9903.000000;0.675093
9902.000000;0.674776
9901.000000;0.673928
9900.000000;0.672677
9899.000000;0.671451
9898.000000;0.670765
9897.000000;0.670815
9896.000000;0.671389
9895.000000;0.672146
9894.000000;0.672829
9893.000000;0.673238
9892.000000;0.673219
9891.000000;0.672797
9890.000000;0.672168
9889.000000;0.671558
9888.000000;0.671136
9887.000000;0.671012
9886.000000;0.671143
9885.000000;0.671298
9884.000000;0.671282
9883.000000;0.671190
9882.000000;0.671239
9881.000000;0.671436
9880.000000;0.671632
9879.000000;0.671831
9878.000000;0.672151
9877.000000;0.672494
9876.000000;0.672560
9875.000000;0.672251
9874.000000;0.671795
9873.000000;0.671396
9872.000000;0.671041
9871.000000;0.670705
9870.000000;0.670472
9869.000000;0.670339
9868.000000;0.670152
9867.000000;0.669875
9866.000000;0.669700
9865.000000;0.669752
9864.000000;0.669885
9863.000000;0.669910
9862.000000;0.669845
9861.000000;0.669780
9860.000000;0.669674
9859.000000;0.669453
9858.000000;0.669172
9857.000000;0.668903
9856.000000;0.668544
9855.000000;0.667955
9854.000000;0.667250
9853.000000;0.666810
9852.000000;0.666938
9851.000000;0.667545
9850.000000;0.668180
9849.000000;0.668406
9848.000000;0.668209
9847.000000;0.667988
9846.000000;0.668099
9845.000000;0.668477
9844.000000;0.668806
9843.000000;0.668935
9842.000000;0.668935
9841.000000;0.668783
9840.000000;0.668317
9839.000000;0.667562
9838.000000;0.666864
9837.000000;0.666556
9836.000000;0.666614
9835.000000;0.666763
9834.000000;0.666797
9833.000000;0.666698
9832.000000;0.666542
9831.000000;0.666382
9830.000000;0.666213
9829.000000;0.665998
9828.000000;0.665768
9827.000000;0.665638
9826.000000;0.665633
9825.000000;0.665566
9824.000000;0.665238
9823.000000;0.664757
9822.000000;0.664475
9821.000000;0.664593
9820.000000;0.664973
9819.000000;0.665367
9818.000000;0.665653
9817.000000;0.665814
9816.000000;0.665870
9815.000000;0.665913
9814.000000;0.666068
9813.000000;0.666318
9812.000000;0.666491
9811.000000;0.666483
9810.000000;0.666400
9809.000000;0.666419
9808.000000;0.666577
9807.000000;0.666744
9806.000000;0.666720
9805.000000;0.666369
9804.000000;0.665747
9803.000000;0.665111
9802.000000;0.664704
9801.000000;0.664530
9800.000000;0.664444
9799.000000;0.664410
9798.000000;0.664508
9797.000000;0.664708
9796.000000;0.664805
9795.000000;0.664649
9794.000000;0.664320
9793.000000;0.664032
9792.000000;0.663976
9791.000000;0.664230
9790.000000;0.664694
9789.000000;0.665066
9788.000000;0.665022
9787.000000;0.664500
9786.000000;0.663770
9785.000000;0.663249
9784.000000;0.663251
9783.000000;0.663786
9782.000000;0.664433
9781.000000;0.664543
9780.000000;0.663825
9779.000000;0.662729
9778.000000;0.662033
9777.000000;0.662064
9776.000000;0.662485
9775.000000;0.662792
9774.000000;0.662764
9773.000000;0.662432
9772.000000;0.661921
9771.000000;0.661444
9770.000000;0.661237
9769.000000;0.661326
9768.000000;0.661489
9767.000000;0.661524
9766.000000;0.661421
9765.000000;0.661216
9764.000000;0.660881
9763.000000;0.660466
9762.000000;0.660170
9761.000000;0.660130
9760.000000;0.660267
9759.000000;0.660418
9758.000000;0.660530
9757.000000;0.660616
9756.000000;0.660629
9755.000000;0.660486
9754.000000;0.660208
9753.000000;0.659960
9752.000000;0.659945
9751.000000;0.660206
9750.000000;0.660520
9749.000000;0.660557
9748.000000;0.660282
9747.000000;0.660068
9746.000000;0.660229
9745.000000;0.660551
9744.000000;0.660530
9743.000000;0.660061
9742.000000;0.659579
9741.000000;0.659490
9740.000000;0.659729
9739.000000;0.659976
9738.000000;0.660043
9737.000000;0.659914
9736.000000;0.659625
9735.000000;0.659282
9734.000000;0.659065
9733.000000;0.659053
9732.000000;0.659146
9731.000000;0.659248
9730.000000;0.659368
9729.000000;0.659463
9728.000000;0.659343
9727.000000;0.658890
9726.000000;0.658274
9725.000000;0.657809
9724.000000;0.657660
9723.000000;0.657750
9722.000000;0.657909
9721.000000;0.658041
9720.000000;0.658186
9719.000000;0.658415
9718.000000;0.658652
9717.000000;0.658660
9716.000000;0.658358
9715.000000;0.658033
9714.000000;0.657999
9713.000000;0.658121
9712.000000;0.657987
9711.000000;0.657565
9710.000000;0.657296
9709.000000;0.657437
9708.000000;0.657658
9707.000000;0.657540
9706.000000;0.657152
9705.000000;0.656839
9704.000000;0.656673
9703.000000;0.656465
9702.000000;0.656160
9701.000000;0.655894
9700.000000;0.655711
9699.000000;0.655539
9698.000000;0.655438
9697.000000;0.655588
9696.000000;0.656007
9695.000000;0.656492
9694.000000;0.656861
9693.000000;0.657105
9692.000000;0.657237
9691.000000;0.657217
9690.000000;0.657048
9689.000000;0.656816
9688.000000;0.656565
9687.000000;0.656264
9686.000000;0.655937
9685.000000;0.655693
9684.000000;0.655550
9683.000000;0.655374
9682.000000;0.655080
9681.000000;0.654808
9680.000000;0.654774
9679.000000;0.654976
9678.000000;0.655179
9677.000000;0.655202
9676.000000;0.655136
9675.000000;0.655190
9674.000000;0.655387
9673.000000;0.655502
9672.000000;0.655346
9671.000000;0.655016
9670.000000;0.654788
9669.000000;0.654818
9668.000000;0.655039
9667.000000;0.655298
9666.000000;0.655477
9665.000000;0.655470
9664.000000;0.655212
9663.000000;0.654787
9662.000000;0.654420
9661.000000;0.654282
9660.000000;0.654327
9659.000000;0.654392
9658.000000;0.654373
9657.000000;0.654248
9656.000000;0.654007
9655.000000;0.653652
9654.000000;0.653256
9653.000000;0.652940
9652.000000;0.652771
9651.000000;0.652707
9650.000000;0.652633
9649.000000;0.652453
9648.000000;0.652180
9647.000000;0.651932
9646.000000;0.651822
9645.000000;0.651821
9644.000000;0.651773
9643.000000;0.651604
9642.000000;0.651438
9641.000000;0.651472
9640.000000;0.651737
9639.000000;0.652062
9638.000000;0.652261
9637.000000;0.652312
9636.000000;0.652325
9635.000000;0.652368
9634.000000;0.652365
9633.000000;0.652194
9632.000000;0.651840
9631.000000;0.651420
9630.000000;0.651064
9629.000000;0.650826
9628.000000;0.650703
9627.000000;0.650703
9626.000000;0.650830
9625.000000;0.651016
9624.000000;0.651141
9623.000000;0.651122
9622.000000;0.650981
9621.000000;0.650819
9620.000000;0.650743
9619.000000;0.650785
9618.000000;0.650858
9617.000000;0.650830
9616.000000;0.650655
9615.000000;0.650464
9614.000000;0.650468
9613.000000;0.650762
9612.000000;0.651214
9611.000000;0.651541
9610.000000;0.651517
9609.000000;0.651138
9608.000000;0.650592
9607.000000;0.650088
9606.000000;0.649757
9605.000000;0.649706
9604.000000;0.649990
9603.000000;0.650412
9602.000000;0.650496
9601.000000;0.649938
9600.000000;0.649065
9599.000000;0.648567
9598.000000;0.648727
9597.000000;0.649149
9596.000000;0.649322
9595.000000;0.649186
9594.000000;0.648993
9593.000000;0.648856
9592.000000;0.648713
9591.000000;0.648588
9590.000000;0.648584
9589.000000;0.648680
9588.000000;0.648751
9587.000000;0.648784
9586.000000;0.648869
9585.000000;0.649003
9584.000000;0.649093
9583.000000;0.649107
9582.000000;0.649066
9581.000000;0.648918
9580.000000;0.648613
9579.000000;0.648278
9578.000000;0.648135
9577.000000;0.648241
9576.000000;0.648461
9575.000000;0.648672
9574.000000;0.648811
9573.000000;0.648739
9572.000000;0.648337
9571.000000;0.647752
9570.000000;0.647348
9569.000000;0.647291
9568.000000;0.647352
9567.000000;0.647219
9566.000000;0.646866
9565.000000;0.646527
9564.000000;0.646397
9563.000000;0.646455
9562.000000;0.646502
9561.000000;0.646337
9560.000000;0.645974
9559.000000;0.645693
9558.000000;0.645777
9557.000000;0.646175
9556.000000;0.646548
9555.000000;0.646674
9554.000000;0.646671
9553.000000;0.646750
9552.000000;0.646923
9551.000000;0.647037
9550.000000;0.647000
9549.000000;0.646830
9548.000000;0.646568
9547.000000;0.646264
9546.000000;0.646005
9545.000000;0.645863
9544.000000;0.645802
9543.000000;0.645714
9542.000000;0.645539
9541.000000;0.645317
9540.000000;0.645128
9539.000000;0.645033
9538.000000;0.645047
9537.000000;0.645148
9536.000000;0.645285
9535.000000;0.645402
9534.000000;0.645464
9533.000000;0.645471
9532.000000;0.645450
9531.000000;0.645401
9530.000000;0.645270
9529.000000;0.644996
9528.000000;0.644617
9527.000000;0.644266
9526.000000;0.644055
9525.000000;0.644014
9524.000000;0.644155
9523.000000;0.644488
9522.000000;0.644900
9521.000000;0.645131
9520.000000;0.644998
9519.000000;0.644583
9518.000000;0.644122
9517.000000;0.643748
9516.000000;0.643447
9515.000000;0.643213
9514.000000;0.643101
9513.000000;0.643140
9512.000000;0.643300
9511.000000;0.643531
9510.000000;0.643731
9509.000000;0.643739
9508.000000;0.643486
9507.000000;0.643133
9506.000000;0.642914
9505.000000;0.642841
9504.000000;0.642720
9503.000000;0.642455
9502.000000;0.642173
9501.000000;0.642003
9500.000000;0.641884
9499.000000;0.641691
9498.000000;0.641447
9497.000000;0.641300
9496.000000;0.641348
9495.000000;0.641549
9494.000000;0.641768
9493.000000;0.641843
9492.000000;0.641664
9491.000000;0.641275
9490.000000;0.640877
9489.000000;0.640679
9488.000000;0.640723
9487.000000;0.640876
9486.000000;0.640993
9485.000000;0.641066
9484.000000;0.641200
9483.000000;0.641449
9482.000000;0.641708
9481.000000;0.641820
9480.000000;0.641777
9479.000000;0.641719
9478.000000;0.641720
9477.000000;0.641670
9476.000000;0.641452
9475.000000;0.641165
9474.000000;0.641062
9473.000000;0.641256
9472.000000;0.641579
9471.000000;0.641737
9470.000000;0.641574
9469.000000;0.641160
9468.000000;0.640663
9467.000000;0.640181
9466.000000;0.639708
9465.000000;0.639251
9464.000000;0.638923
9463.000000;0.638855
9462.000000;0.639038
9461.000000;0.639332
9460.000000;0.639607
9459.000000;0.639791
9458.000000;0.639804
9457.000000;0.639595
9456.000000;0.639290
9455.000000;0.639139
9454.000000;0.639243
9453.000000;0.639418
9452.000000;0.639448
9451.000000;0.639353
9450.000000;0.639322
9449.000000;0.639467
9448.000000;0.639731
9447.000000;0.639981
9446.000000;0.640093
9445.000000;0.640035
9444.000000;0.639920
9443.000000;0.639907
9442.000000;0.639974
9441.000000;0.639878
9440.000000;0.639443
9439.000000;0.638786
9438.000000;0.638182
9437.000000;0.637829
9436.000000;0.637832
9435.000000;0.638248
9434.000000;0.638937
9433.000000;0.639459
9432.000000;0.639349
9431.000000;0.638556
9430.000000;0.637502
9429.000000;0.636744
9428.000000;0.636606
9427.000000;0.637027
9426.000000;0.637609
9425.000000;0.637887
9424.000000;0.637707
9423.000000;0.637337
9422.000000;0.637126
9421.000000;0.637141
9420.000000;0.637232
9419.000000;0.637298
9418.000000;0.637335
9417.000000;0.637289
9416.000000;0.637070
9415.000000;0.636695
9414.000000;0.636282
9413.000000;0.635954
9412.000000;0.635817
9411.000000;0.635939
9410.000000;0.636183
9409.000000;0.636201
9408.000000;0.635809
9407.000000;0.635281
9406.000000;0.635072
9405.000000;0.635282
9404.000000;0.635605
9403.000000;0.635746
9402.000000;0.635657
9401.000000;0.635404
9400.000000;0.635066
9399.000000;0.634808
9398.000000;0.634797
9397.000000;0.634972
9396.000000;0.635089
9395.000000;0.635032
9394.000000;0.634921
9393.000000;0.634863
9392.000000;0.634823
9391.000000;0.634799
9390.000000;0.634908
9389.000000;0.635173
9388.000000;0.635383
9387.000000;0.635303
9386.000000;0.634942
9385.000000;0.634502
9384.000000;0.634157
9383.000000;0.633967
9382.000000;0.633910
9381.000000;0.633902
9380.000000;0.633837
9379.000000;0.633700
9378.000000;0.633602
9377.000000;0.633640
9376.000000;0.633758
9375.000000;0.633798
9374.000000;0.633673
9373.000000;0.633462
9372.000000;0.633326
9371.000000;0.633350
9370.000000;0.633450
9369.000000;0.633464
9368.000000;0.633332
9367.000000;0.633142
9366.000000;0.632987
9365.000000;0.632855
9364.000000;0.632713
9363.000000;0.632609
9362.000000;0.632605
9361.000000;0.632670
9360.000000;0.632725
9359.000000;0.632729
9358.000000;0.632640
9357.000000;0.632395
9356.000000;0.632053
9355.000000;0.631881
9354.000000;0.632093
9353.000000;0.632560
9352.000000;0.632917
9351.000000;0.632948
9350.000000;0.632743
9349.000000;0.632485
9348.000000;0.632283
9347.000000;0.632181
9346.000000;0.632202
9345.000000;0.632301
9344.000000;0.632408
9343.000000;0.632500
9342.000000;0.632563
9341.000000;0.632496
9340.000000;0.632209
9339.000000;0.631792
9338.000000;0.631474
9337.000000;0.631377
9336.000000;0.631411
9335.000000;0.631405
9334.000000;0.631258
9333.000000;0.630979
9332.000000;0.630688
9331.000000;0.630535
9330.000000;0.630523
9329.000000;0.630464
9328.000000;0.630205
9327.000000;0.629846
9326.000000;0.629590
9325.000000;0.629469
9324.000000;0.629383
9323.000000;0.629348
9322.000000;0.629459
9321.000000;0.629646
9320.000000;0.629716
9319.000000;0.629660
9318.000000;0.629684
9317.000000;0.629851
9316.000000;0.629924
9315.000000;0.629683
9314.000000;0.629244
9313.000000;0.628943
9312.000000;0.629000
9311.000000;0.629377
9310.000000;0.629860
9309.000000;0.630194
9308.000000;0.630252
9307.000000;0.630141
9306.000000;0.630063
9305.000000;0.630043
9304.000000;0.629901
9303.000000;0.629530
9302.000000;0.629078
9301.000000;0.628794
9300.000000;0.628795
9299.000000;0.629034
9298.000000;0.629374
9297.000000;0.629607
9296.000000;0.629529
9295.000000;0.629130
9294.000000;0.628639
9293.000000;0.628295
9292.000000;0.628116
9291.000000;0.627965
9290.000000;0.627779
9289.000000;0.627639
9288.000000;0.627623
9287.000000;0.627683
9286.000000;0.627680
9285.000000;0.627527
9284.000000;0.627279
9283.000000;0.627062
9282.000000;0.626936
9281.000000;0.626848
9280.000000;0.626759
9279.000000;0.626730
9278.000000;0.626825
9277.000000;0.626980
9276.000000;0.627078
9275.000000;0.627114
9274.000000;0.627179
9273.000000;0.627275
9272.000000;0.627281
9271.000000;0.627125
9270.000000;0.626882
9269.000000;0.626685
9268.000000;0.626592
9267.000000;0.626570
9266.000000;0.626548
9265.000000;0.626472
9264.000000;0.626364
9263.000000;0.626305
9262.000000;0.626318
9261.000000;0.626305
9260.000000;0.626191
9259.000000;0.626057
9258.000000;0.626024
9257.000000;0.626061
9256.000000;0.626042
9255.000000;0.625967
9254.000000;0.625941
9253.000000;0.625954
9252.000000;0.625867
9251.000000;0.625657
9250.000000;0.625520
9249.000000;0.625606
9248.000000;0.625792
9247.000000;0.625816
9246.000000;0.625588
9245.000000;0.625267
9244.000000;0.625066
9243.000000;0.625027
9242.000000;0.624999
9241.000000;0.624813
9240.000000;0.624490
9239.000000;0.624240
9238.000000;0.624227
9237.000000;0.624394
9236.000000;0.624568
9235.000000;0.624660
9234.000000;0.624665
9233.000000;0.624533
9232.000000;0.624226
9231.000000;0.623878
9230.000000;0.623709
9229.000000;0.623734
9228.000000;0.623729
9227.000000;0.623550
9226.000000;0.623333
9225.000000;0.623303
9224.000000;0.623471
9223.000000;0.623648
9222.000000;0.623685
9221.000000;0.623621
9220.000000;0.623587
9219.000000;0.623646
9218.000000;0.623709
9217.000000;0.623637
9216.000000;0.623424
9215.000000;0.623242
9214.000000;0.623242
9213.000000;0.623364
9212.000000;0.623426
9211.000000;0.623369
9210.000000;0.623294
9209.000000;0.623263
9208.000000;0.623204
9207.000000;0.623034
9206.000000;0.622765
9205.000000;0.622449
9204.000000;0.622114
9203.000000;0.621807
9202.000000;0.621608
9201.000000;0.621556
9200.000000;0.621608
9199.000000;0.621710
9198.000000;0.621839
9197.000000;0.621953
9196.000000;0.621987
9195.000000;0.621920
9194.000000;0.621786
9193.000000;0.621607
9192.000000;0.621384
9191.000000;0.621184
9190.000000;0.621135
9189.000000;0.621289
9188.000000;0.621538
9187.000000;0.621718
9186.000000;0.621738
9185.000000;0.621609
9184.000000;0.621379
9183.000000;0.621118
9182.000000;0.620916
9181.000000;0.620854
9180.000000;0.620948
9179.000000;0.621112
9178.000000;0.621173
9177.000000;0.621004
9176.000000;0.620675
9175.000000;0.620422
9174.000000;0.620398
9173.000000;0.620500
9172.000000;0.620521
9171.000000;0.620408
9170.000000;0.620269
9169.000000;0.620154
9168.000000;0.619988
9167.000000;0.619720
9166.000000;0.619425
9165.000000;0.619195
9164.000000;0.619040
9163.000000;0.618939
9162.000000;0.618921
9161.000000;0.619022
9160.000000;0.619200
9159.000000;0.619334
9158.000000;0.619317
9157.000000;0.619154
9156.000000;0.618975
9155.000000;0.618912
9154.000000;0.618961
9153.000000;0.619015
9152.000000;0.619047
9151.000000;0.619140
9150.000000;0.619286
9149.000000;0.619307
9148.000000;0.619086
9147.000000;0.618793
9146.000000;0.618703
9145.000000;0.618856
9144.000000;0.619038
9143.000000;0.619059
9142.000000;0.618883
9141.000000;0.618536
9140.000000;0.618066
9139.000000;0.617622
9138.000000;0.617402
9137.000000;0.617469
9136.000000;0.617742
9135.000000;0.618146
9134.000000;0.618635
9133.000000;0.619051
9132.000000;0.619165
9131.000000;0.618922
9130.000000;0.618507
9129.000000;0.618104
9128.000000;0.617737
9127.000000;0.617384
9126.000000;0.617119
9125.000000;0.617024
9124.000000;0.617078
9123.000000;0.617201
9122.000000;0.617341
9121.000000;0.617438
9120.000000;0.617400
9119.000000;0.617204
9118.000000;0.616959
9117.000000;0.616793
9116.000000;0.616735
9115.000000;0.616744
9114.000000;0.616781
9113.000000;0.616808
9112.000000;0.616759
9111.000000;0.616587
9110.000000;0.616326
9109.000000;0.616087
9108.000000;0.615978
9107.000000;0.616024
9106.000000;0.616103
9105.000000;0.616018
9104.000000;0.615699
9103.000000;0.615334
9102.000000;0.615180
9101.000000;0.615271
9100.000000;0.615410
9099.000000;0.615447
9098.000000;0.615431
9097.000000;0.615449
9096.000000;0.615442
9095.000000;0.615276
9094.000000;0.614938
9093.000000;0.614557
9092.000000;0.614286
9091.000000;0.614196
9090.000000;0.614246
9089.000000;0.614343
9088.000000;0.614458
9087.000000;0.614671
9086.000000;0.615052
9085.000000;0.615504
9084.000000;0.615802
9083.000000;0.615799
9082.000000;0.615525
9081.000000;0.615073
9080.000000;0.614514
9079.000000;0.613951
9078.000000;0.613567
9077.000000;0.613499
9076.000000;0.613710
9075.000000;0.614007
9074.000000;0.614185
9073.000000;0.614150
9072.000000;0.613953
9071.000000;0.613719
9070.000000;0.613501
9069.000000;0.613229
9068.000000;0.612839
9067.000000;0.612432
9066.000000;0.612206
9065.000000;0.612233
9064.000000;0.612397
9063.000000;0.612556
9062.000000;0.612666
9061.000000;0.612727
9060.000000;0.612700
9059.000000;0.612549
9058.000000;0.612310
9057.000000;0.612086
9056.000000;0.611987
9055.000000;0.612068
9054.000000;0.612289
9053.000000;0.612508
