Criado como novo conjunto de dados;"2706_e01_daniel.spp","86766.6 Secs"
cm-1;Abs
10000.000000;0.640879
9999.000000;0.640501
9998.000000;0.640681
9997.000000;0.641264
9996.000000;0.641913
9995.000000;0.642439
9994.000000;0.642644
9993.000000;0.642486
9992.000000;0.641991
9991.000000;0.641260
9990.000000;0.640348
9989.000000;0.639345
9988.000000;0.638466
9987.000000;0.638013
9986.000000;0.638151
9985.000000;0.638765
9984.000000;0.639537
9983.000000;0.640200
9982.000000;0.640669
9981.000000;0.640933
9980.000000;0.640924
9979.000000;0.640574
9978.000000;0.639985
9977.000000;0.639397
9976.000000;0.638982
9975.000000;0.638780
9974.000000;0.638875
9973.000000;0.639459
9972.000000;0.640556
9971.000000;0.641774
9970.000000;0.642503
9969.000000;0.642362
9968.000000;0.641353
9967.000000;0.639683
9966.000000;0.637713
9965.000000;0.636065
9964.000000;0.635403
9963.000000;0.635868
9962.000000;0.636875
9961.000000;0.637667
9960.000000;0.638000
9959.000000;0.638137
9958.000000;0.638303
9957.000000;0.638422
9956.000000;0.638398
9955.000000;0.638352
9954.000000;0.638481
9953.000000;0.638801
9952.000000;0.639147
9951.000000;0.639328
9950.000000;0.639204
9949.000000;0.638681
9948.000000;0.637758
9947.000000;0.636560
9946.000000;0.635290
9945.000000;0.634168
9944.000000;0.633454
9943.000000;0.633424
9942.000000;0.634224
9941.000000;0.635699
9940.000000;0.637397
9939.000000;0.638770
9938.000000;0.639412
9937.000000;0.639194
9936.000000;0.638246
9935.000000;0.636836
9934.000000;0.635248
9933.000000;0.633788
9932.000000;0.632825
9931.000000;0.632679
9930.000000;0.633351
9929.000000;0.634444
9928.000000;0.635460
9927.000000;0.636158
9926.000000;0.636577
9925.000000;0.636774
9924.000000;0.636726
9923.000000;0.636471
9922.000000;0.636123
9921.000000;0.635681
9920.000000;0.635037
9919.000000;0.634301
9918.000000;0.633914
9917.000000;0.634191
9916.000000;0.634847
9915.000000;0.635231
9914.000000;0.635039
9913.000000;0.634533
9912.000000;0.634038
9911.000000;0.633530
9910.000000;0.632877
9909.000000;0.632222
9908.000000;0.631823
9907.000000;0.631653
9906.000000;0.631487
9905.000000;0.631358
9904.000000;0.631612
9903.000000;0.632387
9902.000000;0.633258
9901.000000;0.633597
9900.000000;0.633245
9899.000000;0.632646
9898.000000;0.632317
9897.000000;0.632339
9896.000000;0.632398
9895.000000;0.632220
9894.000000;0.631821
9893.000000;0.631322
9892.000000;0.630690
9891.000000;0.629807
9890.000000;0.628802
9889.000000;0.628150
9888.000000;0.628311
9887.000000;0.629262
9886.000000;0.630476
9885.000000;0.631395
9884.000000;0.631869
9883.000000;0.632128
9882.000000;0.632385
9881.000000;0.632550
9880.000000;0.632349
9879.000000;0.631686
9878.000000;0.630806
9877.000000;0.630015
9876.000000;0.629301
9875.000000;0.628407
9874.000000;0.627321
9873.000000;0.626494
9872.000000;0.626380
9871.000000;0.626875
9870.000000;0.627461
9869.000000;0.627877
9868.000000;0.628373
9867.000000;0.629149
9866.000000;0.629866
9865.000000;0.629983
9864.000000;0.629509
9863.000000;0.629086
9862.000000;0.629287
9861.000000;0.630063
9860.000000;0.630937
9859.000000;0.631516
9858.000000;0.631693
9857.000000;0.631497
9856.000000;0.631005
9855.000000;0.630362
9854.000000;0.629705
9853.000000;0.629019
9852.000000;0.628178
9851.000000;0.627200
9850.000000;0.626344
9849.000000;0.625904
9848.000000;0.625981
9847.000000;0.626506
9846.000000;0.627352
9845.000000;0.628253
9844.000000;0.628709
9843.000000;0.628265
9842.000000;0.627049
9841.000000;0.625872
9840.000000;0.625570
9839.000000;0.626224
9838.000000;0.627137
9837.000000;0.627597
9836.000000;0.627516
9835.000000;0.627281
9834.000000;0.627154
9833.000000;0.627041
9832.000000;0.626794
9831.000000;0.626490
9830.000000;0.626300
9829.000000;0.626242
9828.000000;0.626200
9827.000000;0.626122
9826.000000;0.626029
9825.000000;0.625867
9824.000000;0.625499
9823.000000;0.624901
9822.000000;0.624280
9821.000000;0.623952
9820.000000;0.624163
9819.000000;0.624970
9818.000000;0.626151
9817.000000;0.627227
9816.000000;0.627748
9815.000000;0.627663
9814.000000;0.627285
9813.000000;0.626846
9812.000000;0.626254
9811.000000;0.625428
9810.000000;0.624675
9809.000000;0.624414
9808.000000;0.624589
9807.000000;0.624646
9806.000000;0.624186
9805.000000;0.623438
9804.000000;0.622985
9803.000000;0.623144
9802.000000;0.623737
9801.000000;0.624357
9800.000000;0.624730
9799.000000;0.624858
9798.000000;0.624885
9797.000000;0.624838
9796.000000;0.624506
9795.000000;0.623664
9794.000000;0.622436
9793.000000;0.621301
9792.000000;0.620692
9791.000000;0.620675
9790.000000;0.621071
9789.000000;0.621729
9788.000000;0.622541
9787.000000;0.623269
9786.000000;0.623559
9785.000000;0.623174
9784.000000;0.622176
9783.000000;0.620894
9782.000000;0.619776
9781.000000;0.619177
9780.000000;0.619152
9779.000000;0.619474
9778.000000;0.619885
9777.000000;0.620310
9776.000000;0.620770
9775.000000;0.621192
9774.000000;0.621454
9773.000000;0.621598
9772.000000;0.621815
9771.000000;0.622195
9770.000000;0.622591
9769.000000;0.622768
9768.000000;0.622598
9767.000000;0.622082
9766.000000;0.621318
9765.000000;0.620509
9764.000000;0.619926
9763.000000;0.619721
9762.000000;0.619805
9761.000000;0.619974
9760.000000;0.620151
9759.000000;0.620411
9758.000000;0.620793
9757.000000;0.621166
9756.000000;0.621358
9755.000000;0.621345
9754.000000;0.621240
9753.000000;0.621098
9752.000000;0.620867
9751.000000;0.620547
9750.000000;0.620287
9749.000000;0.620201
9748.000000;0.620129
9747.000000;0.619727
9746.000000;0.618826
9745.000000;0.617623
9744.000000;0.616496
9743.000000;0.615724
9742.000000;0.615412
9741.000000;0.615541
9740.000000;0.616014
9739.000000;0.616700
9738.000000;0.617508
9737.000000;0.618404
9736.000000;0.619311
9735.000000;0.620072
9734.000000;0.620546
9733.000000;0.620690
9732.000000;0.620511
9731.000000;0.620054
9730.000000;0.619503
9729.000000;0.619143
9728.000000;0.619072
9727.000000;0.619027
9726.000000;0.618662
9725.000000;0.617958
9724.000000;0.617191
9723.000000;0.616537
9722.000000;0.615897
9721.000000;0.615147
9720.000000;0.614397
9719.000000;0.613897
9718.000000;0.613827
9717.000000;0.614229
9716.000000;0.615024
9715.000000;0.615976
9714.000000;0.616733
9713.000000;0.617081
9712.000000;0.617146
9711.000000;0.617270
9710.000000;0.617672
9709.000000;0.618245
9708.000000;0.618654
9707.000000;0.618606
9706.000000;0.618037
9705.000000;0.617110
9704.000000;0.616053
9703.000000;0.614995
9702.000000;0.613970
9701.000000;0.613061
9700.000000;0.612459
9699.000000;0.612357
9698.000000;0.612776
9697.000000;0.613511
9696.000000;0.614213
9695.000000;0.614597
9694.000000;0.614655
9693.000000;0.614676
9692.000000;0.614951
9691.000000;0.615415
9690.000000;0.615678
9689.000000;0.615491
9688.000000;0.615073
9687.000000;0.614862
9686.000000;0.614987
9685.000000;0.615134
9684.000000;0.614970
9683.000000;0.614559
9682.000000;0.614290
9681.000000;0.614431
9680.000000;0.614865
9679.000000;0.615241
9678.000000;0.615328
9677.000000;0.615174
9676.000000;0.614959
9675.000000;0.614752
9674.000000;0.614471
9673.000000;0.614065
9672.000000;0.613670
9671.000000;0.613501
9670.000000;0.613618
9669.000000;0.613876
9668.000000;0.614106
9667.000000;0.614259
9666.000000;0.614345
9665.000000;0.614292
9664.000000;0.613977
9663.000000;0.613379
9662.000000;0.612620
9661.000000;0.611858
9660.000000;0.611195
9659.000000;0.610726
9658.000000;0.610590
9657.000000;0.610926
9656.000000;0.611729
9655.000000;0.612785
9654.000000;0.613728
9653.000000;0.614231
9652.000000;0.614175
9651.000000;0.613668
9650.000000;0.612907
9649.000000;0.612064
9648.000000;0.611339
9647.000000;0.611022
9646.000000;0.611317
9645.000000;0.612055
9644.000000;0.612739
9643.000000;0.612962
9642.000000;0.612723
9641.000000;0.612229
9640.000000;0.611528
9639.000000;0.610542
9638.000000;0.609455
9637.000000;0.608818
9636.000000;0.609115
9635.000000;0.610287
9634.000000;0.611765
9633.000000;0.612925
9632.000000;0.613485
9631.000000;0.613515
9630.000000;0.613179
9629.000000;0.612526
9628.000000;0.611537
9627.000000;0.610330
9626.000000;0.609255
9625.000000;0.608681
9624.000000;0.608664
9623.000000;0.608874
9622.000000;0.608864
9621.000000;0.608429
9620.000000;0.607720
9619.000000;0.607080
9618.000000;0.606774
9617.000000;0.606806
9616.000000;0.606973
9615.000000;0.607116
9614.000000;0.607319
9613.000000;0.607785
9612.000000;0.608524
9611.000000;0.609205
9610.000000;0.609401
9609.000000;0.608983
9608.000000;0.608270
9607.000000;0.607807
9606.000000;0.607935
9605.000000;0.608507
9604.000000;0.609021
9603.000000;0.609082
9602.000000;0.608740
9601.000000;0.608323
9600.000000;0.608013
9599.000000;0.607703
9598.000000;0.607256
9597.000000;0.606738
9596.000000;0.606334
9595.000000;0.606150
9594.000000;0.606190
9593.000000;0.606432
9592.000000;0.606822
9591.000000;0.607234
9590.000000;0.607531
9589.000000;0.607686
9588.000000;0.607799
9587.000000;0.607992
9586.000000;0.608272
9585.000000;0.608496
9584.000000;0.608487
9583.000000;0.608203
9582.000000;0.607762
9581.000000;0.607244
9580.000000;0.606574
9579.000000;0.605738
9578.000000;0.605033
9577.000000;0.604831
9576.000000;0.605091
9575.000000;0.605361
9574.000000;0.605379
9573.000000;0.605444
9572.000000;0.605966
9571.000000;0.606834
9570.000000;0.607486
9569.000000;0.607546
9568.000000;0.607160
9567.000000;0.606693
9566.000000;0.606288
9565.000000;0.605819
9564.000000;0.605167
9563.000000;0.604465
9562.000000;0.604060
9561.000000;0.604202
9560.000000;0.604734
9559.000000;0.605154
9558.000000;0.605079
9557.000000;0.604598
9556.000000;0.604056
9555.000000;0.603611
9554.000000;0.603147
9553.000000;0.602591
9552.000000;0.602081
9551.000000;0.601798
9550.000000;0.601790
9549.000000;0.602037
9548.000000;0.602582
9547.000000;0.603474
9546.000000;0.604564
9545.000000;0.605441
9544.000000;0.605645
9543.000000;0.605047
9542.000000;0.604036
9541.000000;0.603219
9540.000000;0.602849
9539.000000;0.602627
9538.000000;0.602177
9537.000000;0.601624
9536.000000;0.601514
9535.000000;0.602184
9534.000000;0.603362
9533.000000;0.604434
9532.000000;0.604970
9531.000000;0.604948
9530.000000;0.604599
9529.000000;0.604142
9528.000000;0.603639
9527.000000;0.603038
9526.000000;0.602365
9525.000000;0.601825
9524.000000;0.601651
9523.000000;0.601878
9522.000000;0.602333
9521.000000;0.602817
9520.000000;0.603179
9519.000000;0.603265
9518.000000;0.602946
9517.000000;0.602252
9516.000000;0.601376
9515.000000;0.600515
9514.000000;0.599792
9513.000000;0.599348
9512.000000;0.599365
9511.000000;0.599913
9510.000000;0.600853
9509.000000;0.601962
9508.000000;0.603075
9507.000000;0.604052
9506.000000;0.604689
9505.000000;0.604776
9504.000000;0.604249
9503.000000;0.603252
9502.000000;0.602078
9501.000000;0.601035
9500.000000;0.600315
9499.000000;0.599940
9498.000000;0.599835
9497.000000;0.599942
9496.000000;0.600191
9495.000000;0.600396
9494.000000;0.600326
9493.000000;0.599945
9492.000000;0.599484
9491.000000;0.599195
9490.000000;0.599117
9489.000000;0.599131
9488.000000;0.599164
9487.000000;0.599239
9486.000000;0.599386
9485.000000;0.599598
9484.000000;0.599842
9483.000000;0.600026
9482.000000;0.599988
9481.000000;0.599616
9480.000000;0.599004
9479.000000;0.598402
9478.000000;0.598011
9477.000000;0.597871
9476.000000;0.597930
9475.000000;0.598122
9474.000000;0.598357
9473.000000;0.598510
9472.000000;0.598500
9471.000000;0.598350
9470.000000;0.598147
9469.000000;0.597952
9468.000000;0.597797
9467.000000;0.597710
9466.000000;0.597686
9465.000000;0.597653
9464.000000;0.597557
9463.000000;0.597499
9462.000000;0.597693
9461.000000;0.598205
9460.000000;0.598778
9459.000000;0.599023
9458.000000;0.598782
9457.000000;0.598216
9456.000000;0.597562
9455.000000;0.596933
9454.000000;0.596364
9453.000000;0.595905
9452.000000;0.595576
9451.000000;0.595344
9450.000000;0.595257
9449.000000;0.595489
9448.000000;0.596120
9447.000000;0.596916
9446.000000;0.597486
9445.000000;0.597648
9444.000000;0.597509
9443.000000;0.597233
9442.000000;0.596903
9441.000000;0.596617
9440.000000;0.596492
9439.000000;0.596476
9438.000000;0.596283
9437.000000;0.595674
9436.000000;0.594766
9435.000000;0.593983
9434.000000;0.593710
9433.000000;0.594005
9432.000000;0.594606
9431.000000;0.595165
9430.000000;0.595503
9429.000000;0.595647
9428.000000;0.595626
9427.000000;0.595315
9426.000000;0.594610
9425.000000;0.593715
9424.000000;0.593093
9423.000000;0.593062
9422.000000;0.593545
9421.000000;0.594248
9420.000000;0.594961
9419.000000;0.595573
9418.000000;0.595919
9417.000000;0.595773
9416.000000;0.595033
9415.000000;0.593869
9414.000000;0.592681
9413.000000;0.591918
9412.000000;0.591832
9411.000000;0.592315
9410.000000;0.593009
9409.000000;0.593630
9408.000000;0.594125
9407.000000;0.594475
9406.000000;0.594465
9405.000000;0.593846
9404.000000;0.592729
9403.000000;0.591651
9402.000000;0.591132
9401.000000;0.591250
9400.000000;0.591670
9399.000000;0.592039
9398.000000;0.592269
9397.000000;0.592462
9396.000000;0.592676
9395.000000;0.592818
9394.000000;0.592754
9393.000000;0.592462
9392.000000;0.592073
9391.000000;0.591778
9390.000000;0.591705
9389.000000;0.591845
9388.000000;0.592063
9387.000000;0.592188
9386.000000;0.592149
9385.000000;0.592049
9384.000000;0.592064
9383.000000;0.592266
9382.000000;0.592564
9381.000000;0.592817
9380.000000;0.592974
9379.000000;0.593069
9378.000000;0.593135
9377.000000;0.593141
9376.000000;0.593030
9375.000000;0.592780
9374.000000;0.592437
9373.000000;0.592071
9372.000000;0.591713
9371.000000;0.591344
9370.000000;0.590973
9369.000000;0.590692
9368.000000;0.590575
9367.000000;0.590577
9366.000000;0.590570
9365.000000;0.590514
9364.000000;0.590503
9363.000000;0.590618
9362.000000;0.590774
9361.000000;0.590751
9360.000000;0.590350
9359.000000;0.589546
9358.000000;0.588561
9357.000000;0.587823
9356.000000;0.587727
9355.000000;0.588320
9354.000000;0.589197
9353.000000;0.589791
9352.000000;0.589834
9351.000000;0.589542
9350.000000;0.589337
9349.000000;0.589383
9348.000000;0.589421
9347.000000;0.589123
9346.000000;0.588577
9345.000000;0.588334
9344.000000;0.588846
9343.000000;0.589944
9342.000000;0.590965
9341.000000;0.591373
9340.000000;0.591121
9339.000000;0.590449
9338.000000;0.589561
9337.000000;0.588624
9336.000000;0.587899
9335.000000;0.587644
9334.000000;0.587894
9333.000000;0.588431
9332.000000;0.588962
9331.000000;0.589256
9330.000000;0.589151
9329.000000;0.588584
9328.000000;0.587688
9327.000000;0.586779
9326.000000;0.586180
9325.000000;0.586027
9324.000000;0.586232
9323.000000;0.586573
9322.000000;0.586865
9321.000000;0.587095
9320.000000;0.587396
9319.000000;0.587840
9318.000000;0.588262
9317.000000;0.588361
9316.000000;0.587985
9315.000000;0.587290
9314.000000;0.586613
9313.000000;0.586219
9312.000000;0.586161
9311.000000;0.586280
9310.000000;0.586328
9309.000000;0.586135
9308.000000;0.585770
9307.000000;0.585521
9306.000000;0.585675
9305.000000;0.586238
9304.000000;0.586870
9303.000000;0.587157
9302.000000;0.586972
9301.000000;0.586589
9300.000000;0.586381
9299.000000;0.586440
9298.000000;0.586517
9297.000000;0.586333
9296.000000;0.585887
9295.000000;0.585446
9294.000000;0.585285
9293.000000;0.585481
9292.000000;0.585870
9291.000000;0.586153
9290.000000;0.586083
9289.000000;0.585627
9288.000000;0.584982
9287.000000;0.584408
9286.000000;0.584056
9285.000000;0.583947
9284.000000;0.584070
9283.000000;0.584401
9282.000000;0.584849
9281.000000;0.585221
9280.000000;0.585313
9279.000000;0.585065
9278.000000;0.584642
9277.000000;0.584312
9276.000000;0.584183
9275.000000;0.584052
9274.000000;0.583596
9273.000000;0.582759
9272.000000;0.581879
9271.000000;0.581383
9270.000000;0.581395
9269.000000;0.581713
9268.000000;0.582081
9267.000000;0.582391
9266.000000;0.582661
9265.000000;0.582934
9264.000000;0.583233
9263.000000;0.583514
9262.000000;0.583636
9261.000000;0.583450
9260.000000;0.582962
9259.000000;0.582371
9258.000000;0.581921
9257.000000;0.581740
9256.000000;0.581832
9255.000000;0.582141
9254.000000;0.582579
9253.000000;0.583017
9252.000000;0.583323
9251.000000;0.583413
9250.000000;0.583257
9249.000000;0.582856
9248.000000;0.582245
9247.000000;0.581517
9246.000000;0.580823
9245.000000;0.580343
9244.000000;0.580210
9243.000000;0.580453
9242.000000;0.580979
9241.000000;0.581629
9240.000000;0.582245
9239.000000;0.582695
9238.000000;0.582866
9237.000000;0.582692
9236.000000;0.582200
9235.000000;0.581503
9234.000000;0.580754
9233.000000;0.580107
9232.000000;0.579708
9231.000000;0.579662
9230.000000;0.579955
9229.000000;0.580445
9228.000000;0.580932
9227.000000;0.581267
9226.000000;0.581418
9225.000000;0.581464
9224.000000;0.581530
9223.000000;0.581682
9222.000000;0.581883
9221.000000;0.582029
9220.000000;0.582001
9219.000000;0.581667
9218.000000;0.580906
9217.000000;0.579756
9216.000000;0.578546
9215.000000;0.577774
9214.000000;0.577732
9213.000000;0.578247
9212.000000;0.578818
9211.000000;0.579029
9210.000000;0.578844
9209.000000;0.578567
9208.000000;0.578546
9207.000000;0.578866
9206.000000;0.579283
9205.000000;0.579462
9204.000000;0.579302
9203.000000;0.579002
9202.000000;0.578799
9201.000000;0.578722
9200.000000;0.578642
9199.000000;0.578487
9198.000000;0.578294
9197.000000;0.578078
9196.000000;0.577798
9195.000000;0.577491
9194.000000;0.577326
9193.000000;0.577422
9192.000000;0.577695
9191.000000;0.577938
9190.000000;0.578055
9189.000000;0.578122
9188.000000;0.578239
9187.000000;0.578409
9186.000000;0.578544
9185.000000;0.578542
9184.000000;0.578300
9183.000000;0.577756
9182.000000;0.576983
9181.000000;0.576233
9180.000000;0.575817
9179.000000;0.575860
9178.000000;0.576188
9177.000000;0.576470
9176.000000;0.576498
9175.000000;0.576355
9174.000000;0.576275
9173.000000;0.576375
9172.000000;0.576548
9171.000000;0.576636
9170.000000;0.576663
9169.000000;0.576835
9168.000000;0.577278
9167.000000;0.577834
9166.000000;0.578139
9165.000000;0.577920
9164.000000;0.577244
9163.000000;0.576493
9162.000000;0.576072
9161.000000;0.576084
9160.000000;0.576259
9159.000000;0.576235
9158.000000;0.575914
9157.000000;0.575521
9156.000000;0.575334
9155.000000;0.575432
9154.000000;0.575711
9153.000000;0.576039
9152.000000;0.576320
9151.000000;0.576454
9150.000000;0.576392
9149.000000;0.576203
9148.000000;0.575999
9147.000000;0.575759
9146.000000;0.575326
9145.000000;0.574659
9144.000000;0.574009
9143.000000;0.573742
9142.000000;0.573970
9141.000000;0.574424
9140.000000;0.574724
9139.000000;0.574739
9138.000000;0.574663
9137.000000;0.574756
9136.000000;0.575054
9135.000000;0.575317
9134.000000;0.575269
9133.000000;0.574840
9132.000000;0.574216
9131.000000;0.573673
9130.000000;0.573394
9129.000000;0.573399
9128.000000;0.573582
9127.000000;0.573779
9126.000000;0.573839
9125.000000;0.573674
9124.000000;0.573307
9123.000000;0.572899
9122.000000;0.572720
9121.000000;0.572996
9120.000000;0.573699
9119.000000;0.574481
9118.000000;0.574885
9117.000000;0.574704
9116.000000;0.574130
9115.000000;0.573552
9114.000000;0.573206
9113.000000;0.573035
9112.000000;0.572819
9111.000000;0.572432
9110.000000;0.571981
9109.000000;0.571731
9108.000000;0.571886
9107.000000;0.572399
9106.000000;0.572992
9105.000000;0.573352
9104.000000;0.573327
9103.000000;0.572975
9102.000000;0.572484
9101.000000;0.572066
9100.000000;0.571845
9099.000000;0.571771
9098.000000;0.571658
9097.000000;0.571375
9096.000000;0.571005
9095.000000;0.570780
9094.000000;0.570824
9093.000000;0.571006
9092.000000;0.571089
9091.000000;0.570970
9090.000000;0.570765
9089.000000;0.570656
9088.000000;0.570725
9087.000000;0.570927
9086.000000;0.571176
9085.000000;0.571408
9084.000000;0.571573
9083.000000;0.571605
9082.000000;0.571435
9081.000000;0.571041
9080.000000;0.570503
9079.000000;0.569995
9078.000000;0.569710
9077.000000;0.569728
9076.000000;0.569945
9075.000000;0.570159
9074.000000;0.570234
9073.000000;0.570161
9072.000000;0.569956
9071.000000;0.569575
9070.000000;0.569013
9069.000000;0.568438
9068.000000;0.568134
9067.000000;0.568255
9066.000000;0.568721
9065.000000;0.569369
9064.000000;0.570134
9063.000000;0.570988
9062.000000;0.571747
9061.000000;0.572101
9060.000000;0.571891
9059.000000;0.571272
9058.000000;0.570547
9057.000000;0.569871
9056.000000;0.569200
9055.000000;0.568470
9054.000000;0.567749
9053.000000;0.567197
