Criado como novo conjunto de dados;"2706_e01_daniel.spp","19803.1 Secs"
cm-1;Abs
10000.000000;0.698298
9999.000000;0.698391
9998.000000;0.698875
9997.000000;0.699431
9996.000000;0.699113
9995.000000;0.697681
9994.000000;0.696067
9993.000000;0.695261
9992.000000;0.695245
9991.000000;0.695560
9990.000000;0.696066
9989.000000;0.696659
9988.000000;0.696909
9987.000000;0.696678
9986.000000;0.696493
9985.000000;0.696704
9984.000000;0.696824
9983.000000;0.696358
9982.000000;0.695689
9981.000000;0.695430
9980.000000;0.695487
9979.000000;0.695436
9978.000000;0.695368
9977.000000;0.695631
9976.000000;0.696118
9975.000000;0.696458
9974.000000;0.696622
9973.000000;0.696745
9972.000000;0.696731
9971.000000;0.696567
9970.000000;0.696569
9969.000000;0.696777
9968.000000;0.696634
9967.000000;0.695889
9966.000000;0.695248
9965.000000;0.695328
9964.000000;0.695462
9963.000000;0.694500
9962.000000;0.692532
9961.000000;0.690860
9960.000000;0.690376
9959.000000;0.690775
9958.000000;0.691288
9957.000000;0.691494
9956.000000;0.691362
9955.000000;0.691072
9954.000000;0.690936
9953.000000;0.691125
9952.000000;0.691499
9951.000000;0.691934
9950.000000;0.692588
9949.000000;0.693504
9948.000000;0.694228
9947.000000;0.694293
9946.000000;0.693862
9945.000000;0.693454
9944.000000;0.693274
9943.000000;0.693243
9942.000000;0.693410
9941.000000;0.693840
9940.000000;0.694292
9939.000000;0.694446
9938.000000;0.694298
9937.000000;0.693964
9936.000000;0.693358
9935.000000;0.692465
9934.000000;0.691683
9933.000000;0.691456
9932.000000;0.691745
9931.000000;0.692170
9930.000000;0.692403
9929.000000;0.692153
9928.000000;0.691165
9927.000000;0.689660
9926.000000;0.688450
9925.000000;0.688195
9924.000000;0.688792
9923.000000;0.689748
9922.000000;0.690755
9921.000000;0.691560
9920.000000;0.691770
9919.000000;0.691317
9918.000000;0.690721
9917.000000;0.690405
9916.000000;0.690190
9915.000000;0.689920
9914.000000;0.689980
9913.000000;0.690529
9912.000000;0.690769
9911.000000;0.689868
9910.000000;0.688306
9909.000000;0.687375
9908.000000;0.687526
9907.000000;0.688068
9906.000000;0.688370
9905.000000;0.688550
9904.000000;0.688826
9903.000000;0.688872
9902.000000;0.688196
9901.000000;0.686829
9900.000000;0.685452
9899.000000;0.684955
9898.000000;0.685726
9897.000000;0.687145
9896.000000;0.687995
9895.000000;0.687733
9894.000000;0.687091
9893.000000;0.687047
9892.000000;0.687592
9891.000000;0.688013
9890.000000;0.688039
9889.000000;0.688020
9888.000000;0.688118
9887.000000;0.688060
9886.000000;0.687784
9885.000000;0.687771
9884.000000;0.688502
9883.000000;0.689892
9882.000000;0.691314
9881.000000;0.691998
9880.000000;0.691514
9879.000000;0.690132
9878.000000;0.688646
9877.000000;0.687656
9876.000000;0.687152
9875.000000;0.686915
9874.000000;0.686958
9873.000000;0.687260
9872.000000;0.687455
9871.000000;0.687243
9870.000000;0.686859
9869.000000;0.686676
9868.000000;0.686598
9867.000000;0.686354
9866.000000;0.686184
9865.000000;0.686635
9864.000000;0.687695
9863.000000;0.688618
9862.000000;0.688677
9861.000000;0.687802
9860.000000;0.686476
9859.000000;0.685272
9858.000000;0.684507
9857.000000;0.684153
9856.000000;0.684078
9855.000000;0.684368
9854.000000;0.685168
9853.000000;0.686162
9852.000000;0.686653
9851.000000;0.686387
9850.000000;0.685875
9849.000000;0.685616
9848.000000;0.685481
9847.000000;0.685224
9846.000000;0.685065
9845.000000;0.685258
9844.000000;0.685486
9843.000000;0.685264
9842.000000;0.684675
9841.000000;0.684176
9840.000000;0.683897
9839.000000;0.683644
9838.000000;0.683385
9837.000000;0.683273
9836.000000;0.683375
9835.000000;0.683749
9834.000000;0.684502
9833.000000;0.685412
9832.000000;0.685799
9831.000000;0.685282
9830.000000;0.684357
9829.000000;0.683752
9828.000000;0.683533
9827.000000;0.683311
9826.000000;0.682968
9825.000000;0.682638
9824.000000;0.682307
9823.000000;0.681968
9822.000000;0.681908
9821.000000;0.682277
9820.000000;0.682665
9819.000000;0.682646
9818.000000;0.682399
9817.000000;0.682260
9816.000000;0.682095
9815.000000;0.681734
9814.000000;0.681594
9813.000000;0.682060
9812.000000;0.682630
9811.000000;0.682542
9810.000000;0.682033
9809.000000;0.682014
9808.000000;0.682622
9807.000000;0.683057
9806.000000;0.682841
9805.000000;0.682297
9804.000000;0.681749
9803.000000;0.681164
9802.000000;0.680703
9801.000000;0.680766
9800.000000;0.681259
9799.000000;0.681601
9798.000000;0.681598
9797.000000;0.681590
9796.000000;0.681587
9795.000000;0.681124
9794.000000;0.680246
9793.000000;0.679742
9792.000000;0.679983
9791.000000;0.680354
9790.000000;0.680291
9789.000000;0.680141
9788.000000;0.680398
9787.000000;0.680778
9786.000000;0.680731
9785.000000;0.680370
9784.000000;0.680194
9783.000000;0.680265
9782.000000;0.680287
9781.000000;0.680233
9780.000000;0.680244
9779.000000;0.680122
9778.000000;0.679528
9777.000000;0.678630
9776.000000;0.678013
9775.000000;0.677991
9774.000000;0.678444
9773.000000;0.679208
9772.000000;0.680147
9771.000000;0.680837
9770.000000;0.680722
9769.000000;0.679764
9768.000000;0.678613
9767.000000;0.677935
9766.000000;0.677861
9765.000000;0.678172
9764.000000;0.678712
9763.000000;0.679388
9762.000000;0.679957
9761.000000;0.680131
9760.000000;0.679884
9759.000000;0.679462
9758.000000;0.679053
9757.000000;0.678613
9756.000000;0.678067
9755.000000;0.677583
9754.000000;0.677500
9753.000000;0.678013
9752.000000;0.678971
9751.000000;0.679860
9750.000000;0.679987
9749.000000;0.678897
9748.000000;0.676895
9747.000000;0.675058
9746.000000;0.674379
9745.000000;0.674828
9744.000000;0.675481
9743.000000;0.675666
9742.000000;0.675645
9741.000000;0.675961
9740.000000;0.676491
9739.000000;0.676608
9738.000000;0.676099
9737.000000;0.675453
9736.000000;0.675240
9735.000000;0.675614
9734.000000;0.676447
9733.000000;0.677529
9732.000000;0.678485
9731.000000;0.678812
9730.000000;0.678309
9729.000000;0.677345
9728.000000;0.676474
9727.000000;0.675894
9726.000000;0.675494
9725.000000;0.675290
9724.000000;0.675449
9723.000000;0.675847
9722.000000;0.675916
9721.000000;0.675234
9720.000000;0.674121
9719.000000;0.673322
9718.000000;0.673166
9717.000000;0.673360
9716.000000;0.673632
9715.000000;0.674158
9714.000000;0.675111
9713.000000;0.676129
9712.000000;0.676658
9711.000000;0.676610
9710.000000;0.676278
9709.000000;0.675779
9708.000000;0.675097
9707.000000;0.674586
9706.000000;0.674764
9705.000000;0.675493
9704.000000;0.675923
9703.000000;0.675506
9702.000000;0.674618
9701.000000;0.673882
9700.000000;0.673392
9699.000000;0.672978
9698.000000;0.672806
9697.000000;0.673143
9696.000000;0.673732
9695.000000;0.673963
9694.000000;0.673639
9693.000000;0.673187
9692.000000;0.673075
9691.000000;0.673359
9690.000000;0.673861
9689.000000;0.674473
9688.000000;0.675109
9687.000000;0.675516
9686.000000;0.675324
9685.000000;0.674360
9684.000000;0.672919
9683.000000;0.671678
9682.000000;0.671217
9681.000000;0.671548
9680.000000;0.672154
9679.000000;0.672533
9678.000000;0.672575
9677.000000;0.672389
9676.000000;0.671959
9675.000000;0.671178
9674.000000;0.670179
9673.000000;0.669439
9672.000000;0.669424
9671.000000;0.670119
9670.000000;0.670965
9669.000000;0.671372
9668.000000;0.671323
9667.000000;0.671254
9666.000000;0.671325
9665.000000;0.671127
9664.000000;0.670370
9663.000000;0.669531
9662.000000;0.669377
9661.000000;0.670025
9660.000000;0.670919
9659.000000;0.671594
9658.000000;0.671970
9657.000000;0.672005
9656.000000;0.671697
9655.000000;0.671452
9654.000000;0.671792
9653.000000;0.672504
9652.000000;0.672688
9651.000000;0.671932
9650.000000;0.670854
9649.000000;0.670164
9648.000000;0.669812
9647.000000;0.669483
9646.000000;0.669319
9645.000000;0.669552
9644.000000;0.669791
9643.000000;0.669393
9642.000000;0.668414
9641.000000;0.667624
9640.000000;0.667583
9639.000000;0.668125
9638.000000;0.668737
9637.000000;0.669087
9636.000000;0.669131
9635.000000;0.668991
9634.000000;0.668826
9633.000000;0.668691
9632.000000;0.668547
9631.000000;0.668459
9630.000000;0.668642
9629.000000;0.669184
9628.000000;0.669852
9627.000000;0.670337
9626.000000;0.670540
9625.000000;0.670493
9624.000000;0.670148
9623.000000;0.669452
9622.000000;0.668535
9621.000000;0.667691
9620.000000;0.667192
9619.000000;0.667124
9618.000000;0.667310
9617.000000;0.667418
9616.000000;0.667332
9615.000000;0.667331
9614.000000;0.667683
9613.000000;0.668159
9612.000000;0.668307
9611.000000;0.668122
9610.000000;0.667977
9609.000000;0.667876
9608.000000;0.667351
9607.000000;0.666300
9606.000000;0.665405
9605.000000;0.665371
9604.000000;0.666102
9603.000000;0.666908
9602.000000;0.667232
9601.000000;0.666956
9600.000000;0.666290
9599.000000;0.665674
9598.000000;0.665541
9597.000000;0.665950
9596.000000;0.666599
9595.000000;0.667244
9594.000000;0.667805
9593.000000;0.668035
9592.000000;0.667601
9591.000000;0.666659
9590.000000;0.665876
9589.000000;0.665652
9588.000000;0.665776
9587.000000;0.666008
9586.000000;0.666415
9585.000000;0.666857
9584.000000;0.666775
9583.000000;0.665997
9582.000000;0.665191
9581.000000;0.664970
9580.000000;0.665067
9579.000000;0.664973
9578.000000;0.664923
9577.000000;0.665513
9576.000000;0.666598
9575.000000;0.667292
9574.000000;0.667008
9573.000000;0.665955
9572.000000;0.664690
9571.000000;0.663727
9570.000000;0.663488
9569.000000;0.664060
9568.000000;0.664962
9567.000000;0.665552
9566.000000;0.665672
9565.000000;0.665565
9564.000000;0.665291
9563.000000;0.664709
9562.000000;0.663956
9561.000000;0.663445
9560.000000;0.663353
9559.000000;0.663483
9558.000000;0.663645
9557.000000;0.663832
9556.000000;0.664000
9555.000000;0.664011
9554.000000;0.663850
9553.000000;0.663664
9552.000000;0.663543
9551.000000;0.663458
9550.000000;0.663395
9549.000000;0.663347
9548.000000;0.663227
9547.000000;0.663009
9546.000000;0.662876
9545.000000;0.663014
9544.000000;0.663337
9543.000000;0.663588
9542.000000;0.663635
9541.000000;0.663477
9540.000000;0.663100
9539.000000;0.662545
9538.000000;0.662071
9537.000000;0.661993
9536.000000;0.662405
9535.000000;0.663130
9534.000000;0.663871
9533.000000;0.664330
9532.000000;0.664344
9531.000000;0.664018
9530.000000;0.663548
9529.000000;0.662883
9528.000000;0.661848
9527.000000;0.660695
9526.000000;0.660140
9525.000000;0.660592
9524.000000;0.661618
9523.000000;0.662423
9522.000000;0.662647
9521.000000;0.662437
9520.000000;0.662015
9519.000000;0.661536
9518.000000;0.661172
9517.000000;0.661023
9516.000000;0.661049
9515.000000;0.661228
9514.000000;0.661589
9513.000000;0.661923
9512.000000;0.661779
9511.000000;0.661020
9510.000000;0.660140
9509.000000;0.659736
9508.000000;0.659893
9507.000000;0.660299
9506.000000;0.660722
9505.000000;0.661107
9504.000000;0.661440
9503.000000;0.661741
9502.000000;0.662000
9501.000000;0.661968
9500.000000;0.661355
9499.000000;0.660438
9498.000000;0.660028
9497.000000;0.660517
9496.000000;0.661327
9495.000000;0.661638
9494.000000;0.661280
9493.000000;0.660579
9492.000000;0.659729
9491.000000;0.658815
9490.000000;0.658121
9489.000000;0.657898
9488.000000;0.658040
9487.000000;0.658363
9486.000000;0.658906
9485.000000;0.659564
9484.000000;0.659820
9483.000000;0.659343
9482.000000;0.658573
9481.000000;0.658142
9480.000000;0.658030
9479.000000;0.657855
9478.000000;0.657732
9477.000000;0.658134
9476.000000;0.659008
9475.000000;0.659687
9474.000000;0.659698
9473.000000;0.659190
9472.000000;0.658582
9471.000000;0.658215
9470.000000;0.658304
9469.000000;0.658778
9468.000000;0.659219
9467.000000;0.659331
9466.000000;0.659328
9465.000000;0.659455
9464.000000;0.659391
9463.000000;0.658710
9462.000000;0.657765
9461.000000;0.657406
9460.000000;0.657826
9459.000000;0.658347
9458.000000;0.658439
9457.000000;0.658362
9456.000000;0.658548
9455.000000;0.658852
9454.000000;0.658757
9453.000000;0.658077
9452.000000;0.657219
9451.000000;0.656781
9450.000000;0.656962
9449.000000;0.657341
9448.000000;0.657343
9447.000000;0.656998
9446.000000;0.656935
9445.000000;0.657464
9444.000000;0.658086
9443.000000;0.658214
9442.000000;0.657953
9441.000000;0.657717
9440.000000;0.657517
9439.000000;0.657208
9438.000000;0.657065
9437.000000;0.657369
9436.000000;0.657681
9435.000000;0.657336
9434.000000;0.656534
9433.000000;0.656089
9432.000000;0.656140
9431.000000;0.656019
9430.000000;0.655495
9429.000000;0.655225
9428.000000;0.655632
9427.000000;0.656117
9426.000000;0.655889
9425.000000;0.655066
9424.000000;0.654412
9423.000000;0.654361
9422.000000;0.654738
9421.000000;0.655183
9420.000000;0.655482
9419.000000;0.655607
9418.000000;0.655634
9417.000000;0.655570
9416.000000;0.655239
9415.000000;0.654570
9414.000000;0.653904
9413.000000;0.653623
9412.000000;0.653537
9411.000000;0.653122
9410.000000;0.652423
9409.000000;0.652167
9408.000000;0.652778
9407.000000;0.653791
9406.000000;0.654479
9405.000000;0.654653
9404.000000;0.654518
9403.000000;0.654187
9402.000000;0.653764
9401.000000;0.653583
9400.000000;0.653894
9399.000000;0.654455
9398.000000;0.654803
9397.000000;0.654818
9396.000000;0.654745
9395.000000;0.654745
9394.000000;0.654718
9393.000000;0.654533
9392.000000;0.654217
9391.000000;0.653902
9390.000000;0.653688
9389.000000;0.653532
9388.000000;0.653252
9387.000000;0.652732
9386.000000;0.652127
9385.000000;0.651722
9384.000000;0.651568
9383.000000;0.651448
9382.000000;0.651257
9381.000000;0.651172
9380.000000;0.651342
9379.000000;0.651614
9378.000000;0.651748
9377.000000;0.651754
9376.000000;0.651847
9375.000000;0.652126
9374.000000;0.652412
9373.000000;0.652418
9372.000000;0.652066
9371.000000;0.651663
9370.000000;0.651669
9369.000000;0.652183
9368.000000;0.652755
9367.000000;0.652853
9366.000000;0.652462
9365.000000;0.652020
9364.000000;0.651872
9363.000000;0.652026
9362.000000;0.652363
9361.000000;0.652771
9360.000000;0.653019
9359.000000;0.652818
9358.000000;0.652131
9357.000000;0.651263
9356.000000;0.650595
9355.000000;0.650349
9354.000000;0.650566
9353.000000;0.651075
9352.000000;0.651462
9351.000000;0.651363
9350.000000;0.650831
9349.000000;0.650273
9348.000000;0.650016
9347.000000;0.650123
9346.000000;0.650523
9345.000000;0.651043
9344.000000;0.651357
9343.000000;0.651254
9342.000000;0.650984
9341.000000;0.651005
9340.000000;0.651356
9339.000000;0.651597
9338.000000;0.651444
9337.000000;0.651124
9336.000000;0.650965
9335.000000;0.650967
9334.000000;0.650936
9333.000000;0.650775
9332.000000;0.650465
9331.000000;0.650008
9330.000000;0.649545
9329.000000;0.649306
9328.000000;0.649305
9327.000000;0.649295
9326.000000;0.649162
9325.000000;0.649088
9324.000000;0.649192
9323.000000;0.649254
9322.000000;0.649049
9321.000000;0.648718
9320.000000;0.648601
9319.000000;0.648819
9318.000000;0.649222
9317.000000;0.649594
9316.000000;0.649789
9315.000000;0.649795
9314.000000;0.649787
9313.000000;0.649927
9312.000000;0.650017
9311.000000;0.649648
9310.000000;0.648843
9309.000000;0.648241
9308.000000;0.648318
9307.000000;0.648741
9306.000000;0.648834
9305.000000;0.648493
9304.000000;0.648114
9303.000000;0.647793
9302.000000;0.647223
9301.000000;0.646447
9300.000000;0.646098
9299.000000;0.646561
9298.000000;0.647337
9297.000000;0.647683
9296.000000;0.647586
9295.000000;0.647615
9294.000000;0.647968
9293.000000;0.648224
9292.000000;0.648110
9291.000000;0.647956
9290.000000;0.648133
9289.000000;0.648452
9288.000000;0.648493
9287.000000;0.648261
9286.000000;0.648094
9285.000000;0.648048
9284.000000;0.647821
9283.000000;0.647294
9282.000000;0.646727
9281.000000;0.646324
9280.000000;0.645974
9279.000000;0.645586
9278.000000;0.645346
9277.000000;0.645424
9276.000000;0.645655
9275.000000;0.645769
9274.000000;0.645741
9273.000000;0.645704
9272.000000;0.645659
9271.000000;0.645525
9270.000000;0.645344
9269.000000;0.645223
9268.000000;0.645151
9267.000000;0.645075
9266.000000;0.645033
9265.000000;0.645026
9264.000000;0.644846
9263.000000;0.644314
9262.000000;0.643621
9261.000000;0.643225
9260.000000;0.643377
9259.000000;0.643942
9258.000000;0.644614
9257.000000;0.645129
9256.000000;0.645290
9255.000000;0.645037
9254.000000;0.644547
9253.000000;0.644144
9252.000000;0.644057
9251.000000;0.644282
9250.000000;0.644656
9249.000000;0.644991
9248.000000;0.645212
9247.000000;0.645373
9246.000000;0.645478
9245.000000;0.645300
9244.000000;0.644644
9243.000000;0.643806
9242.000000;0.643420
9241.000000;0.643670
9240.000000;0.643995
9239.000000;0.643871
9238.000000;0.643556
9237.000000;0.643614
9236.000000;0.643954
9235.000000;0.643926
9234.000000;0.643299
9233.000000;0.642579
9232.000000;0.642272
9231.000000;0.642334
9230.000000;0.642494
9229.000000;0.642678
9228.000000;0.642874
9227.000000;0.642913
9226.000000;0.642688
9225.000000;0.642380
9224.000000;0.642246
9223.000000;0.642298
9222.000000;0.642339
9221.000000;0.642219
9220.000000;0.641978
9219.000000;0.641844
9218.000000;0.642101
9217.000000;0.642756
9216.000000;0.643352
9215.000000;0.643374
9214.000000;0.642882
9213.000000;0.642422
9212.000000;0.642277
9211.000000;0.642170
9210.000000;0.641870
9209.000000;0.641676
9208.000000;0.641953
9207.000000;0.642476
9206.000000;0.642665
9205.000000;0.642334
9204.000000;0.641849
9203.000000;0.641597
9202.000000;0.641656
9201.000000;0.641938
9200.000000;0.642293
9199.000000;0.642450
9198.000000;0.642175
9197.000000;0.641646
9196.000000;0.641345
9195.000000;0.641436
9194.000000;0.641500
9193.000000;0.641141
9192.000000;0.640616
9191.000000;0.640531
9190.000000;0.641004
9189.000000;0.641505
9188.000000;0.641582
9187.000000;0.641397
9186.000000;0.641349
9185.000000;0.641457
9184.000000;0.641414
9183.000000;0.641117
9182.000000;0.640786
9181.000000;0.640569
9180.000000;0.640333
9179.000000;0.639936
9178.000000;0.639461
9177.000000;0.639051
9176.000000;0.638697
9175.000000;0.638379
9174.000000;0.638242
9173.000000;0.638429
9172.000000;0.638817
9171.000000;0.639107
9170.000000;0.639168
9169.000000;0.639161
9168.000000;0.639323
9167.000000;0.639729
9166.000000;0.640248
9165.000000;0.640633
9164.000000;0.640688
9163.000000;0.640448
9162.000000;0.640175
9161.000000;0.640110
9160.000000;0.640247
9159.000000;0.640404
9158.000000;0.640447
9157.000000;0.640335
9156.000000;0.640032
9155.000000;0.639557
9154.000000;0.639113
9153.000000;0.639001
9152.000000;0.639320
9151.000000;0.639807
9150.000000;0.640044
9149.000000;0.639824
9148.000000;0.639303
9147.000000;0.638799
9146.000000;0.638472
9145.000000;0.638239
9144.000000;0.638012
9143.000000;0.637885
9142.000000;0.637970
9141.000000;0.638089
9140.000000;0.637908
9139.000000;0.637412
9138.000000;0.637018
9137.000000;0.637075
9136.000000;0.637457
9135.000000;0.637809
9134.000000;0.638016
9133.000000;0.638182
9132.000000;0.638251
9131.000000;0.637969
9130.000000;0.637267
9129.000000;0.636474
9128.000000;0.636051
9127.000000;0.636215
9126.000000;0.636830
9125.000000;0.637520
9124.000000;0.637852
9123.000000;0.637584
9122.000000;0.636869
9121.000000;0.636171
9120.000000;0.635858
9119.000000;0.635898
9118.000000;0.636014
9117.000000;0.636103
9116.000000;0.636354
9115.000000;0.636875
9114.000000;0.637335
9113.000000;0.637227
9112.000000;0.636507
9111.000000;0.635732
9110.000000;0.635434
9109.000000;0.635536
9108.000000;0.635608
9107.000000;0.635522
9106.000000;0.635523
9105.000000;0.635691
9104.000000;0.635711
9103.000000;0.635317
9102.000000;0.634697
9101.000000;0.634276
9100.000000;0.634269
9099.000000;0.634560
9098.000000;0.634912
9097.000000;0.635181
9096.000000;0.635407
9095.000000;0.635716
9094.000000;0.636049
9093.000000;0.636063
9092.000000;0.635519
9091.000000;0.634693
9090.000000;0.634106
9089.000000;0.633874
9088.000000;0.633741
9087.000000;0.633738
9086.000000;0.634278
9085.000000;0.635338
9084.000000;0.636121
9083.000000;0.635971
9082.000000;0.635251
9081.000000;0.634787
9080.000000;0.634753
9079.000000;0.634689
9078.000000;0.634449
9077.000000;0.634416
9076.000000;0.634735
9075.000000;0.634954
9074.000000;0.634708
9073.000000;0.634280
9072.000000;0.634139
9071.000000;0.634229
9070.000000;0.634091
9069.000000;0.633549
9068.000000;0.632930
9067.000000;0.632612
9066.000000;0.632647
9065.000000;0.632890
9064.000000;0.633284
9063.000000;0.633809
9062.000000;0.634254
9061.000000;0.634311
9060.000000;0.633964
9059.000000;0.633568
9058.000000;0.633409
9057.000000;0.633367
9056.000000;0.633216
9055.000000;0.633062
9054.000000;0.633118
9053.000000;0.633182
