Criado como novo conjunto de dados;"2706_e01_daniel.spp","65885.2 Secs"
cm-1;Abs
10000.000000;0.726240
9999.000000;0.725933
9998.000000;0.725627
9997.000000;0.725321
9996.000000;0.725014
9995.000000;0.724709
9994.000000;0.724403
9993.000000;0.724098
9992.000000;0.723791
9991.000000;0.723574
9990.000000;0.723575
9989.000000;0.723623
9988.000000;0.723523
9987.000000;0.723366
9986.000000;0.723340
9985.000000;0.723389
9984.000000;0.723273
9983.000000;0.722916
9982.000000;0.722467
9981.000000;0.722054
9980.000000;0.721689
9979.000000;0.721438
9978.000000;0.721448
9977.000000;0.721730
9976.000000;0.722055
9975.000000;0.722165
9974.000000;0.721987
9973.000000;0.721598
9972.000000;0.721117
9971.000000;0.720711
9970.000000;0.720573
9969.000000;0.720752
9968.000000;0.721056
9967.000000;0.721254
9966.000000;0.721303
9965.000000;0.721299
9964.000000;0.721283
9963.000000;0.721213
9962.000000;0.721073
9961.000000;0.720853
9960.000000;0.720461
9959.000000;0.719817
9958.000000;0.719089
9957.000000;0.718660
9956.000000;0.718765
9955.000000;0.719243
9954.000000;0.719723
9953.000000;0.719978
9952.000000;0.720012
9951.000000;0.719901
9950.000000;0.719681
9949.000000;0.719380
9948.000000;0.719044
9947.000000;0.718711
9946.000000;0.718429
9945.000000;0.718267
9944.000000;0.718239
9943.000000;0.718237
9942.000000;0.718151
9941.000000;0.718046
9940.000000;0.718104
9939.000000;0.718376
9938.000000;0.718679
9937.000000;0.718798
9936.000000;0.718674
9935.000000;0.718363
9934.000000;0.717935
9933.000000;0.717484
9932.000000;0.717158
9931.000000;0.717047
9930.000000;0.717069
9929.000000;0.717032
9928.000000;0.716832
9927.000000;0.716568
9926.000000;0.716483
9925.000000;0.716778
9924.000000;0.717374
9923.000000;0.717829
9922.000000;0.717659
9921.000000;0.716858
9920.000000;0.715987
9919.000000;0.715609
9918.000000;0.715710
9917.000000;0.715814
9916.000000;0.715605
9915.000000;0.715218
9914.000000;0.714954
9913.000000;0.714936
9912.000000;0.715118
9911.000000;0.715414
9910.000000;0.715677
9909.000000;0.715702
9908.000000;0.715403
9907.000000;0.714928
9906.000000;0.714488
9905.000000;0.714124
9904.000000;0.713769
9903.000000;0.713467
9902.000000;0.713381
9901.000000;0.713551
9900.000000;0.713780
9899.000000;0.713808
9898.000000;0.713566
9897.000000;0.713259
9896.000000;0.713221
9895.000000;0.713641
9894.000000;0.714332
9893.000000;0.714795
9892.000000;0.714619
9891.000000;0.713876
9890.000000;0.713060
9889.000000;0.712623
9888.000000;0.712614
9887.000000;0.712742
9886.000000;0.712667
9885.000000;0.712217
9884.000000;0.711442
9883.000000;0.710604
9882.000000;0.710076
9881.000000;0.710131
9880.000000;0.710764
9879.000000;0.711677
9878.000000;0.712451
9877.000000;0.712775
9876.000000;0.712648
9875.000000;0.712390
9874.000000;0.712383
9873.000000;0.712705
9872.000000;0.713069
9871.000000;0.713154
9870.000000;0.712924
9869.000000;0.712527
9868.000000;0.712031
9867.000000;0.711440
9866.000000;0.710899
9865.000000;0.710608
9864.000000;0.710525
9863.000000;0.710409
9862.000000;0.710229
9861.000000;0.710256
9860.000000;0.710567
9859.000000;0.710691
9858.000000;0.710093
9857.000000;0.708921
9856.000000;0.707961
9855.000000;0.707831
9854.000000;0.708423
9853.000000;0.709182
9852.000000;0.709683
9851.000000;0.709840
9850.000000;0.709729
9849.000000;0.709413
9848.000000;0.708942
9847.000000;0.708392
9846.000000;0.707893
9845.000000;0.707609
9844.000000;0.707632
9843.000000;0.707889
9842.000000;0.708197
9841.000000;0.708405
9840.000000;0.708419
9839.000000;0.708142
9838.000000;0.707576
9837.000000;0.706984
9836.000000;0.706760
9835.000000;0.707039
9834.000000;0.707545
9833.000000;0.707936
9832.000000;0.708145
9831.000000;0.708279
9830.000000;0.708331
9829.000000;0.708170
9828.000000;0.707756
9827.000000;0.707189
9826.000000;0.706580
9825.000000;0.706002
9824.000000;0.705553
9823.000000;0.705339
9822.000000;0.705384
9821.000000;0.705615
9820.000000;0.705891
9819.000000;0.706002
9818.000000;0.705764
9817.000000;0.705262
9816.000000;0.704910
9815.000000;0.705069
9814.000000;0.705623
9813.000000;0.706102
9812.000000;0.706230
9811.000000;0.706156
9810.000000;0.706142
9809.000000;0.706220
9808.000000;0.706246
9807.000000;0.706115
9806.000000;0.705812
9805.000000;0.705334
9804.000000;0.704685
9803.000000;0.703929
9802.000000;0.703193
9801.000000;0.702667
9800.000000;0.702570
9799.000000;0.703002
9798.000000;0.703771
9797.000000;0.704472
9796.000000;0.704791
9795.000000;0.704660
9794.000000;0.704114
9793.000000;0.703178
9792.000000;0.702019
9791.000000;0.701047
9790.000000;0.700661
9789.000000;0.700897
9788.000000;0.701429
9787.000000;0.701897
9786.000000;0.702164
9785.000000;0.702323
9784.000000;0.702549
9783.000000;0.702926
9782.000000;0.703316
9781.000000;0.703421
9780.000000;0.703050
9779.000000;0.702325
9778.000000;0.701571
9777.000000;0.701078
9776.000000;0.700976
9775.000000;0.701234
9774.000000;0.701630
9773.000000;0.701823
9772.000000;0.701627
9771.000000;0.701239
9770.000000;0.701026
9769.000000;0.701120
9768.000000;0.701349
9767.000000;0.701559
9766.000000;0.701803
9765.000000;0.702129
9764.000000;0.702384
9763.000000;0.702371
9762.000000;0.702077
9761.000000;0.701604
9760.000000;0.700979
9759.000000;0.700196
9758.000000;0.699367
9757.000000;0.698690
9756.000000;0.698288
9755.000000;0.698191
9754.000000;0.698440
9753.000000;0.699049
9752.000000;0.699827
9751.000000;0.700396
9750.000000;0.700470
9749.000000;0.700080
9748.000000;0.699491
9747.000000;0.698960
9746.000000;0.698632
9745.000000;0.698566
9744.000000;0.698731
9743.000000;0.698994
9742.000000;0.699192
9741.000000;0.699261
9740.000000;0.699268
9739.000000;0.699292
9738.000000;0.699342
9737.000000;0.699392
9736.000000;0.699463
9735.000000;0.699598
9734.000000;0.699741
9733.000000;0.699709
9732.000000;0.699361
9731.000000;0.698778
9730.000000;0.698222
9729.000000;0.697886
9728.000000;0.697762
9727.000000;0.697736
9726.000000;0.697719
9725.000000;0.697612
9724.000000;0.697278
9723.000000;0.696703
9722.000000;0.696142
9721.000000;0.695949
9720.000000;0.696185
9719.000000;0.696530
9718.000000;0.696650
9717.000000;0.696562
9716.000000;0.696559
9715.000000;0.696835
9714.000000;0.697283
9713.000000;0.697623
9712.000000;0.697646
9711.000000;0.697360
9710.000000;0.696979
9709.000000;0.696748
9708.000000;0.696703
9707.000000;0.696611
9706.000000;0.696208
9705.000000;0.695508
9704.000000;0.694798
9703.000000;0.694322
9702.000000;0.694054
9701.000000;0.693838
9700.000000;0.693641
9699.000000;0.693578
9698.000000;0.693714
9697.000000;0.693953
9696.000000;0.694181
9695.000000;0.694417
9694.000000;0.694742
9693.000000;0.695108
9692.000000;0.695338
9691.000000;0.695348
9690.000000;0.695266
9689.000000;0.695266
9688.000000;0.695343
9687.000000;0.695356
9686.000000;0.695219
9685.000000;0.694945
9684.000000;0.694530
9683.000000;0.693958
9682.000000;0.693360
9681.000000;0.692990
9680.000000;0.692963
9679.000000;0.693100
9678.000000;0.693126
9677.000000;0.692938
9676.000000;0.692609
9675.000000;0.692238
9674.000000;0.691936
9673.000000;0.691870
9672.000000;0.692128
9671.000000;0.692559
9670.000000;0.692878
9669.000000;0.692942
9668.000000;0.692830
9667.000000;0.692687
9666.000000;0.692612
9665.000000;0.692646
9664.000000;0.692721
9663.000000;0.692642
9662.000000;0.692276
9661.000000;0.691792
9660.000000;0.691543
9659.000000;0.691649
9658.000000;0.691873
9657.000000;0.691943
9656.000000;0.691840
9655.000000;0.691692
9654.000000;0.691552
9653.000000;0.691396
9652.000000;0.691226
9651.000000;0.691025
9650.000000;0.690716
9649.000000;0.690291
9648.000000;0.689927
9647.000000;0.689812
9646.000000;0.689919
9645.000000;0.690080
9644.000000;0.690245
9643.000000;0.690502
9642.000000;0.690830
9641.000000;0.690991
9640.000000;0.690748
9639.000000;0.690134
9638.000000;0.689454
9637.000000;0.689036
9636.000000;0.689013
9635.000000;0.689290
9634.000000;0.689681
9633.000000;0.690070
9632.000000;0.690384
9631.000000;0.690452
9630.000000;0.690029
9629.000000;0.689052
9628.000000;0.687836
9627.000000;0.686898
9626.000000;0.686579
9625.000000;0.686835
9624.000000;0.687341
9623.000000;0.687725
9622.000000;0.687794
9621.000000;0.687636
9620.000000;0.687514
9619.000000;0.687590
9618.000000;0.687757
9617.000000;0.687788
9616.000000;0.687632
9615.000000;0.687478
9614.000000;0.687556
9613.000000;0.687918
9612.000000;0.688402
9611.000000;0.688708
9610.000000;0.688567
9609.000000;0.687957
9608.000000;0.687183
9607.000000;0.686681
9606.000000;0.686689
9605.000000;0.687111
9604.000000;0.687619
9603.000000;0.687858
9602.000000;0.687652
9601.000000;0.687143
9600.000000;0.686706
9599.000000;0.686593
9598.000000;0.686659
9597.000000;0.686567
9596.000000;0.686238
9595.000000;0.685946
9594.000000;0.685916
9593.000000;0.686013
9592.000000;0.685924
9591.000000;0.685566
9590.000000;0.685190
9589.000000;0.685119
9588.000000;0.685455
9587.000000;0.685990
9586.000000;0.686379
9585.000000;0.686417
9584.000000;0.686189
9583.000000;0.685919
9582.000000;0.685700
9581.000000;0.685465
9580.000000;0.685184
9579.000000;0.684913
9578.000000;0.684610
9577.000000;0.684122
9576.000000;0.683497
9575.000000;0.683139
9574.000000;0.683421
9573.000000;0.684175
9572.000000;0.684784
9571.000000;0.684814
9570.000000;0.684404
9569.000000;0.683974
9568.000000;0.683723
9567.000000;0.683541
9566.000000;0.683329
9565.000000;0.683211
9564.000000;0.683380
9563.000000;0.683820
9562.000000;0.684244
9561.000000;0.684320
9560.000000;0.683932
9559.000000;0.683249
9558.000000;0.682571
9557.000000;0.682155
9556.000000;0.682130
9555.000000;0.682471
9554.000000;0.682998
9553.000000;0.683432
9552.000000;0.683527
9551.000000;0.683203
9550.000000;0.682596
9549.000000;0.682001
9548.000000;0.681736
9547.000000;0.681932
9546.000000;0.682381
9545.000000;0.682648
9544.000000;0.682423
9543.000000;0.681797
9542.000000;0.681157
9541.000000;0.680834
9540.000000;0.680878
9539.000000;0.681111
9538.000000;0.681313
9537.000000;0.681374
9536.000000;0.681334
9535.000000;0.681317
9534.000000;0.681377
9533.000000;0.681404
9532.000000;0.681227
9531.000000;0.680813
9530.000000;0.680303
9529.000000;0.679856
9528.000000;0.679520
9527.000000;0.679304
9526.000000;0.679287
9525.000000;0.679569
9524.000000;0.680100
9523.000000;0.680620
9522.000000;0.680808
9521.000000;0.680489
9520.000000;0.679738
9519.000000;0.678831
9518.000000;0.678108
9517.000000;0.677838
9516.000000;0.678101
9515.000000;0.678743
9514.000000;0.679435
9513.000000;0.679839
9512.000000;0.679804
9511.000000;0.679442
9510.000000;0.679047
9509.000000;0.678867
9508.000000;0.678892
9507.000000;0.678854
9506.000000;0.678479
9505.000000;0.677790
9504.000000;0.677127
9503.000000;0.676836
9502.000000;0.676953
9501.000000;0.677239
9500.000000;0.677466
9499.000000;0.677584
9498.000000;0.677645
9497.000000;0.677701
9496.000000;0.677821
9495.000000;0.678078
9494.000000;0.678388
9493.000000;0.678449
9492.000000;0.678024
9491.000000;0.677287
9490.000000;0.676747
9489.000000;0.676748
9488.000000;0.677121
9487.000000;0.677381
9486.000000;0.677203
9485.000000;0.676667
9484.000000;0.676091
9483.000000;0.675730
9482.000000;0.675615
9481.000000;0.675609
9480.000000;0.675593
9479.000000;0.675582
9478.000000;0.675666
9477.000000;0.675820
9476.000000;0.675865
9475.000000;0.675672
9474.000000;0.675357
9473.000000;0.675163
9472.000000;0.675148
9471.000000;0.675113
9470.000000;0.674873
9469.000000;0.674505
9468.000000;0.674245
9467.000000;0.674213
9466.000000;0.674316
9465.000000;0.674406
9464.000000;0.674415
9463.000000;0.674339
9462.000000;0.674199
9461.000000;0.674063
9460.000000;0.674041
9459.000000;0.674183
9458.000000;0.674402
9457.000000;0.674548
9456.000000;0.674553
9455.000000;0.674481
9454.000000;0.674456
9453.000000;0.674537
9452.000000;0.674673
9451.000000;0.674727
9450.000000;0.674592
9449.000000;0.674278
9448.000000;0.673929
9447.000000;0.673703
9446.000000;0.673659
9445.000000;0.673735
9444.000000;0.673814
9443.000000;0.673796
9442.000000;0.673658
9441.000000;0.673472
9440.000000;0.673354
9439.000000;0.673364
9438.000000;0.673462
9437.000000;0.673565
9436.000000;0.673595
9435.000000;0.673465
9434.000000;0.673095
9433.000000;0.672521
9432.000000;0.671974
9431.000000;0.671731
9430.000000;0.671857
9429.000000;0.672146
9428.000000;0.672348
9427.000000;0.672378
9426.000000;0.672289
9425.000000;0.672114
9424.000000;0.671843
9423.000000;0.671541
9422.000000;0.671377
9421.000000;0.671473
9420.000000;0.671754
9419.000000;0.671984
9418.000000;0.671963
9417.000000;0.671679
9416.000000;0.671275
9415.000000;0.670904
9414.000000;0.670630
9413.000000;0.670447
9412.000000;0.670363
9411.000000;0.670394
9410.000000;0.670505
9409.000000;0.670582
9408.000000;0.670516
9407.000000;0.670312
9406.000000;0.670072
9405.000000;0.669901
9404.000000;0.669822
9403.000000;0.669805
9402.000000;0.669804
9401.000000;0.669760
9400.000000;0.669597
9399.000000;0.669323
9398.000000;0.669112
9397.000000;0.669218
9396.000000;0.669707
9395.000000;0.670327
9394.000000;0.670677
9393.000000;0.670540
9392.000000;0.670005
9391.000000;0.669312
9390.000000;0.668660
9389.000000;0.668165
9388.000000;0.667885
9387.000000;0.667796
9386.000000;0.667765
9385.000000;0.667623
9384.000000;0.667303
9383.000000;0.666909
9382.000000;0.666646
9381.000000;0.666673
9380.000000;0.666975
9379.000000;0.667360
9378.000000;0.667634
9377.000000;0.667781
9376.000000;0.667935
9375.000000;0.668162
9374.000000;0.668344
9373.000000;0.668326
9372.000000;0.668107
9371.000000;0.667813
9370.000000;0.667537
9369.000000;0.667277
9368.000000;0.667012
9367.000000;0.666756
9366.000000;0.666540
9365.000000;0.666399
9364.000000;0.666378
9363.000000;0.666491
9362.000000;0.666662
9361.000000;0.666756
9360.000000;0.666695
9359.000000;0.666531
9358.000000;0.666390
9357.000000;0.666371
9356.000000;0.666478
9355.000000;0.666597
9354.000000;0.666584
9353.000000;0.666389
9352.000000;0.666091
9351.000000;0.665785
9350.000000;0.665487
9349.000000;0.665196
9348.000000;0.664996
9347.000000;0.664993
9346.000000;0.665163
9345.000000;0.665323
9344.000000;0.665283
9343.000000;0.665004
9342.000000;0.664611
9341.000000;0.664289
9340.000000;0.664150
9339.000000;0.664148
9338.000000;0.664158
9337.000000;0.664157
9336.000000;0.664249
9335.000000;0.664452
9334.000000;0.664557
9333.000000;0.664329
9332.000000;0.663819
9331.000000;0.663319
9330.000000;0.663051
9329.000000;0.663014
9328.000000;0.663125
9327.000000;0.663322
9326.000000;0.663511
9325.000000;0.663587
9324.000000;0.663571
9323.000000;0.663586
9322.000000;0.663634
9321.000000;0.663555
9320.000000;0.663291
9319.000000;0.663038
9318.000000;0.662995
9317.000000;0.663095
9316.000000;0.663118
9315.000000;0.662997
9314.000000;0.662844
9313.000000;0.662745
9312.000000;0.662677
9311.000000;0.662599
9310.000000;0.662508
9309.000000;0.662419
9308.000000;0.662389
9307.000000;0.662531
9306.000000;0.662882
9305.000000;0.663256
9304.000000;0.663355
9303.000000;0.663056
9302.000000;0.662514
9301.000000;0.661973
9300.000000;0.661551
9299.000000;0.661227
9298.000000;0.660946
9297.000000;0.660696
9296.000000;0.660516
9295.000000;0.660444
9294.000000;0.660458
9293.000000;0.660480
9292.000000;0.660468
9291.000000;0.660457
9290.000000;0.660468
9289.000000;0.660444
9288.000000;0.660346
9287.000000;0.660269
9286.000000;0.660354
9285.000000;0.660584
9284.000000;0.660748
9283.000000;0.660638
9282.000000;0.660231
9281.000000;0.659712
9280.000000;0.659357
9279.000000;0.659347
9278.000000;0.659624
9277.000000;0.659923
9276.000000;0.660034
9275.000000;0.660020
9274.000000;0.660084
9273.000000;0.660256
9272.000000;0.660340
9271.000000;0.660159
9270.000000;0.659760
9269.000000;0.659312
9268.000000;0.658936
9267.000000;0.658686
9266.000000;0.658608
9265.000000;0.658727
9264.000000;0.658988
9263.000000;0.659275
9262.000000;0.659456
9261.000000;0.659409
9260.000000;0.659053
9259.000000;0.658439
9258.000000;0.657768
9257.000000;0.657308
9256.000000;0.657246
9255.000000;0.657589
9254.000000;0.658133
9253.000000;0.658531
9252.000000;0.658514
9251.000000;0.658124
9250.000000;0.657681
9249.000000;0.657470
9248.000000;0.657469
9247.000000;0.657440
9246.000000;0.657259
9245.000000;0.657054
9244.000000;0.657016
9243.000000;0.657141
9242.000000;0.657239
9241.000000;0.657185
9240.000000;0.657076
9239.000000;0.657102
9238.000000;0.657288
9237.000000;0.657436
9236.000000;0.657337
9235.000000;0.656980
9234.000000;0.656537
9233.000000;0.656201
9232.000000;0.656068
9231.000000;0.656119
9230.000000;0.656217
9229.000000;0.656153
9228.000000;0.655809
9227.000000;0.655288
9226.000000;0.654832
9225.000000;0.654608
9224.000000;0.654597
9223.000000;0.654683
9222.000000;0.654757
9221.000000;0.654759
9220.000000;0.654691
9219.000000;0.654641
9218.000000;0.654694
9217.000000;0.654790
9216.000000;0.654733
9215.000000;0.654394
9214.000000;0.653885
9213.000000;0.653481
9212.000000;0.653390
9211.000000;0.653598
9210.000000;0.653891
9209.000000;0.654011
9208.000000;0.653855
9207.000000;0.653543
9206.000000;0.653299
9205.000000;0.653226
9204.000000;0.653246
9203.000000;0.653240
9202.000000;0.653172
9201.000000;0.653055
9200.000000;0.652877
9199.000000;0.652635
9198.000000;0.652423
9197.000000;0.652409
9196.000000;0.652692
9195.000000;0.653183
9194.000000;0.653620
9193.000000;0.653740
9192.000000;0.653486
9191.000000;0.653055
9190.000000;0.652699
9189.000000;0.652492
9188.000000;0.652346
9187.000000;0.652218
9186.000000;0.652171
9185.000000;0.652205
9184.000000;0.652165
9183.000000;0.651916
9182.000000;0.651542
9181.000000;0.651244
9180.000000;0.651093
9179.000000;0.651009
9178.000000;0.650955
9177.000000;0.651016
9176.000000;0.651266
9175.000000;0.651622
9174.000000;0.651898
9173.000000;0.651954
9172.000000;0.651768
9171.000000;0.651406
9170.000000;0.650969
9169.000000;0.650565
9168.000000;0.650306
9167.000000;0.650281
9166.000000;0.650511
9165.000000;0.650875
9164.000000;0.651154
9163.000000;0.651182
9162.000000;0.650977
9161.000000;0.650675
9160.000000;0.650383
9159.000000;0.650135
9158.000000;0.649963
9157.000000;0.649924
9156.000000;0.650006
9155.000000;0.650048
9154.000000;0.649840
9153.000000;0.649319
9152.000000;0.648673
9151.000000;0.648222
9150.000000;0.648176
9149.000000;0.648451
9148.000000;0.648753
9147.000000;0.648836
9146.000000;0.648698
9145.000000;0.648502
9144.000000;0.648357
9143.000000;0.648235
9142.000000;0.648085
9141.000000;0.647935
9140.000000;0.647847
9139.000000;0.647834
9138.000000;0.647856
9137.000000;0.647898
9136.000000;0.647981
9135.000000;0.648087
9134.000000;0.648132
9133.000000;0.648045
9132.000000;0.647867
9131.000000;0.647722
9130.000000;0.647695
9129.000000;0.647761
9128.000000;0.647849
9127.000000;0.647927
9126.000000;0.647973
9125.000000;0.647903
9124.000000;0.647623
9123.000000;0.647187
9122.000000;0.646835
9121.000000;0.646803
9120.000000;0.647095
9119.000000;0.647458
9118.000000;0.647579
9117.000000;0.647329
9116.000000;0.646856
9115.000000;0.646481
9114.000000;0.646441
9113.000000;0.646680
9112.000000;0.646916
9111.000000;0.646924
9110.000000;0.646730
9109.000000;0.646506
9108.000000;0.646354
9107.000000;0.646261
9106.000000;0.646195
9105.000000;0.646133
9104.000000;0.646030
9103.000000;0.645833
9102.000000;0.645567
9101.000000;0.645325
9100.000000;0.645163
9099.000000;0.645049
9098.000000;0.644912
9097.000000;0.644702
9096.000000;0.644401
9095.000000;0.644031
9094.000000;0.643664
9093.000000;0.643376
9092.000000;0.643199
9091.000000;0.643151
9090.000000;0.643285
9089.000000;0.643602
9088.000000;0.643947
9087.000000;0.644109
9086.000000;0.644075
9085.000000;0.644036
9084.000000;0.644124
9083.000000;0.644230
9082.000000;0.644187
9081.000000;0.644006
9080.000000;0.643809
9079.000000;0.643621
9078.000000;0.643373
9077.000000;0.643096
9076.000000;0.642944
9075.000000;0.642981
9074.000000;0.643069
9073.000000;0.643018
9072.000000;0.642787
9071.000000;0.642494
9070.000000;0.642283
9069.000000;0.642227
9068.000000;0.642305
9067.000000;0.642431
9066.000000;0.642528
9065.000000;0.642602
9064.000000;0.642706
9063.000000;0.642841
9062.000000;0.642914
9061.000000;0.642825
9060.000000;0.642538
9059.000000;0.642070
9058.000000;0.641486
9057.000000;0.640961
9056.000000;0.640752
9055.000000;0.640991
9054.000000;0.641502
9053.000000;0.641920
