Criado como novo conjunto de dados;"2706_e01_daniel.spp","69305.4 Secs"
cm-1;Abs
10000.000000;0.809941
9999.000000;0.809697
9998.000000;0.810141
9997.000000;0.810771
9996.000000;0.811044
9995.000000;0.810757
9994.000000;0.810139
9993.000000;0.809605
9992.000000;0.809362
9991.000000;0.809245
9990.000000;0.808919
9989.000000;0.808300
9988.000000;0.807747
9987.000000;0.807741
9986.000000;0.808329
9985.000000;0.808947
9984.000000;0.808949
9983.000000;0.808323
9982.000000;0.807735
9981.000000;0.807771
9980.000000;0.808285
9979.000000;0.808614
9978.000000;0.808340
9977.000000;0.807649
9976.000000;0.806992
9975.000000;0.806619
9974.000000;0.806508
9973.000000;0.806564
9972.000000;0.806765
9971.000000;0.807137
9970.000000;0.807633
9969.000000;0.808022
9968.000000;0.807973
9967.000000;0.807411
9966.000000;0.806735
9965.000000;0.806450
9964.000000;0.806573
9963.000000;0.806603
9962.000000;0.806141
9961.000000;0.805358
9960.000000;0.804716
9959.000000;0.804431
9958.000000;0.804400
9957.000000;0.804475
9956.000000;0.804612
9955.000000;0.804783
9954.000000;0.804926
9953.000000;0.804986
9952.000000;0.804935
9951.000000;0.804781
9950.000000;0.804622
9949.000000;0.804590
9948.000000;0.804659
9947.000000;0.804611
9946.000000;0.804305
9945.000000;0.803897
9944.000000;0.803629
9943.000000;0.803522
9942.000000;0.803428
9941.000000;0.803337
9940.000000;0.803420
9939.000000;0.803733
9938.000000;0.804027
9937.000000;0.803964
9936.000000;0.803493
9935.000000;0.802954
9934.000000;0.802773
9933.000000;0.803031
9932.000000;0.803367
9931.000000;0.803361
9930.000000;0.802996
9929.000000;0.802626
9928.000000;0.802532
9927.000000;0.802686
9926.000000;0.802937
9925.000000;0.803199
9924.000000;0.803378
9923.000000;0.803352
9922.000000;0.803140
9921.000000;0.802907
9920.000000;0.802675
9919.000000;0.802272
9918.000000;0.801736
9917.000000;0.801529
9916.000000;0.802015
9915.000000;0.802860
9914.000000;0.803288
9913.000000;0.802939
9912.000000;0.802235
9911.000000;0.801844
9910.000000;0.801978
9909.000000;0.802264
9908.000000;0.802164
9907.000000;0.801518
9906.000000;0.800712
9905.000000;0.800281
9904.000000;0.800303
9903.000000;0.800354
9902.000000;0.800120
9901.000000;0.799820
9900.000000;0.799796
9899.000000;0.799967
9898.000000;0.800036
9897.000000;0.800055
9896.000000;0.800356
9895.000000;0.800945
9894.000000;0.801373
9893.000000;0.801275
9892.000000;0.800723
9891.000000;0.799964
9890.000000;0.799164
9889.000000;0.798546
9888.000000;0.798403
9887.000000;0.798714
9886.000000;0.798967
9885.000000;0.798647
9884.000000;0.797824
9883.000000;0.797106
9882.000000;0.797048
9881.000000;0.797711
9880.000000;0.798687
9879.000000;0.799432
9878.000000;0.799642
9877.000000;0.799433
9876.000000;0.799163
9875.000000;0.799055
9874.000000;0.799048
9873.000000;0.798968
9872.000000;0.798726
9871.000000;0.798345
9870.000000;0.797913
9869.000000;0.797543
9868.000000;0.797308
9867.000000;0.797222
9866.000000;0.797309
9865.000000;0.797609
9864.000000;0.798017
9863.000000;0.798225
9862.000000;0.798039
9861.000000;0.797681
9860.000000;0.797553
9859.000000;0.797721
9858.000000;0.797858
9857.000000;0.797684
9856.000000;0.797214
9855.000000;0.796577
9854.000000;0.795893
9853.000000;0.795401
9852.000000;0.795375
9851.000000;0.795765
9850.000000;0.796126
9849.000000;0.796082
9848.000000;0.795687
9847.000000;0.795217
9846.000000;0.794810
9845.000000;0.794474
9844.000000;0.794227
9843.000000;0.794043
9842.000000;0.793827
9841.000000;0.793619
9840.000000;0.793671
9839.000000;0.794085
9838.000000;0.794508
9837.000000;0.794424
9836.000000;0.793766
9835.000000;0.793015
9834.000000;0.792705
9833.000000;0.792929
9832.000000;0.793336
9831.000000;0.793511
9830.000000;0.793361
9829.000000;0.793160
9828.000000;0.793204
9827.000000;0.793434
9826.000000;0.793511
9825.000000;0.793268
9824.000000;0.792909
9823.000000;0.792679
9822.000000;0.792518
9821.000000;0.792191
9820.000000;0.791662
9819.000000;0.791135
9818.000000;0.790783
9817.000000;0.790582
9816.000000;0.790418
9815.000000;0.790257
9814.000000;0.790213
9813.000000;0.790429
9812.000000;0.790871
9811.000000;0.791244
9810.000000;0.791268
9809.000000;0.791031
9808.000000;0.790904
9807.000000;0.791054
9806.000000;0.791228
9805.000000;0.791134
9804.000000;0.790825
9803.000000;0.790539
9802.000000;0.790343
9801.000000;0.790150
9800.000000;0.789965
9799.000000;0.789876
9798.000000;0.789836
9797.000000;0.789677
9796.000000;0.789338
9795.000000;0.788941
9794.000000;0.788642
9793.000000;0.788526
9792.000000;0.788584
9791.000000;0.788687
9790.000000;0.788615
9789.000000;0.788297
9788.000000;0.787993
9787.000000;0.788061
9786.000000;0.788560
9785.000000;0.789196
9784.000000;0.789657
9783.000000;0.789840
9782.000000;0.789742
9781.000000;0.789310
9780.000000;0.788521
9779.000000;0.787522
9778.000000;0.786606
9777.000000;0.786063
9776.000000;0.786018
9775.000000;0.786348
9774.000000;0.786743
9773.000000;0.786931
9772.000000;0.786871
9771.000000;0.786690
9770.000000;0.786497
9769.000000;0.786329
9768.000000;0.786229
9767.000000;0.786207
9766.000000;0.786159
9765.000000;0.785980
9764.000000;0.785797
9763.000000;0.785914
9762.000000;0.786415
9761.000000;0.786929
9760.000000;0.786948
9759.000000;0.786341
9758.000000;0.785446
9757.000000;0.784707
9756.000000;0.784317
9755.000000;0.784231
9754.000000;0.784372
9753.000000;0.784704
9752.000000;0.785151
9751.000000;0.785550
9750.000000;0.785759
9749.000000;0.785783
9748.000000;0.785747
9747.000000;0.785735
9746.000000;0.785705
9745.000000;0.785580
9744.000000;0.785378
9743.000000;0.785222
9742.000000;0.785204
9741.000000;0.785278
9740.000000;0.785295
9739.000000;0.785126
9738.000000;0.784772
9737.000000;0.784350
9736.000000;0.783988
9735.000000;0.783723
9734.000000;0.783489
9733.000000;0.783216
9732.000000;0.782936
9731.000000;0.782754
9730.000000;0.782715
9729.000000;0.782702
9728.000000;0.782507
9727.000000;0.782075
9726.000000;0.781620
9725.000000;0.781422
9724.000000;0.781475
9723.000000;0.781491
9722.000000;0.781315
9721.000000;0.781211
9720.000000;0.781536
9719.000000;0.782183
9718.000000;0.782592
9717.000000;0.782382
9716.000000;0.781810
9715.000000;0.781466
9714.000000;0.781638
9713.000000;0.782121
9712.000000;0.782553
9711.000000;0.782751
9710.000000;0.782717
9709.000000;0.782494
9708.000000;0.782127
9707.000000;0.781697
9706.000000;0.781295
9705.000000;0.780948
9704.000000;0.780611
9703.000000;0.780241
9702.000000;0.779869
9701.000000;0.779561
9700.000000;0.779337
9699.000000;0.779176
9698.000000;0.779126
9697.000000;0.779327
9696.000000;0.779840
9695.000000;0.780494
9694.000000;0.780995
9693.000000;0.781212
9692.000000;0.781269
9691.000000;0.781329
9690.000000;0.781375
9689.000000;0.781259
9688.000000;0.780884
9687.000000;0.780260
9686.000000;0.779470
9685.000000;0.778708
9684.000000;0.778325
9683.000000;0.778615
9682.000000;0.779443
9681.000000;0.780179
9680.000000;0.780197
9679.000000;0.779517
9678.000000;0.778819
9677.000000;0.778714
9676.000000;0.779104
9675.000000;0.779361
9674.000000;0.779088
9673.000000;0.778495
9672.000000;0.778015
9671.000000;0.777788
9670.000000;0.777672
9669.000000;0.777576
9668.000000;0.777509
9667.000000;0.777388
9666.000000;0.777018
9665.000000;0.776358
9664.000000;0.775673
9663.000000;0.775367
9662.000000;0.775697
9661.000000;0.776596
9660.000000;0.777635
9659.000000;0.778232
9658.000000;0.778104
9657.000000;0.777538
9656.000000;0.777061
9655.000000;0.776823
9654.000000;0.776502
9653.000000;0.775858
9652.000000;0.775147
9651.000000;0.774837
9650.000000;0.775063
9649.000000;0.775532
9648.000000;0.775912
9647.000000;0.776139
9646.000000;0.776360
9645.000000;0.776680
9644.000000;0.776993
9643.000000;0.777054
9642.000000;0.776747
9641.000000;0.776261
9640.000000;0.775912
9639.000000;0.775781
9638.000000;0.775664
9637.000000;0.775427
9636.000000;0.775238
9635.000000;0.775302
9634.000000;0.775503
9633.000000;0.775527
9632.000000;0.775268
9631.000000;0.774925
9630.000000;0.774684
9629.000000;0.774493
9628.000000;0.774234
9627.000000;0.773962
9626.000000;0.773846
9625.000000;0.773916
9624.000000;0.773998
9623.000000;0.773905
9622.000000;0.773647
9621.000000;0.773410
9620.000000;0.773360
9619.000000;0.773486
9618.000000;0.773605
9617.000000;0.773485
9616.000000;0.773014
9615.000000;0.772338
9614.000000;0.771848
9613.000000;0.771936
9612.000000;0.772636
9611.000000;0.773552
9610.000000;0.774202
9609.000000;0.774410
9608.000000;0.774302
9607.000000;0.774008
9606.000000;0.773540
9605.000000;0.772958
9604.000000;0.772441
9603.000000;0.772115
9602.000000;0.771925
9601.000000;0.771760
9600.000000;0.771587
9599.000000;0.771424
9598.000000;0.771297
9597.000000;0.771293
9596.000000;0.771534
9595.000000;0.771969
9594.000000;0.772301
9593.000000;0.772251
9592.000000;0.771867
9591.000000;0.771419
9590.000000;0.771044
9589.000000;0.770622
9588.000000;0.770038
9587.000000;0.769447
9586.000000;0.769182
9585.000000;0.769412
9584.000000;0.769895
9583.000000;0.770133
9582.000000;0.769839
9581.000000;0.769242
9580.000000;0.768865
9579.000000;0.768988
9578.000000;0.769419
9577.000000;0.769786
9576.000000;0.769913
9575.000000;0.769852
9574.000000;0.769704
9573.000000;0.769515
9572.000000;0.769302
9571.000000;0.769070
9570.000000;0.768845
9569.000000;0.768748
9568.000000;0.768914
9567.000000;0.769274
9566.000000;0.769509
9565.000000;0.769376
9564.000000;0.769019
9563.000000;0.768805
9562.000000;0.768901
9561.000000;0.769129
9560.000000;0.769250
9559.000000;0.769223
9558.000000;0.769183
9557.000000;0.769257
9556.000000;0.769439
9555.000000;0.769570
9554.000000;0.769434
9553.000000;0.768956
9552.000000;0.768315
9551.000000;0.767808
9550.000000;0.767606
9549.000000;0.767671
9548.000000;0.767873
9547.000000;0.768084
9546.000000;0.768171
9545.000000;0.768032
9544.000000;0.767684
9543.000000;0.767279
9542.000000;0.767000
9541.000000;0.766963
9540.000000;0.767169
9539.000000;0.767492
9538.000000;0.767710
9537.000000;0.767651
9536.000000;0.767346
9535.000000;0.766977
9534.000000;0.766671
9533.000000;0.766387
9532.000000;0.765996
9531.000000;0.765442
9530.000000;0.764810
9529.000000;0.764292
9528.000000;0.764059
9527.000000;0.764133
9526.000000;0.764376
9525.000000;0.764642
9524.000000;0.764884
9523.000000;0.765093
9522.000000;0.765196
9521.000000;0.765115
9520.000000;0.764891
9519.000000;0.764649
9518.000000;0.764457
9517.000000;0.764319
9516.000000;0.764257
9515.000000;0.764296
9514.000000;0.764344
9513.000000;0.764235
9512.000000;0.763924
9511.000000;0.763557
9510.000000;0.763294
9509.000000;0.763191
9508.000000;0.763270
9507.000000;0.763563
9506.000000;0.763989
9505.000000;0.764317
9504.000000;0.764385
9503.000000;0.764318
9502.000000;0.764388
9501.000000;0.764686
9500.000000;0.765014
9499.000000;0.765137
9498.000000;0.765019
9497.000000;0.764772
9496.000000;0.764469
9495.000000;0.764093
9494.000000;0.763653
9493.000000;0.763249
9492.000000;0.762990
9491.000000;0.762887
9490.000000;0.762851
9489.000000;0.762760
9488.000000;0.762493
9487.000000;0.761976
9486.000000;0.761295
9485.000000;0.760755
9484.000000;0.760671
9483.000000;0.761009
9482.000000;0.761353
9481.000000;0.761316
9480.000000;0.760959
9479.000000;0.760649
9478.000000;0.760588
9477.000000;0.760636
9476.000000;0.760593
9475.000000;0.760453
9474.000000;0.760339
9473.000000;0.760339
9472.000000;0.760475
9471.000000;0.760702
9470.000000;0.760837
9469.000000;0.760649
9468.000000;0.760173
9467.000000;0.759791
9466.000000;0.759830
9465.000000;0.760148
9464.000000;0.760314
9463.000000;0.760164
9462.000000;0.759961
9461.000000;0.759967
9460.000000;0.760084
9459.000000;0.760019
9458.000000;0.759669
9457.000000;0.759195
9456.000000;0.758833
9455.000000;0.758758
9454.000000;0.759054
9453.000000;0.759661
9452.000000;0.760341
9451.000000;0.760802
9450.000000;0.760866
9449.000000;0.760517
9448.000000;0.759881
9447.000000;0.759235
9446.000000;0.758908
9445.000000;0.759001
9444.000000;0.759215
9443.000000;0.759135
9442.000000;0.758701
9441.000000;0.758255
9440.000000;0.758084
9439.000000;0.758101
9438.000000;0.758064
9437.000000;0.757921
9436.000000;0.757788
9435.000000;0.757711
9434.000000;0.757668
9433.000000;0.757723
9432.000000;0.757958
9431.000000;0.758237
9430.000000;0.758270
9429.000000;0.757981
9428.000000;0.757651
9427.000000;0.757566
9426.000000;0.757655
9425.000000;0.757609
9424.000000;0.757259
9423.000000;0.756715
9422.000000;0.756173
9421.000000;0.755767
9420.000000;0.755590
9419.000000;0.755707
9418.000000;0.756038
9417.000000;0.756332
9416.000000;0.756351
9415.000000;0.756064
9414.000000;0.755612
9413.000000;0.755149
9412.000000;0.754778
9411.000000;0.754582
9410.000000;0.754618
9409.000000;0.754834
9408.000000;0.755074
9407.000000;0.755189
9406.000000;0.755128
9405.000000;0.754912
9404.000000;0.754577
9403.000000;0.754193
9402.000000;0.753921
9401.000000;0.753951
9400.000000;0.754363
9399.000000;0.755024
9398.000000;0.755639
9397.000000;0.755908
9396.000000;0.755687
9395.000000;0.755065
9394.000000;0.754300
9393.000000;0.753635
9392.000000;0.753154
9391.000000;0.752822
9390.000000;0.752634
9389.000000;0.752640
9388.000000;0.752829
9387.000000;0.753058
9386.000000;0.753165
9385.000000;0.753132
9384.000000;0.753062
9383.000000;0.753020
9382.000000;0.752946
9381.000000;0.752746
9380.000000;0.752427
9379.000000;0.752125
9378.000000;0.752012
9377.000000;0.752151
9376.000000;0.752415
9375.000000;0.752555
9374.000000;0.752411
9373.000000;0.752078
9372.000000;0.751822
9371.000000;0.751816
9370.000000;0.751984
9369.000000;0.752146
9368.000000;0.752241
9367.000000;0.752357
9366.000000;0.752525
9365.000000;0.752615
9364.000000;0.752492
9363.000000;0.752218
9362.000000;0.752018
9361.000000;0.752029
9360.000000;0.752161
9359.000000;0.752224
9358.000000;0.752122
9357.000000;0.751896
9356.000000;0.751646
9355.000000;0.751473
9354.000000;0.751446
9353.000000;0.751546
9352.000000;0.751638
9351.000000;0.751580
9350.000000;0.751357
9349.000000;0.751060
9348.000000;0.750740
9347.000000;0.750366
9346.000000;0.749936
9345.000000;0.749565
9344.000000;0.749407
9343.000000;0.749494
9342.000000;0.749684
9341.000000;0.749768
9340.000000;0.749690
9339.000000;0.749642
9338.000000;0.749868
9337.000000;0.750297
9336.000000;0.750492
9335.000000;0.750109
9334.000000;0.749350
9333.000000;0.748760
9332.000000;0.748619
9331.000000;0.748740
9330.000000;0.748880
9329.000000;0.749056
9328.000000;0.749312
9327.000000;0.749452
9326.000000;0.749239
9325.000000;0.748758
9324.000000;0.748332
9323.000000;0.748129
9322.000000;0.748068
9321.000000;0.748032
9320.000000;0.747985
9319.000000;0.747889
9318.000000;0.747736
9317.000000;0.747658
9316.000000;0.747819
9315.000000;0.748149
9314.000000;0.748362
9313.000000;0.748289
9312.000000;0.748030
9311.000000;0.747745
9310.000000;0.747466
9309.000000;0.747189
9308.000000;0.747019
9307.000000;0.747077
9306.000000;0.747333
9305.000000;0.747616
9304.000000;0.747742
9303.000000;0.747601
9302.000000;0.747208
9301.000000;0.746725
9300.000000;0.746344
9299.000000;0.746125
9298.000000;0.745980
9297.000000;0.745844
9296.000000;0.745736
9295.000000;0.745656
9294.000000;0.745566
9293.000000;0.745521
9292.000000;0.745648
9291.000000;0.745888
9290.000000;0.745907
9289.000000;0.745452
9288.000000;0.744715
9287.000000;0.744200
9286.000000;0.744209
9285.000000;0.744583
9284.000000;0.744923
9283.000000;0.744959
9282.000000;0.744702
9281.000000;0.744350
9280.000000;0.744108
9279.000000;0.744049
9278.000000;0.744109
9277.000000;0.744171
9276.000000;0.744146
9275.000000;0.743974
9274.000000;0.743644
9273.000000;0.743253
9272.000000;0.742968
9271.000000;0.742874
9270.000000;0.742874
9269.000000;0.742805
9268.000000;0.742619
9267.000000;0.742408
9266.000000;0.742303
9265.000000;0.742386
9264.000000;0.742651
9263.000000;0.742962
9262.000000;0.743116
9261.000000;0.743018
9260.000000;0.742818
9259.000000;0.742783
9258.000000;0.743031
9257.000000;0.743408
9256.000000;0.743621
9255.000000;0.743447
9254.000000;0.742892
9253.000000;0.742218
9252.000000;0.741799
9251.000000;0.741822
9250.000000;0.742111
9249.000000;0.742289
9248.000000;0.742163
9247.000000;0.741875
9246.000000;0.741705
9245.000000;0.741768
9244.000000;0.741946
9243.000000;0.742040
9242.000000;0.741951
9241.000000;0.741744
9240.000000;0.741583
9239.000000;0.741593
9238.000000;0.741748
9237.000000;0.741874
9236.000000;0.741768
9235.000000;0.741355
9234.000000;0.740767
9233.000000;0.740292
9232.000000;0.740180
9231.000000;0.740436
9230.000000;0.740798
9229.000000;0.740963
9228.000000;0.740835
9227.000000;0.740554
9226.000000;0.740290
9225.000000;0.740073
9224.000000;0.739816
9223.000000;0.739462
9222.000000;0.739080
9221.000000;0.738824
9220.000000;0.738790
9219.000000;0.738920
9218.000000;0.739052
9217.000000;0.739083
9216.000000;0.739055
9215.000000;0.739069
9214.000000;0.739153
9213.000000;0.739258
9212.000000;0.739326
9211.000000;0.739307
9210.000000;0.739136
9209.000000;0.738794
9208.000000;0.738394
9207.000000;0.738127
9206.000000;0.738097
9205.000000;0.738239
9204.000000;0.738415
9203.000000;0.738537
9202.000000;0.738591
9201.000000;0.738602
9200.000000;0.738615
9199.000000;0.738649
9198.000000;0.738646
9197.000000;0.738506
9196.000000;0.738222
9195.000000;0.737920
9194.000000;0.737715
9193.000000;0.737592
9192.000000;0.737461
9191.000000;0.737303
9190.000000;0.737176
9189.000000;0.737100
9188.000000;0.737024
9187.000000;0.736908
9186.000000;0.736797
9185.000000;0.736759
9184.000000;0.736800
9183.000000;0.736850
9182.000000;0.736832
9181.000000;0.736713
9180.000000;0.736510
9179.000000;0.736263
9178.000000;0.735978
9177.000000;0.735638
9176.000000;0.735288
9175.000000;0.735075
9174.000000;0.735112
9173.000000;0.735315
9172.000000;0.735443
9171.000000;0.735344
9170.000000;0.735125
9169.000000;0.735003
9168.000000;0.735070
9167.000000;0.735224
9166.000000;0.735312
9165.000000;0.735267
9164.000000;0.735131
9163.000000;0.735007
9162.000000;0.734975
9161.000000;0.734994
9160.000000;0.734909
9159.000000;0.734619
9158.000000;0.734233
9157.000000;0.733990
9156.000000;0.734025
9155.000000;0.734250
9154.000000;0.734479
9153.000000;0.734604
9152.000000;0.734629
9151.000000;0.734596
9150.000000;0.734520
9149.000000;0.734365
9148.000000;0.734101
9147.000000;0.733781
9146.000000;0.733547
9145.000000;0.733484
9144.000000;0.733506
9143.000000;0.733482
9142.000000;0.733433
9141.000000;0.733474
9140.000000;0.733548
9139.000000;0.733407
9138.000000;0.732971
9137.000000;0.732556
9136.000000;0.732570
9135.000000;0.733031
9134.000000;0.733537
9133.000000;0.733681
9132.000000;0.733394
9131.000000;0.732874
9130.000000;0.732356
9129.000000;0.731983
9128.000000;0.731807
9127.000000;0.731799
9126.000000;0.731875
9125.000000;0.731932
9124.000000;0.731868
9123.000000;0.731606
9122.000000;0.731184
9121.000000;0.730786
9120.000000;0.730618
9119.000000;0.730701
9118.000000;0.730872
9117.000000;0.730974
9116.000000;0.731003
9115.000000;0.731045
9114.000000;0.731140
9113.000000;0.731241
9112.000000;0.731257
9111.000000;0.731132
9110.000000;0.730912
9109.000000;0.730736
9108.000000;0.730696
9107.000000;0.730696
9106.000000;0.730532
9105.000000;0.730138
9104.000000;0.729665
9103.000000;0.729289
9102.000000;0.729018
9101.000000;0.728769
9100.000000;0.728565
9099.000000;0.728535
9098.000000;0.728743
9097.000000;0.729073
9096.000000;0.729320
9095.000000;0.729356
9094.000000;0.729206
9093.000000;0.729008
9092.000000;0.728898
9091.000000;0.728933
9090.000000;0.729086
9089.000000;0.729296
9088.000000;0.729497
9087.000000;0.729631
9086.000000;0.729670
9085.000000;0.729648
9084.000000;0.729618
9083.000000;0.729552
9082.000000;0.729338
9081.000000;0.728900
9080.000000;0.728313
9079.000000;0.727742
9078.000000;0.727311
9077.000000;0.727047
9076.000000;0.726935
9075.000000;0.726958
9074.000000;0.727083
9073.000000;0.727225
9072.000000;0.727275
9071.000000;0.727166
9070.000000;0.726930
9069.000000;0.726701
9068.000000;0.726619
9067.000000;0.726725
9066.000000;0.726929
9065.000000;0.727083
9064.000000;0.727068
9063.000000;0.726831
9062.000000;0.726421
9061.000000;0.725997
9060.000000;0.725756
9059.000000;0.725768
9058.000000;0.725895
9057.000000;0.725912
9056.000000;0.725712
9055.000000;0.725366
9054.000000;0.725024
9053.000000;0.724803
