Criado como novo conjunto de dados;"2706_e01_daniel.spp","362.0 Secs"
cm-1;Abs
10000.000000;0.017671
9999.000000;0.017436
9998.000000;0.017274
9997.000000;0.017183
9996.000000;0.017183
9995.000000;0.017271
9994.000000;0.017333
9993.000000;0.017276
9992.000000;0.017121
9991.000000;0.016965
9990.000000;0.016852
9989.000000;0.016800
9988.000000;0.016863
9987.000000;0.017093
9986.000000;0.017418
9985.000000;0.017657
9984.000000;0.017673
9983.000000;0.017476
9982.000000;0.017187
9981.000000;0.016944
9980.000000;0.016833
9979.000000;0.016855
9978.000000;0.016930
9977.000000;0.016975
9976.000000;0.016996
9975.000000;0.017063
9974.000000;0.017213
9973.000000;0.017395
9972.000000;0.017525
9971.000000;0.017556
9970.000000;0.017499
9969.000000;0.017404
9968.000000;0.017334
9967.000000;0.017330
9966.000000;0.017380
9965.000000;0.017433
9964.000000;0.017447
9963.000000;0.017417
9962.000000;0.017384
9961.000000;0.017407
9960.000000;0.017504
9959.000000;0.017615
9958.000000;0.017658
9957.000000;0.017627
9956.000000;0.017608
9955.000000;0.017659
9954.000000;0.017727
9953.000000;0.017735
9952.000000;0.017692
9951.000000;0.017656
9950.000000;0.017622
9949.000000;0.017512
9948.000000;0.017284
9947.000000;0.016989
9946.000000;0.016733
9945.000000;0.016621
9944.000000;0.016703
9943.000000;0.016904
9942.000000;0.017039
9941.000000;0.016975
9940.000000;0.016806
9939.000000;0.016768
9938.000000;0.016962
9937.000000;0.017250
9936.000000;0.017432
9935.000000;0.017447
9934.000000;0.017347
9933.000000;0.017173
9932.000000;0.016952
9931.000000;0.016751
9930.000000;0.016626
9929.000000;0.016549
9928.000000;0.016475
9927.000000;0.016471
9926.000000;0.016670
9925.000000;0.017071
9924.000000;0.017491
9923.000000;0.017741
9922.000000;0.017793
9921.000000;0.017736
9920.000000;0.017643
9919.000000;0.017538
9918.000000;0.017446
9917.000000;0.017381
9916.000000;0.017308
9915.000000;0.017196
9914.000000;0.017108
9913.000000;0.017172
9912.000000;0.017421
9911.000000;0.017733
9910.000000;0.017932
9909.000000;0.017923
9908.000000;0.017700
9907.000000;0.017322
9906.000000;0.016925
9905.000000;0.016721
9904.000000;0.016837
9903.000000;0.017151
9902.000000;0.017362
9901.000000;0.017268
9900.000000;0.016956
9899.000000;0.016695
9898.000000;0.016674
9897.000000;0.016878
9896.000000;0.017155
9895.000000;0.017366
9894.000000;0.017480
9893.000000;0.017548
9892.000000;0.017607
9891.000000;0.017615
9890.000000;0.017524
9889.000000;0.017399
9888.000000;0.017395
9887.000000;0.017564
9886.000000;0.017741
9885.000000;0.017692
9884.000000;0.017358
9883.000000;0.016916
9882.000000;0.016590
9881.000000;0.016472
9880.000000;0.016516
9879.000000;0.016646
9878.000000;0.016815
9877.000000;0.016983
9876.000000;0.017082
9875.000000;0.017044
9874.000000;0.016874
9873.000000;0.016681
9872.000000;0.016594
9871.000000;0.016653
9870.000000;0.016783
9869.000000;0.016899
9868.000000;0.016987
9867.000000;0.017076
9866.000000;0.017175
9865.000000;0.017259
9864.000000;0.017310
9863.000000;0.017318
9862.000000;0.017278
9861.000000;0.017223
9860.000000;0.017237
9859.000000;0.017365
9858.000000;0.017512
9857.000000;0.017509
9856.000000;0.017289
9855.000000;0.016966
9854.000000;0.016711
9853.000000;0.016598
9852.000000;0.016591
9851.000000;0.016625
9850.000000;0.016668
9849.000000;0.016712
9848.000000;0.016753
9847.000000;0.016810
9846.000000;0.016923
9845.000000;0.017116
9844.000000;0.017340
9843.000000;0.017473
9842.000000;0.017411
9841.000000;0.017183
9840.000000;0.016940
9839.000000;0.016820
9838.000000;0.016815
9837.000000;0.016804
9836.000000;0.016705
9835.000000;0.016575
9834.000000;0.016552
9833.000000;0.016723
9832.000000;0.017026
9831.000000;0.017283
9830.000000;0.017341
9829.000000;0.017201
9828.000000;0.016992
9827.000000;0.016832
9826.000000;0.016739
9825.000000;0.016700
9824.000000;0.016744
9823.000000;0.016908
9822.000000;0.017160
9821.000000;0.017424
9820.000000;0.017651
9819.000000;0.017787
9818.000000;0.017753
9817.000000;0.017531
9816.000000;0.017280
9815.000000;0.017219
9814.000000;0.017365
9813.000000;0.017486
9812.000000;0.017381
9811.000000;0.017143
9810.000000;0.017050
9809.000000;0.017231
9808.000000;0.017519
9807.000000;0.017634
9806.000000;0.017464
9805.000000;0.017134
9804.000000;0.016858
9803.000000;0.016744
9802.000000;0.016751
9801.000000;0.016800
9800.000000;0.016887
9799.000000;0.017053
9798.000000;0.017273
9797.000000;0.017428
9796.000000;0.017416
9795.000000;0.017266
9794.000000;0.017113
9793.000000;0.017068
9792.000000;0.017110
9791.000000;0.017109
9790.000000;0.016967
9789.000000;0.016755
9788.000000;0.016655
9787.000000;0.016752
9786.000000;0.016933
9785.000000;0.017040
9784.000000;0.017088
9783.000000;0.017213
9782.000000;0.017439
9781.000000;0.017613
9780.000000;0.017598
9779.000000;0.017430
9778.000000;0.017237
9777.000000;0.017091
9776.000000;0.017008
9775.000000;0.016990
9774.000000;0.016997
9773.000000;0.016930
9772.000000;0.016763
9771.000000;0.016640
9770.000000;0.016740
9769.000000;0.017049
9768.000000;0.017346
9767.000000;0.017420
9766.000000;0.017257
9765.000000;0.017022
9764.000000;0.016922
9763.000000;0.017048
9762.000000;0.017291
9761.000000;0.017411
9760.000000;0.017273
9759.000000;0.016993
9758.000000;0.016807
9757.000000;0.016786
9756.000000;0.016786
9755.000000;0.016670
9754.000000;0.016494
9753.000000;0.016415
9752.000000;0.016501
9751.000000;0.016683
9750.000000;0.016854
9749.000000;0.016952
9748.000000;0.016992
9747.000000;0.017033
9746.000000;0.017112
9745.000000;0.017203
9744.000000;0.017259
9743.000000;0.017299
9742.000000;0.017393
9741.000000;0.017558
9740.000000;0.017709
9739.000000;0.017743
9738.000000;0.017627
9737.000000;0.017391
9736.000000;0.017096
9735.000000;0.016853
9734.000000;0.016793
9733.000000;0.016938
9732.000000;0.017137
9731.000000;0.017219
9730.000000;0.017179
9729.000000;0.017166
9728.000000;0.017280
9727.000000;0.017470
9726.000000;0.017629
9725.000000;0.017702
9724.000000;0.017690
9723.000000;0.017601
9722.000000;0.017468
9721.000000;0.017367
9720.000000;0.017365
9719.000000;0.017449
9718.000000;0.017535
9717.000000;0.017553
9716.000000;0.017509
9715.000000;0.017456
9714.000000;0.017416
9713.000000;0.017348
9712.000000;0.017211
9711.000000;0.017046
9710.000000;0.016966
9709.000000;0.017030
9708.000000;0.017166
9707.000000;0.017258
9706.000000;0.017274
9705.000000;0.017280
9704.000000;0.017321
9703.000000;0.017359
9702.000000;0.017330
9701.000000;0.017237
9700.000000;0.017146
9699.000000;0.017125
9698.000000;0.017181
9697.000000;0.017245
9696.000000;0.017227
9695.000000;0.017108
9694.000000;0.017000
9693.000000;0.017044
9692.000000;0.017267
9691.000000;0.017546
9690.000000;0.017731
9689.000000;0.017739
9688.000000;0.017556
9687.000000;0.017240
9686.000000;0.016947
9685.000000;0.016857
9684.000000;0.016999
9683.000000;0.017210
9682.000000;0.017335
9681.000000;0.017388
9680.000000;0.017442
9679.000000;0.017445
9678.000000;0.017292
9677.000000;0.017040
9676.000000;0.016882
9675.000000;0.016903
9674.000000;0.016978
9673.000000;0.016977
9672.000000;0.016937
9671.000000;0.016964
9670.000000;0.017063
9669.000000;0.017159
9668.000000;0.017223
9667.000000;0.017280
9666.000000;0.017318
9665.000000;0.017279
9664.000000;0.017138
9663.000000;0.016937
9662.000000;0.016759
9661.000000;0.016703
9660.000000;0.016831
9659.000000;0.017087
9658.000000;0.017301
9657.000000;0.017346
9656.000000;0.017276
9655.000000;0.017252
9654.000000;0.017357
9653.000000;0.017556
9652.000000;0.017795
9651.000000;0.018035
9650.000000;0.018187
9649.000000;0.018118
9648.000000;0.017807
9647.000000;0.017426
9646.000000;0.017199
9645.000000;0.017189
9644.000000;0.017270
9643.000000;0.017287
9642.000000;0.017209
9641.000000;0.017119
9640.000000;0.017108
9639.000000;0.017201
9638.000000;0.017365
9637.000000;0.017555
9636.000000;0.017737
9635.000000;0.017870
9634.000000;0.017908
9633.000000;0.017835
9632.000000;0.017689
9631.000000;0.017529
9630.000000;0.017380
9629.000000;0.017233
9628.000000;0.017088
9627.000000;0.016990
9626.000000;0.017003
9625.000000;0.017170
9624.000000;0.017456
9623.000000;0.017740
9622.000000;0.017881
9621.000000;0.017835
9620.000000;0.017694
9619.000000;0.017595
9618.000000;0.017600
9617.000000;0.017671
9616.000000;0.017730
9615.000000;0.017712
9614.000000;0.017595
9613.000000;0.017443
9612.000000;0.017377
9611.000000;0.017458
9610.000000;0.017584
9609.000000;0.017582
9608.000000;0.017402
9607.000000;0.017178
9606.000000;0.017082
9605.000000;0.017163
9604.000000;0.017336
9603.000000;0.017482
9602.000000;0.017523
9601.000000;0.017471
9600.000000;0.017417
9599.000000;0.017451
9598.000000;0.017566
9597.000000;0.017684
9596.000000;0.017766
9595.000000;0.017823
9594.000000;0.017827
9593.000000;0.017683
9592.000000;0.017378
9591.000000;0.017069
9590.000000;0.016951
9589.000000;0.017057
9588.000000;0.017247
9587.000000;0.017387
9586.000000;0.017450
9585.000000;0.017467
9584.000000;0.017457
9583.000000;0.017428
9582.000000;0.017392
9581.000000;0.017359
9580.000000;0.017345
9579.000000;0.017374
9578.000000;0.017445
9577.000000;0.017502
9576.000000;0.017496
9575.000000;0.017488
9574.000000;0.017598
9573.000000;0.017836
9572.000000;0.018050
9571.000000;0.018084
9570.000000;0.017957
9569.000000;0.017829
9568.000000;0.017832
9567.000000;0.017960
9566.000000;0.018097
9565.000000;0.018108
9564.000000;0.017940
9563.000000;0.017686
9562.000000;0.017535
9561.000000;0.017589
9560.000000;0.017755
9559.000000;0.017862
9558.000000;0.017867
9557.000000;0.017860
9556.000000;0.017892
9555.000000;0.017891
9554.000000;0.017793
9553.000000;0.017667
9552.000000;0.017635
9551.000000;0.017716
9550.000000;0.017826
9549.000000;0.017908
9548.000000;0.017996
9547.000000;0.018134
9546.000000;0.018301
9545.000000;0.018412
9544.000000;0.018394
9543.000000;0.018252
9542.000000;0.018087
9541.000000;0.018025
9540.000000;0.018092
9539.000000;0.018167
9538.000000;0.018122
9537.000000;0.017997
9536.000000;0.017957
9535.000000;0.018080
9534.000000;0.018251
9533.000000;0.018292
9532.000000;0.018155
9531.000000;0.017951
9530.000000;0.017825
9529.000000;0.017840
9528.000000;0.017945
9527.000000;0.018022
9526.000000;0.017980
9525.000000;0.017849
9524.000000;0.017756
9523.000000;0.017781
9522.000000;0.017875
9521.000000;0.017928
9520.000000;0.017865
9519.000000;0.017667
9518.000000;0.017336
9517.000000;0.016943
9516.000000;0.016660
9515.000000;0.016653
9514.000000;0.016916
9513.000000;0.017260
9512.000000;0.017493
9511.000000;0.017578
9510.000000;0.017613
9509.000000;0.017712
9508.000000;0.017891
9507.000000;0.018066
9506.000000;0.018132
9505.000000;0.018084
9504.000000;0.018029
9503.000000;0.018063
9502.000000;0.018154
9501.000000;0.018207
9500.000000;0.018208
9499.000000;0.018234
9498.000000;0.018313
9497.000000;0.018367
9496.000000;0.018314
9495.000000;0.018170
9494.000000;0.018002
9493.000000;0.017843
9492.000000;0.017708
9491.000000;0.017644
9490.000000;0.017714
9489.000000;0.017913
9488.000000;0.018150
9487.000000;0.018309
9486.000000;0.018334
9485.000000;0.018260
9484.000000;0.018183
9483.000000;0.018168
9482.000000;0.018182
9481.000000;0.018143
9480.000000;0.018016
9479.000000;0.017836
9478.000000;0.017645
9477.000000;0.017456
9476.000000;0.017324
9475.000000;0.017349
9474.000000;0.017562
9473.000000;0.017846
9472.000000;0.018032
9471.000000;0.018068
9470.000000;0.018039
9469.000000;0.018040
9468.000000;0.018098
9467.000000;0.018185
9466.000000;0.018263
9465.000000;0.018292
9464.000000;0.018254
9463.000000;0.018183
9462.000000;0.018131
9461.000000;0.018095
9460.000000;0.018021
9459.000000;0.017894
9458.000000;0.017786
9457.000000;0.017773
9456.000000;0.017837
9455.000000;0.017889
9454.000000;0.017889
9453.000000;0.017904
9452.000000;0.018020
9451.000000;0.018229
9450.000000;0.018440
9449.000000;0.018603
9448.000000;0.018747
9447.000000;0.018889
9446.000000;0.018943
9445.000000;0.018797
9444.000000;0.018477
9443.000000;0.018164
9442.000000;0.018027
9441.000000;0.018080
9440.000000;0.018217
9439.000000;0.018349
9438.000000;0.018445
9437.000000;0.018494
9436.000000;0.018474
9435.000000;0.018389
9434.000000;0.018290
9433.000000;0.018249
9432.000000;0.018303
9431.000000;0.018413
9430.000000;0.018491
9429.000000;0.018484
9428.000000;0.018429
9427.000000;0.018406
9426.000000;0.018424
9425.000000;0.018405
9424.000000;0.018288
9423.000000;0.018106
9422.000000;0.017937
9421.000000;0.017823
9420.000000;0.017786
9419.000000;0.017866
9418.000000;0.018077
9417.000000;0.018331
9416.000000;0.018478
9415.000000;0.018447
9414.000000;0.018308
9413.000000;0.018192
9412.000000;0.018173
9411.000000;0.018225
9410.000000;0.018264
9409.000000;0.018239
9408.000000;0.018193
9407.000000;0.018225
9406.000000;0.018360
9405.000000;0.018487
9404.000000;0.018472
9403.000000;0.018317
9402.000000;0.018155
9401.000000;0.018094
9400.000000;0.018116
9399.000000;0.018143
9398.000000;0.018138
9397.000000;0.018127
9396.000000;0.018156
9395.000000;0.018249
9394.000000;0.018392
9393.000000;0.018525
9392.000000;0.018586
9391.000000;0.018578
9390.000000;0.018570
9389.000000;0.018628
9388.000000;0.018739
9387.000000;0.018828
9386.000000;0.018822
9385.000000;0.018699
9384.000000;0.018502
9383.000000;0.018314
9382.000000;0.018205
9381.000000;0.018181
9380.000000;0.018195
9379.000000;0.018217
9378.000000;0.018258
9377.000000;0.018340
9376.000000;0.018446
9375.000000;0.018537
9374.000000;0.018583
9373.000000;0.018580
9372.000000;0.018545
9371.000000;0.018515
9370.000000;0.018512
9369.000000;0.018529
9368.000000;0.018543
9367.000000;0.018558
9366.000000;0.018588
9365.000000;0.018610
9364.000000;0.018571
9363.000000;0.018467
9362.000000;0.018370
9361.000000;0.018348
9360.000000;0.018402
9359.000000;0.018478
9358.000000;0.018535
9357.000000;0.018566
9356.000000;0.018579
9355.000000;0.018582
9354.000000;0.018570
9353.000000;0.018531
9352.000000;0.018477
9351.000000;0.018465
9350.000000;0.018549
9349.000000;0.018689
9348.000000;0.018758
9347.000000;0.018690
9346.000000;0.018567
9345.000000;0.018517
9344.000000;0.018558
9343.000000;0.018607
9342.000000;0.018612
9341.000000;0.018605
9340.000000;0.018634
9339.000000;0.018691
9338.000000;0.018741
9337.000000;0.018756
9336.000000;0.018716
9335.000000;0.018621
9334.000000;0.018513
9333.000000;0.018460
9332.000000;0.018479
9331.000000;0.018511
9330.000000;0.018503
9329.000000;0.018483
9328.000000;0.018509
9327.000000;0.018581
9326.000000;0.018636
9325.000000;0.018637
9324.000000;0.018630
9323.000000;0.018690
9322.000000;0.018835
9321.000000;0.019008
9320.000000;0.019134
9319.000000;0.019169
9318.000000;0.019117
9317.000000;0.019005
9316.000000;0.018869
9315.000000;0.018739
9314.000000;0.018636
9313.000000;0.018579
9312.000000;0.018598
9311.000000;0.018713
9310.000000;0.018891
9309.000000;0.019043
9308.000000;0.019116
9307.000000;0.019169
9306.000000;0.019315
9305.000000;0.019557
9304.000000;0.019731
9303.000000;0.019674
9302.000000;0.019419
9301.000000;0.019169
9300.000000;0.019074
9299.000000;0.019094
9298.000000;0.019087
9297.000000;0.018978
9296.000000;0.018819
9295.000000;0.018704
9294.000000;0.018674
9293.000000;0.018686
9292.000000;0.018659
9291.000000;0.018559
9290.000000;0.018457
9289.000000;0.018471
9288.000000;0.018654
9287.000000;0.018928
9286.000000;0.019163
9285.000000;0.019275
9284.000000;0.019257
9283.000000;0.019141
9282.000000;0.018980
9281.000000;0.018851
9280.000000;0.018825
9279.000000;0.018925
9278.000000;0.019109
9277.000000;0.019307
9276.000000;0.019439
9275.000000;0.019440
9274.000000;0.019311
9273.000000;0.019141
9272.000000;0.019041
9271.000000;0.019029
9270.000000;0.019027
9269.000000;0.018974
9268.000000;0.018916
9267.000000;0.018946
9266.000000;0.019085
9265.000000;0.019246
9264.000000;0.019320
9263.000000;0.019267
9262.000000;0.019126
9261.000000;0.018959
9260.000000;0.018812
9259.000000;0.018703
9258.000000;0.018646
9257.000000;0.018667
9256.000000;0.018777
9255.000000;0.018941
9254.000000;0.019074
9253.000000;0.019099
9252.000000;0.019004
9251.000000;0.018858
9250.000000;0.018754
9249.000000;0.018747
9248.000000;0.018826
9247.000000;0.018925
9246.000000;0.018980
9245.000000;0.018985
9244.000000;0.018993
9243.000000;0.019053
9242.000000;0.019161
9241.000000;0.019270
9240.000000;0.019347
9239.000000;0.019400
9238.000000;0.019450
9237.000000;0.019489
9236.000000;0.019466
9235.000000;0.019347
9234.000000;0.019162
9233.000000;0.019002
9232.000000;0.018951
9231.000000;0.019018
9230.000000;0.019143
9229.000000;0.019248
9228.000000;0.019283
9227.000000;0.019231
9226.000000;0.019117
9225.000000;0.019020
9224.000000;0.019039
9223.000000;0.019192
9222.000000;0.019379
9221.000000;0.019457
9220.000000;0.019371
9219.000000;0.019176
9218.000000;0.018952
9217.000000;0.018751
9216.000000;0.018624
9215.000000;0.018652
9214.000000;0.018879
9213.000000;0.019229
9212.000000;0.019516
9211.000000;0.019574
9210.000000;0.019388
9209.000000;0.019093
9208.000000;0.018863
9207.000000;0.018793
9206.000000;0.018861
9205.000000;0.018985
9204.000000;0.019087
9203.000000;0.019119
9202.000000;0.019069
9201.000000;0.018970
9200.000000;0.018885
9199.000000;0.018881
9198.000000;0.018976
9197.000000;0.019137
9196.000000;0.019296
9195.000000;0.019371
9194.000000;0.019312
9193.000000;0.019143
9192.000000;0.018961
9191.000000;0.018870
9190.000000;0.018898
9189.000000;0.019014
9188.000000;0.019171
9187.000000;0.019325
9186.000000;0.019424
9185.000000;0.019445
9184.000000;0.019433
9183.000000;0.019461
9182.000000;0.019532
9181.000000;0.019574
9180.000000;0.019550
9179.000000;0.019503
9178.000000;0.019476
9177.000000;0.019449
9176.000000;0.019412
9175.000000;0.019426
9174.000000;0.019551
9173.000000;0.019728
9172.000000;0.019829
9171.000000;0.019790
9170.000000;0.019655
9169.000000;0.019486
9168.000000;0.019329
9167.000000;0.019255
9166.000000;0.019333
9165.000000;0.019523
9164.000000;0.019659
9163.000000;0.019615
9162.000000;0.019438
9161.000000;0.019281
9160.000000;0.019234
9159.000000;0.019275
9158.000000;0.019349
9157.000000;0.019421
9156.000000;0.019472
9155.000000;0.019486
9154.000000;0.019481
9153.000000;0.019495
9152.000000;0.019543
9151.000000;0.019605
9150.000000;0.019676
9149.000000;0.019762
9148.000000;0.019831
9147.000000;0.019804
9146.000000;0.019649
9145.000000;0.019460
9144.000000;0.019393
9143.000000;0.019505
9142.000000;0.019689
9141.000000;0.019779
9140.000000;0.019704
9139.000000;0.019527
9138.000000;0.019358
9137.000000;0.019268
9136.000000;0.019278
9135.000000;0.019386
9134.000000;0.019560
9133.000000;0.019730
9132.000000;0.019820
9131.000000;0.019806
9130.000000;0.019732
9129.000000;0.019668
9128.000000;0.019662
9127.000000;0.019721
9126.000000;0.019814
9125.000000;0.019876
9124.000000;0.019847
9123.000000;0.019739
9122.000000;0.019649
9121.000000;0.019679
9120.000000;0.019818
9119.000000;0.019943
9118.000000;0.019939
9117.000000;0.019827
9116.000000;0.019742
9115.000000;0.019792
9114.000000;0.019947
9113.000000;0.020077
9112.000000;0.020079
9111.000000;0.019967
9110.000000;0.019837
9109.000000;0.019781
9108.000000;0.019830
9107.000000;0.019947
9106.000000;0.020039
9105.000000;0.020011
9104.000000;0.019838
9103.000000;0.019609
9102.000000;0.019456
9101.000000;0.019438
9100.000000;0.019507
9099.000000;0.019594
9098.000000;0.019682
9097.000000;0.019780
9096.000000;0.019858
9095.000000;0.019869
9094.000000;0.019815
9093.000000;0.019755
9092.000000;0.019730
9091.000000;0.019724
9090.000000;0.019714
9089.000000;0.019720
9088.000000;0.019785
9087.000000;0.019912
9086.000000;0.020056
9085.000000;0.020167
9084.000000;0.020214
9083.000000;0.020182
9082.000000;0.020075
9081.000000;0.019934
9080.000000;0.019823
9079.000000;0.019763
9078.000000;0.019710
9077.000000;0.019605
9076.000000;0.019462
9075.000000;0.019359
9074.000000;0.019354
9073.000000;0.019414
9072.000000;0.019464
9071.000000;0.019468
9070.000000;0.019468
9069.000000;0.019531
9068.000000;0.019680
9067.000000;0.019874
9066.000000;0.020053
9065.000000;0.020185
9064.000000;0.020269
9063.000000;0.020297
9062.000000;0.020243
9061.000000;0.020102
9060.000000;0.019920
9059.000000;0.019779
9058.000000;0.019717
9057.000000;0.019704
9056.000000;0.019686
9055.000000;0.019656
9054.000000;0.019653
9053.000000;0.019701
