Criado como novo conjunto de dados;"2706_e01_daniel.spp","10082.5 Secs"
cm-1;Abs
10000.000000;0.746125
9999.000000;0.746035
9998.000000;0.745987
9997.000000;0.745946
9996.000000;0.745748
9995.000000;0.745315
9994.000000;0.744831
9993.000000;0.744531
9992.000000;0.744391
9991.000000;0.744274
9990.000000;0.744244
9989.000000;0.744433
9988.000000;0.744662
9987.000000;0.744573
9986.000000;0.744166
9985.000000;0.743856
9984.000000;0.743917
9983.000000;0.744184
9982.000000;0.744360
9981.000000;0.744348
9980.000000;0.744178
9979.000000;0.743906
9978.000000;0.743672
9977.000000;0.743617
9976.000000;0.743615
9975.000000;0.743372
9974.000000;0.742865
9973.000000;0.742439
9972.000000;0.742339
9971.000000;0.742447
9970.000000;0.742553
9969.000000;0.742641
9968.000000;0.742731
9967.000000;0.742751
9966.000000;0.742705
9965.000000;0.742758
9964.000000;0.742972
9963.000000;0.743187
9962.000000;0.743278
9961.000000;0.743302
9960.000000;0.743293
9959.000000;0.743204
9958.000000;0.743165
9957.000000;0.743473
9956.000000;0.744088
9955.000000;0.744437
9954.000000;0.744022
9953.000000;0.743006
9952.000000;0.741971
9951.000000;0.741309
9950.000000;0.741086
9949.000000;0.741231
9948.000000;0.741553
9947.000000;0.741727
9946.000000;0.741577
9945.000000;0.741301
9944.000000;0.741172
9943.000000;0.741150
9942.000000;0.741043
9941.000000;0.740893
9940.000000;0.740895
9939.000000;0.740993
9938.000000;0.740897
9937.000000;0.740521
9936.000000;0.740132
9935.000000;0.740010
9934.000000;0.740127
9933.000000;0.740240
9932.000000;0.740176
9931.000000;0.739980
9930.000000;0.739821
9929.000000;0.739796
9928.000000;0.739825
9927.000000;0.739775
9926.000000;0.739672
9925.000000;0.739655
9924.000000;0.739717
9923.000000;0.739639
9922.000000;0.739291
9921.000000;0.738834
9920.000000;0.738540
9919.000000;0.738506
9918.000000;0.738613
9917.000000;0.738653
9916.000000;0.738434
9915.000000;0.737916
9914.000000;0.737352
9913.000000;0.737142
9912.000000;0.737427
9911.000000;0.737919
9910.000000;0.738229
9909.000000;0.738232
9908.000000;0.738034
9907.000000;0.737756
9906.000000;0.737498
9905.000000;0.737392
9904.000000;0.737498
9903.000000;0.737721
9902.000000;0.737933
9901.000000;0.738093
9900.000000;0.738148
9899.000000;0.737933
9898.000000;0.737352
9897.000000;0.736605
9896.000000;0.736115
9895.000000;0.736192
9894.000000;0.736774
9893.000000;0.737421
9892.000000;0.737594
9891.000000;0.737119
9890.000000;0.736403
9889.000000;0.736045
9888.000000;0.736194
9887.000000;0.736433
9886.000000;0.736341
9885.000000;0.735948
9884.000000;0.735567
9883.000000;0.735405
9882.000000;0.735494
9881.000000;0.735803
9880.000000;0.736208
9879.000000;0.736475
9878.000000;0.736443
9877.000000;0.736156
9876.000000;0.735729
9875.000000;0.735227
9874.000000;0.734773
9873.000000;0.734605
9872.000000;0.734850
9871.000000;0.735348
9870.000000;0.735834
9869.000000;0.736187
9868.000000;0.736376
9867.000000;0.736321
9866.000000;0.736021
9865.000000;0.735688
9864.000000;0.735552
9863.000000;0.735569
9862.000000;0.735508
9861.000000;0.735287
9860.000000;0.735060
9859.000000;0.734955
9858.000000;0.734897
9857.000000;0.734739
9856.000000;0.734460
9855.000000;0.734179
9854.000000;0.734021
9853.000000;0.733965
9852.000000;0.733853
9851.000000;0.733562
9850.000000;0.733205
9849.000000;0.733059
9848.000000;0.733274
9847.000000;0.733713
9846.000000;0.734141
9845.000000;0.734458
9844.000000;0.734702
9843.000000;0.734891
9842.000000;0.734962
9841.000000;0.734861
9840.000000;0.734641
9839.000000;0.734459
9838.000000;0.734451
9837.000000;0.734570
9836.000000;0.734598
9835.000000;0.734375
9834.000000;0.733972
9833.000000;0.733581
9832.000000;0.733296
9831.000000;0.733122
9830.000000;0.733102
9829.000000;0.733213
9828.000000;0.733201
9827.000000;0.732752
9826.000000;0.731929
9825.000000;0.731227
9824.000000;0.731106
9823.000000;0.731575
9822.000000;0.732297
9821.000000;0.732932
9820.000000;0.733298
9819.000000;0.733332
9818.000000;0.733048
9817.000000;0.732526
9816.000000;0.731902
9815.000000;0.731343
9814.000000;0.730969
9813.000000;0.730761
9812.000000;0.730613
9811.000000;0.730584
9810.000000;0.730934
9809.000000;0.731754
9808.000000;0.732642
9807.000000;0.733033
9806.000000;0.732792
9805.000000;0.732269
9804.000000;0.731788
9803.000000;0.731364
9802.000000;0.730941
9801.000000;0.730621
9800.000000;0.730525
9799.000000;0.730620
9798.000000;0.730767
9797.000000;0.730803
9796.000000;0.730554
9795.000000;0.729984
9794.000000;0.729352
9793.000000;0.729004
9792.000000;0.728972
9791.000000;0.728991
9790.000000;0.728934
9789.000000;0.728961
9788.000000;0.729161
9787.000000;0.729321
9786.000000;0.729212
9785.000000;0.728913
9784.000000;0.728734
9783.000000;0.728913
9782.000000;0.729450
9781.000000;0.730048
9780.000000;0.730217
9779.000000;0.729682
9778.000000;0.728774
9777.000000;0.728172
9776.000000;0.728194
9775.000000;0.728547
9774.000000;0.728830
9773.000000;0.728989
9772.000000;0.729132
9771.000000;0.729238
9770.000000;0.729266
9769.000000;0.729339
9768.000000;0.729529
9767.000000;0.729656
9766.000000;0.729525
9765.000000;0.729255
9764.000000;0.729125
9763.000000;0.729165
9762.000000;0.729126
9761.000000;0.728830
9760.000000;0.728353
9759.000000;0.727880
9758.000000;0.727524
9757.000000;0.727302
9756.000000;0.727169
9755.000000;0.727062
9754.000000;0.726935
9753.000000;0.726781
9752.000000;0.726642
9751.000000;0.726619
9750.000000;0.726837
9749.000000;0.727268
9748.000000;0.727639
9747.000000;0.727629
9746.000000;0.727178
9745.000000;0.726506
9744.000000;0.725865
9743.000000;0.725425
9742.000000;0.725302
9741.000000;0.725488
9740.000000;0.725746
9739.000000;0.725800
9738.000000;0.725643
9737.000000;0.725488
9736.000000;0.725433
9735.000000;0.725403
9734.000000;0.725403
9733.000000;0.725554
9732.000000;0.725824
9731.000000;0.725997
9730.000000;0.725979
9729.000000;0.725892
9728.000000;0.725797
9727.000000;0.725601
9726.000000;0.725349
9725.000000;0.725306
9724.000000;0.725573
9723.000000;0.725884
9722.000000;0.725973
9721.000000;0.725953
9720.000000;0.726096
9719.000000;0.726398
9718.000000;0.726579
9717.000000;0.726441
9716.000000;0.726041
9715.000000;0.725603
9714.000000;0.725352
9713.000000;0.725373
9712.000000;0.725530
9711.000000;0.725622
9710.000000;0.725648
9709.000000;0.725778
9708.000000;0.726027
9707.000000;0.726140
9706.000000;0.725911
9705.000000;0.725440
9704.000000;0.724964
9703.000000;0.724593
9702.000000;0.724318
9701.000000;0.724148
9700.000000;0.724108
9699.000000;0.724208
9698.000000;0.724467
9697.000000;0.724834
9696.000000;0.725061
9695.000000;0.724873
9694.000000;0.724340
9693.000000;0.723868
9692.000000;0.723725
9691.000000;0.723775
9690.000000;0.723781
9689.000000;0.723733
9688.000000;0.723730
9687.000000;0.723729
9686.000000;0.723636
9685.000000;0.723521
9684.000000;0.723531
9683.000000;0.723664
9682.000000;0.723763
9681.000000;0.723690
9680.000000;0.723399
9679.000000;0.722960
9678.000000;0.722575
9677.000000;0.722473
9676.000000;0.722681
9675.000000;0.723001
9674.000000;0.723245
9673.000000;0.723369
9672.000000;0.723357
9671.000000;0.723147
9670.000000;0.722805
9669.000000;0.722566
9668.000000;0.722584
9667.000000;0.722735
9666.000000;0.722786
9665.000000;0.722621
9664.000000;0.722251
9663.000000;0.721761
9662.000000;0.721343
9661.000000;0.721230
9660.000000;0.721454
9659.000000;0.721788
9658.000000;0.722006
9657.000000;0.722065
9656.000000;0.721967
9655.000000;0.721634
9654.000000;0.721086
9653.000000;0.720593
9652.000000;0.720473
9651.000000;0.720767
9650.000000;0.721174
9649.000000;0.721278
9648.000000;0.720842
9647.000000;0.720036
9646.000000;0.719392
9645.000000;0.719373
9644.000000;0.719924
9643.000000;0.720561
9642.000000;0.720901
9641.000000;0.720930
9640.000000;0.720766
9639.000000;0.720469
9638.000000;0.720181
9637.000000;0.720171
9636.000000;0.720540
9635.000000;0.721035
9634.000000;0.721316
9633.000000;0.721250
9632.000000;0.720880
9631.000000;0.720282
9630.000000;0.719610
9629.000000;0.719091
9628.000000;0.718819
9627.000000;0.718691
9626.000000;0.718655
9625.000000;0.718838
9624.000000;0.719311
9623.000000;0.719882
9622.000000;0.720274
9621.000000;0.720373
9620.000000;0.720190
9619.000000;0.719749
9618.000000;0.719179
9617.000000;0.718761
9616.000000;0.718698
9615.000000;0.718891
9614.000000;0.719055
9613.000000;0.718980
9612.000000;0.718651
9611.000000;0.718253
9610.000000;0.718101
9609.000000;0.718351
9608.000000;0.718714
9607.000000;0.718687
9606.000000;0.718181
9605.000000;0.717657
9604.000000;0.717489
9603.000000;0.717484
9602.000000;0.717268
9601.000000;0.716896
9600.000000;0.716761
9599.000000;0.717013
9598.000000;0.717397
9597.000000;0.717625
9596.000000;0.717660
9595.000000;0.717640
9594.000000;0.717709
9593.000000;0.717922
9592.000000;0.718181
9591.000000;0.718284
9590.000000;0.718112
9589.000000;0.717741
9588.000000;0.717307
9587.000000;0.716878
9586.000000;0.716523
9585.000000;0.716381
9584.000000;0.716499
9583.000000;0.716736
9582.000000;0.716941
9581.000000;0.717139
9580.000000;0.717402
9579.000000;0.717666
9578.000000;0.717808
9577.000000;0.717830
9576.000000;0.717822
9575.000000;0.717833
9574.000000;0.717884
9573.000000;0.717997
9572.000000;0.718111
9571.000000;0.718058
9570.000000;0.717767
9569.000000;0.717393
9568.000000;0.717132
9567.000000;0.717010
9566.000000;0.716967
9565.000000;0.717007
9564.000000;0.717120
9563.000000;0.717163
9562.000000;0.716995
9561.000000;0.716658
9560.000000;0.716288
9559.000000;0.715955
9558.000000;0.715691
9557.000000;0.715591
9556.000000;0.715704
9555.000000;0.715881
9554.000000;0.715884
9553.000000;0.715620
9552.000000;0.715193
9551.000000;0.714793
9550.000000;0.714598
9549.000000;0.714685
9548.000000;0.714931
9547.000000;0.715078
9546.000000;0.715006
9545.000000;0.714860
9544.000000;0.714828
9543.000000;0.714909
9542.000000;0.714993
9541.000000;0.715033
9540.000000;0.715014
9539.000000;0.714862
9538.000000;0.714549
9537.000000;0.714217
9536.000000;0.714048
9535.000000;0.714067
9534.000000;0.714147
9533.000000;0.714158
9532.000000;0.714012
9531.000000;0.713678
9530.000000;0.713256
9529.000000;0.712958
9528.000000;0.712886
9527.000000;0.712935
9526.000000;0.712996
9525.000000;0.713145
9524.000000;0.713479
9523.000000;0.713884
9522.000000;0.714143
9521.000000;0.714218
9520.000000;0.714268
9519.000000;0.714386
9518.000000;0.714461
9517.000000;0.714280
9516.000000;0.713735
9515.000000;0.712965
9514.000000;0.712353
9513.000000;0.712260
9512.000000;0.712679
9511.000000;0.713200
9510.000000;0.713401
9509.000000;0.713201
9508.000000;0.712782
9507.000000;0.712336
9506.000000;0.712009
9505.000000;0.711943
9504.000000;0.712163
9503.000000;0.712459
9502.000000;0.712575
9501.000000;0.712481
9500.000000;0.712354
9499.000000;0.712309
9498.000000;0.712281
9497.000000;0.712171
9496.000000;0.711989
9495.000000;0.711845
9494.000000;0.711839
9493.000000;0.711953
9492.000000;0.712015
9491.000000;0.711868
9490.000000;0.711632
9489.000000;0.711670
9488.000000;0.712174
9487.000000;0.712856
9486.000000;0.713190
9485.000000;0.712938
9484.000000;0.712319
9483.000000;0.711723
9482.000000;0.711398
9481.000000;0.711390
9480.000000;0.711626
9479.000000;0.711944
9478.000000;0.712145
9477.000000;0.712100
9476.000000;0.711827
9475.000000;0.711451
9474.000000;0.711089
9473.000000;0.710794
9472.000000;0.710595
9471.000000;0.710567
9470.000000;0.710768
9469.000000;0.711108
9468.000000;0.711360
9467.000000;0.711395
9466.000000;0.711319
9465.000000;0.711256
9464.000000;0.711098
9463.000000;0.710677
9462.000000;0.710124
9461.000000;0.709812
9460.000000;0.709899
9459.000000;0.710162
9458.000000;0.710342
9457.000000;0.710456
9456.000000;0.710617
9455.000000;0.710758
9454.000000;0.710718
9453.000000;0.710476
9452.000000;0.710154
9451.000000;0.709843
9450.000000;0.709576
9449.000000;0.709391
9448.000000;0.709306
9447.000000;0.709282
9446.000000;0.709296
9445.000000;0.709385
9444.000000;0.709543
9443.000000;0.709674
9442.000000;0.709734
9441.000000;0.709820
9440.000000;0.709996
9439.000000;0.710127
9438.000000;0.710011
9437.000000;0.709630
9436.000000;0.709164
9435.000000;0.708792
9434.000000;0.708565
9433.000000;0.708437
9432.000000;0.708338
9431.000000;0.708245
9430.000000;0.708232
9429.000000;0.708379
9428.000000;0.708611
9427.000000;0.708741
9426.000000;0.708714
9425.000000;0.708687
9424.000000;0.708781
9423.000000;0.708880
9422.000000;0.708818
9421.000000;0.708651
9420.000000;0.708558
9419.000000;0.708544
9418.000000;0.708404
9417.000000;0.708018
9416.000000;0.707529
9415.000000;0.707194
9414.000000;0.707125
9413.000000;0.707219
9412.000000;0.707280
9411.000000;0.707208
9410.000000;0.707082
9409.000000;0.707061
9408.000000;0.707205
9407.000000;0.707404
9406.000000;0.707503
9405.000000;0.707453
9404.000000;0.707337
9403.000000;0.707273
9402.000000;0.707295
9401.000000;0.707300
9400.000000;0.707136
9399.000000;0.706797
9398.000000;0.706482
9397.000000;0.706394
9396.000000;0.706494
9395.000000;0.706568
9394.000000;0.706502
9393.000000;0.706363
9392.000000;0.706241
9391.000000;0.706164
9390.000000;0.706174
9389.000000;0.706316
9388.000000;0.706508
9387.000000;0.706568
9386.000000;0.706470
9385.000000;0.706399
9384.000000;0.706489
9383.000000;0.706611
9382.000000;0.706558
9381.000000;0.706305
9380.000000;0.705979
9379.000000;0.705661
9378.000000;0.705368
9377.000000;0.705165
9376.000000;0.705156
9375.000000;0.705341
9374.000000;0.705581
9373.000000;0.705720
9372.000000;0.705715
9371.000000;0.705651
9370.000000;0.705629
9369.000000;0.705650
9368.000000;0.705604
9367.000000;0.705403
9366.000000;0.705091
9365.000000;0.704785
9364.000000;0.704568
9363.000000;0.704501
9362.000000;0.704645
9361.000000;0.704941
9360.000000;0.705122
9359.000000;0.704930
9358.000000;0.704453
9357.000000;0.704091
9356.000000;0.704148
9355.000000;0.704563
9354.000000;0.705042
9353.000000;0.705327
9352.000000;0.705335
9351.000000;0.705161
9350.000000;0.704996
9349.000000;0.704942
9348.000000;0.704908
9347.000000;0.704786
9346.000000;0.704662
9345.000000;0.704670
9344.000000;0.704685
9343.000000;0.704428
9342.000000;0.703900
9341.000000;0.703449
9340.000000;0.703358
9339.000000;0.703572
9338.000000;0.703918
9337.000000;0.704298
9336.000000;0.704557
9335.000000;0.704456
9334.000000;0.703996
9333.000000;0.703570
9332.000000;0.703540
9331.000000;0.703794
9330.000000;0.703918
9329.000000;0.703714
9328.000000;0.703320
9327.000000;0.702940
9326.000000;0.702714
9325.000000;0.702787
9324.000000;0.703229
9323.000000;0.703841
9322.000000;0.704228
9321.000000;0.704150
9320.000000;0.703695
9319.000000;0.703132
9318.000000;0.702684
9317.000000;0.702441
9316.000000;0.702373
9315.000000;0.702391
9314.000000;0.702444
9313.000000;0.702555
9312.000000;0.702718
9311.000000;0.702799
9310.000000;0.702648
9309.000000;0.702289
9308.000000;0.701926
9307.000000;0.701748
9306.000000;0.701780
9305.000000;0.701926
9304.000000;0.702068
9303.000000;0.702140
9302.000000;0.702149
9301.000000;0.702137
9300.000000;0.702123
9299.000000;0.702075
9298.000000;0.701945
9297.000000;0.701726
9296.000000;0.701476
9295.000000;0.701309
9294.000000;0.701323
9293.000000;0.701468
9292.000000;0.701526
9291.000000;0.701317
9290.000000;0.700945
9289.000000;0.700701
9288.000000;0.700727
9287.000000;0.700874
9286.000000;0.700932
9285.000000;0.700874
9284.000000;0.700801
9283.000000;0.700760
9282.000000;0.700723
9281.000000;0.700679
9280.000000;0.700642
9279.000000;0.700605
9278.000000;0.700552
9277.000000;0.700483
9276.000000;0.700390
9275.000000;0.700240
9274.000000;0.700027
9273.000000;0.699789
9272.000000;0.699557
9271.000000;0.699338
9270.000000;0.699184
9269.000000;0.699218
9268.000000;0.699505
9267.000000;0.699930
9266.000000;0.700242
9265.000000;0.700233
9264.000000;0.699894
9263.000000;0.699436
9262.000000;0.699142
9261.000000;0.699126
9260.000000;0.699237
9259.000000;0.699259
9258.000000;0.699177
9257.000000;0.699156
9256.000000;0.699273
9255.000000;0.699409
9254.000000;0.699427
9253.000000;0.699333
9252.000000;0.699210
9251.000000;0.699079
9250.000000;0.698912
9249.000000;0.698708
9248.000000;0.698493
9247.000000;0.698311
9246.000000;0.698235
9245.000000;0.698340
9244.000000;0.698616
9243.000000;0.698945
9242.000000;0.699202
9241.000000;0.699350
9240.000000;0.699429
9239.000000;0.699497
9238.000000;0.699577
9237.000000;0.699598
9236.000000;0.699431
9235.000000;0.699050
9234.000000;0.698601
9233.000000;0.698245
9232.000000;0.697967
9231.000000;0.697687
9230.000000;0.697496
9229.000000;0.697596
9228.000000;0.697996
9227.000000;0.698436
9226.000000;0.698657
9225.000000;0.698606
9224.000000;0.698343
9223.000000;0.697917
9222.000000;0.697418
9221.000000;0.697010
9220.000000;0.696804
9219.000000;0.696765
9218.000000;0.696802
9217.000000;0.696874
9216.000000;0.696957
9215.000000;0.696988
9214.000000;0.696912
9213.000000;0.696750
9212.000000;0.696579
9211.000000;0.696501
9210.000000;0.696602
9209.000000;0.696846
9208.000000;0.697038
9207.000000;0.696996
9206.000000;0.696786
9205.000000;0.696640
9204.000000;0.696660
9203.000000;0.696726
9202.000000;0.696708
9201.000000;0.696601
9200.000000;0.696438
9199.000000;0.696252
9198.000000;0.696181
9197.000000;0.696406
9196.000000;0.696872
9195.000000;0.697232
9194.000000;0.697207
9193.000000;0.696898
9192.000000;0.696624
9191.000000;0.696537
9190.000000;0.696522
9189.000000;0.696388
9188.000000;0.696080
9187.000000;0.695730
9186.000000;0.695566
9185.000000;0.695717
9184.000000;0.696054
9183.000000;0.696286
9182.000000;0.696244
9181.000000;0.696012
9180.000000;0.695759
9179.000000;0.695551
9178.000000;0.695394
9177.000000;0.695308
9176.000000;0.695296
9175.000000;0.695311
9174.000000;0.695318
9173.000000;0.695320
9172.000000;0.695287
9171.000000;0.695142
9170.000000;0.694896
9169.000000;0.694681
9168.000000;0.694596
9167.000000;0.694603
9166.000000;0.694632
9165.000000;0.694689
9164.000000;0.694783
9163.000000;0.694839
9162.000000;0.694773
9161.000000;0.694613
9160.000000;0.694454
9159.000000;0.694333
9158.000000;0.694215
9157.000000;0.694055
9156.000000;0.693857
9155.000000;0.693686
9154.000000;0.693654
9153.000000;0.693800
9152.000000;0.694012
9151.000000;0.694117
9150.000000;0.694077
9149.000000;0.693985
9148.000000;0.693893
9147.000000;0.693734
9146.000000;0.693487
9145.000000;0.693270
9144.000000;0.693223
9143.000000;0.693345
9142.000000;0.693489
9141.000000;0.693477
9140.000000;0.693212
9139.000000;0.692769
9138.000000;0.692369
9137.000000;0.692179
9136.000000;0.692144
9135.000000;0.692131
9134.000000;0.692163
9133.000000;0.692368
9132.000000;0.692684
9131.000000;0.692829
9130.000000;0.692643
9129.000000;0.692291
9128.000000;0.692042
9127.000000;0.691985
9126.000000;0.692031
9125.000000;0.692085
9124.000000;0.692109
9123.000000;0.692115
9122.000000;0.692178
9121.000000;0.692365
9120.000000;0.692626
9119.000000;0.692811
9118.000000;0.692843
9117.000000;0.692743
9116.000000;0.692522
9115.000000;0.692178
9114.000000;0.691835
9113.000000;0.691694
9112.000000;0.691798
9111.000000;0.691989
9110.000000;0.692150
9109.000000;0.692314
9108.000000;0.692454
9107.000000;0.692384
9106.000000;0.692015
9105.000000;0.691532
9104.000000;0.691183
9103.000000;0.691035
9102.000000;0.691041
9101.000000;0.691191
9100.000000;0.691431
9099.000000;0.691585
9098.000000;0.691550
9097.000000;0.691466
9096.000000;0.691527
9095.000000;0.691698
9094.000000;0.691792
9093.000000;0.691751
9092.000000;0.691664
9091.000000;0.691567
9090.000000;0.691430
9089.000000;0.691286
9088.000000;0.691217
9087.000000;0.691185
9086.000000;0.691071
9085.000000;0.690888
9084.000000;0.690821
9083.000000;0.690988
9082.000000;0.691264
9081.000000;0.691395
9080.000000;0.691249
9079.000000;0.690912
9078.000000;0.690575
9077.000000;0.690361
9076.000000;0.690256
9075.000000;0.690199
9074.000000;0.690181
9073.000000;0.690211
9072.000000;0.690222
9071.000000;0.690111
9070.000000;0.689905
9069.000000;0.689763
9068.000000;0.689772
9067.000000;0.689835
9066.000000;0.689824
9065.000000;0.689750
9064.000000;0.689701
9063.000000;0.689701
9062.000000;0.689716
9061.000000;0.689737
9060.000000;0.689760
9059.000000;0.689732
9058.000000;0.689606
9057.000000;0.689442
9056.000000;0.689349
9055.000000;0.689368
9054.000000;0.689425
9053.000000;0.689399
