Criado como novo conjunto de dados;"2706_e01_daniel.spp","7742.2 Secs"
cm-1;Abs
10000.000000;0.761236
9999.000000;0.761184
9998.000000;0.761141
9997.000000;0.760747
9996.000000;0.760006
9995.000000;0.759234
9994.000000;0.758741
9993.000000;0.758660
9992.000000;0.758981
9991.000000;0.759548
9990.000000;0.760072
9989.000000;0.760316
9988.000000;0.760282
9987.000000;0.760144
9986.000000;0.760027
9985.000000;0.759926
9984.000000;0.759749
9983.000000;0.759358
9982.000000;0.758681
9981.000000;0.757934
9980.000000;0.757628
9979.000000;0.758140
9978.000000;0.759228
9977.000000;0.760130
9976.000000;0.760256
9975.000000;0.759705
9974.000000;0.759049
9973.000000;0.758740
9972.000000;0.758842
9971.000000;0.759223
9970.000000;0.759796
9969.000000;0.760461
9968.000000;0.760949
9967.000000;0.760925
9966.000000;0.760325
9965.000000;0.759504
9964.000000;0.758931
9963.000000;0.758766
9962.000000;0.758815
9961.000000;0.758853
9960.000000;0.758868
9959.000000;0.758937
9958.000000;0.759003
9957.000000;0.758923
9956.000000;0.758727
9955.000000;0.758658
9954.000000;0.758880
9953.000000;0.759201
9952.000000;0.759211
9951.000000;0.758741
9950.000000;0.758081
9949.000000;0.757679
9948.000000;0.757657
9947.000000;0.757718
9946.000000;0.757506
9945.000000;0.756958
9944.000000;0.756284
9943.000000;0.755725
9942.000000;0.755452
9941.000000;0.755600
9940.000000;0.756224
9939.000000;0.757152
9938.000000;0.757986
9937.000000;0.758372
9936.000000;0.758297
9935.000000;0.758082
9934.000000;0.758049
9933.000000;0.758182
9932.000000;0.758160
9931.000000;0.757741
9930.000000;0.757041
9929.000000;0.756396
9928.000000;0.755978
9927.000000;0.755681
9926.000000;0.755359
9925.000000;0.755048
9924.000000;0.754913
9923.000000;0.755076
9922.000000;0.755556
9921.000000;0.756251
9920.000000;0.756923
9919.000000;0.757295
9918.000000;0.757250
9917.000000;0.756905
9916.000000;0.756474
9915.000000;0.756141
9914.000000;0.756051
9913.000000;0.756275
9912.000000;0.756699
9911.000000;0.757078
9910.000000;0.757272
9909.000000;0.757334
9908.000000;0.757288
9907.000000;0.757036
9906.000000;0.756587
9905.000000;0.756193
9904.000000;0.756045
9903.000000;0.755981
9902.000000;0.755702
9901.000000;0.755180
9900.000000;0.754611
9899.000000;0.754109
9898.000000;0.753724
9897.000000;0.753666
9896.000000;0.754134
9895.000000;0.754870
9894.000000;0.755226
9893.000000;0.754845
9892.000000;0.754055
9891.000000;0.753462
9890.000000;0.753370
9889.000000;0.753750
9888.000000;0.754532
9887.000000;0.755604
9886.000000;0.756610
9885.000000;0.757067
9884.000000;0.756803
9883.000000;0.756140
9882.000000;0.755567
9881.000000;0.755282
9880.000000;0.755109
9879.000000;0.754793
9878.000000;0.754297
9877.000000;0.753823
9876.000000;0.753591
9875.000000;0.753653
9874.000000;0.753887
9873.000000;0.754120
9872.000000;0.754239
9871.000000;0.754246
9870.000000;0.754230
9869.000000;0.754246
9868.000000;0.754181
9867.000000;0.753834
9866.000000;0.753211
9865.000000;0.752666
9864.000000;0.752596
9863.000000;0.752988
9862.000000;0.753371
9861.000000;0.753291
9860.000000;0.752768
9859.000000;0.752234
9858.000000;0.752070
9857.000000;0.752255
9856.000000;0.752435
9855.000000;0.752302
9854.000000;0.751919
9853.000000;0.751691
9852.000000;0.752009
9851.000000;0.752878
9850.000000;0.753878
9849.000000;0.754466
9848.000000;0.754334
9847.000000;0.753559
9846.000000;0.752503
9845.000000;0.751561
9844.000000;0.750964
9843.000000;0.750718
9842.000000;0.750700
9841.000000;0.750780
9840.000000;0.750903
9839.000000;0.751116
9838.000000;0.751509
9837.000000;0.752088
9836.000000;0.752686
9835.000000;0.753070
9834.000000;0.753129
9833.000000;0.752942
9832.000000;0.752685
9831.000000;0.752558
9830.000000;0.752728
9829.000000;0.753163
9828.000000;0.753494
9827.000000;0.753273
9826.000000;0.752502
9825.000000;0.751741
9824.000000;0.751549
9823.000000;0.751947
9822.000000;0.752545
9821.000000;0.753051
9820.000000;0.753415
9819.000000;0.753557
9818.000000;0.753266
9817.000000;0.752472
9816.000000;0.751459
9815.000000;0.750681
9814.000000;0.750402
9813.000000;0.750558
9812.000000;0.750909
9811.000000;0.751292
9810.000000;0.751693
9809.000000;0.752070
9808.000000;0.752210
9807.000000;0.751872
9806.000000;0.751117
9805.000000;0.750336
9804.000000;0.749884
9803.000000;0.749803
9802.000000;0.749997
9801.000000;0.750453
9800.000000;0.751109
9799.000000;0.751633
9798.000000;0.751621
9797.000000;0.751023
9796.000000;0.750197
9795.000000;0.749565
9794.000000;0.749340
9793.000000;0.749516
9792.000000;0.749903
9791.000000;0.750188
9790.000000;0.750190
9789.000000;0.750088
9788.000000;0.750194
9787.000000;0.750503
9786.000000;0.750644
9785.000000;0.750362
9784.000000;0.749874
9783.000000;0.749641
9782.000000;0.749890
9781.000000;0.750415
9780.000000;0.750759
9779.000000;0.750596
9778.000000;0.750047
9777.000000;0.749634
9776.000000;0.749791
9775.000000;0.750406
9774.000000;0.750954
9773.000000;0.751053
9772.000000;0.750768
9771.000000;0.750385
9770.000000;0.750136
9769.000000;0.750152
9768.000000;0.750423
9767.000000;0.750720
9766.000000;0.750750
9765.000000;0.750506
9764.000000;0.750292
9763.000000;0.750275
9762.000000;0.750203
9761.000000;0.749727
9760.000000;0.748852
9759.000000;0.747920
9758.000000;0.747273
9757.000000;0.747078
9756.000000;0.747343
9755.000000;0.747865
9754.000000;0.748247
9753.000000;0.748204
9752.000000;0.747895
9751.000000;0.747782
9750.000000;0.748114
9749.000000;0.748659
9748.000000;0.748975
9747.000000;0.748848
9746.000000;0.748436
9745.000000;0.748061
9744.000000;0.747919
9743.000000;0.747987
9742.000000;0.748162
9741.000000;0.748439
9740.000000;0.748847
9739.000000;0.749242
9738.000000;0.749317
9737.000000;0.748931
9736.000000;0.748319
9735.000000;0.747861
9734.000000;0.747699
9733.000000;0.747704
9732.000000;0.747730
9731.000000;0.747735
9730.000000;0.747694
9729.000000;0.747551
9728.000000;0.747310
9727.000000;0.747053
9726.000000;0.746839
9725.000000;0.746701
9724.000000;0.746726
9723.000000;0.747008
9722.000000;0.747480
9721.000000;0.747882
9720.000000;0.748004
9719.000000;0.747894
9718.000000;0.747793
9717.000000;0.747875
9716.000000;0.748093
9715.000000;0.748220
9714.000000;0.748012
9713.000000;0.747414
9712.000000;0.746677
9711.000000;0.746229
9710.000000;0.746360
9709.000000;0.746981
9708.000000;0.747707
9707.000000;0.748147
9706.000000;0.748144
9705.000000;0.747795
9704.000000;0.747313
9703.000000;0.746856
9702.000000;0.746456
9701.000000;0.746081
9700.000000;0.745781
9699.000000;0.745713
9698.000000;0.745967
9697.000000;0.746369
9696.000000;0.746546
9695.000000;0.746265
9694.000000;0.745700
9693.000000;0.745303
9692.000000;0.745381
9691.000000;0.745814
9690.000000;0.746232
9689.000000;0.746426
9688.000000;0.746536
9687.000000;0.746793
9686.000000;0.747160
9685.000000;0.747326
9684.000000;0.747051
9683.000000;0.746430
9682.000000;0.745786
9681.000000;0.745345
9680.000000;0.745087
9679.000000;0.744871
9678.000000;0.744660
9677.000000;0.744589
9676.000000;0.744832
9675.000000;0.745412
9674.000000;0.746080
9673.000000;0.746411
9672.000000;0.746117
9671.000000;0.745333
9670.000000;0.744590
9669.000000;0.744397
9668.000000;0.744824
9667.000000;0.745481
9666.000000;0.745890
9665.000000;0.745837
9664.000000;0.745399
9663.000000;0.744763
9662.000000;0.744133
9661.000000;0.743732
9660.000000;0.743740
9659.000000;0.744164
9658.000000;0.744782
9657.000000;0.745288
9656.000000;0.745483
9655.000000;0.745378
9654.000000;0.745155
9653.000000;0.745036
9652.000000;0.745135
9651.000000;0.745362
9650.000000;0.745463
9649.000000;0.745173
9648.000000;0.744410
9647.000000;0.743393
9646.000000;0.742566
9645.000000;0.742315
9644.000000;0.742667
9643.000000;0.743287
9642.000000;0.743828
9641.000000;0.744233
9640.000000;0.744594
9639.000000;0.744810
9638.000000;0.744627
9637.000000;0.744051
9636.000000;0.743508
9635.000000;0.743410
9634.000000;0.743707
9633.000000;0.744047
9632.000000;0.744247
9631.000000;0.744371
9630.000000;0.744447
9629.000000;0.744396
9628.000000;0.744251
9627.000000;0.744165
9626.000000;0.744113
9625.000000;0.743854
9624.000000;0.743333
9623.000000;0.742892
9622.000000;0.742875
9621.000000;0.743206
9620.000000;0.743578
9619.000000;0.743887
9618.000000;0.744198
9617.000000;0.744383
9616.000000;0.744170
9615.000000;0.743607
9614.000000;0.743156
9613.000000;0.743179
9612.000000;0.743529
9611.000000;0.743802
9610.000000;0.743811
9609.000000;0.743664
9608.000000;0.743514
9607.000000;0.743432
9606.000000;0.743461
9605.000000;0.743606
9604.000000;0.743761
9603.000000;0.743779
9602.000000;0.743628
9601.000000;0.743411
9600.000000;0.743229
9599.000000;0.743101
9598.000000;0.743012
9597.000000;0.742967
9596.000000;0.742989
9595.000000;0.743078
9594.000000;0.743194
9593.000000;0.743262
9592.000000;0.743223
9591.000000;0.743066
9590.000000;0.742800
9589.000000;0.742405
9588.000000;0.741903
9587.000000;0.741451
9586.000000;0.741252
9585.000000;0.741331
9584.000000;0.741510
9583.000000;0.741626
9582.000000;0.741683
9581.000000;0.741752
9580.000000;0.741836
9579.000000;0.741918
9578.000000;0.742019
9577.000000;0.742111
9576.000000;0.742087
9575.000000;0.741941
9574.000000;0.741889
9573.000000;0.742120
9572.000000;0.742505
9571.000000;0.742706
9570.000000;0.742584
9569.000000;0.742336
9568.000000;0.742213
9567.000000;0.742249
9566.000000;0.742279
9565.000000;0.742121
9564.000000;0.741715
9563.000000;0.741177
9562.000000;0.740747
9561.000000;0.740600
9560.000000;0.740687
9559.000000;0.740826
9558.000000;0.740927
9557.000000;0.741038
9556.000000;0.741189
9555.000000;0.741302
9554.000000;0.741300
9553.000000;0.741167
9552.000000;0.740902
9551.000000;0.740533
9550.000000;0.740223
9549.000000;0.740239
9548.000000;0.740690
9547.000000;0.741325
9546.000000;0.741696
9545.000000;0.741549
9544.000000;0.741040
9543.000000;0.740566
9542.000000;0.740426
9541.000000;0.740619
9540.000000;0.740909
9539.000000;0.741064
9538.000000;0.741006
9537.000000;0.740824
9536.000000;0.740713
9535.000000;0.740877
9534.000000;0.741329
9533.000000;0.741745
9532.000000;0.741675
9531.000000;0.741020
9530.000000;0.740184
9529.000000;0.739624
9528.000000;0.739380
9527.000000;0.739217
9526.000000;0.739099
9525.000000;0.739221
9524.000000;0.739580
9523.000000;0.739853
9522.000000;0.739814
9521.000000;0.739657
9520.000000;0.739708
9519.000000;0.739972
9518.000000;0.740164
9517.000000;0.740115
9516.000000;0.739980
9515.000000;0.740019
9514.000000;0.740288
9513.000000;0.740583
9512.000000;0.740644
9511.000000;0.740408
9510.000000;0.740080
9509.000000;0.739929
9508.000000;0.740045
9507.000000;0.740298
9506.000000;0.740522
9505.000000;0.740622
9504.000000;0.740540
9503.000000;0.740243
9502.000000;0.739830
9501.000000;0.739529
9500.000000;0.739506
9499.000000;0.739688
9498.000000;0.739843
9497.000000;0.739798
9496.000000;0.739556
9495.000000;0.739247
9494.000000;0.738998
9493.000000;0.738851
9492.000000;0.738772
9491.000000;0.738747
9490.000000;0.738815
9489.000000;0.738959
9488.000000;0.739021
9487.000000;0.738876
9486.000000;0.738672
9485.000000;0.738748
9484.000000;0.739242
9483.000000;0.739869
9482.000000;0.740180
9481.000000;0.739970
9480.000000;0.739384
9479.000000;0.738731
9478.000000;0.738265
9477.000000;0.738088
9476.000000;0.738142
9475.000000;0.738290
9474.000000;0.738437
9473.000000;0.738565
9472.000000;0.738655
9471.000000;0.738678
9470.000000;0.738658
9469.000000;0.738659
9468.000000;0.738659
9467.000000;0.738556
9466.000000;0.738368
9465.000000;0.738284
9464.000000;0.738425
9463.000000;0.738632
9462.000000;0.738649
9461.000000;0.738434
9460.000000;0.738172
9459.000000;0.738012
9458.000000;0.737941
9457.000000;0.737898
9456.000000;0.737876
9455.000000;0.737878
9454.000000;0.737892
9453.000000;0.737937
9452.000000;0.738037
9451.000000;0.738107
9450.000000;0.737980
9449.000000;0.737640
9448.000000;0.737344
9447.000000;0.737419
9446.000000;0.737916
9445.000000;0.738542
9444.000000;0.738927
9443.000000;0.738928
9442.000000;0.738687
9441.000000;0.738429
9440.000000;0.738258
9439.000000;0.738110
9438.000000;0.737864
9437.000000;0.737496
9436.000000;0.737130
9435.000000;0.736946
9434.000000;0.737016
9433.000000;0.737219
9432.000000;0.737343
9431.000000;0.737269
9430.000000;0.737059
9429.000000;0.736866
9428.000000;0.736804
9427.000000;0.736902
9426.000000;0.737103
9425.000000;0.737258
9424.000000;0.737196
9423.000000;0.736880
9422.000000;0.736498
9421.000000;0.736322
9420.000000;0.736463
9419.000000;0.736787
9418.000000;0.737056
9417.000000;0.737089
9416.000000;0.736839
9415.000000;0.736415
9414.000000;0.736021
9413.000000;0.735814
9412.000000;0.735770
9411.000000;0.735728
9410.000000;0.735596
9409.000000;0.735468
9408.000000;0.735536
9407.000000;0.735904
9406.000000;0.736462
9405.000000;0.736909
9404.000000;0.736974
9403.000000;0.736677
9402.000000;0.736357
9401.000000;0.736328
9400.000000;0.736528
9399.000000;0.736589
9398.000000;0.736293
9397.000000;0.735830
9396.000000;0.735575
9395.000000;0.735682
9394.000000;0.735964
9393.000000;0.736110
9392.000000;0.735965
9391.000000;0.735634
9390.000000;0.735381
9389.000000;0.735411
9388.000000;0.735708
9387.000000;0.736066
9386.000000;0.736274
9385.000000;0.736283
9384.000000;0.736182
9383.000000;0.736062
9382.000000;0.735912
9381.000000;0.735667
9380.000000;0.735366
9379.000000;0.735208
9378.000000;0.735361
9377.000000;0.735704
9376.000000;0.735865
9375.000000;0.735629
9374.000000;0.735195
9373.000000;0.734947
9372.000000;0.735020
9371.000000;0.735236
9370.000000;0.735409
9369.000000;0.735525
9368.000000;0.735624
9367.000000;0.735680
9366.000000;0.735660
9365.000000;0.735591
9364.000000;0.735501
9363.000000;0.735385
9362.000000;0.735247
9361.000000;0.735104
9360.000000;0.734923
9359.000000;0.734659
9358.000000;0.734400
9357.000000;0.734351
9356.000000;0.734602
9355.000000;0.734994
9354.000000;0.735289
9353.000000;0.735388
9352.000000;0.735351
9351.000000;0.735261
9350.000000;0.735142
9349.000000;0.734958
9348.000000;0.734674
9347.000000;0.734339
9346.000000;0.734110
9345.000000;0.734105
9344.000000;0.734226
9343.000000;0.734256
9342.000000;0.734173
9341.000000;0.734215
9340.000000;0.734560
9339.000000;0.735046
9338.000000;0.735330
9337.000000;0.735251
9336.000000;0.734943
9335.000000;0.734631
9334.000000;0.734444
9333.000000;0.734376
9332.000000;0.734335
9331.000000;0.734236
9330.000000;0.734077
9329.000000;0.733923
9328.000000;0.733795
9327.000000;0.733631
9326.000000;0.733418
9325.000000;0.733248
9324.000000;0.733207
9323.000000;0.733262
9322.000000;0.733343
9321.000000;0.733453
9320.000000;0.733621
9319.000000;0.733815
9318.000000;0.733993
9317.000000;0.734159
9316.000000;0.734276
9315.000000;0.734197
9314.000000;0.733818
9313.000000;0.733279
9312.000000;0.732872
9311.000000;0.732738
9310.000000;0.732769
9309.000000;0.732824
9308.000000;0.732906
9307.000000;0.733095
9306.000000;0.733387
9305.000000;0.733671
9304.000000;0.733829
9303.000000;0.733805
9302.000000;0.733619
9301.000000;0.733355
9300.000000;0.733124
9299.000000;0.732983
9298.000000;0.732899
9297.000000;0.732823
9296.000000;0.732777
9295.000000;0.732845
9294.000000;0.733052
9293.000000;0.733265
9292.000000;0.733279
9291.000000;0.733017
9290.000000;0.732642
9289.000000;0.732399
9288.000000;0.732375
9287.000000;0.732446
9286.000000;0.732455
9285.000000;0.732387
9284.000000;0.732355
9283.000000;0.732460
9282.000000;0.732688
9281.000000;0.732883
9280.000000;0.732837
9279.000000;0.732479
9278.000000;0.732009
9277.000000;0.731773
9276.000000;0.731936
9275.000000;0.732313
9274.000000;0.732564
9273.000000;0.732518
9272.000000;0.732270
9271.000000;0.732015
9270.000000;0.731853
9269.000000;0.731758
9268.000000;0.731661
9267.000000;0.731554
9266.000000;0.731506
9265.000000;0.731608
9264.000000;0.731870
9263.000000;0.732185
9262.000000;0.732373
9261.000000;0.732273
9260.000000;0.731843
9259.000000;0.731239
9258.000000;0.730791
9257.000000;0.730779
9256.000000;0.731193
9255.000000;0.731737
9254.000000;0.732103
9253.000000;0.732203
9252.000000;0.732137
9251.000000;0.732006
9250.000000;0.731839
9249.000000;0.731646
9248.000000;0.731473
9247.000000;0.731364
9246.000000;0.731305
9245.000000;0.731226
9244.000000;0.731069
9243.000000;0.730879
9242.000000;0.730793
9241.000000;0.730903
9240.000000;0.731130
9239.000000;0.731280
9238.000000;0.731227
9237.000000;0.731009
9236.000000;0.730742
9235.000000;0.730552
9234.000000;0.730562
9233.000000;0.730825
9232.000000;0.731218
9231.000000;0.731490
9230.000000;0.731507
9229.000000;0.731389
9228.000000;0.731302
9227.000000;0.731202
9226.000000;0.730900
9225.000000;0.730367
9224.000000;0.729834
9223.000000;0.729560
9222.000000;0.729557
9221.000000;0.729619
9220.000000;0.729566
9219.000000;0.729410
9218.000000;0.729306
9217.000000;0.729371
9216.000000;0.729589
9215.000000;0.729839
9214.000000;0.729991
9213.000000;0.729965
9212.000000;0.729747
9211.000000;0.729406
9210.000000;0.729075
9209.000000;0.728863
9208.000000;0.728763
9207.000000;0.728696
9206.000000;0.728655
9205.000000;0.728748
9204.000000;0.729062
9203.000000;0.729494
9202.000000;0.729778
9201.000000;0.729701
9200.000000;0.729280
9199.000000;0.728759
9198.000000;0.728419
9197.000000;0.728386
9196.000000;0.728580
9195.000000;0.728815
9194.000000;0.728932
9193.000000;0.728882
9192.000000;0.728743
9191.000000;0.728677
9190.000000;0.728789
9189.000000;0.728992
9188.000000;0.729069
9187.000000;0.728926
9186.000000;0.728723
9185.000000;0.728665
9184.000000;0.728716
9183.000000;0.728647
9182.000000;0.728351
9181.000000;0.728003
9180.000000;0.727860
9179.000000;0.728008
9178.000000;0.728322
9177.000000;0.728603
9176.000000;0.728681
9175.000000;0.728489
9174.000000;0.728111
9173.000000;0.727757
9172.000000;0.727601
9171.000000;0.727647
9170.000000;0.727741
9169.000000;0.727728
9168.000000;0.727601
9167.000000;0.727534
9166.000000;0.727726
9165.000000;0.728181
9164.000000;0.728645
9163.000000;0.728824
9162.000000;0.728650
9161.000000;0.728301
9160.000000;0.728004
9159.000000;0.727890
9158.000000;0.727988
9157.000000;0.728221
9156.000000;0.728411
9155.000000;0.728423
9154.000000;0.728304
9153.000000;0.728210
9152.000000;0.728173
9151.000000;0.728083
9150.000000;0.727899
9149.000000;0.727744
9148.000000;0.727708
9147.000000;0.727707
9146.000000;0.727627
9145.000000;0.727497
9144.000000;0.727425
9143.000000;0.727434
9142.000000;0.727478
9141.000000;0.727538
9140.000000;0.727630
9139.000000;0.727728
9138.000000;0.727775
9137.000000;0.727727
9136.000000;0.727560
9135.000000;0.727288
9134.000000;0.727014
9133.000000;0.726891
9132.000000;0.726939
9131.000000;0.726989
9130.000000;0.726864
9129.000000;0.726606
9128.000000;0.726420
9127.000000;0.726452
9126.000000;0.726670
9125.000000;0.726927
9124.000000;0.727077
9123.000000;0.727062
9122.000000;0.726980
9121.000000;0.727002
9120.000000;0.727182
9119.000000;0.727367
9118.000000;0.727358
9117.000000;0.727148
9116.000000;0.726921
9115.000000;0.726841
9114.000000;0.726905
9113.000000;0.726982
9112.000000;0.726948
9111.000000;0.726797
9110.000000;0.726648
9109.000000;0.726625
9108.000000;0.726709
9107.000000;0.726744
9106.000000;0.726622
9105.000000;0.726402
9104.000000;0.726219
9103.000000;0.726138
9102.000000;0.726139
9101.000000;0.726181
9100.000000;0.726217
9099.000000;0.726205
9098.000000;0.726154
9097.000000;0.726117
9096.000000;0.726096
9095.000000;0.726017
9094.000000;0.725856
9093.000000;0.725701
9092.000000;0.725629
9091.000000;0.725598
9090.000000;0.725538
9089.000000;0.725471
9088.000000;0.725446
9087.000000;0.725436
9086.000000;0.725409
9085.000000;0.725431
9084.000000;0.725576
9083.000000;0.725775
9082.000000;0.725873
9081.000000;0.725817
9080.000000;0.725648
9079.000000;0.725367
9078.000000;0.724935
9077.000000;0.724420
9076.000000;0.723999
9075.000000;0.723771
9074.000000;0.723685
9073.000000;0.723681
9072.000000;0.723778
9071.000000;0.723989
9070.000000;0.724237
9069.000000;0.724436
9068.000000;0.724603
9067.000000;0.724836
9066.000000;0.725194
9065.000000;0.725633
9064.000000;0.726001
9063.000000;0.726109
9062.000000;0.725878
9061.000000;0.725436
9060.000000;0.725014
9059.000000;0.724737
9058.000000;0.724555
9057.000000;0.724375
9056.000000;0.724184
9055.000000;0.724036
9054.000000;0.723978
9053.000000;0.724019
