Criado como novo conjunto de dados;"2706_e01_daniel.spp","43924.3 Secs"
cm-1;Abs
10000.000000;0.872604
9999.000000;0.872961
9998.000000;0.873321
9997.000000;0.873680
9996.000000;0.873992
9995.000000;0.873966
9994.000000;0.873516
9993.000000;0.873018
9992.000000;0.872920
9991.000000;0.873312
9990.000000;0.873834
9989.000000;0.874102
9988.000000;0.874061
9987.000000;0.873921
9986.000000;0.873827
9985.000000;0.873711
9984.000000;0.873468
9983.000000;0.873197
9982.000000;0.873150
9981.000000;0.873434
9980.000000;0.873838
9979.000000;0.874062
9978.000000;0.874047
9977.000000;0.873937
9976.000000;0.873741
9975.000000;0.873256
9974.000000;0.872443
9973.000000;0.871715
9972.000000;0.871626
9971.000000;0.872222
9970.000000;0.872888
9969.000000;0.872963
9968.000000;0.872446
9967.000000;0.871976
9966.000000;0.872115
9965.000000;0.872760
9964.000000;0.873274
9963.000000;0.873119
9962.000000;0.872291
9961.000000;0.871200
9960.000000;0.870263
9959.000000;0.869652
9958.000000;0.869329
9957.000000;0.869214
9956.000000;0.869297
9955.000000;0.869586
9954.000000;0.869951
9953.000000;0.870085
9952.000000;0.869731
9951.000000;0.868994
9950.000000;0.868341
9949.000000;0.868192
9948.000000;0.868540
9947.000000;0.868992
9946.000000;0.869161
9945.000000;0.868935
9944.000000;0.868444
9943.000000;0.867890
9942.000000;0.867459
9941.000000;0.867310
9940.000000;0.867499
9939.000000;0.867899
9938.000000;0.868240
9937.000000;0.868291
9936.000000;0.868016
9935.000000;0.867580
9934.000000;0.867191
9933.000000;0.866956
9932.000000;0.866858
9931.000000;0.866824
9930.000000;0.866813
9929.000000;0.866864
9928.000000;0.867057
9927.000000;0.867419
9926.000000;0.867827
9925.000000;0.868087
9924.000000;0.868150
9923.000000;0.868193
9922.000000;0.868403
9921.000000;0.868705
9920.000000;0.868810
9919.000000;0.868520
9918.000000;0.867935
9917.000000;0.867340
9916.000000;0.866956
9915.000000;0.866790
9914.000000;0.866666
9913.000000;0.866375
9912.000000;0.865902
9911.000000;0.865507
9910.000000;0.865482
9909.000000;0.865758
9908.000000;0.865854
9907.000000;0.865347
9906.000000;0.864394
9905.000000;0.863677
9904.000000;0.863761
9903.000000;0.864550
9902.000000;0.865389
9901.000000;0.865693
9900.000000;0.865431
9899.000000;0.865005
9898.000000;0.864748
9897.000000;0.864628
9896.000000;0.864429
9895.000000;0.864084
9894.000000;0.863759
9893.000000;0.863688
9892.000000;0.863982
9891.000000;0.864514
9890.000000;0.864936
9889.000000;0.864883
9888.000000;0.864306
9887.000000;0.863567
9886.000000;0.863075
9885.000000;0.862860
9884.000000;0.862612
9883.000000;0.862128
9882.000000;0.861570
9881.000000;0.861272
9880.000000;0.861418
9879.000000;0.861921
9878.000000;0.862496
9877.000000;0.862813
9876.000000;0.862723
9875.000000;0.862375
9874.000000;0.862043
9873.000000;0.861801
9872.000000;0.861483
9871.000000;0.860971
9870.000000;0.860406
9869.000000;0.860050
9868.000000;0.860032
9867.000000;0.860290
9866.000000;0.860676
9865.000000;0.861033
9864.000000;0.861246
9863.000000;0.861288
9862.000000;0.861199
9861.000000;0.861018
9860.000000;0.860770
9859.000000;0.860528
9858.000000;0.860391
9857.000000;0.860365
9856.000000;0.860357
9855.000000;0.860313
9854.000000;0.860256
9853.000000;0.860173
9852.000000;0.860003
9851.000000;0.859781
9850.000000;0.859703
9849.000000;0.859946
9848.000000;0.860473
9847.000000;0.861068
9846.000000;0.861483
9845.000000;0.861538
9844.000000;0.861198
9843.000000;0.860654
9842.000000;0.860234
9841.000000;0.860149
9840.000000;0.860326
9839.000000;0.860499
9838.000000;0.860420
9837.000000;0.860021
9836.000000;0.859493
9835.000000;0.859254
9834.000000;0.859639
9833.000000;0.860496
9832.000000;0.861171
9831.000000;0.861084
9830.000000;0.860317
9829.000000;0.859547
9828.000000;0.859330
9827.000000;0.859511
9826.000000;0.859381
9825.000000;0.858477
9824.000000;0.857216
9823.000000;0.856583
9822.000000;0.857097
9821.000000;0.858236
9820.000000;0.859064
9819.000000;0.859281
9818.000000;0.859317
9817.000000;0.859442
9816.000000;0.859328
9815.000000;0.858698
9814.000000;0.857946
9813.000000;0.857686
9812.000000;0.857908
9811.000000;0.858036
9810.000000;0.857724
9809.000000;0.857221
9808.000000;0.856922
9807.000000;0.856901
9806.000000;0.856969
9805.000000;0.856905
9804.000000;0.856561
9803.000000;0.855948
9802.000000;0.855348
9801.000000;0.855171
9800.000000;0.855574
9799.000000;0.856291
9798.000000;0.856872
9797.000000;0.857011
9796.000000;0.856659
9795.000000;0.855955
9794.000000;0.855138
9793.000000;0.854392
9792.000000;0.853742
9791.000000;0.853167
9790.000000;0.852810
9789.000000;0.852918
9788.000000;0.853511
9787.000000;0.854245
9786.000000;0.854705
9785.000000;0.854775
9784.000000;0.854660
9783.000000;0.854627
9782.000000;0.854793
9781.000000;0.855075
9780.000000;0.855267
9779.000000;0.855169
9778.000000;0.854738
9777.000000;0.854124
9776.000000;0.853582
9775.000000;0.853344
9774.000000;0.853522
9773.000000;0.854015
9772.000000;0.854499
9771.000000;0.854610
9770.000000;0.854229
9769.000000;0.853571
9768.000000;0.852946
9767.000000;0.852499
9766.000000;0.852197
9765.000000;0.852043
9764.000000;0.852200
9763.000000;0.852834
9762.000000;0.853812
9761.000000;0.854646
9760.000000;0.854841
9759.000000;0.854351
9758.000000;0.853595
9757.000000;0.853012
9756.000000;0.852678
9755.000000;0.852408
9754.000000;0.852069
9753.000000;0.851680
9752.000000;0.851297
9751.000000;0.850998
9750.000000;0.850906
9749.000000;0.851045
9748.000000;0.851201
9747.000000;0.851091
9746.000000;0.850706
9745.000000;0.850332
9744.000000;0.850241
9743.000000;0.850480
9742.000000;0.850940
9741.000000;0.851466
9740.000000;0.851859
9739.000000;0.851962
9738.000000;0.851833
9737.000000;0.851705
9736.000000;0.851707
9735.000000;0.851711
9734.000000;0.851518
9733.000000;0.851110
9732.000000;0.850665
9731.000000;0.850406
9730.000000;0.850427
9729.000000;0.850600
9728.000000;0.850655
9727.000000;0.850494
9726.000000;0.850405
9725.000000;0.850731
9724.000000;0.851304
9723.000000;0.851456
9722.000000;0.850771
9721.000000;0.849641
9720.000000;0.848879
9719.000000;0.848869
9718.000000;0.849327
9717.000000;0.849762
9716.000000;0.849953
9715.000000;0.849953
9714.000000;0.849865
9713.000000;0.849734
9712.000000;0.849593
9711.000000;0.849501
9710.000000;0.849497
9709.000000;0.849548
9708.000000;0.849543
9707.000000;0.849413
9706.000000;0.849216
9705.000000;0.849045
9704.000000;0.848865
9703.000000;0.848558
9702.000000;0.848145
9701.000000;0.847815
9700.000000;0.847683
9699.000000;0.847675
9698.000000;0.847737
9697.000000;0.847962
9696.000000;0.848343
9695.000000;0.848565
9694.000000;0.848299
9693.000000;0.847650
9692.000000;0.847082
9691.000000;0.846892
9690.000000;0.846968
9689.000000;0.847044
9688.000000;0.847006
9687.000000;0.846877
9686.000000;0.846698
9685.000000;0.846526
9684.000000;0.846423
9683.000000;0.846359
9682.000000;0.846204
9681.000000;0.845911
9680.000000;0.845627
9679.000000;0.845544
9678.000000;0.845674
9677.000000;0.845843
9676.000000;0.845856
9675.000000;0.845627
9674.000000;0.845220
9673.000000;0.844819
9672.000000;0.844634
9671.000000;0.844740
9670.000000;0.845031
9669.000000;0.845337
9668.000000;0.845588
9667.000000;0.845829
9666.000000;0.846095
9665.000000;0.846290
9664.000000;0.846205
9663.000000;0.845706
9662.000000;0.844939
9661.000000;0.844332
9660.000000;0.844259
9659.000000;0.844689
9658.000000;0.845187
9657.000000;0.845343
9656.000000;0.845137
9655.000000;0.844877
9654.000000;0.844852
9653.000000;0.845100
9652.000000;0.845453
9651.000000;0.845686
9650.000000;0.845601
9649.000000;0.845060
9648.000000;0.844051
9647.000000;0.842777
9646.000000;0.841651
9645.000000;0.841069
9644.000000;0.841104
9643.000000;0.841428
9642.000000;0.841627
9641.000000;0.841603
9640.000000;0.841613
9639.000000;0.841913
9638.000000;0.842463
9637.000000;0.843005
9636.000000;0.843300
9635.000000;0.843227
9634.000000;0.842770
9633.000000;0.842081
9632.000000;0.841525
9631.000000;0.841488
9630.000000;0.842032
9629.000000;0.842801
9628.000000;0.843297
9627.000000;0.843303
9626.000000;0.843026
9625.000000;0.842882
9624.000000;0.843129
9623.000000;0.843640
9622.000000;0.843975
9621.000000;0.843722
9620.000000;0.842832
9619.000000;0.841671
9618.000000;0.840711
9617.000000;0.840194
9616.000000;0.840090
9615.000000;0.840312
9614.000000;0.840851
9613.000000;0.841664
9612.000000;0.842509
9611.000000;0.843039
9610.000000;0.843081
9609.000000;0.842742
9608.000000;0.842242
9607.000000;0.841728
9606.000000;0.841299
9605.000000;0.841056
9604.000000;0.841028
9603.000000;0.841085
9602.000000;0.841057
9601.000000;0.840923
9600.000000;0.840772
9599.000000;0.840616
9598.000000;0.840406
9597.000000;0.840221
9596.000000;0.840297
9595.000000;0.840755
9594.000000;0.841402
9593.000000;0.841885
9592.000000;0.841945
9591.000000;0.841498
9590.000000;0.840608
9589.000000;0.839557
9588.000000;0.838822
9587.000000;0.838789
9586.000000;0.839407
9585.000000;0.840213
9584.000000;0.840706
9583.000000;0.840642
9582.000000;0.840071
9581.000000;0.839276
9580.000000;0.838688
9579.000000;0.838633
9578.000000;0.839010
9577.000000;0.839340
9576.000000;0.839263
9575.000000;0.838938
9574.000000;0.838815
9573.000000;0.839088
9572.000000;0.839516
9571.000000;0.839761
9570.000000;0.839724
9569.000000;0.839510
9568.000000;0.839235
9567.000000;0.838985
9566.000000;0.838850
9565.000000;0.838825
9564.000000;0.838753
9563.000000;0.838494
9562.000000;0.838170
9561.000000;0.838060
9560.000000;0.838215
9559.000000;0.838322
9558.000000;0.838072
9557.000000;0.837574
9556.000000;0.837240
9555.000000;0.837285
9554.000000;0.837478
9553.000000;0.837442
9552.000000;0.837058
9551.000000;0.836538
9550.000000;0.836168
9549.000000;0.836091
9548.000000;0.836270
9547.000000;0.836542
9546.000000;0.836711
9545.000000;0.836679
9544.000000;0.836542
9543.000000;0.836507
9542.000000;0.836639
9541.000000;0.836709
9540.000000;0.836382
9539.000000;0.835606
9538.000000;0.834773
9537.000000;0.834394
9536.000000;0.834619
9535.000000;0.835105
9534.000000;0.835394
9533.000000;0.835326
9532.000000;0.835058
9531.000000;0.834765
9530.000000;0.834496
9529.000000;0.834298
9528.000000;0.834311
9527.000000;0.834634
9526.000000;0.835122
9525.000000;0.835443
9524.000000;0.835358
9523.000000;0.834980
9522.000000;0.834717
9521.000000;0.834906
9520.000000;0.835425
9519.000000;0.835721
9518.000000;0.835354
9517.000000;0.834507
9516.000000;0.833810
9515.000000;0.833647
9514.000000;0.833805
9513.000000;0.833849
9512.000000;0.833665
9511.000000;0.833491
9510.000000;0.833533
9509.000000;0.833764
9508.000000;0.834021
9507.000000;0.834141
9506.000000;0.834015
9505.000000;0.833689
9504.000000;0.833401
9503.000000;0.833340
9502.000000;0.833387
9501.000000;0.833261
9500.000000;0.832947
9499.000000;0.832775
9498.000000;0.832982
9497.000000;0.833407
9496.000000;0.833741
9495.000000;0.833895
9494.000000;0.833948
9493.000000;0.833863
9492.000000;0.833510
9491.000000;0.832956
9490.000000;0.832528
9489.000000;0.832514
9488.000000;0.832903
9487.000000;0.833420
9486.000000;0.833737
9485.000000;0.833635
9484.000000;0.833089
9483.000000;0.832279
9482.000000;0.831499
9481.000000;0.830994
9480.000000;0.830850
9479.000000;0.830991
9478.000000;0.831213
9477.000000;0.831286
9476.000000;0.831131
9475.000000;0.830894
9474.000000;0.830773
9473.000000;0.830754
9472.000000;0.830617
9471.000000;0.830233
9470.000000;0.829745
9469.000000;0.829418
9468.000000;0.829381
9467.000000;0.829572
9466.000000;0.829852
9465.000000;0.830079
9464.000000;0.830138
9463.000000;0.829994
9462.000000;0.829714
9461.000000;0.829396
9460.000000;0.829092
9459.000000;0.828853
9458.000000;0.828788
9457.000000;0.828973
9456.000000;0.829333
9455.000000;0.829701
9454.000000;0.830004
9453.000000;0.830312
9452.000000;0.830663
9451.000000;0.830937
9450.000000;0.830951
9449.000000;0.830642
9448.000000;0.830142
9447.000000;0.829676
9446.000000;0.829409
9445.000000;0.829343
9444.000000;0.829352
9443.000000;0.829325
9442.000000;0.829279
9441.000000;0.829295
9440.000000;0.829371
9439.000000;0.829400
9438.000000;0.829307
9437.000000;0.829114
9436.000000;0.828864
9435.000000;0.828586
9434.000000;0.828360
9433.000000;0.828287
9432.000000;0.828282
9431.000000;0.828056
9430.000000;0.827466
9429.000000;0.826828
9428.000000;0.826659
9427.000000;0.827072
9426.000000;0.827624
9425.000000;0.827833
9424.000000;0.827692
9423.000000;0.827533
9422.000000;0.827533
9421.000000;0.827563
9420.000000;0.827471
9419.000000;0.827295
9418.000000;0.827129
9417.000000;0.826953
9416.000000;0.826705
9415.000000;0.826433
9414.000000;0.826256
9413.000000;0.826186
9412.000000;0.826091
9411.000000;0.825860
9410.000000;0.825560
9409.000000;0.825386
9408.000000;0.825484
9407.000000;0.825819
9406.000000;0.826198
9405.000000;0.826407
9404.000000;0.826363
9403.000000;0.826145
9402.000000;0.825889
9401.000000;0.825631
9400.000000;0.825295
9399.000000;0.824838
9398.000000;0.824371
9397.000000;0.824094
9396.000000;0.824118
9395.000000;0.824390
9394.000000;0.824750
9393.000000;0.825030
9392.000000;0.825101
9391.000000;0.824941
9390.000000;0.824694
9389.000000;0.824597
9388.000000;0.824752
9387.000000;0.824960
9386.000000;0.824887
9385.000000;0.824421
9384.000000;0.823836
9383.000000;0.823541
9382.000000;0.823670
9381.000000;0.823960
9380.000000;0.824037
9379.000000;0.823823
9378.000000;0.823613
9377.000000;0.823738
9376.000000;0.824197
9375.000000;0.824664
9374.000000;0.824828
9373.000000;0.824648
9372.000000;0.824296
9371.000000;0.823939
9370.000000;0.823661
9369.000000;0.823502
9368.000000;0.823484
9367.000000;0.823573
9366.000000;0.823691
9365.000000;0.823751
9364.000000;0.823692
9363.000000;0.823517
9362.000000;0.823348
9361.000000;0.823359
9360.000000;0.823583
9359.000000;0.823811
9358.000000;0.823785
9357.000000;0.823495
9356.000000;0.823149
9355.000000;0.822879
9354.000000;0.822600
9353.000000;0.822207
9352.000000;0.821796
9351.000000;0.821562
9350.000000;0.821561
9349.000000;0.821652
9348.000000;0.821680
9347.000000;0.821644
9346.000000;0.821651
9345.000000;0.821760
9344.000000;0.821866
9343.000000;0.821754
9342.000000;0.821286
9341.000000;0.820569
9340.000000;0.819905
9339.000000;0.819570
9338.000000;0.819622
9337.000000;0.819895
9336.000000;0.820137
9335.000000;0.820180
9334.000000;0.820048
9333.000000;0.819929
9332.000000;0.820005
9331.000000;0.820308
9330.000000;0.820731
9329.000000;0.821132
9328.000000;0.821353
9327.000000;0.821230
9326.000000;0.820745
9325.000000;0.820187
9324.000000;0.819958
9323.000000;0.820146
9322.000000;0.820395
9321.000000;0.820330
9320.000000;0.819968
9319.000000;0.819613
9318.000000;0.819427
9317.000000;0.819309
9316.000000;0.819161
9315.000000;0.819050
9314.000000;0.819054
9313.000000;0.819096
9312.000000;0.819044
9311.000000;0.818901
9310.000000;0.818790
9309.000000;0.818761
9308.000000;0.818705
9307.000000;0.818503
9306.000000;0.818212
9305.000000;0.818029
9304.000000;0.818069
9303.000000;0.818222
9302.000000;0.818289
9301.000000;0.818209
9300.000000;0.818080
9299.000000;0.817950
9298.000000;0.817720
9297.000000;0.817326
9296.000000;0.816937
9295.000000;0.816843
9294.000000;0.817150
9293.000000;0.817653
9292.000000;0.818017
9291.000000;0.818044
9290.000000;0.817774
9289.000000;0.817386
9288.000000;0.817027
9287.000000;0.816728
9286.000000;0.816474
9285.000000;0.816325
9284.000000;0.816378
9283.000000;0.816604
9282.000000;0.816798
9281.000000;0.816784
9280.000000;0.816618
9279.000000;0.816498
9278.000000;0.816533
9277.000000;0.816669
9276.000000;0.816818
9275.000000;0.816925
9274.000000;0.816923
9273.000000;0.816759
9272.000000;0.816505
9271.000000;0.816349
9270.000000;0.816404
9269.000000;0.816571
9268.000000;0.816640
9267.000000;0.816502
9266.000000;0.816210
9265.000000;0.815906
9264.000000;0.815722
9263.000000;0.815695
9262.000000;0.815703
9261.000000;0.815532
9260.000000;0.815090
9259.000000;0.814568
9258.000000;0.814308
9257.000000;0.814456
9256.000000;0.814798
9255.000000;0.814988
9254.000000;0.814930
9253.000000;0.814863
9252.000000;0.815058
9251.000000;0.815510
9250.000000;0.815945
9249.000000;0.816095
9248.000000;0.815881
9247.000000;0.815383
9246.000000;0.814743
9245.000000;0.814151
9244.000000;0.813809
9243.000000;0.813796
9242.000000;0.813981
9241.000000;0.814142
9240.000000;0.814149
9239.000000;0.814006
9238.000000;0.813755
9237.000000;0.813436
9236.000000;0.813117
9235.000000;0.812879
9234.000000;0.812733
9233.000000;0.812637
9232.000000;0.812609
9231.000000;0.812761
9230.000000;0.813148
9229.000000;0.813595
9228.000000;0.813782
9227.000000;0.813548
9226.000000;0.813095
9225.000000;0.812815
9224.000000;0.812914
9223.000000;0.813233
9222.000000;0.813439
9221.000000;0.813345
9220.000000;0.812997
9219.000000;0.812534
9218.000000;0.812058
9217.000000;0.811650
9216.000000;0.811379
9215.000000;0.811263
9214.000000;0.811262
9213.000000;0.811353
9212.000000;0.811545
9211.000000;0.811774
9210.000000;0.811871
9209.000000;0.811723
9208.000000;0.811413
9207.000000;0.811131
9206.000000;0.810975
9205.000000;0.810912
9204.000000;0.810888
9203.000000;0.810873
9202.000000;0.810807
9201.000000;0.810613
9200.000000;0.810327
9199.000000;0.810149
9198.000000;0.810281
9197.000000;0.810712
9196.000000;0.811196
9195.000000;0.811439
9194.000000;0.811326
9193.000000;0.810974
9192.000000;0.810587
9191.000000;0.810291
9190.000000;0.810082
9189.000000;0.809915
9188.000000;0.809757
9187.000000;0.809614
9186.000000;0.809533
9185.000000;0.809584
9184.000000;0.809756
9183.000000;0.809890
9182.000000;0.809827
9181.000000;0.809630
9180.000000;0.809558
9179.000000;0.809762
9178.000000;0.810109
9177.000000;0.810364
9176.000000;0.810450
9175.000000;0.810422
9174.000000;0.810303
9173.000000;0.810060
9172.000000;0.809717
9171.000000;0.809357
9170.000000;0.809044
9169.000000;0.808842
9168.000000;0.808855
9167.000000;0.809112
9166.000000;0.809433
9165.000000;0.809524
9164.000000;0.809245
9163.000000;0.808720
9162.000000;0.808189
9161.000000;0.807850
9160.000000;0.807810
9159.000000;0.808037
9158.000000;0.808335
9157.000000;0.808469
9156.000000;0.808373
9155.000000;0.808192
9154.000000;0.808091
9153.000000;0.808110
9152.000000;0.808175
9151.000000;0.808183
9150.000000;0.808043
9149.000000;0.807757
9148.000000;0.807474
9147.000000;0.807371
9146.000000;0.807403
9145.000000;0.807295
9144.000000;0.806880
9143.000000;0.806354
9142.000000;0.806089
9141.000000;0.806185
9140.000000;0.806354
9139.000000;0.806270
9138.000000;0.805940
9137.000000;0.805670
9136.000000;0.805703
9135.000000;0.806000
9134.000000;0.806362
9133.000000;0.806664
9132.000000;0.806891
9131.000000;0.806995
9130.000000;0.806873
9129.000000;0.806524
9128.000000;0.806130
9127.000000;0.805889
9126.000000;0.805834
9125.000000;0.805867
9124.000000;0.805906
9123.000000;0.805910
9122.000000;0.805831
9121.000000;0.805660
9120.000000;0.805506
9119.000000;0.805505
9118.000000;0.805653
9117.000000;0.805813
9116.000000;0.805897
9115.000000;0.805926
9114.000000;0.805896
9113.000000;0.805739
9112.000000;0.805450
9111.000000;0.805162
9110.000000;0.804995
9109.000000;0.804905
9108.000000;0.804776
9107.000000;0.804595
9106.000000;0.804441
9105.000000;0.804335
9104.000000;0.804166
9103.000000;0.803830
9102.000000;0.803387
9101.000000;0.803070
9100.000000;0.803105
9099.000000;0.803524
9098.000000;0.804127
9097.000000;0.804648
9096.000000;0.804937
9095.000000;0.804977
9094.000000;0.804799
9093.000000;0.804441
9092.000000;0.803998
9091.000000;0.803597
9090.000000;0.803312
9089.000000;0.803132
9088.000000;0.803008
9087.000000;0.802901
9086.000000;0.802764
9085.000000;0.802565
9084.000000;0.802340
9083.000000;0.802171
9082.000000;0.802088
9081.000000;0.802049
9080.000000;0.802034
9079.000000;0.802085
9078.000000;0.802234
9077.000000;0.802408
9076.000000;0.802481
9075.000000;0.802379
9074.000000;0.802131
9073.000000;0.801832
9072.000000;0.801586
9071.000000;0.801437
9070.000000;0.801346
9069.000000;0.801239
9068.000000;0.801103
9067.000000;0.801008
9066.000000;0.801030
9065.000000;0.801160
9064.000000;0.801286
9063.000000;0.801252
9062.000000;0.800959
9061.000000;0.800447
9060.000000;0.799915
9059.000000;0.799606
9058.000000;0.799660
9057.000000;0.800027
9056.000000;0.800492
9055.000000;0.800783
9054.000000;0.800730
9053.000000;0.800394
