Criado como novo conjunto de dados;"2706_e01_daniel.spp","106387.6 Secs"
cm-1;Abs
10000.000000;0.864811
9999.000000;0.864363
9998.000000;0.864426
9997.000000;0.864631
9996.000000;0.864538
9995.000000;0.864276
9994.000000;0.864075
9993.000000;0.864011
9992.000000;0.863963
9991.000000;0.863880
9990.000000;0.863722
9989.000000;0.863458
9988.000000;0.863217
9987.000000;0.863314
9986.000000;0.863903
9985.000000;0.864657
9984.000000;0.864994
9983.000000;0.864665
9982.000000;0.864030
9981.000000;0.863688
9980.000000;0.863852
9979.000000;0.864179
9978.000000;0.864204
9977.000000;0.863859
9976.000000;0.863427
9975.000000;0.863093
9974.000000;0.862784
9973.000000;0.862516
9972.000000;0.862588
9971.000000;0.863197
9970.000000;0.864040
9969.000000;0.864590
9968.000000;0.864694
9967.000000;0.864647
9966.000000;0.864703
9965.000000;0.864797
9964.000000;0.864759
9963.000000;0.864538
9962.000000;0.864146
9961.000000;0.863607
9960.000000;0.863051
9959.000000;0.862694
9958.000000;0.862624
9957.000000;0.862734
9956.000000;0.862876
9955.000000;0.862960
9954.000000;0.862915
9953.000000;0.862733
9952.000000;0.862591
9951.000000;0.862712
9950.000000;0.863054
9949.000000;0.863291
9948.000000;0.863189
9947.000000;0.862823
9946.000000;0.862351
9945.000000;0.861770
9944.000000;0.861006
9943.000000;0.860109
9942.000000;0.859240
9941.000000;0.858577
9940.000000;0.858331
9939.000000;0.858710
9938.000000;0.859688
9937.000000;0.860852
9936.000000;0.861580
9935.000000;0.861444
9934.000000;0.860514
9933.000000;0.859350
9932.000000;0.858661
9931.000000;0.858789
9930.000000;0.859438
9929.000000;0.860004
9928.000000;0.860185
9927.000000;0.860132
9926.000000;0.860082
9925.000000;0.860086
9924.000000;0.860128
9923.000000;0.860201
9922.000000;0.860175
9921.000000;0.859851
9920.000000;0.859312
9919.000000;0.858957
9918.000000;0.859002
9917.000000;0.859138
9916.000000;0.858929
9915.000000;0.858395
9914.000000;0.857925
9913.000000;0.857744
9912.000000;0.857769
9911.000000;0.857904
9910.000000;0.858167
9909.000000;0.858485
9908.000000;0.858640
9907.000000;0.858540
9906.000000;0.858395
9905.000000;0.858489
9904.000000;0.858842
9903.000000;0.859144
9902.000000;0.859024
9901.000000;0.858411
9900.000000;0.857674
9899.000000;0.857334
9898.000000;0.857575
9897.000000;0.858089
9896.000000;0.858442
9895.000000;0.858492
9894.000000;0.858350
9893.000000;0.858081
9892.000000;0.857640
9891.000000;0.857066
9890.000000;0.856525
9889.000000;0.856154
9888.000000;0.855979
9887.000000;0.855997
9886.000000;0.856191
9885.000000;0.856483
9884.000000;0.856785
9883.000000;0.857112
9882.000000;0.857473
9881.000000;0.857694
9880.000000;0.857506
9879.000000;0.856897
9878.000000;0.856205
9877.000000;0.855782
9876.000000;0.855696
9875.000000;0.855825
9874.000000;0.856082
9873.000000;0.856425
9872.000000;0.856733
9871.000000;0.856833
9870.000000;0.856662
9869.000000;0.856331
9868.000000;0.856017
9867.000000;0.855830
9866.000000;0.855754
9865.000000;0.855664
9864.000000;0.855395
9863.000000;0.854876
9862.000000;0.854255
9861.000000;0.853884
9860.000000;0.854092
9859.000000;0.854881
9858.000000;0.855824
9857.000000;0.856335
9856.000000;0.856138
9855.000000;0.855506
9854.000000;0.854999
9853.000000;0.854952
9852.000000;0.855185
9851.000000;0.855177
9850.000000;0.854556
9849.000000;0.853483
9848.000000;0.852552
9847.000000;0.852274
9846.000000;0.852644
9845.000000;0.853219
9844.000000;0.853552
9843.000000;0.853477
9842.000000;0.853051
9841.000000;0.852483
9840.000000;0.852134
9839.000000;0.852318
9838.000000;0.852907
9837.000000;0.853329
9836.000000;0.853182
9835.000000;0.852709
9834.000000;0.852438
9833.000000;0.852485
9832.000000;0.852539
9831.000000;0.852447
9830.000000;0.852434
9829.000000;0.852638
9828.000000;0.852784
9827.000000;0.852571
9826.000000;0.852166
9825.000000;0.852034
9824.000000;0.852339
9823.000000;0.852738
9822.000000;0.852799
9821.000000;0.852483
9820.000000;0.852147
9819.000000;0.852144
9818.000000;0.852463
9817.000000;0.852750
9816.000000;0.852675
9815.000000;0.852228
9814.000000;0.851652
9813.000000;0.851155
9812.000000;0.850808
9811.000000;0.850678
9810.000000;0.850864
9809.000000;0.851326
9808.000000;0.851794
9807.000000;0.851978
9806.000000;0.851782
9805.000000;0.851276
9804.000000;0.850570
9803.000000;0.849846
9802.000000;0.849404
9801.000000;0.849482
9800.000000;0.850006
9799.000000;0.850618
9798.000000;0.851002
9797.000000;0.851123
9796.000000;0.851161
9795.000000;0.851269
9794.000000;0.851415
9793.000000;0.851389
9792.000000;0.850963
9791.000000;0.850117
9790.000000;0.849143
9789.000000;0.848472
9788.000000;0.848378
9787.000000;0.848809
9786.000000;0.849485
9785.000000;0.850127
9784.000000;0.850595
9783.000000;0.850836
9782.000000;0.850754
9781.000000;0.850222
9780.000000;0.849305
9779.000000;0.848424
9778.000000;0.848109
9777.000000;0.848492
9776.000000;0.849126
9775.000000;0.849412
9774.000000;0.849180
9773.000000;0.848727
9772.000000;0.848375
9771.000000;0.848178
9770.000000;0.848059
9769.000000;0.848004
9768.000000;0.848016
9767.000000;0.848008
9766.000000;0.847919
9765.000000;0.847874
9764.000000;0.848057
9763.000000;0.848420
9762.000000;0.848648
9761.000000;0.848510
9760.000000;0.848146
9759.000000;0.847927
9758.000000;0.848050
9757.000000;0.848338
9756.000000;0.848419
9755.000000;0.848067
9754.000000;0.847368
9753.000000;0.846625
9752.000000;0.846163
9751.000000;0.846161
9750.000000;0.846566
9749.000000;0.847101
9748.000000;0.847425
9747.000000;0.847361
9746.000000;0.847044
9745.000000;0.846823
9744.000000;0.846989
9743.000000;0.847545
9742.000000;0.848194
9741.000000;0.848531
9740.000000;0.848276
9739.000000;0.847409
9738.000000;0.846167
9737.000000;0.844937
9736.000000;0.844087
9735.000000;0.843762
9734.000000;0.843817
9733.000000;0.843978
9732.000000;0.844134
9731.000000;0.844421
9730.000000;0.844981
9729.000000;0.845671
9728.000000;0.846125
9727.000000;0.846132
9726.000000;0.845867
9725.000000;0.845681
9724.000000;0.845717
9723.000000;0.845797
9722.000000;0.845670
9721.000000;0.845319
9720.000000;0.844974
9719.000000;0.844853
9718.000000;0.844909
9717.000000;0.844859
9716.000000;0.844495
9715.000000;0.843951
9714.000000;0.843608
9713.000000;0.843732
9712.000000;0.844237
9711.000000;0.844821
9710.000000;0.845239
9709.000000;0.845401
9708.000000;0.845327
9707.000000;0.845127
9706.000000;0.844971
9705.000000;0.844908
9704.000000;0.844724
9703.000000;0.844154
9702.000000;0.843285
9701.000000;0.842617
9700.000000;0.842586
9699.000000;0.843092
9698.000000;0.843616
9697.000000;0.843753
9696.000000;0.843559
9695.000000;0.843419
9694.000000;0.843656
9693.000000;0.844250
9692.000000;0.844865
9691.000000;0.845140
9690.000000;0.844996
9689.000000;0.844633
9688.000000;0.844238
9687.000000;0.843802
9686.000000;0.843306
9685.000000;0.842953
9684.000000;0.842993
9683.000000;0.843323
9682.000000;0.843483
9681.000000;0.843162
9680.000000;0.842549
9679.000000;0.842072
9678.000000;0.841901
9677.000000;0.841836
9676.000000;0.841622
9675.000000;0.841219
9674.000000;0.840783
9673.000000;0.840508
9672.000000;0.840496
9671.000000;0.840696
9670.000000;0.840917
9669.000000;0.840967
9668.000000;0.840794
9667.000000;0.840494
9666.000000;0.840185
9665.000000;0.839948
9664.000000;0.839858
9663.000000;0.839996
9662.000000;0.840350
9661.000000;0.840734
9660.000000;0.840877
9659.000000;0.840636
9658.000000;0.840172
9657.000000;0.839857
9656.000000;0.839959
9655.000000;0.840369
9654.000000;0.840690
9653.000000;0.840666
9652.000000;0.840465
9651.000000;0.840463
9650.000000;0.840760
9649.000000;0.841039
9648.000000;0.840927
9647.000000;0.840388
9646.000000;0.839715
9645.000000;0.839201
9644.000000;0.838927
9643.000000;0.838819
9642.000000;0.838823
9641.000000;0.838957
9640.000000;0.839209
9639.000000;0.839428
9638.000000;0.839371
9637.000000;0.838926
9636.000000;0.838304
9635.000000;0.837951
9634.000000;0.838174
9633.000000;0.838816
9632.000000;0.839356
9631.000000;0.839384
9630.000000;0.838965
9629.000000;0.838516
9628.000000;0.838319
9627.000000;0.838264
9626.000000;0.838079
9625.000000;0.837747
9624.000000;0.837551
9623.000000;0.837691
9622.000000;0.837993
9621.000000;0.838083
9620.000000;0.837819
9619.000000;0.837445
9618.000000;0.837298
9617.000000;0.837443
9616.000000;0.837640
9615.000000;0.837617
9614.000000;0.837327
9613.000000;0.836950
9612.000000;0.836708
9611.000000;0.836715
9610.000000;0.836955
9609.000000;0.837311
9608.000000;0.837583
9607.000000;0.837569
9606.000000;0.837255
9605.000000;0.836901
9604.000000;0.836806
9603.000000;0.836993
9602.000000;0.837218
9601.000000;0.837334
9600.000000;0.837453
9599.000000;0.837671
9598.000000;0.837807
9597.000000;0.837645
9596.000000;0.837320
9595.000000;0.837197
9594.000000;0.837358
9593.000000;0.837474
9592.000000;0.837277
9591.000000;0.836919
9590.000000;0.836695
9589.000000;0.836590
9588.000000;0.836333
9587.000000;0.835835
9586.000000;0.835316
9585.000000;0.834985
9584.000000;0.834778
9583.000000;0.834532
9582.000000;0.834286
9581.000000;0.834277
9580.000000;0.834656
9579.000000;0.835289
9578.000000;0.835871
9577.000000;0.836184
9576.000000;0.836217
9575.000000;0.836085
9574.000000;0.835892
9573.000000;0.835685
9572.000000;0.835476
9571.000000;0.835275
9570.000000;0.835106
9569.000000;0.835026
9568.000000;0.835088
9567.000000;0.835223
9566.000000;0.835204
9565.000000;0.834852
9564.000000;0.834267
9563.000000;0.833793
9562.000000;0.833707
9561.000000;0.834008
9560.000000;0.834497
9559.000000;0.834968
9558.000000;0.835284
9557.000000;0.835382
9556.000000;0.835292
9555.000000;0.835126
9554.000000;0.834978
9553.000000;0.834839
9552.000000;0.834629
9551.000000;0.834296
9550.000000;0.833874
9549.000000;0.833502
9548.000000;0.833367
9547.000000;0.833542
9546.000000;0.833866
9545.000000;0.834083
9544.000000;0.834122
9543.000000;0.834138
9542.000000;0.834223
9541.000000;0.834220
9540.000000;0.833952
9539.000000;0.833498
9538.000000;0.833094
9537.000000;0.832865
9536.000000;0.832816
9535.000000;0.833004
9534.000000;0.833462
9533.000000;0.833953
9532.000000;0.834053
9531.000000;0.833581
9530.000000;0.832807
9529.000000;0.832137
9528.000000;0.831719
9527.000000;0.831477
9526.000000;0.831371
9525.000000;0.831429
9524.000000;0.831556
9523.000000;0.831538
9522.000000;0.831280
9521.000000;0.830929
9520.000000;0.830707
9519.000000;0.830699
9518.000000;0.830849
9517.000000;0.831063
9516.000000;0.831260
9515.000000;0.831339
9514.000000;0.831215
9513.000000;0.830912
9512.000000;0.830584
9511.000000;0.830416
9510.000000;0.830496
9509.000000;0.830783
9508.000000;0.831145
9507.000000;0.831428
9506.000000;0.831528
9505.000000;0.831440
9504.000000;0.831250
9503.000000;0.831038
9502.000000;0.830789
9501.000000;0.830431
9500.000000;0.829952
9499.000000;0.829453
9498.000000;0.829083
9497.000000;0.828938
9496.000000;0.829024
9495.000000;0.829276
9494.000000;0.829620
9493.000000;0.830023
9492.000000;0.830475
9491.000000;0.830913
9490.000000;0.831187
9489.000000;0.831168
9488.000000;0.830877
9487.000000;0.830448
9486.000000;0.829976
9485.000000;0.829479
9484.000000;0.829006
9483.000000;0.828655
9482.000000;0.828464
9481.000000;0.828389
9480.000000;0.828433
9479.000000;0.828666
9478.000000;0.828997
9477.000000;0.829102
9476.000000;0.828760
9475.000000;0.828220
9474.000000;0.827999
9473.000000;0.828324
9472.000000;0.828906
9471.000000;0.829293
9470.000000;0.829270
9469.000000;0.828888
9468.000000;0.828287
9467.000000;0.827647
9466.000000;0.827181
9465.000000;0.826995
9464.000000;0.826969
9463.000000;0.826905
9462.000000;0.826798
9461.000000;0.826851
9460.000000;0.827208
9459.000000;0.827748
9458.000000;0.828182
9457.000000;0.828295
9456.000000;0.828066
9455.000000;0.827644
9454.000000;0.827246
9453.000000;0.827043
9452.000000;0.827025
9451.000000;0.827002
9450.000000;0.826802
9449.000000;0.826495
9448.000000;0.826361
9447.000000;0.826571
9446.000000;0.826974
9445.000000;0.827235
9444.000000;0.827161
9443.000000;0.826807
9442.000000;0.826337
9441.000000;0.825906
9440.000000;0.825659
9439.000000;0.825683
9438.000000;0.825888
9437.000000;0.826005
9436.000000;0.825817
9435.000000;0.825353
9434.000000;0.824837
9433.000000;0.824507
9432.000000;0.824506
9431.000000;0.824849
9430.000000;0.825388
9429.000000;0.825876
9428.000000;0.826133
9427.000000;0.826143
9426.000000;0.825954
9425.000000;0.825606
9424.000000;0.825181
9423.000000;0.824825
9422.000000;0.824585
9421.000000;0.824352
9420.000000;0.824100
9419.000000;0.824050
9418.000000;0.824380
9417.000000;0.824842
9416.000000;0.824944
9415.000000;0.824541
9414.000000;0.824034
9413.000000;0.823906
9412.000000;0.824253
9411.000000;0.824835
9410.000000;0.825376
9409.000000;0.825666
9408.000000;0.825551
9407.000000;0.825025
9406.000000;0.824312
9405.000000;0.823698
9404.000000;0.823303
9403.000000;0.823073
9402.000000;0.822929
9401.000000;0.822831
9400.000000;0.822741
9399.000000;0.822652
9398.000000;0.822633
9397.000000;0.822763
9396.000000;0.823012
9395.000000;0.823238
9394.000000;0.823330
9393.000000;0.823312
9392.000000;0.823328
9391.000000;0.823524
9390.000000;0.823897
9389.000000;0.824233
9388.000000;0.824234
9387.000000;0.823780
9386.000000;0.823062
9385.000000;0.822453
9384.000000;0.822235
9383.000000;0.822413
9382.000000;0.822698
9381.000000;0.822716
9380.000000;0.822349
9379.000000;0.821884
9378.000000;0.821738
9377.000000;0.822000
9376.000000;0.822367
9375.000000;0.822536
9374.000000;0.822502
9373.000000;0.822403
9372.000000;0.822255
9371.000000;0.822001
9370.000000;0.821715
9369.000000;0.821561
9368.000000;0.821588
9367.000000;0.821694
9366.000000;0.821777
9365.000000;0.821781
9364.000000;0.821657
9363.000000;0.821407
9362.000000;0.821170
9361.000000;0.821120
9360.000000;0.821257
9359.000000;0.821405
9358.000000;0.821426
9357.000000;0.821345
9356.000000;0.821239
9355.000000;0.821114
9354.000000;0.820920
9353.000000;0.820639
9352.000000;0.820345
9351.000000;0.820180
9350.000000;0.820259
9349.000000;0.820536
9348.000000;0.820806
9347.000000;0.820918
9346.000000;0.820943
9345.000000;0.821019
9344.000000;0.821089
9343.000000;0.820930
9342.000000;0.820453
9341.000000;0.819820
9340.000000;0.819271
9339.000000;0.818942
9338.000000;0.818859
9337.000000;0.818955
9336.000000;0.819062
9335.000000;0.819051
9334.000000;0.819027
9333.000000;0.819225
9332.000000;0.819611
9331.000000;0.819791
9330.000000;0.819485
9329.000000;0.818962
9328.000000;0.818743
9327.000000;0.818949
9326.000000;0.819176
9325.000000;0.819046
9324.000000;0.818662
9323.000000;0.818399
9322.000000;0.818422
9321.000000;0.818588
9320.000000;0.818708
9319.000000;0.818718
9318.000000;0.818601
9317.000000;0.818333
9316.000000;0.817994
9315.000000;0.817806
9314.000000;0.817921
9313.000000;0.818199
9312.000000;0.818308
9311.000000;0.818086
9310.000000;0.817725
9309.000000;0.817587
9308.000000;0.817874
9307.000000;0.818482
9306.000000;0.819089
9305.000000;0.819363
9304.000000;0.819153
9303.000000;0.818565
9302.000000;0.817864
9301.000000;0.817272
9300.000000;0.816866
9299.000000;0.816680
9298.000000;0.816780
9297.000000;0.817179
9296.000000;0.817705
9295.000000;0.818069
9294.000000;0.818095
9293.000000;0.817818
9292.000000;0.817373
9291.000000;0.816868
9290.000000;0.816398
9289.000000;0.816089
9288.000000;0.816049
9287.000000;0.816265
9286.000000;0.816607
9285.000000;0.816927
9284.000000;0.817171
9283.000000;0.817365
9282.000000;0.817523
9281.000000;0.817569
9280.000000;0.817406
9279.000000;0.817055
9278.000000;0.816685
9277.000000;0.816460
9276.000000;0.816398
9275.000000;0.816405
9274.000000;0.816400
9273.000000;0.816361
9272.000000;0.816305
9271.000000;0.816265
9270.000000;0.816267
9269.000000;0.816262
9268.000000;0.816120
9267.000000;0.815798
9266.000000;0.815456
9265.000000;0.815316
9264.000000;0.815396
9263.000000;0.815488
9262.000000;0.815417
9261.000000;0.815230
9260.000000;0.815112
9259.000000;0.815184
9258.000000;0.815390
9257.000000;0.815527
9256.000000;0.815389
9255.000000;0.814997
9254.000000;0.814649
9253.000000;0.814614
9252.000000;0.814776
9251.000000;0.814743
9250.000000;0.814383
9249.000000;0.814054
9248.000000;0.814156
9247.000000;0.814605
9246.000000;0.814927
9245.000000;0.814814
9244.000000;0.814420
9243.000000;0.814109
9242.000000;0.814084
9241.000000;0.814272
9240.000000;0.814466
9239.000000;0.814498
9238.000000;0.814361
9237.000000;0.814168
9236.000000;0.813962
9235.000000;0.813609
9234.000000;0.813005
9233.000000;0.812366
9232.000000;0.812151
9231.000000;0.812605
9230.000000;0.813454
9229.000000;0.814132
9228.000000;0.814245
9227.000000;0.813793
9226.000000;0.813040
9225.000000;0.812311
9224.000000;0.811858
9223.000000;0.811755
9222.000000;0.811855
9221.000000;0.811930
9220.000000;0.811914
9219.000000;0.811931
9218.000000;0.812059
9217.000000;0.812159
9216.000000;0.812050
9215.000000;0.811791
9214.000000;0.811638
9213.000000;0.811724
9212.000000;0.811883
9211.000000;0.811881
9210.000000;0.811708
9209.000000;0.811543
9208.000000;0.811508
9207.000000;0.811564
9206.000000;0.811617
9205.000000;0.811602
9204.000000;0.811485
9203.000000;0.811288
9202.000000;0.811129
9201.000000;0.811124
9200.000000;0.811204
9199.000000;0.811175
9198.000000;0.811014
9197.000000;0.810963
9196.000000;0.811226
9195.000000;0.811654
9194.000000;0.811873
9193.000000;0.811682
9192.000000;0.811201
9191.000000;0.810667
9190.000000;0.810241
9189.000000;0.810009
9188.000000;0.810007
9187.000000;0.810162
9186.000000;0.810316
9185.000000;0.810383
9184.000000;0.810424
9183.000000;0.810509
9182.000000;0.810592
9181.000000;0.810591
9180.000000;0.810549
9179.000000;0.810587
9178.000000;0.810724
9177.000000;0.810824
9176.000000;0.810750
9175.000000;0.810526
9174.000000;0.810305
9173.000000;0.810207
9172.000000;0.810193
9171.000000;0.810096
9170.000000;0.809791
9169.000000;0.809346
9168.000000;0.808996
9167.000000;0.808908
9166.000000;0.808987
9165.000000;0.808970
9164.000000;0.808722
9163.000000;0.808382
9162.000000;0.808193
9161.000000;0.808230
9160.000000;0.808376
9159.000000;0.808515
9158.000000;0.808659
9157.000000;0.808850
9156.000000;0.809024
9155.000000;0.809051
9154.000000;0.808914
9153.000000;0.808753
9152.000000;0.808732
9151.000000;0.808884
9150.000000;0.809099
9149.000000;0.809217
9148.000000;0.809132
9147.000000;0.808844
9146.000000;0.808466
9145.000000;0.808169
9144.000000;0.808067
9143.000000;0.808134
9142.000000;0.808225
9141.000000;0.808198
9140.000000;0.808032
9139.000000;0.807831
9138.000000;0.807744
9137.000000;0.807833
9136.000000;0.808017
9135.000000;0.808122
9134.000000;0.808025
9133.000000;0.807758
9132.000000;0.807469
9131.000000;0.807264
9130.000000;0.807102
9129.000000;0.806885
9128.000000;0.806623
9127.000000;0.806468
9126.000000;0.806535
9125.000000;0.806732
9124.000000;0.806841
9123.000000;0.806763
9122.000000;0.806592
9121.000000;0.806451
9120.000000;0.806332
9119.000000;0.806162
9118.000000;0.805944
9117.000000;0.805764
9116.000000;0.805692
9115.000000;0.805765
9114.000000;0.806017
9113.000000;0.806416
9112.000000;0.806786
9111.000000;0.806889
9110.000000;0.806630
9109.000000;0.806121
9108.000000;0.805551
9107.000000;0.805071
9106.000000;0.804802
9105.000000;0.804784
9104.000000;0.804894
9103.000000;0.804906
9102.000000;0.804722
9101.000000;0.804472
9100.000000;0.804314
9099.000000;0.804259
9098.000000;0.804245
9097.000000;0.804281
9096.000000;0.804392
9095.000000;0.804510
9094.000000;0.804556
9093.000000;0.804586
9092.000000;0.804703
9091.000000;0.804861
9090.000000;0.804903
9089.000000;0.804814
9088.000000;0.804748
9087.000000;0.804768
9086.000000;0.804721
9085.000000;0.804469
9084.000000;0.804121
9083.000000;0.803911
9082.000000;0.803925
9081.000000;0.804071
9080.000000;0.804248
9079.000000;0.804421
9078.000000;0.804521
9077.000000;0.804429
9076.000000;0.804110
9075.000000;0.803696
9074.000000;0.803397
9073.000000;0.803335
9072.000000;0.803484
9071.000000;0.803697
9070.000000;0.803792
9069.000000;0.803650
9068.000000;0.803303
9067.000000;0.802932
9066.000000;0.802730
9065.000000;0.802757
9064.000000;0.802916
9063.000000;0.803059
9062.000000;0.803114
9061.000000;0.803110
9060.000000;0.803096
9059.000000;0.803067
9058.000000;0.802970
9057.000000;0.802787
9056.000000;0.802593
9055.000000;0.802508
9054.000000;0.802580
9053.000000;0.802709
