Criado como novo conjunto de dados;"2706_e01_daniel.spp","72905.6 Secs"
cm-1;Abs
10000.000000;0.820147
9999.000000;0.820693
9998.000000;0.820516
9997.000000;0.819612
9996.000000;0.818742
9995.000000;0.818605
9994.000000;0.819203
9993.000000;0.819765
9992.000000;0.819682
9991.000000;0.819090
9990.000000;0.818590
9989.000000;0.818517
9988.000000;0.818769
9987.000000;0.819152
9986.000000;0.819540
9985.000000;0.819693
9984.000000;0.819280
9983.000000;0.818295
9982.000000;0.817198
9981.000000;0.816488
9980.000000;0.816284
9979.000000;0.816417
9978.000000;0.816678
9977.000000;0.816795
9976.000000;0.816437
9975.000000;0.815580
9974.000000;0.814791
9973.000000;0.814772
9972.000000;0.815594
9971.000000;0.816582
9970.000000;0.816994
9969.000000;0.816627
9968.000000;0.815764
9967.000000;0.814807
9966.000000;0.814070
9965.000000;0.813720
9964.000000;0.813721
9963.000000;0.813885
9962.000000;0.814074
9961.000000;0.814289
9960.000000;0.814537
9959.000000;0.814719
9958.000000;0.814713
9957.000000;0.814505
9956.000000;0.814184
9955.000000;0.813884
9954.000000;0.813743
9953.000000;0.813816
9952.000000;0.813987
9951.000000;0.814067
9950.000000;0.813996
9949.000000;0.813814
9948.000000;0.813433
9947.000000;0.812677
9946.000000;0.811663
9945.000000;0.810947
9944.000000;0.811053
9943.000000;0.811939
9942.000000;0.813040
9941.000000;0.813785
9940.000000;0.813945
9939.000000;0.813587
9938.000000;0.812935
9937.000000;0.812334
9936.000000;0.812121
9935.000000;0.812365
9934.000000;0.812766
9933.000000;0.812913
9932.000000;0.812655
9931.000000;0.812173
9930.000000;0.811702
9929.000000;0.811282
9928.000000;0.810826
9927.000000;0.810384
9926.000000;0.810208
9925.000000;0.810484
9924.000000;0.811030
9923.000000;0.811350
9922.000000;0.811080
9921.000000;0.810376
9920.000000;0.809812
9919.000000;0.809833
9918.000000;0.810297
9917.000000;0.810574
9916.000000;0.810167
9915.000000;0.809229
9914.000000;0.808403
9913.000000;0.808174
9912.000000;0.808468
9911.000000;0.808905
9910.000000;0.809252
9909.000000;0.809484
9908.000000;0.809546
9907.000000;0.809338
9906.000000;0.808932
9905.000000;0.808584
9904.000000;0.808457
9903.000000;0.808458
9902.000000;0.808406
9901.000000;0.808253
9900.000000;0.808086
9899.000000;0.808037
9898.000000;0.808203
9897.000000;0.808555
9896.000000;0.808858
9895.000000;0.808820
9894.000000;0.808343
9893.000000;0.807560
9892.000000;0.806623
9891.000000;0.805678
9890.000000;0.805026
9889.000000;0.805044
9888.000000;0.805745
9887.000000;0.806591
9886.000000;0.806949
9885.000000;0.806664
9884.000000;0.806077
9883.000000;0.805609
9882.000000;0.805500
9881.000000;0.805768
9880.000000;0.806154
9879.000000;0.806217
9878.000000;0.805757
9877.000000;0.805121
9876.000000;0.804834
9875.000000;0.804962
9874.000000;0.805128
9873.000000;0.805125
9872.000000;0.805132
9871.000000;0.805234
9870.000000;0.805095
9869.000000;0.804431
9868.000000;0.803556
9867.000000;0.803112
9866.000000;0.803335
9865.000000;0.803868
9864.000000;0.804276
9863.000000;0.804473
9862.000000;0.804580
9861.000000;0.804618
9860.000000;0.804480
9859.000000;0.804117
9858.000000;0.803618
9857.000000;0.803143
9856.000000;0.802829
9855.000000;0.802670
9854.000000;0.802456
9853.000000;0.801975
9852.000000;0.801344
9851.000000;0.801023
9850.000000;0.801340
9849.000000;0.802068
9848.000000;0.802643
9847.000000;0.802764
9846.000000;0.802586
9845.000000;0.802342
9844.000000;0.802038
9843.000000;0.801665
9842.000000;0.801441
9841.000000;0.801563
9840.000000;0.801837
9839.000000;0.801832
9838.000000;0.801429
9837.000000;0.800964
9836.000000;0.800786
9835.000000;0.800869
9834.000000;0.800982
9833.000000;0.801006
9832.000000;0.800898
9831.000000;0.800528
9830.000000;0.799806
9829.000000;0.798962
9828.000000;0.798432
9827.000000;0.798399
9826.000000;0.798655
9825.000000;0.798951
9824.000000;0.799308
9823.000000;0.799837
9822.000000;0.800386
9821.000000;0.800583
9820.000000;0.800237
9819.000000;0.799542
9818.000000;0.798847
9817.000000;0.798339
9816.000000;0.798010
9815.000000;0.797821
9814.000000;0.797743
9813.000000;0.797680
9812.000000;0.797510
9811.000000;0.797278
9810.000000;0.797257
9809.000000;0.797693
9808.000000;0.798462
9807.000000;0.799039
9806.000000;0.798891
9805.000000;0.797912
9804.000000;0.796559
9803.000000;0.795544
9802.000000;0.795338
9801.000000;0.795838
9800.000000;0.796488
9799.000000;0.796780
9798.000000;0.796705
9797.000000;0.796663
9796.000000;0.796949
9795.000000;0.797408
9794.000000;0.797672
9793.000000;0.797629
9792.000000;0.797531
9791.000000;0.797613
9790.000000;0.797751
9789.000000;0.797613
9788.000000;0.797094
9787.000000;0.796471
9786.000000;0.796078
9785.000000;0.795960
9784.000000;0.795895
9783.000000;0.795683
9782.000000;0.795303
9781.000000;0.794823
9780.000000;0.794302
9779.000000;0.793827
9778.000000;0.793541
9777.000000;0.793544
9776.000000;0.793812
9775.000000;0.794226
9774.000000;0.794621
9773.000000;0.794798
9772.000000;0.794618
9771.000000;0.794182
9770.000000;0.793810
9769.000000;0.793716
9768.000000;0.793792
9767.000000;0.793826
9766.000000;0.793861
9765.000000;0.794119
9764.000000;0.794619
9763.000000;0.795077
9762.000000;0.795222
9761.000000;0.795029
9760.000000;0.794556
9759.000000;0.793794
9758.000000;0.792823
9757.000000;0.791949
9756.000000;0.791478
9755.000000;0.791425
9754.000000;0.791564
9753.000000;0.791716
9752.000000;0.791850
9751.000000;0.791976
9750.000000;0.792081
9749.000000;0.792177
9748.000000;0.792260
9747.000000;0.792201
9746.000000;0.791846
9745.000000;0.791251
9744.000000;0.790729
9743.000000;0.790566
9742.000000;0.790769
9741.000000;0.791125
9740.000000;0.791437
9739.000000;0.791611
9738.000000;0.791572
9737.000000;0.791253
9736.000000;0.790714
9735.000000;0.790199
9734.000000;0.789956
9733.000000;0.790005
9732.000000;0.790127
9731.000000;0.790130
9730.000000;0.790068
9729.000000;0.790154
9728.000000;0.790455
9727.000000;0.790761
9726.000000;0.790811
9725.000000;0.790599
9724.000000;0.790387
9723.000000;0.790408
9722.000000;0.790620
9721.000000;0.790764
9720.000000;0.790614
9719.000000;0.790138
9718.000000;0.789462
9717.000000;0.788774
9716.000000;0.788257
9715.000000;0.788008
9714.000000;0.787971
9713.000000;0.788000
9712.000000;0.788051
9711.000000;0.788236
9710.000000;0.788586
9709.000000;0.788849
9708.000000;0.788728
9707.000000;0.788324
9706.000000;0.788122
9705.000000;0.788408
9704.000000;0.788851
9703.000000;0.788836
9702.000000;0.788166
9701.000000;0.787287
9700.000000;0.786833
9699.000000;0.787067
9698.000000;0.787704
9697.000000;0.788161
9696.000000;0.788015
9695.000000;0.787404
9694.000000;0.786949
9693.000000;0.787156
9692.000000;0.787883
9691.000000;0.788525
9690.000000;0.788685
9689.000000;0.788488
9688.000000;0.788243
9687.000000;0.788024
9686.000000;0.787697
9685.000000;0.787203
9684.000000;0.786665
9683.000000;0.786294
9682.000000;0.786249
9681.000000;0.786488
9680.000000;0.786714
9679.000000;0.786593
9678.000000;0.786142
9677.000000;0.785762
9676.000000;0.785791
9675.000000;0.786122
9674.000000;0.786365
9673.000000;0.786301
9672.000000;0.786002
9671.000000;0.785594
9670.000000;0.785088
9669.000000;0.784451
9668.000000;0.783721
9667.000000;0.783001
9666.000000;0.782420
9665.000000;0.782075
9664.000000;0.781963
9663.000000;0.781989
9662.000000;0.782103
9661.000000;0.782360
9660.000000;0.782769
9659.000000;0.783148
9658.000000;0.783271
9657.000000;0.783125
9656.000000;0.782901
9655.000000;0.782760
9654.000000;0.782737
9653.000000;0.782880
9652.000000;0.783258
9651.000000;0.783746
9650.000000;0.783935
9649.000000;0.783454
9648.000000;0.782413
9647.000000;0.781398
9646.000000;0.780965
9645.000000;0.781156
9644.000000;0.781563
9643.000000;0.781801
9642.000000;0.781849
9641.000000;0.781873
9640.000000;0.781875
9639.000000;0.781683
9638.000000;0.781266
9637.000000;0.780867
9636.000000;0.780715
9635.000000;0.780738
9634.000000;0.780704
9633.000000;0.780566
9632.000000;0.780479
9631.000000;0.780505
9630.000000;0.780468
9629.000000;0.780198
9628.000000;0.779786
9627.000000;0.779506
9626.000000;0.779497
9625.000000;0.779643
9624.000000;0.779748
9623.000000;0.779755
9622.000000;0.779716
9621.000000;0.779630
9620.000000;0.779425
9619.000000;0.779106
9618.000000;0.778812
9617.000000;0.778621
9616.000000;0.778410
9615.000000;0.778077
9614.000000;0.777847
9613.000000;0.778122
9612.000000;0.778959
9611.000000;0.779879
9610.000000;0.780323
9609.000000;0.780171
9608.000000;0.779697
9607.000000;0.779173
9606.000000;0.778738
9605.000000;0.778531
9604.000000;0.778637
9603.000000;0.778881
9602.000000;0.778947
9601.000000;0.778783
9600.000000;0.778693
9599.000000;0.778886
9598.000000;0.779125
9597.000000;0.779023
9596.000000;0.778564
9595.000000;0.778097
9594.000000;0.777836
9593.000000;0.777633
9592.000000;0.777323
9591.000000;0.777060
9590.000000;0.777085
9589.000000;0.777284
9588.000000;0.777241
9587.000000;0.776798
9586.000000;0.776340
9585.000000;0.776357
9584.000000;0.776829
9583.000000;0.777238
9582.000000;0.777143
9581.000000;0.776584
9580.000000;0.775916
9579.000000;0.775449
9578.000000;0.775301
9577.000000;0.775457
9576.000000;0.775828
9575.000000;0.776299
9574.000000;0.776816
9573.000000;0.777360
9572.000000;0.777801
9571.000000;0.777884
9570.000000;0.777442
9569.000000;0.776584
9568.000000;0.775600
9567.000000;0.774771
9566.000000;0.774321
9565.000000;0.774382
9564.000000;0.774828
9563.000000;0.775238
9562.000000;0.775224
9561.000000;0.774812
9560.000000;0.774335
9559.000000;0.773984
9558.000000;0.773640
9557.000000;0.773203
9556.000000;0.772859
9555.000000;0.772899
9554.000000;0.773354
9553.000000;0.773955
9552.000000;0.774426
9551.000000;0.774732
9550.000000;0.775008
9549.000000;0.775300
9548.000000;0.775418
9547.000000;0.775108
9546.000000;0.774355
9545.000000;0.773454
9544.000000;0.772770
9543.000000;0.772473
9542.000000;0.772541
9541.000000;0.772849
9540.000000;0.773182
9539.000000;0.773256
9538.000000;0.772950
9537.000000;0.772490
9536.000000;0.772226
9535.000000;0.772227
9534.000000;0.772241
9533.000000;0.772070
9532.000000;0.771788
9531.000000;0.771543
9530.000000;0.771355
9529.000000;0.771212
9528.000000;0.771188
9527.000000;0.771317
9526.000000;0.771445
9525.000000;0.771367
9524.000000;0.771060
9523.000000;0.770678
9522.000000;0.770395
9521.000000;0.770341
9520.000000;0.770600
9519.000000;0.771087
9518.000000;0.771456
9517.000000;0.771335
9516.000000;0.770699
9515.000000;0.769933
9514.000000;0.769463
9513.000000;0.769417
9512.000000;0.769613
9511.000000;0.769803
9510.000000;0.769860
9509.000000;0.769822
9508.000000;0.769788
9507.000000;0.769802
9506.000000;0.769829
9505.000000;0.769864
9504.000000;0.769999
9503.000000;0.770289
9502.000000;0.770578
9501.000000;0.770594
9500.000000;0.770241
9499.000000;0.769715
9498.000000;0.769262
9497.000000;0.768940
9496.000000;0.768673
9495.000000;0.768447
9494.000000;0.768337
9493.000000;0.768356
9492.000000;0.768387
9491.000000;0.768294
9490.000000;0.768055
9489.000000;0.767808
9488.000000;0.767768
9487.000000;0.768081
9486.000000;0.768654
9485.000000;0.769128
9484.000000;0.769132
9483.000000;0.768612
9482.000000;0.767879
9481.000000;0.767301
9480.000000;0.767006
9479.000000;0.766888
9478.000000;0.766810
9477.000000;0.766690
9476.000000;0.766473
9475.000000;0.766165
9474.000000;0.765907
9473.000000;0.765897
9472.000000;0.766157
9471.000000;0.766468
9470.000000;0.766617
9469.000000;0.766647
9468.000000;0.766786
9467.000000;0.767132
9466.000000;0.767517
9465.000000;0.767676
9464.000000;0.767480
9463.000000;0.766997
9462.000000;0.766407
9461.000000;0.765916
9460.000000;0.765689
9459.000000;0.765762
9458.000000;0.765980
9457.000000;0.766067
9456.000000;0.765814
9455.000000;0.765249
9454.000000;0.764635
9453.000000;0.764284
9452.000000;0.764356
9451.000000;0.764784
9450.000000;0.765333
9449.000000;0.765711
9448.000000;0.765685
9447.000000;0.765234
9446.000000;0.764615
9445.000000;0.764190
9444.000000;0.764119
9443.000000;0.764249
9442.000000;0.764364
9441.000000;0.764440
9440.000000;0.764564
9439.000000;0.764684
9438.000000;0.764619
9437.000000;0.764303
9436.000000;0.763864
9435.000000;0.763429
9434.000000;0.763012
9433.000000;0.762688
9432.000000;0.762677
9431.000000;0.763074
9430.000000;0.763574
9429.000000;0.763681
9428.000000;0.763232
9427.000000;0.762547
9426.000000;0.762043
9425.000000;0.761842
9424.000000;0.761780
9423.000000;0.761666
9422.000000;0.761428
9421.000000;0.761113
9420.000000;0.760845
9419.000000;0.760741
9418.000000;0.760765
9417.000000;0.760741
9416.000000;0.760578
9415.000000;0.760431
9414.000000;0.760513
9413.000000;0.760774
9412.000000;0.760916
9411.000000;0.760739
9410.000000;0.760355
9409.000000;0.760025
9408.000000;0.759885
9407.000000;0.759915
9406.000000;0.760057
9405.000000;0.760257
9404.000000;0.760421
9403.000000;0.760465
9402.000000;0.760421
9401.000000;0.760408
9400.000000;0.760475
9399.000000;0.760518
9398.000000;0.760402
9397.000000;0.760123
9396.000000;0.759806
9395.000000;0.759556
9394.000000;0.759386
9393.000000;0.759290
9392.000000;0.759323
9391.000000;0.759550
9390.000000;0.759905
9389.000000;0.760199
9388.000000;0.760312
9387.000000;0.760317
9386.000000;0.760345
9385.000000;0.760349
9384.000000;0.760137
9383.000000;0.759639
9382.000000;0.759034
9381.000000;0.758528
9380.000000;0.758106
9379.000000;0.757623
9378.000000;0.757083
9377.000000;0.756706
9376.000000;0.756705
9375.000000;0.757095
9374.000000;0.757716
9373.000000;0.758333
9372.000000;0.758695
9371.000000;0.758623
9370.000000;0.758170
9369.000000;0.757649
9368.000000;0.757395
9367.000000;0.757487
9366.000000;0.757722
9365.000000;0.757829
9364.000000;0.757678
9363.000000;0.757316
9362.000000;0.756907
9361.000000;0.756639
9360.000000;0.756594
9359.000000;0.756666
9358.000000;0.756641
9357.000000;0.756421
9356.000000;0.756123
9355.000000;0.755919
9354.000000;0.755816
9353.000000;0.755682
9352.000000;0.755482
9351.000000;0.755358
9350.000000;0.755412
9349.000000;0.755512
9348.000000;0.755417
9347.000000;0.755062
9346.000000;0.754617
9345.000000;0.754276
9344.000000;0.754102
9343.000000;0.754079
9342.000000;0.754183
9341.000000;0.754361
9340.000000;0.754561
9339.000000;0.754823
9338.000000;0.755241
9337.000000;0.755736
9336.000000;0.756003
9335.000000;0.755787
9334.000000;0.755156
9333.000000;0.754369
9332.000000;0.753570
9331.000000;0.752776
9330.000000;0.752108
9329.000000;0.751814
9328.000000;0.751995
9327.000000;0.752459
9326.000000;0.752926
9325.000000;0.753266
9324.000000;0.753472
9323.000000;0.753536
9322.000000;0.753481
9321.000000;0.753439
9320.000000;0.753533
9319.000000;0.753663
9318.000000;0.753537
9317.000000;0.753007
9316.000000;0.752313
9315.000000;0.751924
9314.000000;0.752088
9313.000000;0.752592
9312.000000;0.752985
9311.000000;0.753005
9310.000000;0.752745
9309.000000;0.752457
9308.000000;0.752305
9307.000000;0.752346
9306.000000;0.752582
9305.000000;0.752906
9304.000000;0.753075
9303.000000;0.752894
9302.000000;0.752418
9301.000000;0.751897
9300.000000;0.751522
9299.000000;0.751319
9298.000000;0.751239
9297.000000;0.751195
9296.000000;0.751041
9295.000000;0.750669
9294.000000;0.750170
9293.000000;0.749796
9292.000000;0.749729
9291.000000;0.749964
9290.000000;0.750390
9289.000000;0.750863
9288.000000;0.751173
9287.000000;0.751147
9286.000000;0.750848
9285.000000;0.750541
9284.000000;0.750370
9283.000000;0.750189
9282.000000;0.749827
9281.000000;0.749365
9280.000000;0.749037
9279.000000;0.748928
9278.000000;0.748926
9277.000000;0.748909
9276.000000;0.748843
9275.000000;0.748743
9274.000000;0.748643
9273.000000;0.748606
9272.000000;0.748643
9271.000000;0.748634
9270.000000;0.748436
9269.000000;0.748078
9268.000000;0.747768
9267.000000;0.747692
9266.000000;0.747817
9265.000000;0.747919
9264.000000;0.747772
9263.000000;0.747344
9262.000000;0.746835
9261.000000;0.746509
9260.000000;0.746474
9259.000000;0.746642
9258.000000;0.746885
9257.000000;0.747145
9256.000000;0.747372
9255.000000;0.747468
9254.000000;0.747366
9253.000000;0.747132
9252.000000;0.746905
9251.000000;0.746795
9250.000000;0.746835
9249.000000;0.746961
9248.000000;0.747004
9247.000000;0.746805
9246.000000;0.746417
9245.000000;0.746110
9244.000000;0.746068
9243.000000;0.746158
9242.000000;0.746107
9241.000000;0.745839
9240.000000;0.745542
9239.000000;0.745426
9238.000000;0.745542
9237.000000;0.745815
9236.000000;0.746119
9235.000000;0.746312
9234.000000;0.746305
9233.000000;0.746129
9232.000000;0.745895
9231.000000;0.745685
9230.000000;0.745494
9229.000000;0.745255
9228.000000;0.744895
9227.000000;0.744416
9226.000000;0.743952
9225.000000;0.743668
9224.000000;0.743579
9223.000000;0.743537
9222.000000;0.743450
9221.000000;0.743397
9220.000000;0.743466
9219.000000;0.743577
9218.000000;0.743599
9217.000000;0.743541
9216.000000;0.743504
9215.000000;0.743507
9214.000000;0.743503
9213.000000;0.743480
9212.000000;0.743420
9211.000000;0.743229
9210.000000;0.742873
9209.000000;0.742518
9208.000000;0.742350
9207.000000;0.742295
9206.000000;0.742124
9205.000000;0.741823
9204.000000;0.741637
9203.000000;0.741710
9202.000000;0.741880
9201.000000;0.741909
9200.000000;0.741753
9199.000000;0.741510
9198.000000;0.741267
9197.000000;0.741086
9196.000000;0.741060
9195.000000;0.741239
9194.000000;0.741546
9193.000000;0.741820
9192.000000;0.741914
9191.000000;0.741767
9190.000000;0.741440
9189.000000;0.741103
9188.000000;0.740929
9187.000000;0.740972
9186.000000;0.741192
9185.000000;0.741524
9184.000000;0.741817
9183.000000;0.741801
9182.000000;0.741326
9181.000000;0.740648
9180.000000;0.740260
9179.000000;0.740361
9178.000000;0.740683
9177.000000;0.740887
9176.000000;0.740951
9175.000000;0.741025
9174.000000;0.741092
9173.000000;0.740978
9172.000000;0.740601
9171.000000;0.740047
9170.000000;0.739443
9169.000000;0.738916
9168.000000;0.738646
9167.000000;0.738786
9166.000000;0.739272
9165.000000;0.739787
9164.000000;0.739968
9163.000000;0.739676
9162.000000;0.739100
9161.000000;0.738621
9160.000000;0.738496
9159.000000;0.738627
9158.000000;0.738675
9157.000000;0.738438
9156.000000;0.738042
9155.000000;0.737744
9154.000000;0.737654
9153.000000;0.737735
9152.000000;0.737954
9151.000000;0.738277
9150.000000;0.738557
9149.000000;0.738594
9148.000000;0.738340
9147.000000;0.737946
9146.000000;0.737610
9145.000000;0.737426
9144.000000;0.737376
9143.000000;0.737369
9142.000000;0.737298
9141.000000;0.737133
9140.000000;0.736967
9139.000000;0.736919
9138.000000;0.736971
9137.000000;0.736971
9136.000000;0.736806
9135.000000;0.736526
9134.000000;0.736284
9133.000000;0.736185
9132.000000;0.736206
9131.000000;0.736231
9130.000000;0.736155
9129.000000;0.735975
9128.000000;0.735776
9127.000000;0.735626
9126.000000;0.735508
9125.000000;0.735399
9124.000000;0.735376
9123.000000;0.735571
9122.000000;0.735997
9121.000000;0.736462
9120.000000;0.736708
9119.000000;0.736612
9118.000000;0.736246
9117.000000;0.735787
9116.000000;0.735395
9115.000000;0.735165
9114.000000;0.735132
9113.000000;0.735273
9112.000000;0.735483
9111.000000;0.735592
9110.000000;0.735468
9109.000000;0.735135
9108.000000;0.734758
9107.000000;0.734489
9106.000000;0.734344
9105.000000;0.734239
9104.000000;0.734107
9103.000000;0.733945
9102.000000;0.733753
9101.000000;0.733494
9100.000000;0.733172
9099.000000;0.732923
9098.000000;0.732913
9097.000000;0.733115
9096.000000;0.733241
9095.000000;0.733023
9094.000000;0.732529
9093.000000;0.732118
9092.000000;0.732045
9091.000000;0.732246
9090.000000;0.732518
9089.000000;0.732758
9088.000000;0.732910
9087.000000;0.732855
9086.000000;0.732537
9085.000000;0.732146
9084.000000;0.731939
9083.000000;0.731904
9082.000000;0.731798
9081.000000;0.731530
9080.000000;0.731314
9079.000000;0.731336
9078.000000;0.731480
9077.000000;0.731490
9076.000000;0.731284
9075.000000;0.730987
9074.000000;0.730738
9073.000000;0.730603
9072.000000;0.730595
9071.000000;0.730659
9070.000000;0.730680
9069.000000;0.730595
9068.000000;0.730495
9067.000000;0.730511
9066.000000;0.730651
9065.000000;0.730814
9064.000000;0.730917
9063.000000;0.730953
9062.000000;0.730949
9061.000000;0.730935
9060.000000;0.730903
9059.000000;0.730757
9058.000000;0.730385
9057.000000;0.729849
9056.000000;0.729408
9055.000000;0.729239
9054.000000;0.729198
9053.000000;0.729014
