Criado como novo conjunto de dados;"2706_e01_daniel.spp","10622.5 Secs"
cm-1;Abs
10000.000000;0.747411
9999.000000;0.747107
9998.000000;0.747283
9997.000000;0.747608
9996.000000;0.747749
9995.000000;0.747792
9994.000000;0.747792
9993.000000;0.747646
9992.000000;0.747162
9991.000000;0.746472
9990.000000;0.745965
9989.000000;0.745984
9988.000000;0.746578
9987.000000;0.747527
9986.000000;0.748404
9985.000000;0.748696
9984.000000;0.748134
9983.000000;0.746983
9982.000000;0.745874
9981.000000;0.745242
9980.000000;0.745029
9979.000000;0.744949
9978.000000;0.744897
9977.000000;0.744975
9976.000000;0.745236
9975.000000;0.745572
9974.000000;0.745838
9973.000000;0.745984
9972.000000;0.746015
9971.000000;0.745907
9970.000000;0.745602
9969.000000;0.745144
9968.000000;0.744779
9967.000000;0.744843
9966.000000;0.745447
9965.000000;0.746268
9964.000000;0.746763
9963.000000;0.746603
9962.000000;0.745897
9961.000000;0.745013
9960.000000;0.744290
9959.000000;0.743904
9958.000000;0.743857
9957.000000;0.744016
9956.000000;0.744232
9955.000000;0.744449
9954.000000;0.744638
9953.000000;0.744687
9952.000000;0.744535
9951.000000;0.744375
9950.000000;0.744469
9949.000000;0.744687
9948.000000;0.744509
9947.000000;0.743677
9946.000000;0.742639
9945.000000;0.742128
9944.000000;0.742414
9943.000000;0.743153
9942.000000;0.743881
9941.000000;0.744412
9940.000000;0.744794
9939.000000;0.745121
9938.000000;0.745396
9937.000000;0.745458
9936.000000;0.745079
9935.000000;0.744267
9934.000000;0.743418
9933.000000;0.742992
9932.000000;0.743051
9931.000000;0.743267
9930.000000;0.743336
9929.000000;0.743201
9928.000000;0.742891
9927.000000;0.742410
9926.000000;0.741849
9925.000000;0.741416
9924.000000;0.741239
9923.000000;0.741273
9922.000000;0.741417
9921.000000;0.741596
9920.000000;0.741698
9919.000000;0.741630
9918.000000;0.741511
9917.000000;0.741630
9916.000000;0.742111
9915.000000;0.742735
9914.000000;0.743202
9913.000000;0.743404
9912.000000;0.743346
9911.000000;0.742990
9910.000000;0.742365
9909.000000;0.741715
9908.000000;0.741326
9907.000000;0.741229
9906.000000;0.741243
9905.000000;0.741229
9904.000000;0.741168
9903.000000;0.741015
9902.000000;0.740702
9901.000000;0.740321
9900.000000;0.740115
9899.000000;0.740204
9898.000000;0.740428
9897.000000;0.740547
9896.000000;0.740509
9895.000000;0.740406
9894.000000;0.740241
9893.000000;0.739892
9892.000000;0.739333
9891.000000;0.738754
9890.000000;0.738392
9889.000000;0.738293
9888.000000;0.738356
9887.000000;0.738541
9886.000000;0.738884
9885.000000;0.739271
9884.000000;0.739389
9883.000000;0.739061
9882.000000;0.738537
9881.000000;0.738253
9880.000000;0.738335
9879.000000;0.738509
9878.000000;0.738484
9877.000000;0.738270
9876.000000;0.738041
9875.000000;0.737867
9874.000000;0.737679
9873.000000;0.737409
9872.000000;0.737070
9871.000000;0.736767
9870.000000;0.736652
9869.000000;0.736755
9868.000000;0.736860
9867.000000;0.736723
9866.000000;0.736497
9865.000000;0.736702
9864.000000;0.737603
9863.000000;0.738755
9862.000000;0.739404
9861.000000;0.739292
9860.000000;0.738830
9859.000000;0.738513
9858.000000;0.738408
9857.000000;0.738267
9856.000000;0.737902
9855.000000;0.737345
9854.000000;0.736775
9853.000000;0.736396
9852.000000;0.736319
9851.000000;0.736447
9850.000000;0.736532
9849.000000;0.736407
9848.000000;0.736150
9847.000000;0.735990
9846.000000;0.736075
9845.000000;0.736318
9844.000000;0.736447
9843.000000;0.736256
9842.000000;0.735870
9841.000000;0.735690
9840.000000;0.735946
9839.000000;0.736345
9838.000000;0.736340
9837.000000;0.735801
9836.000000;0.735221
9835.000000;0.735176
9834.000000;0.735723
9833.000000;0.736417
9832.000000;0.736771
9831.000000;0.736549
9830.000000;0.735756
9829.000000;0.734600
9828.000000;0.733477
9827.000000;0.732801
9826.000000;0.732752
9825.000000;0.733195
9824.000000;0.733821
9823.000000;0.734293
9822.000000;0.734359
9821.000000;0.733990
9820.000000;0.733448
9819.000000;0.733100
9818.000000;0.733103
9817.000000;0.733320
9816.000000;0.733529
9815.000000;0.733625
9814.000000;0.733623
9813.000000;0.733575
9812.000000;0.733529
9811.000000;0.733499
9810.000000;0.733423
9809.000000;0.733213
9808.000000;0.732906
9807.000000;0.732663
9806.000000;0.732592
9805.000000;0.732654
9804.000000;0.732802
9803.000000;0.733123
9802.000000;0.733703
9801.000000;0.734410
9800.000000;0.734928
9799.000000;0.735018
9798.000000;0.734688
9797.000000;0.734141
9796.000000;0.733614
9795.000000;0.733250
9794.000000;0.733024
9793.000000;0.732776
9792.000000;0.732405
9791.000000;0.732011
9790.000000;0.731799
9789.000000;0.731842
9788.000000;0.732012
9787.000000;0.732139
9786.000000;0.732140
9785.000000;0.732011
9784.000000;0.731796
9783.000000;0.731643
9782.000000;0.731744
9781.000000;0.732138
9780.000000;0.732592
9779.000000;0.732818
9778.000000;0.732774
9777.000000;0.732668
9776.000000;0.732643
9775.000000;0.732565
9774.000000;0.732195
9773.000000;0.731505
9772.000000;0.730754
9771.000000;0.730254
9770.000000;0.730131
9769.000000;0.730323
9768.000000;0.730697
9767.000000;0.731103
9766.000000;0.731365
9765.000000;0.731373
9764.000000;0.731217
9763.000000;0.731139
9762.000000;0.731238
9761.000000;0.731298
9760.000000;0.731026
9759.000000;0.730443
9758.000000;0.729902
9757.000000;0.729706
9756.000000;0.729810
9755.000000;0.729948
9754.000000;0.729965
9753.000000;0.729917
9752.000000;0.729887
9751.000000;0.729814
9750.000000;0.729559
9749.000000;0.729129
9748.000000;0.728778
9747.000000;0.728827
9746.000000;0.729311
9745.000000;0.729852
9744.000000;0.729957
9743.000000;0.729503
9742.000000;0.728855
9741.000000;0.728484
9740.000000;0.728531
9739.000000;0.728785
9738.000000;0.729002
9737.000000;0.729132
9736.000000;0.729239
9735.000000;0.729287
9734.000000;0.729108
9733.000000;0.728607
9732.000000;0.727955
9731.000000;0.727501
9730.000000;0.727451
9729.000000;0.727692
9728.000000;0.727981
9727.000000;0.728235
9726.000000;0.728517
9725.000000;0.728777
9724.000000;0.728796
9723.000000;0.728439
9722.000000;0.727867
9721.000000;0.727397
9720.000000;0.727247
9719.000000;0.727422
9718.000000;0.727741
9717.000000;0.727913
9716.000000;0.727741
9715.000000;0.727350
9714.000000;0.727101
9713.000000;0.727175
9712.000000;0.727357
9711.000000;0.727362
9710.000000;0.727222
9709.000000;0.727178
9708.000000;0.727301
9707.000000;0.727433
9706.000000;0.727468
9705.000000;0.727437
9704.000000;0.727346
9703.000000;0.727142
9702.000000;0.726909
9701.000000;0.726858
9700.000000;0.727061
9699.000000;0.727332
9698.000000;0.727464
9697.000000;0.727431
9696.000000;0.727277
9695.000000;0.726993
9694.000000;0.726618
9693.000000;0.726313
9692.000000;0.726185
9691.000000;0.726104
9690.000000;0.725853
9689.000000;0.725410
9688.000000;0.724966
9687.000000;0.724721
9686.000000;0.724755
9685.000000;0.725057
9684.000000;0.725522
9683.000000;0.725912
9682.000000;0.725958
9681.000000;0.725583
9680.000000;0.725028
9679.000000;0.724715
9678.000000;0.724946
9677.000000;0.725636
9676.000000;0.726324
9675.000000;0.726526
9674.000000;0.726160
9673.000000;0.725586
9672.000000;0.725199
9671.000000;0.725084
9670.000000;0.725071
9669.000000;0.725012
9668.000000;0.724877
9667.000000;0.724666
9666.000000;0.724374
9665.000000;0.724033
9664.000000;0.723692
9663.000000;0.723364
9662.000000;0.723107
9661.000000;0.723083
9660.000000;0.723388
9659.000000;0.723839
9658.000000;0.724118
9657.000000;0.724145
9656.000000;0.724134
9655.000000;0.724226
9654.000000;0.724255
9653.000000;0.724003
9652.000000;0.723550
9651.000000;0.723172
9650.000000;0.722982
9649.000000;0.722875
9648.000000;0.722803
9647.000000;0.722882
9646.000000;0.723161
9645.000000;0.723430
9644.000000;0.723411
9643.000000;0.723085
9642.000000;0.722736
9641.000000;0.722675
9640.000000;0.722962
9639.000000;0.723372
9638.000000;0.723582
9637.000000;0.723444
9636.000000;0.723123
9635.000000;0.722969
9634.000000;0.723180
9633.000000;0.723614
9632.000000;0.723936
9631.000000;0.723925
9630.000000;0.723549
9629.000000;0.722846
9628.000000;0.721906
9627.000000;0.721012
9626.000000;0.720600
9625.000000;0.720887
9624.000000;0.721603
9623.000000;0.722227
9622.000000;0.722486
9621.000000;0.722500
9620.000000;0.722457
9619.000000;0.722315
9618.000000;0.721955
9617.000000;0.721491
9616.000000;0.721269
9615.000000;0.721507
9614.000000;0.722041
9613.000000;0.722455
9612.000000;0.722485
9611.000000;0.722226
9610.000000;0.721961
9609.000000;0.721808
9608.000000;0.721620
9607.000000;0.721233
9606.000000;0.720737
9605.000000;0.720400
9604.000000;0.720373
9603.000000;0.720548
9602.000000;0.720728
9601.000000;0.720829
9600.000000;0.720879
9599.000000;0.720913
9598.000000;0.720940
9597.000000;0.720957
9596.000000;0.720916
9595.000000;0.720719
9594.000000;0.720313
9593.000000;0.719809
9592.000000;0.719424
9591.000000;0.719313
9590.000000;0.719444
9589.000000;0.719622
9588.000000;0.719641
9587.000000;0.719439
9586.000000;0.719153
9585.000000;0.718978
9584.000000;0.718983
9583.000000;0.719060
9582.000000;0.719082
9581.000000;0.719045
9580.000000;0.719027
9579.000000;0.719067
9578.000000;0.719146
9577.000000;0.719230
9576.000000;0.719277
9575.000000;0.719238
9574.000000;0.719129
9573.000000;0.719053
9572.000000;0.719063
9571.000000;0.719032
9570.000000;0.718748
9569.000000;0.718188
9568.000000;0.717603
9567.000000;0.717312
9566.000000;0.717448
9565.000000;0.717898
9564.000000;0.718409
9563.000000;0.718715
9562.000000;0.718674
9561.000000;0.718370
9560.000000;0.718075
9559.000000;0.718052
9558.000000;0.718342
9557.000000;0.718737
9556.000000;0.718931
9555.000000;0.718722
9554.000000;0.718136
9553.000000;0.717401
9552.000000;0.716789
9551.000000;0.716466
9550.000000;0.716476
9549.000000;0.716794
9548.000000;0.717315
9547.000000;0.717800
9546.000000;0.717968
9545.000000;0.717738
9544.000000;0.717327
9543.000000;0.717044
9542.000000;0.716989
9541.000000;0.717012
9540.000000;0.716915
9539.000000;0.716632
9538.000000;0.716250
9537.000000;0.715957
9536.000000;0.715951
9535.000000;0.716300
9534.000000;0.716809
9533.000000;0.717099
9532.000000;0.716935
9531.000000;0.716480
9530.000000;0.716155
9529.000000;0.716223
9528.000000;0.716533
9527.000000;0.716713
9526.000000;0.716602
9525.000000;0.716397
9524.000000;0.716364
9523.000000;0.716482
9522.000000;0.716466
9521.000000;0.716125
9520.000000;0.715581
9519.000000;0.715110
9518.000000;0.714853
9517.000000;0.714759
9516.000000;0.714719
9515.000000;0.714651
9514.000000;0.714494
9513.000000;0.714254
9512.000000;0.714073
9511.000000;0.714145
9510.000000;0.714505
9509.000000;0.714955
9508.000000;0.715233
9507.000000;0.715224
9506.000000;0.714985
9505.000000;0.714636
9504.000000;0.714287
9503.000000;0.714022
9502.000000;0.713886
9501.000000;0.713876
9500.000000;0.713943
9499.000000;0.713994
9498.000000;0.713918
9497.000000;0.713693
9496.000000;0.713480
9495.000000;0.713524
9494.000000;0.713883
9493.000000;0.714318
9492.000000;0.714533
9491.000000;0.714482
9490.000000;0.714367
9489.000000;0.714333
9488.000000;0.714284
9487.000000;0.714039
9486.000000;0.713602
9485.000000;0.713204
9484.000000;0.713077
9483.000000;0.713222
9482.000000;0.713407
9481.000000;0.713400
9480.000000;0.713194
9479.000000;0.712983
9478.000000;0.712932
9477.000000;0.713035
9476.000000;0.713190
9475.000000;0.713334
9474.000000;0.713434
9473.000000;0.713424
9472.000000;0.713257
9471.000000;0.713007
9470.000000;0.712812
9469.000000;0.712689
9468.000000;0.712520
9467.000000;0.712223
9466.000000;0.711864
9465.000000;0.711566
9464.000000;0.711405
9463.000000;0.711445
9462.000000;0.711730
9461.000000;0.712167
9460.000000;0.712476
9459.000000;0.712417
9458.000000;0.712056
9457.000000;0.711729
9456.000000;0.711718
9455.000000;0.712017
9454.000000;0.712365
9453.000000;0.712444
9452.000000;0.712089
9451.000000;0.711429
9450.000000;0.710843
9449.000000;0.710674
9448.000000;0.710940
9447.000000;0.711360
9446.000000;0.711699
9445.000000;0.711963
9444.000000;0.712233
9443.000000;0.712431
9442.000000;0.712383
9441.000000;0.712052
9440.000000;0.711586
9439.000000;0.711150
9438.000000;0.710841
9437.000000;0.710729
9436.000000;0.710829
9435.000000;0.711001
9434.000000;0.711027
9433.000000;0.710878
9432.000000;0.710760
9431.000000;0.710814
9430.000000;0.710869
9429.000000;0.710659
9428.000000;0.710198
9427.000000;0.709757
9426.000000;0.709512
9425.000000;0.709396
9424.000000;0.709310
9423.000000;0.709278
9422.000000;0.709321
9421.000000;0.709351
9420.000000;0.709332
9419.000000;0.709410
9418.000000;0.709734
9417.000000;0.710203
9416.000000;0.710513
9415.000000;0.710441
9414.000000;0.709987
9413.000000;0.709311
9412.000000;0.708647
9411.000000;0.708251
9410.000000;0.708259
9409.000000;0.708563
9408.000000;0.708909
9407.000000;0.709119
9406.000000;0.709171
9405.000000;0.709106
9404.000000;0.708971
9403.000000;0.708845
9402.000000;0.708813
9401.000000;0.708889
9400.000000;0.709044
9399.000000;0.709267
9398.000000;0.709477
9397.000000;0.709430
9396.000000;0.708928
9395.000000;0.708145
9394.000000;0.707545
9393.000000;0.707390
9392.000000;0.707496
9391.000000;0.707555
9390.000000;0.707533
9389.000000;0.707602
9388.000000;0.707819
9387.000000;0.708064
9386.000000;0.708245
9385.000000;0.708361
9384.000000;0.708382
9383.000000;0.708237
9382.000000;0.707942
9381.000000;0.707617
9380.000000;0.707346
9379.000000;0.707115
9378.000000;0.706915
9377.000000;0.706812
9376.000000;0.706859
9375.000000;0.707006
9374.000000;0.707127
9373.000000;0.707114
9372.000000;0.706947
9371.000000;0.706707
9370.000000;0.706534
9369.000000;0.706525
9368.000000;0.706651
9367.000000;0.706793
9366.000000;0.706868
9365.000000;0.706897
9364.000000;0.706937
9363.000000;0.707008
9362.000000;0.707074
9361.000000;0.707092
9360.000000;0.707033
9359.000000;0.706878
9358.000000;0.706611
9357.000000;0.706261
9356.000000;0.705920
9355.000000;0.705700
9354.000000;0.705622
9353.000000;0.705592
9352.000000;0.705516
9351.000000;0.705429
9350.000000;0.705421
9349.000000;0.705491
9348.000000;0.705561
9347.000000;0.705626
9346.000000;0.705734
9345.000000;0.705787
9344.000000;0.705541
9343.000000;0.704920
9342.000000;0.704234
9341.000000;0.703914
9340.000000;0.704100
9339.000000;0.704592
9338.000000;0.705120
9337.000000;0.705532
9336.000000;0.705741
9335.000000;0.705691
9334.000000;0.705425
9333.000000;0.705100
9332.000000;0.704869
9331.000000;0.704808
9330.000000;0.704913
9329.000000;0.705084
9328.000000;0.705114
9327.000000;0.704841
9326.000000;0.704366
9325.000000;0.704045
9324.000000;0.704170
9323.000000;0.704674
9322.000000;0.705178
9321.000000;0.705325
9320.000000;0.705078
9319.000000;0.704730
9318.000000;0.704592
9317.000000;0.704653
9316.000000;0.704591
9315.000000;0.704178
9314.000000;0.703606
9313.000000;0.703311
9312.000000;0.703473
9311.000000;0.703829
9310.000000;0.703986
9309.000000;0.703795
9308.000000;0.703385
9307.000000;0.702968
9306.000000;0.702711
9305.000000;0.702699
9304.000000;0.702914
9303.000000;0.703247
9302.000000;0.703570
9301.000000;0.703801
9300.000000;0.703882
9299.000000;0.703793
9298.000000;0.703613
9297.000000;0.703487
9296.000000;0.703452
9295.000000;0.703352
9294.000000;0.703041
9293.000000;0.702620
9292.000000;0.702358
9291.000000;0.702365
9290.000000;0.702459
9289.000000;0.702395
9288.000000;0.702151
9287.000000;0.701911
9286.000000;0.701818
9285.000000;0.701847
9284.000000;0.701918
9283.000000;0.702021
9282.000000;0.702136
9281.000000;0.702138
9280.000000;0.701905
9279.000000;0.701538
9278.000000;0.701334
9277.000000;0.701465
9276.000000;0.701781
9275.000000;0.702010
9274.000000;0.702066
9273.000000;0.702050
9272.000000;0.702016
9271.000000;0.701889
9270.000000;0.701631
9269.000000;0.701343
9268.000000;0.701149
9267.000000;0.701069
9266.000000;0.701060
9265.000000;0.701117
9264.000000;0.701264
9263.000000;0.701488
9262.000000;0.701710
9261.000000;0.701828
9260.000000;0.701781
9259.000000;0.701614
9258.000000;0.701455
9257.000000;0.701387
9256.000000;0.701343
9255.000000;0.701195
9254.000000;0.700934
9253.000000;0.700684
9252.000000;0.700546
9251.000000;0.700517
9250.000000;0.700566
9249.000000;0.700701
9248.000000;0.700901
9247.000000;0.701068
9246.000000;0.701101
9245.000000;0.700972
9244.000000;0.700700
9243.000000;0.700314
9242.000000;0.699900
9241.000000;0.699626
9240.000000;0.699627
9239.000000;0.699877
9238.000000;0.700210
9237.000000;0.700438
9236.000000;0.700453
9235.000000;0.700267
9234.000000;0.700017
9233.000000;0.699864
9232.000000;0.699858
9231.000000;0.699907
9230.000000;0.699915
9229.000000;0.699884
9228.000000;0.699833
9227.000000;0.699697
9226.000000;0.699380
9225.000000;0.698904
9224.000000;0.698430
9223.000000;0.698115
9222.000000;0.697994
9221.000000;0.697984
9220.000000;0.697975
9219.000000;0.697913
9218.000000;0.697814
9217.000000;0.697734
9216.000000;0.697723
9215.000000;0.697820
9214.000000;0.698055
9213.000000;0.698394
9212.000000;0.698690
9211.000000;0.698743
9210.000000;0.698479
9209.000000;0.698027
9208.000000;0.697619
9207.000000;0.697423
9206.000000;0.697450
9205.000000;0.697582
9204.000000;0.697676
9203.000000;0.697686
9202.000000;0.697687
9201.000000;0.697746
9200.000000;0.697796
9199.000000;0.697722
9198.000000;0.697554
9197.000000;0.697443
9196.000000;0.697426
9195.000000;0.697351
9194.000000;0.697093
9193.000000;0.696743
9192.000000;0.696476
9191.000000;0.696349
9190.000000;0.696332
9189.000000;0.696439
9188.000000;0.696661
9187.000000;0.696843
9186.000000;0.696819
9185.000000;0.696665
9184.000000;0.696654
9183.000000;0.696894
9182.000000;0.697178
9181.000000;0.697242
9180.000000;0.697059
9179.000000;0.696792
9178.000000;0.696561
9177.000000;0.696376
9176.000000;0.696248
9175.000000;0.696208
9174.000000;0.696206
9173.000000;0.696099
9172.000000;0.695820
9171.000000;0.695512
9170.000000;0.695395
9169.000000;0.695524
9168.000000;0.695730
9167.000000;0.695830
9166.000000;0.695810
9165.000000;0.695774
9164.000000;0.695758
9163.000000;0.695695
9162.000000;0.695540
9161.000000;0.695330
9160.000000;0.695123
9159.000000;0.694935
9158.000000;0.694776
9157.000000;0.694683
9156.000000;0.694677
9155.000000;0.694747
9154.000000;0.694874
9153.000000;0.695028
9152.000000;0.695137
9151.000000;0.695145
9150.000000;0.695115
9149.000000;0.695159
9148.000000;0.695247
9147.000000;0.695201
9146.000000;0.694956
9145.000000;0.694696
9144.000000;0.694608
9143.000000;0.694616
9142.000000;0.694503
9141.000000;0.694237
9140.000000;0.693991
9139.000000;0.693875
9138.000000;0.693819
9137.000000;0.693745
9136.000000;0.693699
9135.000000;0.693769
9134.000000;0.693948
9133.000000;0.694144
9132.000000;0.694238
9131.000000;0.694129
9130.000000;0.693816
9129.000000;0.693474
9128.000000;0.693360
9127.000000;0.693571
9126.000000;0.693960
9125.000000;0.694300
9124.000000;0.694455
9123.000000;0.694397
9122.000000;0.694172
9121.000000;0.693913
9120.000000;0.693774
9119.000000;0.693769
9118.000000;0.693738
9117.000000;0.693564
9116.000000;0.693350
9115.000000;0.693294
9114.000000;0.693438
9113.000000;0.693626
9112.000000;0.693698
9111.000000;0.693626
9110.000000;0.693457
9109.000000;0.693228
9108.000000;0.692982
9107.000000;0.692801
9106.000000;0.692763
9105.000000;0.692860
9104.000000;0.692994
9103.000000;0.693063
9102.000000;0.693051
9101.000000;0.693029
9100.000000;0.693056
9099.000000;0.693089
9098.000000;0.692994
9097.000000;0.692681
9096.000000;0.692202
9095.000000;0.691732
9094.000000;0.691452
9093.000000;0.691433
9092.000000;0.691586
9091.000000;0.691724
9090.000000;0.691710
9089.000000;0.691546
9088.000000;0.691343
9087.000000;0.691206
9086.000000;0.691202
9085.000000;0.691368
9084.000000;0.691670
9083.000000;0.691954
9082.000000;0.692045
9081.000000;0.691944
9080.000000;0.691841
9079.000000;0.691883
9078.000000;0.691988
9077.000000;0.691967
9076.000000;0.691770
9075.000000;0.691519
9074.000000;0.691320
9073.000000;0.691144
9072.000000;0.690913
9071.000000;0.690642
9070.000000;0.690426
9069.000000;0.690340
9068.000000;0.690361
9067.000000;0.690397
9066.000000;0.690374
9065.000000;0.690303
9064.000000;0.690250
9063.000000;0.690250
9062.000000;0.690243
9061.000000;0.690149
9060.000000;0.689976
9059.000000;0.689825
9058.000000;0.689769
9057.000000;0.689765
9056.000000;0.689702
9055.000000;0.689535
9054.000000;0.689336
9053.000000;0.689225
