Criado como novo conjunto de dados;"2706_e01_daniel.spp","105127.5 Secs"
cm-1;Abs
10000.000000;0.864227
9999.000000;0.864216
9998.000000;0.864206
9997.000000;0.864195
9996.000000;0.864184
9995.000000;0.864173
9994.000000;0.864164
9993.000000;0.864150
9992.000000;0.864147
9991.000000;0.863937
9990.000000;0.863910
9989.000000;0.864336
9988.000000;0.864983
9987.000000;0.865323
9986.000000;0.865048
9985.000000;0.864400
9984.000000;0.863911
9983.000000;0.863827
9982.000000;0.863906
9981.000000;0.863832
9980.000000;0.863674
9979.000000;0.863733
9978.000000;0.864022
9977.000000;0.864180
9976.000000;0.863941
9975.000000;0.863459
9974.000000;0.863061
9973.000000;0.862838
9972.000000;0.862646
9971.000000;0.862409
9970.000000;0.862231
9969.000000;0.862227
9968.000000;0.862381
9967.000000;0.862609
9966.000000;0.862859
9965.000000;0.863105
9964.000000;0.863301
9963.000000;0.863419
9962.000000;0.863529
9961.000000;0.863776
9960.000000;0.864213
9959.000000;0.864642
9958.000000;0.864726
9957.000000;0.864339
9956.000000;0.863722
9955.000000;0.863206
9954.000000;0.862844
9953.000000;0.862430
9952.000000;0.861881
9951.000000;0.861425
9950.000000;0.861348
9949.000000;0.861657
9948.000000;0.862085
9947.000000;0.862375
9946.000000;0.862512
9945.000000;0.862682
9944.000000;0.863044
9943.000000;0.863519
9942.000000;0.863817
9941.000000;0.863653
9940.000000;0.862961
9939.000000;0.861922
9938.000000;0.860903
9937.000000;0.860373
9936.000000;0.860668
9935.000000;0.861626
9934.000000;0.862513
9933.000000;0.862598
9932.000000;0.861854
9931.000000;0.860906
9930.000000;0.860293
9929.000000;0.860010
9928.000000;0.859803
9927.000000;0.859594
9926.000000;0.859460
9925.000000;0.859412
9924.000000;0.859434
9923.000000;0.859603
9922.000000;0.859951
9921.000000;0.860246
9920.000000;0.860166
9919.000000;0.859676
9918.000000;0.859100
9917.000000;0.858815
9916.000000;0.858971
9915.000000;0.859463
9914.000000;0.860017
9913.000000;0.860361
9912.000000;0.860441
9911.000000;0.860455
9910.000000;0.860532
9909.000000;0.860451
9908.000000;0.859884
9907.000000;0.858921
9906.000000;0.858122
9905.000000;0.857947
9904.000000;0.858263
9903.000000;0.858518
9902.000000;0.858321
9901.000000;0.857754
9900.000000;0.857189
9899.000000;0.856917
9898.000000;0.856933
9897.000000;0.856993
9896.000000;0.856866
9895.000000;0.856560
9894.000000;0.856321
9893.000000;0.856400
9892.000000;0.856824
9891.000000;0.857364
9890.000000;0.857675
9889.000000;0.857524
9888.000000;0.856951
9887.000000;0.856235
9886.000000;0.855656
9885.000000;0.855325
9884.000000;0.855260
9883.000000;0.855553
9882.000000;0.856273
9881.000000;0.857190
9880.000000;0.857770
9879.000000;0.857613
9878.000000;0.856857
9877.000000;0.856032
9876.000000;0.855561
9875.000000;0.855495
9874.000000;0.855670
9873.000000;0.855928
9872.000000;0.856164
9871.000000;0.856298
9870.000000;0.856309
9869.000000;0.856229
9868.000000;0.856046
9867.000000;0.855694
9866.000000;0.855233
9865.000000;0.854958
9864.000000;0.855120
9863.000000;0.855522
9862.000000;0.855611
9861.000000;0.855092
9860.000000;0.854331
9859.000000;0.853976
9858.000000;0.854247
9857.000000;0.854776
9856.000000;0.855092
9855.000000;0.855096
9854.000000;0.854988
9853.000000;0.854915
9852.000000;0.854829
9851.000000;0.854606
9850.000000;0.854181
9849.000000;0.853616
9848.000000;0.853148
9847.000000;0.853088
9846.000000;0.853524
9845.000000;0.854129
9844.000000;0.854384
9843.000000;0.854086
9842.000000;0.853541
9841.000000;0.853232
9840.000000;0.853352
9839.000000;0.853717
9838.000000;0.854022
9837.000000;0.854088
9836.000000;0.853896
9835.000000;0.853523
9834.000000;0.853128
9833.000000;0.852876
9832.000000;0.852772
9831.000000;0.852613
9830.000000;0.852258
9829.000000;0.851920
9828.000000;0.852011
9827.000000;0.852596
9826.000000;0.853184
9825.000000;0.853230
9824.000000;0.852720
9823.000000;0.852083
9822.000000;0.851636
9821.000000;0.851398
9820.000000;0.851396
9819.000000;0.851757
9818.000000;0.852325
9817.000000;0.852529
9816.000000;0.851988
9815.000000;0.851102
9814.000000;0.850700
9813.000000;0.851110
9812.000000;0.851850
9811.000000;0.852268
9810.000000;0.852244
9809.000000;0.852137
9808.000000;0.852251
9807.000000;0.852562
9806.000000;0.852846
9805.000000;0.852876
9804.000000;0.852512
9803.000000;0.851796
9802.000000;0.850999
9801.000000;0.850496
9800.000000;0.850489
9799.000000;0.850844
9798.000000;0.851200
9797.000000;0.851236
9796.000000;0.850845
9795.000000;0.850137
9794.000000;0.849333
9793.000000;0.848685
9792.000000;0.848393
9791.000000;0.848505
9790.000000;0.848883
9789.000000;0.849339
9788.000000;0.849771
9787.000000;0.850108
9786.000000;0.850153
9785.000000;0.849715
9784.000000;0.848982
9783.000000;0.848556
9782.000000;0.848868
9781.000000;0.849629
9780.000000;0.850069
9779.000000;0.849755
9778.000000;0.848979
9777.000000;0.848337
9776.000000;0.848172
9775.000000;0.848499
9774.000000;0.849195
9773.000000;0.849988
9772.000000;0.850435
9771.000000;0.850215
9770.000000;0.849458
9769.000000;0.848663
9768.000000;0.848256
9767.000000;0.848348
9766.000000;0.848790
9765.000000;0.849279
9764.000000;0.849417
9763.000000;0.848962
9762.000000;0.848103
9761.000000;0.847357
9760.000000;0.847087
9759.000000;0.847224
9758.000000;0.847474
9757.000000;0.847674
9756.000000;0.847828
9755.000000;0.847948
9754.000000;0.848007
9753.000000;0.848039
9752.000000;0.848125
9751.000000;0.848270
9750.000000;0.848376
9749.000000;0.848361
9748.000000;0.848252
9747.000000;0.848136
9746.000000;0.848046
9745.000000;0.847892
9744.000000;0.847542
9743.000000;0.846994
9742.000000;0.846462
9741.000000;0.846192
9740.000000;0.846176
9739.000000;0.846128
9738.000000;0.845845
9737.000000;0.845503
9736.000000;0.845501
9735.000000;0.846024
9734.000000;0.846836
9733.000000;0.847492
9732.000000;0.847687
9731.000000;0.847437
9730.000000;0.847012
9729.000000;0.846724
9728.000000;0.846700
9727.000000;0.846817
9726.000000;0.846861
9725.000000;0.846709
9724.000000;0.846335
9723.000000;0.845745
9722.000000;0.845025
9721.000000;0.844440
9720.000000;0.844314
9719.000000;0.844717
9718.000000;0.845330
9717.000000;0.845676
9716.000000;0.845497
9715.000000;0.844919
9714.000000;0.844303
9713.000000;0.843939
9712.000000;0.843865
9711.000000;0.843945
9710.000000;0.844076
9709.000000;0.844265
9708.000000;0.844478
9707.000000;0.844558
9706.000000;0.844390
9705.000000;0.844078
9704.000000;0.843839
9703.000000;0.843765
9702.000000;0.843807
9701.000000;0.843938
9700.000000;0.844157
9699.000000;0.844346
9698.000000;0.844314
9697.000000;0.844020
9696.000000;0.843593
9695.000000;0.843125
9694.000000;0.842614
9693.000000;0.842183
9692.000000;0.842110
9691.000000;0.842500
9690.000000;0.843067
9689.000000;0.843389
9688.000000;0.843298
9687.000000;0.842926
9686.000000;0.842512
9685.000000;0.842299
9684.000000;0.842491
9683.000000;0.843075
9682.000000;0.843701
9681.000000;0.843926
9680.000000;0.843624
9679.000000;0.843042
9678.000000;0.842501
9677.000000;0.842123
9676.000000;0.841857
9675.000000;0.841616
9674.000000;0.841365
9673.000000;0.841167
9672.000000;0.841163
9671.000000;0.841450
9670.000000;0.841978
9669.000000;0.842591
9668.000000;0.843151
9667.000000;0.843555
9666.000000;0.843690
9665.000000;0.843463
9664.000000;0.842894
9663.000000;0.842137
9662.000000;0.841440
9661.000000;0.841088
9660.000000;0.841266
9659.000000;0.841857
9658.000000;0.842442
9657.000000;0.842622
9656.000000;0.842344
9655.000000;0.841854
9654.000000;0.841376
9653.000000;0.840975
9652.000000;0.840642
9651.000000;0.840354
9650.000000;0.840028
9649.000000;0.839581
9648.000000;0.839073
9647.000000;0.838699
9646.000000;0.838585
9645.000000;0.838680
9644.000000;0.838860
9643.000000;0.839057
9642.000000;0.839247
9641.000000;0.839407
9640.000000;0.839568
9639.000000;0.839850
9638.000000;0.840343
9637.000000;0.840922
9636.000000;0.841258
9635.000000;0.841082
9634.000000;0.840493
9633.000000;0.839938
9632.000000;0.839805
9631.000000;0.840042
9630.000000;0.840216
9629.000000;0.839957
9628.000000;0.839244
9627.000000;0.838324
9626.000000;0.837526
9625.000000;0.837173
9624.000000;0.837452
9623.000000;0.838199
9622.000000;0.838943
9621.000000;0.839298
9620.000000;0.839253
9619.000000;0.838998
9618.000000;0.838673
9617.000000;0.838415
9616.000000;0.838428
9615.000000;0.838722
9614.000000;0.838938
9613.000000;0.838726
9612.000000;0.838239
9611.000000;0.837950
9610.000000;0.838016
9609.000000;0.838123
9608.000000;0.837965
9607.000000;0.837592
9606.000000;0.837217
9605.000000;0.836975
9604.000000;0.836947
9603.000000;0.837174
9602.000000;0.837517
9601.000000;0.837723
9600.000000;0.837736
9599.000000;0.837736
9598.000000;0.837786
9597.000000;0.837683
9596.000000;0.837328
9595.000000;0.837017
9594.000000;0.837105
9593.000000;0.837517
9592.000000;0.837799
9591.000000;0.837615
9590.000000;0.837046
9589.000000;0.836446
9588.000000;0.836148
9587.000000;0.836228
9586.000000;0.836446
9585.000000;0.836451
9584.000000;0.836131
9583.000000;0.835706
9582.000000;0.835422
9581.000000;0.835282
9580.000000;0.835153
9579.000000;0.835007
9578.000000;0.834915
9577.000000;0.834900
9576.000000;0.834941
9575.000000;0.835081
9574.000000;0.835379
9573.000000;0.835766
9572.000000;0.836046
9571.000000;0.836045
9570.000000;0.835718
9569.000000;0.835169
9568.000000;0.834639
9567.000000;0.834385
9566.000000;0.834480
9565.000000;0.834771
9564.000000;0.835071
9563.000000;0.835303
9562.000000;0.835407
9561.000000;0.835238
9560.000000;0.834715
9559.000000;0.833998
9558.000000;0.833393
9557.000000;0.833132
9556.000000;0.833296
9555.000000;0.833832
9554.000000;0.834487
9553.000000;0.834847
9552.000000;0.834643
9551.000000;0.834034
9550.000000;0.833433
9549.000000;0.833099
9548.000000;0.833023
9547.000000;0.833139
9546.000000;0.833419
9545.000000;0.833731
9544.000000;0.833851
9543.000000;0.833702
9542.000000;0.833466
9541.000000;0.833336
9540.000000;0.833289
9539.000000;0.833205
9538.000000;0.833120
9537.000000;0.833189
9536.000000;0.833430
9535.000000;0.833628
9534.000000;0.833562
9533.000000;0.833244
9532.000000;0.832887
9531.000000;0.832654
9530.000000;0.832510
9529.000000;0.832336
9528.000000;0.832132
9527.000000;0.832018
9526.000000;0.832062
9525.000000;0.832190
9524.000000;0.832277
9523.000000;0.832270
9522.000000;0.832152
9521.000000;0.831873
9520.000000;0.831405
9519.000000;0.830878
9518.000000;0.830535
9517.000000;0.830508
9516.000000;0.830645
9515.000000;0.830637
9514.000000;0.830352
9513.000000;0.830018
9512.000000;0.829990
9511.000000;0.830333
9510.000000;0.830725
9509.000000;0.830836
9508.000000;0.830701
9507.000000;0.830605
9506.000000;0.830698
9505.000000;0.830876
9504.000000;0.830994
9503.000000;0.830995
9502.000000;0.830841
9501.000000;0.830531
9500.000000;0.830253
9499.000000;0.830278
9498.000000;0.830606
9497.000000;0.830907
9496.000000;0.830935
9495.000000;0.830805
9494.000000;0.830695
9493.000000;0.830485
9492.000000;0.829965
9491.000000;0.829295
9490.000000;0.828961
9489.000000;0.829239
9488.000000;0.829895
9487.000000;0.830430
9486.000000;0.830490
9485.000000;0.830055
9484.000000;0.829406
9483.000000;0.828937
9482.000000;0.828857
9481.000000;0.829006
9480.000000;0.829037
9479.000000;0.828789
9478.000000;0.828397
9477.000000;0.828082
9476.000000;0.827972
9475.000000;0.828117
9474.000000;0.828489
9473.000000;0.828900
9472.000000;0.829069
9471.000000;0.828872
9470.000000;0.828456
9469.000000;0.828051
9468.000000;0.827771
9467.000000;0.827620
9466.000000;0.827571
9465.000000;0.827556
9464.000000;0.827464
9463.000000;0.827266
9462.000000;0.827091
9461.000000;0.827081
9460.000000;0.827203
9459.000000;0.827269
9458.000000;0.827150
9457.000000;0.826875
9456.000000;0.826552
9455.000000;0.826259
9454.000000;0.826047
9453.000000;0.825983
9452.000000;0.826105
9451.000000;0.826350
9450.000000;0.826584
9449.000000;0.826746
9448.000000;0.826926
9447.000000;0.827238
9446.000000;0.827617
9445.000000;0.827812
9444.000000;0.827621
9443.000000;0.827110
9442.000000;0.826581
9441.000000;0.826330
9440.000000;0.826436
9439.000000;0.826721
9438.000000;0.826867
9437.000000;0.826670
9436.000000;0.826243
9435.000000;0.825937
9434.000000;0.825982
9433.000000;0.826223
9432.000000;0.826301
9431.000000;0.826085
9430.000000;0.825823
9429.000000;0.825827
9428.000000;0.826108
9427.000000;0.826399
9426.000000;0.826488
9425.000000;0.826416
9424.000000;0.826306
9423.000000;0.826107
9422.000000;0.825671
9421.000000;0.825089
9420.000000;0.824779
9419.000000;0.825090
9418.000000;0.825849
9417.000000;0.826480
9416.000000;0.826585
9415.000000;0.826262
9414.000000;0.825839
9413.000000;0.825488
9412.000000;0.825223
9411.000000;0.825070
9410.000000;0.825046
9409.000000;0.825034
9408.000000;0.824903
9407.000000;0.824706
9406.000000;0.824576
9405.000000;0.824475
9404.000000;0.824250
9403.000000;0.823956
9402.000000;0.823892
9401.000000;0.824200
9400.000000;0.824608
9399.000000;0.824697
9398.000000;0.824344
9397.000000;0.823798
9396.000000;0.823401
9395.000000;0.823342
9394.000000;0.823603
9393.000000;0.823991
9392.000000;0.824229
9391.000000;0.824142
9390.000000;0.823807
9389.000000;0.823472
9388.000000;0.823324
9387.000000;0.823355
9386.000000;0.823431
9385.000000;0.823432
9384.000000;0.823297
9383.000000;0.822978
9382.000000;0.822428
9381.000000;0.821669
9380.000000;0.820881
9379.000000;0.820371
9378.000000;0.820355
9377.000000;0.820741
9376.000000;0.821169
9375.000000;0.821326
9374.000000;0.821199
9373.000000;0.821000
9372.000000;0.820918
9371.000000;0.820998
9370.000000;0.821223
9369.000000;0.821567
9368.000000;0.821916
9367.000000;0.822061
9366.000000;0.821874
9365.000000;0.821478
9364.000000;0.821135
9363.000000;0.820968
9362.000000;0.820887
9361.000000;0.820796
9360.000000;0.820773
9359.000000;0.820947
9358.000000;0.821270
9357.000000;0.821517
9356.000000;0.821531
9355.000000;0.821373
9354.000000;0.821201
9353.000000;0.821098
9352.000000;0.821080
9351.000000;0.821189
9350.000000;0.821474
9349.000000;0.821867
9348.000000;0.822156
9347.000000;0.822148
9346.000000;0.821848
9345.000000;0.821436
9344.000000;0.821093
9343.000000;0.820862
9342.000000;0.820681
9341.000000;0.820492
9340.000000;0.820286
9339.000000;0.820075
9338.000000;0.819903
9337.000000;0.819863
9336.000000;0.820020
9335.000000;0.820263
9334.000000;0.820342
9333.000000;0.820138
9332.000000;0.819822
9331.000000;0.819656
9330.000000;0.819673
9329.000000;0.819702
9328.000000;0.819665
9327.000000;0.819669
9326.000000;0.819778
9325.000000;0.819868
9324.000000;0.819814
9323.000000;0.819679
9322.000000;0.819605
9321.000000;0.819582
9320.000000;0.819494
9319.000000;0.819334
9318.000000;0.819236
9317.000000;0.819248
9316.000000;0.819210
9315.000000;0.818945
9314.000000;0.818520
9313.000000;0.818234
9312.000000;0.818316
9311.000000;0.818664
9310.000000;0.818926
9309.000000;0.818861
9308.000000;0.818541
9307.000000;0.818194
9306.000000;0.817943
9305.000000;0.817769
9304.000000;0.817653
9303.000000;0.817602
9302.000000;0.817541
9301.000000;0.817361
9300.000000;0.817112
9299.000000;0.816997
9298.000000;0.817097
9297.000000;0.817221
9296.000000;0.817135
9295.000000;0.816861
9294.000000;0.816651
9293.000000;0.816723
9292.000000;0.817081
9291.000000;0.817522
9290.000000;0.817737
9289.000000;0.817519
9288.000000;0.816978
9287.000000;0.816500
9286.000000;0.816373
9285.000000;0.816490
9284.000000;0.816500
9283.000000;0.816222
9282.000000;0.815800
9281.000000;0.815519
9280.000000;0.815567
9279.000000;0.815941
9278.000000;0.816460
9277.000000;0.816847
9276.000000;0.816909
9275.000000;0.816674
9274.000000;0.816333
9273.000000;0.816068
9272.000000;0.815955
9271.000000;0.815976
9270.000000;0.816051
9269.000000;0.816091
9268.000000;0.816074
9267.000000;0.816040
9266.000000;0.815995
9265.000000;0.815901
9264.000000;0.815808
9263.000000;0.815854
9262.000000;0.816026
9261.000000;0.816063
9260.000000;0.815745
9259.000000;0.815208
9258.000000;0.814794
9257.000000;0.814671
9256.000000;0.814757
9255.000000;0.814952
9254.000000;0.815174
9253.000000;0.815237
9252.000000;0.814967
9251.000000;0.814510
9250.000000;0.814261
9249.000000;0.814357
9248.000000;0.814440
9247.000000;0.814109
9246.000000;0.813447
9245.000000;0.812922
9244.000000;0.812855
9243.000000;0.813168
9242.000000;0.813614
9241.000000;0.814044
9240.000000;0.814421
9239.000000;0.814704
9238.000000;0.814812
9237.000000;0.814685
9236.000000;0.814342
9235.000000;0.813899
9234.000000;0.813525
9233.000000;0.813348
9232.000000;0.813384
9231.000000;0.813540
9230.000000;0.813660
9229.000000;0.813595
9228.000000;0.813326
9227.000000;0.813056
9226.000000;0.813093
9225.000000;0.813554
9224.000000;0.814184
9223.000000;0.814525
9222.000000;0.814282
9221.000000;0.813531
9220.000000;0.812616
9219.000000;0.811900
9218.000000;0.811583
9217.000000;0.811648
9216.000000;0.811910
9215.000000;0.812151
9214.000000;0.812239
9213.000000;0.812166
9212.000000;0.811970
9211.000000;0.811665
9210.000000;0.811283
9209.000000;0.810950
9208.000000;0.810858
9207.000000;0.811105
9206.000000;0.811598
9205.000000;0.812141
9204.000000;0.812577
9203.000000;0.812800
9202.000000;0.812715
9201.000000;0.812315
9200.000000;0.811796
9199.000000;0.811429
9198.000000;0.811284
9197.000000;0.811175
9196.000000;0.810945
9195.000000;0.810671
9194.000000;0.810504
9193.000000;0.810434
9192.000000;0.810368
9191.000000;0.810338
9190.000000;0.810456
9189.000000;0.810681
9188.000000;0.810806
9187.000000;0.810693
9186.000000;0.810407
9185.000000;0.810105
9184.000000;0.809893
9183.000000;0.809810
9182.000000;0.809838
9181.000000;0.809905
9180.000000;0.809954
9179.000000;0.810004
9178.000000;0.810091
9177.000000;0.810178
9176.000000;0.810225
9175.000000;0.810293
9174.000000;0.810444
9173.000000;0.810540
9172.000000;0.810336
9171.000000;0.809819
9170.000000;0.809307
9169.000000;0.809121
9168.000000;0.809271
9167.000000;0.809513
9166.000000;0.809609
9165.000000;0.809444
9164.000000;0.809029
9163.000000;0.808521
9162.000000;0.808185
9161.000000;0.808197
9160.000000;0.808472
9159.000000;0.808736
9158.000000;0.808766
9157.000000;0.808553
9156.000000;0.808285
9155.000000;0.808197
9154.000000;0.808371
9153.000000;0.808660
9152.000000;0.808843
9151.000000;0.808878
9150.000000;0.808918
9149.000000;0.809053
9148.000000;0.809160
9147.000000;0.809082
9146.000000;0.808845
9145.000000;0.808596
9144.000000;0.808387
9143.000000;0.808152
9142.000000;0.807853
9141.000000;0.807545
9140.000000;0.807292
9139.000000;0.807113
9138.000000;0.807010
9137.000000;0.807004
9136.000000;0.807096
9135.000000;0.807230
9134.000000;0.807302
9133.000000;0.807224
9132.000000;0.807004
9131.000000;0.806761
9130.000000;0.806596
9129.000000;0.806445
9128.000000;0.806142
9127.000000;0.805678
9126.000000;0.805307
9125.000000;0.805318
9124.000000;0.805726
9123.000000;0.806264
9122.000000;0.806659
9121.000000;0.806839
9120.000000;0.806904
9119.000000;0.806954
9118.000000;0.806976
9117.000000;0.806889
9116.000000;0.806685
9115.000000;0.806512
9114.000000;0.806520
9113.000000;0.806640
9112.000000;0.806605
9111.000000;0.806276
9110.000000;0.805839
9109.000000;0.805589
9108.000000;0.805575
9107.000000;0.805582
9106.000000;0.805413
9105.000000;0.805091
9104.000000;0.804789
9103.000000;0.804672
9102.000000;0.804805
9101.000000;0.805110
9100.000000;0.805370
9099.000000;0.805379
9098.000000;0.805126
9097.000000;0.804796
9096.000000;0.804585
9095.000000;0.804554
9094.000000;0.804660
9093.000000;0.804833
9092.000000;0.805005
9091.000000;0.805116
9090.000000;0.805144
9089.000000;0.805103
9088.000000;0.805007
9087.000000;0.804898
9086.000000;0.804880
9085.000000;0.805033
9084.000000;0.805257
9083.000000;0.805295
9082.000000;0.804989
9081.000000;0.804470
9080.000000;0.804003
9079.000000;0.803710
9078.000000;0.803525
9077.000000;0.803389
9076.000000;0.803380
9075.000000;0.803598
9074.000000;0.804000
9073.000000;0.804402
9072.000000;0.804594
9071.000000;0.804440
9070.000000;0.803933
9069.000000;0.803237
9068.000000;0.802665
9067.000000;0.802501
9066.000000;0.802759
9065.000000;0.803149
9064.000000;0.803335
9063.000000;0.803238
9062.000000;0.803081
9061.000000;0.803119
9060.000000;0.803359
9059.000000;0.803552
9058.000000;0.803442
9057.000000;0.802995
9056.000000;0.802417
9055.000000;0.801958
9054.000000;0.801727
9053.000000;0.801672
