Criado como novo conjunto de dados;"2706_e01_daniel.spp","1801.8 Secs"
cm-1;Abs
10000.000000;0.477340
9999.000000;0.477262
9998.000000;0.477188
9997.000000;0.477107
9996.000000;0.477039
9995.000000;0.476944
9994.000000;0.476930
9993.000000;0.477196
9992.000000;0.477525
9991.000000;0.477745
9990.000000;0.477761
9989.000000;0.477619
9988.000000;0.477383
9987.000000;0.477093
9986.000000;0.476777
9985.000000;0.476504
9984.000000;0.476349
9983.000000;0.476339
9982.000000;0.476434
9981.000000;0.476572
9980.000000;0.476712
9979.000000;0.476852
9978.000000;0.477036
9977.000000;0.477328
9976.000000;0.477737
9975.000000;0.478155
9974.000000;0.478388
9973.000000;0.478280
9972.000000;0.477843
9971.000000;0.477293
9970.000000;0.476928
9969.000000;0.476927
9968.000000;0.477211
9967.000000;0.477488
9966.000000;0.477470
9965.000000;0.477101
9964.000000;0.476625
9963.000000;0.476405
9962.000000;0.476634
9961.000000;0.477165
9960.000000;0.477647
9959.000000;0.477844
9958.000000;0.477803
9957.000000;0.477716
9956.000000;0.477675
9955.000000;0.477636
9954.000000;0.477537
9953.000000;0.477338
9952.000000;0.476999
9951.000000;0.476543
9950.000000;0.476161
9949.000000;0.476065
9948.000000;0.476192
9947.000000;0.476209
9946.000000;0.475938
9945.000000;0.475642
9944.000000;0.475713
9943.000000;0.476153
9942.000000;0.476576
9941.000000;0.476724
9940.000000;0.476772
9939.000000;0.477045
9938.000000;0.477567
9937.000000;0.478036
9936.000000;0.478171
9935.000000;0.477983
9934.000000;0.477717
9933.000000;0.477593
9932.000000;0.477620
9931.000000;0.477596
9930.000000;0.477301
9929.000000;0.476736
9928.000000;0.476151
9927.000000;0.475823
9926.000000;0.475818
9925.000000;0.475984
9924.000000;0.476160
9923.000000;0.476297
9922.000000;0.476383
9921.000000;0.476359
9920.000000;0.476207
9919.000000;0.476082
9918.000000;0.476213
9917.000000;0.476636
9916.000000;0.477084
9915.000000;0.477228
9914.000000;0.476989
9913.000000;0.476563
9912.000000;0.476176
9911.000000;0.475931
9910.000000;0.475881
9909.000000;0.476097
9908.000000;0.476533
9907.000000;0.476925
9906.000000;0.476970
9905.000000;0.476627
9904.000000;0.476164
9903.000000;0.475880
9902.000000;0.475874
9901.000000;0.476061
9900.000000;0.476302
9899.000000;0.476464
9898.000000;0.476492
9897.000000;0.476494
9896.000000;0.476683
9895.000000;0.477102
9894.000000;0.477459
9893.000000;0.477385
9892.000000;0.476865
9891.000000;0.476283
9890.000000;0.476016
9889.000000;0.476082
9888.000000;0.476235
9887.000000;0.476296
9886.000000;0.476265
9885.000000;0.476189
9884.000000;0.476080
9883.000000;0.475991
9882.000000;0.476036
9881.000000;0.476249
9880.000000;0.476479
9879.000000;0.476485
9878.000000;0.476187
9877.000000;0.475793
9876.000000;0.475640
9875.000000;0.475895
9874.000000;0.476355
9873.000000;0.476610
9872.000000;0.476431
9871.000000;0.476005
9870.000000;0.475741
9869.000000;0.475853
9868.000000;0.476199
9867.000000;0.476521
9866.000000;0.476725
9865.000000;0.476868
9864.000000;0.476968
9863.000000;0.476956
9862.000000;0.476817
9861.000000;0.476708
9860.000000;0.476836
9859.000000;0.477224
9858.000000;0.477608
9857.000000;0.477614
9856.000000;0.477100
9855.000000;0.476329
9854.000000;0.475761
9853.000000;0.475667
9852.000000;0.475950
9851.000000;0.476320
9850.000000;0.476566
9849.000000;0.476657
9848.000000;0.476680
9847.000000;0.476760
9846.000000;0.476980
9845.000000;0.477272
9844.000000;0.477415
9843.000000;0.477220
9842.000000;0.476720
9841.000000;0.476124
9840.000000;0.475617
9839.000000;0.475259
9838.000000;0.475063
9837.000000;0.475046
9836.000000;0.475195
9835.000000;0.475441
9834.000000;0.475713
9833.000000;0.475969
9832.000000;0.476175
9831.000000;0.476312
9830.000000;0.476415
9829.000000;0.476522
9828.000000;0.476587
9827.000000;0.476500
9826.000000;0.476239
9825.000000;0.475932
9824.000000;0.475729
9823.000000;0.475680
9822.000000;0.475761
9821.000000;0.475963
9820.000000;0.476269
9819.000000;0.476555
9818.000000;0.476626
9817.000000;0.476380
9816.000000;0.475958
9815.000000;0.475668
9814.000000;0.475733
9813.000000;0.476076
9812.000000;0.476415
9811.000000;0.476579
9810.000000;0.476695
9809.000000;0.476980
9808.000000;0.477390
9807.000000;0.477591
9806.000000;0.477312
9805.000000;0.476652
9804.000000;0.475972
9803.000000;0.475563
9802.000000;0.475473
9801.000000;0.475595
9800.000000;0.475807
9799.000000;0.476022
9798.000000;0.476180
9797.000000;0.476238
9796.000000;0.476156
9795.000000;0.475907
9794.000000;0.475543
9793.000000;0.475224
9792.000000;0.475130
9791.000000;0.475311
9790.000000;0.475643
9789.000000;0.475947
9788.000000;0.476136
9787.000000;0.476243
9786.000000;0.476334
9785.000000;0.476420
9784.000000;0.476460
9783.000000;0.476417
9782.000000;0.476285
9781.000000;0.476082
9780.000000;0.475848
9779.000000;0.475650
9778.000000;0.475578
9777.000000;0.475694
9776.000000;0.475987
9775.000000;0.476364
9774.000000;0.476690
9773.000000;0.476839
9772.000000;0.476760
9771.000000;0.476520
9770.000000;0.476260
9769.000000;0.476083
9768.000000;0.476001
9767.000000;0.475994
9766.000000;0.476093
9765.000000;0.476337
9764.000000;0.476685
9763.000000;0.476997
9762.000000;0.477131
9761.000000;0.477032
9760.000000;0.476761
9759.000000;0.476477
9758.000000;0.476356
9757.000000;0.476455
9756.000000;0.476618
9755.000000;0.476604
9754.000000;0.476334
9753.000000;0.476009
9752.000000;0.475937
9751.000000;0.476235
9750.000000;0.476682
9749.000000;0.476894
9748.000000;0.476650
9747.000000;0.476088
9746.000000;0.475557
9745.000000;0.475303
9744.000000;0.475325
9743.000000;0.475514
9742.000000;0.475808
9741.000000;0.476152
9740.000000;0.476404
9739.000000;0.476398
9738.000000;0.476122
9737.000000;0.475732
9736.000000;0.475411
9735.000000;0.475282
9734.000000;0.475411
9733.000000;0.475773
9732.000000;0.476197
9731.000000;0.476460
9730.000000;0.476496
9729.000000;0.476436
9728.000000;0.476441
9727.000000;0.476551
9726.000000;0.476703
9725.000000;0.476813
9724.000000;0.476806
9723.000000;0.476665
9722.000000;0.476503
9721.000000;0.476488
9720.000000;0.476639
9719.000000;0.476749
9718.000000;0.476597
9717.000000;0.476191
9716.000000;0.475762
9715.000000;0.475532
9714.000000;0.475548
9713.000000;0.475705
9712.000000;0.475875
9711.000000;0.476027
9710.000000;0.476238
9709.000000;0.476568
9708.000000;0.476927
9707.000000;0.477127
9706.000000;0.477057
9705.000000;0.476761
9704.000000;0.476343
9703.000000;0.475889
9702.000000;0.475528
9701.000000;0.475434
9700.000000;0.475643
9699.000000;0.475957
9698.000000;0.476126
9697.000000;0.476115
9696.000000;0.476100
9695.000000;0.476231
9694.000000;0.476476
9693.000000;0.476674
9692.000000;0.476685
9691.000000;0.476506
9690.000000;0.476311
9689.000000;0.476333
9688.000000;0.476643
9687.000000;0.477040
9686.000000;0.477228
9685.000000;0.477085
9684.000000;0.476719
9683.000000;0.476299
9682.000000;0.475943
9681.000000;0.475706
9680.000000;0.475589
9679.000000;0.475535
9678.000000;0.475518
9677.000000;0.475625
9676.000000;0.475962
9675.000000;0.476451
9674.000000;0.476843
9673.000000;0.476969
9672.000000;0.476877
9671.000000;0.476708
9670.000000;0.476519
9669.000000;0.476322
9668.000000;0.476187
9667.000000;0.476180
9666.000000;0.476230
9665.000000;0.476163
9664.000000;0.475911
9663.000000;0.475635
9662.000000;0.475598
9661.000000;0.475927
9660.000000;0.476469
9659.000000;0.476904
9658.000000;0.477018
9657.000000;0.476892
9656.000000;0.476786
9655.000000;0.476828
9654.000000;0.476904
9653.000000;0.476882
9652.000000;0.476862
9651.000000;0.477048
9650.000000;0.477429
9649.000000;0.477703
9648.000000;0.477580
9647.000000;0.477067
9646.000000;0.476428
9645.000000;0.475945
9644.000000;0.475761
9643.000000;0.475862
9642.000000;0.476104
9641.000000;0.476284
9640.000000;0.476291
9639.000000;0.476207
9638.000000;0.476213
9637.000000;0.476407
9636.000000;0.476740
9635.000000;0.477098
9634.000000;0.477370
9633.000000;0.477443
9632.000000;0.477260
9631.000000;0.476920
9630.000000;0.476641
9629.000000;0.476574
9628.000000;0.476694
9627.000000;0.476895
9626.000000;0.477116
9625.000000;0.477319
9624.000000;0.477426
9623.000000;0.477380
9622.000000;0.477242
9621.000000;0.477131
9620.000000;0.477066
9619.000000;0.476958
9618.000000;0.476770
9617.000000;0.476594
9616.000000;0.476541
9615.000000;0.476623
9614.000000;0.476779
9613.000000;0.476972
9612.000000;0.477186
9611.000000;0.477344
9610.000000;0.477303
9609.000000;0.476980
9608.000000;0.476492
9607.000000;0.476141
9606.000000;0.476180
9605.000000;0.476559
9604.000000;0.476934
9603.000000;0.477012
9602.000000;0.476852
9601.000000;0.476751
9600.000000;0.476855
9599.000000;0.477001
9598.000000;0.476988
9597.000000;0.476867
9596.000000;0.476864
9595.000000;0.477078
9594.000000;0.477359
9593.000000;0.477479
9592.000000;0.477354
9591.000000;0.477093
9590.000000;0.476893
9589.000000;0.476895
9588.000000;0.477076
9587.000000;0.477273
9586.000000;0.477348
9585.000000;0.477315
9584.000000;0.477277
9583.000000;0.477257
9582.000000;0.477184
9581.000000;0.477050
9580.000000;0.477006
9579.000000;0.477200
9578.000000;0.477559
9577.000000;0.477818
9576.000000;0.477790
9575.000000;0.477544
9574.000000;0.477290
9573.000000;0.477152
9572.000000;0.477110
9571.000000;0.477116
9570.000000;0.477183
9569.000000;0.477320
9568.000000;0.477475
9567.000000;0.477595
9566.000000;0.477700
9565.000000;0.477833
9564.000000;0.477963
9563.000000;0.478010
9562.000000;0.477951
9561.000000;0.477825
9560.000000;0.477643
9559.000000;0.477401
9558.000000;0.477206
9557.000000;0.477260
9556.000000;0.477628
9555.000000;0.478076
9554.000000;0.478255
9553.000000;0.478036
9552.000000;0.477596
9551.000000;0.477218
9550.000000;0.477070
9549.000000;0.477168
9548.000000;0.477427
9547.000000;0.477699
9546.000000;0.477855
9545.000000;0.477890
9544.000000;0.477922
9543.000000;0.478046
9542.000000;0.478218
9541.000000;0.478292
9540.000000;0.478169
9539.000000;0.477887
9538.000000;0.477601
9537.000000;0.477500
9536.000000;0.477671
9535.000000;0.477988
9534.000000;0.478181
9533.000000;0.478063
9532.000000;0.477699
9531.000000;0.477318
9530.000000;0.477105
9529.000000;0.477111
9528.000000;0.477313
9527.000000;0.477659
9526.000000;0.478039
9525.000000;0.478304
9524.000000;0.478370
9523.000000;0.478265
9522.000000;0.478059
9521.000000;0.477782
9520.000000;0.477452
9519.000000;0.477141
9518.000000;0.476945
9517.000000;0.476904
9516.000000;0.476988
9515.000000;0.477144
9514.000000;0.477319
9513.000000;0.477474
9512.000000;0.477602
9511.000000;0.477732
9510.000000;0.477864
9509.000000;0.477926
9508.000000;0.477836
9507.000000;0.477624
9506.000000;0.477435
9505.000000;0.477400
9504.000000;0.477516
9503.000000;0.477652
9502.000000;0.477658
9501.000000;0.477492
9500.000000;0.477267
9499.000000;0.477167
9498.000000;0.477276
9497.000000;0.477485
9496.000000;0.477606
9495.000000;0.477569
9494.000000;0.477473
9493.000000;0.477439
9492.000000;0.477495
9491.000000;0.477602
9490.000000;0.477746
9489.000000;0.477934
9488.000000;0.478133
9487.000000;0.478240
9486.000000;0.478157
9485.000000;0.477905
9484.000000;0.477654
9483.000000;0.477592
9482.000000;0.477722
9481.000000;0.477829
9480.000000;0.477711
9479.000000;0.477413
9478.000000;0.477164
9477.000000;0.477108
9476.000000;0.477198
9475.000000;0.477361
9474.000000;0.477607
9473.000000;0.477916
9472.000000;0.478132
9471.000000;0.478106
9470.000000;0.477895
9469.000000;0.477719
9468.000000;0.477729
9467.000000;0.477874
9466.000000;0.477992
9465.000000;0.477953
9464.000000;0.477744
9463.000000;0.477469
9462.000000;0.477287
9461.000000;0.477303
9460.000000;0.477498
9459.000000;0.477789
9458.000000;0.478095
9457.000000;0.478339
9456.000000;0.478418
9455.000000;0.478290
9454.000000;0.478070
9453.000000;0.477957
9452.000000;0.478031
9451.000000;0.478184
9450.000000;0.478267
9449.000000;0.478270
9448.000000;0.478313
9447.000000;0.478483
9446.000000;0.478717
9445.000000;0.478853
9444.000000;0.478776
9443.000000;0.478526
9442.000000;0.478264
9441.000000;0.478151
9440.000000;0.478249
9439.000000;0.478495
9438.000000;0.478731
9437.000000;0.478793
9436.000000;0.478631
9435.000000;0.478356
9434.000000;0.478132
9433.000000;0.478035
9432.000000;0.478047
9431.000000;0.478163
9430.000000;0.478373
9429.000000;0.478545
9428.000000;0.478459
9427.000000;0.478096
9426.000000;0.477770
9425.000000;0.477841
9424.000000;0.478300
9423.000000;0.478750
9422.000000;0.478822
9421.000000;0.478516
9420.000000;0.478146
9419.000000;0.478010
9418.000000;0.478181
9417.000000;0.478520
9416.000000;0.478818
9415.000000;0.478919
9414.000000;0.478772
9413.000000;0.478438
9412.000000;0.478069
9411.000000;0.477847
9410.000000;0.477862
9409.000000;0.478040
9408.000000;0.478221
9407.000000;0.478330
9406.000000;0.478412
9405.000000;0.478487
9404.000000;0.478478
9403.000000;0.478322
9402.000000;0.478108
9401.000000;0.478014
9400.000000;0.478131
9399.000000;0.478401
9398.000000;0.478680
9397.000000;0.478837
9396.000000;0.478833
9395.000000;0.478769
9394.000000;0.478773
9393.000000;0.478839
9392.000000;0.478828
9391.000000;0.478707
9390.000000;0.478638
9389.000000;0.478744
9388.000000;0.478880
9387.000000;0.478799
9386.000000;0.478471
9385.000000;0.478096
9384.000000;0.477836
9383.000000;0.477707
9382.000000;0.477709
9381.000000;0.477863
9380.000000;0.478083
9379.000000;0.478187
9378.000000;0.478108
9377.000000;0.477994
9376.000000;0.478011
9375.000000;0.478161
9374.000000;0.478340
9373.000000;0.478485
9372.000000;0.478598
9371.000000;0.478703
9370.000000;0.478835
9369.000000;0.479014
9368.000000;0.479184
9367.000000;0.479243
9366.000000;0.479171
9365.000000;0.479066
9364.000000;0.479019
9363.000000;0.479022
9362.000000;0.479024
9361.000000;0.478989
9360.000000;0.478866
9359.000000;0.478608
9358.000000;0.478284
9357.000000;0.478097
9356.000000;0.478194
9355.000000;0.478484
9354.000000;0.478728
9353.000000;0.478782
9352.000000;0.478709
9351.000000;0.478672
9350.000000;0.478743
9349.000000;0.478828
9348.000000;0.478785
9347.000000;0.478623
9346.000000;0.478532
9345.000000;0.478652
9344.000000;0.478862
9343.000000;0.478935
9342.000000;0.478864
9341.000000;0.478895
9340.000000;0.479192
9339.000000;0.479633
9338.000000;0.479997
9337.000000;0.480195
9336.000000;0.480219
9335.000000;0.480026
9334.000000;0.479624
9333.000000;0.479210
9332.000000;0.479040
9331.000000;0.479176
9330.000000;0.479467
9329.000000;0.479738
9328.000000;0.479889
9327.000000;0.479852
9326.000000;0.479613
9325.000000;0.479287
9324.000000;0.479062
9323.000000;0.479009
9322.000000;0.479036
9321.000000;0.479044
9320.000000;0.479066
9319.000000;0.479199
9318.000000;0.479459
9317.000000;0.479736
9316.000000;0.479878
9315.000000;0.479802
9314.000000;0.479555
9313.000000;0.479297
9312.000000;0.479212
9311.000000;0.479374
9310.000000;0.479697
9309.000000;0.480001
9308.000000;0.480153
9307.000000;0.480184
9306.000000;0.480248
9305.000000;0.480422
9304.000000;0.480567
9303.000000;0.480461
9302.000000;0.480082
9301.000000;0.479673
9300.000000;0.479475
9299.000000;0.479476
9298.000000;0.479496
9297.000000;0.479449
9296.000000;0.479398
9295.000000;0.479418
9294.000000;0.479504
9293.000000;0.479638
9292.000000;0.479817
9291.000000;0.479994
9290.000000;0.480080
9289.000000;0.480032
9288.000000;0.479907
9287.000000;0.479785
9286.000000;0.479698
9285.000000;0.479642
9284.000000;0.479627
9283.000000;0.479669
9282.000000;0.479759
9281.000000;0.479863
9280.000000;0.479936
9279.000000;0.479941
9278.000000;0.479880
9277.000000;0.479809
9276.000000;0.479798
9275.000000;0.479847
9274.000000;0.479887
9273.000000;0.479874
9272.000000;0.479849
9271.000000;0.479890
9270.000000;0.480021
9269.000000;0.480176
9268.000000;0.480262
9267.000000;0.480229
9266.000000;0.480098
9265.000000;0.479941
9264.000000;0.479819
9263.000000;0.479758
9262.000000;0.479765
9261.000000;0.479837
9260.000000;0.479935
9259.000000;0.479970
9258.000000;0.479881
9257.000000;0.479736
9256.000000;0.479699
9255.000000;0.479849
9254.000000;0.480070
9253.000000;0.480162
9252.000000;0.480059
9251.000000;0.479888
9250.000000;0.479817
9249.000000;0.479878
9248.000000;0.479967
9247.000000;0.479972
9246.000000;0.479869
9245.000000;0.479709
9244.000000;0.479564
9243.000000;0.479496
9242.000000;0.479531
9241.000000;0.479652
9240.000000;0.479812
9239.000000;0.479982
9238.000000;0.480162
9237.000000;0.480341
9236.000000;0.480481
9235.000000;0.480549
9234.000000;0.480526
9233.000000;0.480393
9232.000000;0.480167
9231.000000;0.479970
9230.000000;0.479978
9229.000000;0.480213
9228.000000;0.480459
9227.000000;0.480479
9226.000000;0.480281
9225.000000;0.480081
9224.000000;0.480020
9223.000000;0.480045
9222.000000;0.480069
9221.000000;0.480095
9220.000000;0.480135
9219.000000;0.480119
9218.000000;0.479998
9217.000000;0.479857
9216.000000;0.479838
9215.000000;0.479988
9214.000000;0.480240
9213.000000;0.480508
9212.000000;0.480705
9211.000000;0.480739
9210.000000;0.480565
9209.000000;0.480261
9208.000000;0.479976
9207.000000;0.479805
9206.000000;0.479771
9205.000000;0.479874
9204.000000;0.480091
9203.000000;0.480316
9202.000000;0.480425
9201.000000;0.480394
9200.000000;0.480321
9199.000000;0.480299
9198.000000;0.480332
9197.000000;0.480393
9196.000000;0.480477
9195.000000;0.480574
9194.000000;0.480617
9193.000000;0.480544
9192.000000;0.480379
9191.000000;0.480217
9190.000000;0.480127
9189.000000;0.480092
9188.000000;0.480067
9187.000000;0.480066
9186.000000;0.480154
9185.000000;0.480352
9184.000000;0.480562
9183.000000;0.480624
9182.000000;0.480469
9181.000000;0.480208
9180.000000;0.480029
9179.000000;0.480051
9178.000000;0.480251
9177.000000;0.480527
9176.000000;0.480778
9175.000000;0.480936
9174.000000;0.480979
9173.000000;0.480930
9172.000000;0.480839
9171.000000;0.480736
9170.000000;0.480624
9169.000000;0.480504
9168.000000;0.480399
9167.000000;0.480336
9166.000000;0.480307
9165.000000;0.480272
9164.000000;0.480210
9163.000000;0.480180
9162.000000;0.480286
9161.000000;0.480570
9160.000000;0.480940
9159.000000;0.481237
9158.000000;0.481359
9157.000000;0.481307
9156.000000;0.481118
9155.000000;0.480835
9154.000000;0.480539
9153.000000;0.480364
9152.000000;0.480403
9151.000000;0.480611
9150.000000;0.480836
9149.000000;0.480944
9148.000000;0.480895
9147.000000;0.480742
9146.000000;0.480586
9145.000000;0.480514
9144.000000;0.480535
9143.000000;0.480579
9142.000000;0.480569
9141.000000;0.480496
9140.000000;0.480405
9139.000000;0.480340
9138.000000;0.480343
9137.000000;0.480471
9136.000000;0.480734
9135.000000;0.481025
9134.000000;0.481172
9133.000000;0.481104
9132.000000;0.480921
9131.000000;0.480785
9130.000000;0.480766
9129.000000;0.480817
9128.000000;0.480862
9127.000000;0.480874
9126.000000;0.480862
9125.000000;0.480833
9124.000000;0.480785
9123.000000;0.480741
9122.000000;0.480760
9121.000000;0.480896
9120.000000;0.481140
9119.000000;0.481399
9118.000000;0.481535
9117.000000;0.481473
9116.000000;0.481270
9115.000000;0.481095
9114.000000;0.481094
9113.000000;0.481271
9112.000000;0.481493
9111.000000;0.481630
9110.000000;0.481665
9109.000000;0.481655
9108.000000;0.481620
9107.000000;0.481507
9106.000000;0.481283
9105.000000;0.480996
9104.000000;0.480739
9103.000000;0.480579
9102.000000;0.480520
9101.000000;0.480515
9100.000000;0.480512
9099.000000;0.480506
9098.000000;0.480550
9097.000000;0.480677
9096.000000;0.480826
9095.000000;0.480898
9094.000000;0.480900
9093.000000;0.480962
9092.000000;0.481168
9091.000000;0.481427
9090.000000;0.481581
9089.000000;0.481572
9088.000000;0.481469
9087.000000;0.481355
9086.000000;0.481269
9085.000000;0.481250
9084.000000;0.481320
9083.000000;0.481422
9082.000000;0.481439
9081.000000;0.481317
9080.000000;0.481139
9079.000000;0.481040
9078.000000;0.481068
9077.000000;0.481155
9076.000000;0.481199
9075.000000;0.481173
9074.000000;0.481148
9073.000000;0.481204
9072.000000;0.481320
9071.000000;0.481375
9070.000000;0.481289
9069.000000;0.481131
9068.000000;0.481052
9067.000000;0.481129
9066.000000;0.481308
9065.000000;0.481500
9064.000000;0.481660
9063.000000;0.481770
9062.000000;0.481812
9061.000000;0.481782
9060.000000;0.481698
9059.000000;0.481579
9058.000000;0.481438
9057.000000;0.481330
9056.000000;0.481348
9055.000000;0.481520
9054.000000;0.481749
9053.000000;0.481909
