Criado como novo conjunto de dados;"2706_e01_daniel.spp","80106.0 Secs"
cm-1;Abs
10000.000000;0.805578
9999.000000;0.805793
9998.000000;0.806352
9997.000000;0.807036
9996.000000;0.807079
9995.000000;0.806074
9994.000000;0.804514
9993.000000;0.803333
9992.000000;0.802895
9991.000000;0.802880
9990.000000;0.802950
9989.000000;0.803288
9988.000000;0.804344
9987.000000;0.806120
9986.000000;0.807804
9985.000000;0.808289
9984.000000;0.807222
9983.000000;0.805418
9982.000000;0.803980
9981.000000;0.803188
9980.000000;0.802584
9979.000000;0.801963
9978.000000;0.801644
9977.000000;0.801701
9976.000000;0.801613
9975.000000;0.801109
9974.000000;0.800803
9973.000000;0.801407
9972.000000;0.802599
9971.000000;0.803263
9970.000000;0.802804
9969.000000;0.801715
9968.000000;0.800827
9967.000000;0.800461
9966.000000;0.800391
9965.000000;0.800238
9964.000000;0.799821
9963.000000;0.799378
9962.000000;0.799488
9961.000000;0.800433
9960.000000;0.801571
9959.000000;0.801713
9958.000000;0.800420
9957.000000;0.798675
9956.000000;0.797907
9955.000000;0.798423
9954.000000;0.799123
9953.000000;0.798784
9952.000000;0.797510
9951.000000;0.796663
9950.000000;0.797327
9949.000000;0.799103
9948.000000;0.800557
9947.000000;0.800729
9946.000000;0.799961
9945.000000;0.799222
9944.000000;0.798986
9943.000000;0.799006
9942.000000;0.798836
9941.000000;0.798252
9940.000000;0.797304
9939.000000;0.796326
9938.000000;0.795861
9937.000000;0.796268
9936.000000;0.797246
9935.000000;0.797931
9934.000000;0.797692
9933.000000;0.796813
9932.000000;0.796229
9931.000000;0.796488
9930.000000;0.797049
9929.000000;0.796805
9928.000000;0.795465
9927.000000;0.794131
9926.000000;0.794125
9925.000000;0.795396
9924.000000;0.796520
9923.000000;0.796346
9922.000000;0.795185
9921.000000;0.794134
9920.000000;0.793763
9919.000000;0.793880
9918.000000;0.794187
9917.000000;0.794564
9916.000000;0.794866
9915.000000;0.794984
9914.000000;0.795135
9913.000000;0.795636
9912.000000;0.796337
9911.000000;0.796668
9910.000000;0.796371
9909.000000;0.795831
9908.000000;0.795480
9907.000000;0.795214
9906.000000;0.794639
9905.000000;0.793693
9904.000000;0.792823
9903.000000;0.792570
9902.000000;0.793087
9901.000000;0.794006
9900.000000;0.794712
9899.000000;0.794810
9898.000000;0.794355
9897.000000;0.793596
9896.000000;0.792689
9895.000000;0.791831
9894.000000;0.791472
9893.000000;0.791996
9892.000000;0.793154
9891.000000;0.794167
9890.000000;0.794503
9889.000000;0.794252
9888.000000;0.793607
9887.000000;0.792446
9886.000000;0.790796
9885.000000;0.789364
9884.000000;0.789000
9883.000000;0.789650
9882.000000;0.790353
9881.000000;0.790459
9880.000000;0.790437
9879.000000;0.791136
9878.000000;0.792511
9877.000000;0.793549
9876.000000;0.793464
9875.000000;0.792650
9874.000000;0.792193
9873.000000;0.792652
9872.000000;0.793526
9871.000000;0.793817
9870.000000;0.792929
9869.000000;0.791017
9868.000000;0.788740
9867.000000;0.786914
9866.000000;0.786271
9865.000000;0.787167
9864.000000;0.789276
9863.000000;0.791585
9862.000000;0.792943
9861.000000;0.792875
9860.000000;0.791866
9859.000000;0.790725
9858.000000;0.789772
9857.000000;0.788785
9856.000000;0.787663
9855.000000;0.786813
9854.000000;0.786695
9853.000000;0.787207
9852.000000;0.787850
9851.000000;0.788457
9850.000000;0.789345
9849.000000;0.790588
9848.000000;0.791482
9847.000000;0.791081
9846.000000;0.789258
9845.000000;0.786970
9844.000000;0.785424
9843.000000;0.785156
9842.000000;0.785825
9841.000000;0.786671
9840.000000;0.787122
9839.000000;0.787144
9838.000000;0.787081
9837.000000;0.787189
9836.000000;0.787295
9835.000000;0.786919
9834.000000;0.785831
9833.000000;0.784450
9832.000000;0.783549
9831.000000;0.783489
9830.000000;0.783887
9829.000000;0.784199
9828.000000;0.784495
9827.000000;0.785297
9826.000000;0.786671
9825.000000;0.787924
9824.000000;0.788416
9823.000000;0.788274
9822.000000;0.787941
9821.000000;0.787373
9820.000000;0.786229
9819.000000;0.784665
9818.000000;0.783326
9817.000000;0.782568
9816.000000;0.782266
9815.000000;0.782451
9814.000000;0.783493
9813.000000;0.785315
9812.000000;0.786995
9811.000000;0.787585
9810.000000;0.787084
9809.000000;0.786182
9808.000000;0.785325
9807.000000;0.784491
9806.000000;0.783689
9805.000000;0.783123
9804.000000;0.782843
9803.000000;0.782605
9802.000000;0.782180
9801.000000;0.781613
9800.000000;0.781185
9799.000000;0.781237
9798.000000;0.781914
9797.000000;0.782958
9796.000000;0.783826
9795.000000;0.784171
9794.000000;0.784158
9793.000000;0.784101
9792.000000;0.783953
9791.000000;0.783418
9790.000000;0.782500
9789.000000;0.781582
9788.000000;0.780904
9787.000000;0.780263
9786.000000;0.779392
9785.000000;0.778458
9784.000000;0.778035
9783.000000;0.778641
9782.000000;0.780282
9781.000000;0.782349
9780.000000;0.783921
9779.000000;0.784302
9778.000000;0.783390
9777.000000;0.781601
9776.000000;0.779579
9775.000000;0.778009
9774.000000;0.777451
9773.000000;0.778022
9772.000000;0.779173
9771.000000;0.779993
9770.000000;0.779946
9769.000000;0.779311
9768.000000;0.778854
9767.000000;0.779102
9766.000000;0.779899
9765.000000;0.780572
9764.000000;0.780603
9763.000000;0.780210
9762.000000;0.780138
9761.000000;0.780727
9760.000000;0.781374
9759.000000;0.781203
9758.000000;0.780192
9757.000000;0.779242
9756.000000;0.779026
9755.000000;0.779154
9754.000000;0.778729
9753.000000;0.777567
9752.000000;0.776467
9751.000000;0.776264
9750.000000;0.776920
9749.000000;0.777692
9748.000000;0.778023
9747.000000;0.778025
9746.000000;0.778068
9745.000000;0.778189
9744.000000;0.778117
9743.000000;0.777769
9742.000000;0.777374
9741.000000;0.777060
9740.000000;0.776664
9739.000000;0.776111
9738.000000;0.775671
9737.000000;0.775570
9736.000000;0.775600
9735.000000;0.775460
9734.000000;0.775356
9733.000000;0.775860
9732.000000;0.777140
9731.000000;0.778633
9730.000000;0.779550
9729.000000;0.779508
9728.000000;0.778650
9727.000000;0.777427
9726.000000;0.776345
9725.000000;0.775647
9724.000000;0.775131
9723.000000;0.774516
9722.000000;0.774039
9721.000000;0.774365
9720.000000;0.775701
9719.000000;0.777251
9718.000000;0.777892
9717.000000;0.777303
9716.000000;0.776130
9715.000000;0.775089
9714.000000;0.774225
9713.000000;0.773148
9712.000000;0.771745
9711.000000;0.770471
9710.000000;0.769964
9709.000000;0.770486
9708.000000;0.771745
9707.000000;0.773224
9706.000000;0.774581
9705.000000;0.775646
9704.000000;0.776109
9703.000000;0.775548
9702.000000;0.773963
9701.000000;0.772097
9700.000000;0.770922
9699.000000;0.770768
9698.000000;0.771121
9697.000000;0.771294
9696.000000;0.771157
9695.000000;0.771118
9694.000000;0.771507
9693.000000;0.772185
9692.000000;0.772766
9691.000000;0.773038
9690.000000;0.773014
9689.000000;0.772697
9688.000000;0.772008
9687.000000;0.770994
9686.000000;0.769883
9685.000000;0.768864
9684.000000;0.768011
9683.000000;0.767600
9682.000000;0.768215
9681.000000;0.770099
9680.000000;0.772431
9679.000000;0.773746
9678.000000;0.773361
9677.000000;0.772035
9676.000000;0.770958
9675.000000;0.770442
9674.000000;0.769989
9673.000000;0.769350
9672.000000;0.768914
9671.000000;0.769010
9670.000000;0.769369
9669.000000;0.769526
9668.000000;0.769404
9667.000000;0.769217
9666.000000;0.769025
9665.000000;0.768734
9664.000000;0.768371
9663.000000;0.768056
9662.000000;0.767733
9661.000000;0.767249
9660.000000;0.766706
9659.000000;0.766480
9658.000000;0.766822
9657.000000;0.767634
9656.000000;0.768626
9655.000000;0.769482
9654.000000;0.769865
9653.000000;0.769616
9652.000000;0.769098
9651.000000;0.769031
9650.000000;0.769653
9649.000000;0.770288
9648.000000;0.770114
9647.000000;0.769236
9646.000000;0.768537
9645.000000;0.768473
9644.000000;0.768527
9643.000000;0.768018
9642.000000;0.767022
9641.000000;0.766162
9640.000000;0.765777
9639.000000;0.765731
9638.000000;0.765879
9637.000000;0.766267
9636.000000;0.766833
9635.000000;0.767316
9634.000000;0.767582
9633.000000;0.767748
9632.000000;0.767841
9631.000000;0.767609
9630.000000;0.766897
9629.000000;0.766035
9628.000000;0.765563
9627.000000;0.765659
9626.000000;0.765998
9625.000000;0.766156
9624.000000;0.765984
9623.000000;0.765594
9622.000000;0.765206
9621.000000;0.765012
9620.000000;0.765080
9619.000000;0.765283
9618.000000;0.765404
9617.000000;0.765332
9616.000000;0.765103
9615.000000;0.764761
9614.000000;0.764312
9613.000000;0.763861
9612.000000;0.763657
9611.000000;0.763848
9610.000000;0.764227
9609.000000;0.764351
9608.000000;0.763983
9607.000000;0.763378
9606.000000;0.763087
9605.000000;0.763455
9604.000000;0.764280
9603.000000;0.764965
9602.000000;0.765058
9601.000000;0.764661
9600.000000;0.764243
9599.000000;0.764076
9598.000000;0.763968
9597.000000;0.763612
9596.000000;0.763026
9595.000000;0.762526
9594.000000;0.762314
9593.000000;0.762299
9592.000000;0.762309
9591.000000;0.762317
9590.000000;0.762367
9589.000000;0.762394
9588.000000;0.762276
9587.000000;0.762028
9586.000000;0.761847
9585.000000;0.761964
9584.000000;0.762424
9583.000000;0.763003
9582.000000;0.763336
9581.000000;0.763210
9580.000000;0.762748
9579.000000;0.762211
9578.000000;0.761636
9577.000000;0.760849
9576.000000;0.759948
9575.000000;0.759526
9574.000000;0.760126
9573.000000;0.761489
9572.000000;0.762607
9571.000000;0.762657
9570.000000;0.761746
9569.000000;0.760643
9568.000000;0.759947
9567.000000;0.759620
9566.000000;0.759261
9565.000000;0.758697
9564.000000;0.758289
9563.000000;0.758614
9562.000000;0.759769
9561.000000;0.761004
9560.000000;0.761264
9559.000000;0.760257
9558.000000;0.758812
9557.000000;0.757995
9556.000000;0.758085
9555.000000;0.758617
9554.000000;0.759198
9553.000000;0.759836
9552.000000;0.760448
9551.000000;0.760578
9550.000000;0.759939
9549.000000;0.758958
9548.000000;0.758347
9547.000000;0.758272
9546.000000;0.758293
9545.000000;0.758142
9544.000000;0.758131
9543.000000;0.758646
9542.000000;0.759498
9541.000000;0.760041
9540.000000;0.759836
9539.000000;0.758999
9538.000000;0.757965
9537.000000;0.757116
9536.000000;0.756609
9535.000000;0.756416
9534.000000;0.756444
9533.000000;0.756656
9532.000000;0.757040
9531.000000;0.757419
9530.000000;0.757411
9529.000000;0.756756
9528.000000;0.755710
9527.000000;0.754949
9526.000000;0.754973
9525.000000;0.755652
9524.000000;0.756411
9523.000000;0.756814
9522.000000;0.756880
9521.000000;0.756849
9520.000000;0.756779
9519.000000;0.756479
9518.000000;0.755837
9517.000000;0.755075
9516.000000;0.754611
9515.000000;0.754670
9514.000000;0.755125
9513.000000;0.755677
9512.000000;0.756097
9511.000000;0.756261
9510.000000;0.756108
9509.000000;0.755680
9508.000000;0.755165
9507.000000;0.754791
9506.000000;0.754675
9505.000000;0.754781
9504.000000;0.754950
9503.000000;0.754938
9502.000000;0.754580
9501.000000;0.754028
9500.000000;0.753686
9499.000000;0.753776
9498.000000;0.754081
9497.000000;0.754276
9496.000000;0.754374
9495.000000;0.754538
9494.000000;0.754568
9493.000000;0.753997
9492.000000;0.752814
9491.000000;0.751753
9490.000000;0.751592
9489.000000;0.752326
9488.000000;0.753231
9487.000000;0.753660
9486.000000;0.753618
9485.000000;0.753550
9484.000000;0.753723
9483.000000;0.753900
9482.000000;0.753612
9481.000000;0.752740
9480.000000;0.751741
9479.000000;0.751177
9478.000000;0.751108
9477.000000;0.751136
9476.000000;0.751032
9475.000000;0.751037
9474.000000;0.751421
9473.000000;0.752015
9472.000000;0.752396
9471.000000;0.752375
9470.000000;0.752076
9469.000000;0.751686
9468.000000;0.751362
9467.000000;0.751280
9466.000000;0.751507
9465.000000;0.751834
9464.000000;0.751991
9463.000000;0.751985
9462.000000;0.752014
9461.000000;0.752036
9460.000000;0.751700
9459.000000;0.750798
9458.000000;0.749620
9457.000000;0.748710
9456.000000;0.748417
9455.000000;0.748754
9454.000000;0.749547
9453.000000;0.750546
9452.000000;0.751423
9451.000000;0.751830
9450.000000;0.751592
9449.000000;0.750849
9448.000000;0.749954
9447.000000;0.749190
9446.000000;0.748589
9445.000000;0.748054
9444.000000;0.747659
9443.000000;0.747732
9442.000000;0.748545
9441.000000;0.749936
9440.000000;0.751272
9439.000000;0.751858
9438.000000;0.751480
9437.000000;0.750598
9436.000000;0.749934
9435.000000;0.749750
9434.000000;0.749580
9433.000000;0.748798
9432.000000;0.747442
9431.000000;0.746220
9430.000000;0.745657
9429.000000;0.745555
9428.000000;0.745466
9427.000000;0.745420
9426.000000;0.745822
9425.000000;0.746733
9424.000000;0.747609
9423.000000;0.747806
9422.000000;0.747186
9421.000000;0.746202
9420.000000;0.745515
9419.000000;0.745532
9418.000000;0.746091
9417.000000;0.746571
9416.000000;0.746442
9415.000000;0.745781
9414.000000;0.745204
9413.000000;0.745263
9412.000000;0.745949
9411.000000;0.746699
9410.000000;0.746836
9409.000000;0.746164
9408.000000;0.745226
9407.000000;0.744806
9406.000000;0.745052
9405.000000;0.745261
9404.000000;0.744792
9403.000000;0.743993
9402.000000;0.743774
9401.000000;0.744364
9400.000000;0.744946
9399.000000;0.744681
9398.000000;0.743760
9397.000000;0.743154
9396.000000;0.743533
9395.000000;0.744653
9394.000000;0.745699
9393.000000;0.746054
9392.000000;0.745785
9391.000000;0.745444
9390.000000;0.745392
9389.000000;0.745334
9388.000000;0.744663
9387.000000;0.743250
9386.000000;0.741742
9385.000000;0.740992
9384.000000;0.741322
9383.000000;0.742349
9382.000000;0.743381
9381.000000;0.743944
9380.000000;0.744039
9379.000000;0.743947
9378.000000;0.743776
9377.000000;0.743276
9376.000000;0.742272
9375.000000;0.741148
9374.000000;0.740559
9373.000000;0.740674
9372.000000;0.741005
9371.000000;0.741093
9370.000000;0.741048
9369.000000;0.741231
9368.000000;0.741708
9367.000000;0.742260
9366.000000;0.742672
9365.000000;0.742755
9364.000000;0.742282
9363.000000;0.741281
9362.000000;0.740300
9361.000000;0.740012
9360.000000;0.740547
9359.000000;0.741396
9358.000000;0.741983
9357.000000;0.742136
9356.000000;0.741999
9355.000000;0.741767
9354.000000;0.741589
9353.000000;0.741531
9352.000000;0.741481
9351.000000;0.741203
9350.000000;0.740617
9349.000000;0.739972
9348.000000;0.739667
9347.000000;0.739874
9346.000000;0.740375
9345.000000;0.740761
9344.000000;0.740824
9343.000000;0.740730
9342.000000;0.740768
9341.000000;0.740946
9340.000000;0.740964
9339.000000;0.740624
9338.000000;0.740100
9337.000000;0.739630
9336.000000;0.739132
9335.000000;0.738398
9334.000000;0.737592
9333.000000;0.737250
9332.000000;0.737684
9331.000000;0.738596
9330.000000;0.739393
9329.000000;0.739750
9328.000000;0.739725
9327.000000;0.739493
9326.000000;0.739156
9325.000000;0.738788
9324.000000;0.738464
9323.000000;0.738176
9322.000000;0.737815
9321.000000;0.737330
9320.000000;0.736883
9319.000000;0.736760
9318.000000;0.737103
9317.000000;0.737735
9316.000000;0.738278
9315.000000;0.738464
9314.000000;0.738309
9313.000000;0.738023
9312.000000;0.737802
9311.000000;0.737709
9310.000000;0.737679
9309.000000;0.737568
9308.000000;0.737293
9307.000000;0.736981
9306.000000;0.736891
9305.000000;0.737056
9304.000000;0.737041
9303.000000;0.736295
9302.000000;0.734868
9301.000000;0.733643
9300.000000;0.733621
9299.000000;0.734939
9298.000000;0.736703
9297.000000;0.737862
9296.000000;0.738160
9295.000000;0.738063
9294.000000;0.737855
9293.000000;0.737207
9292.000000;0.735777
9291.000000;0.733945
9290.000000;0.732583
9289.000000;0.732164
9288.000000;0.732440
9287.000000;0.733022
9286.000000;0.733869
9285.000000;0.734977
9284.000000;0.735878
9283.000000;0.735949
9282.000000;0.735203
9281.000000;0.734342
9280.000000;0.733916
9279.000000;0.733723
9278.000000;0.733262
9277.000000;0.732554
9276.000000;0.732189
9275.000000;0.732589
9274.000000;0.733463
9273.000000;0.734080
9272.000000;0.733986
9271.000000;0.733399
9270.000000;0.732941
9269.000000;0.733010
9268.000000;0.733386
9267.000000;0.733449
9266.000000;0.732863
9265.000000;0.732035
9264.000000;0.731763
9263.000000;0.732340
9262.000000;0.733166
9261.000000;0.733343
9260.000000;0.732635
9259.000000;0.731657
9258.000000;0.731169
9257.000000;0.731376
9256.000000;0.731957
9255.000000;0.732551
9254.000000;0.733034
9253.000000;0.733407
9252.000000;0.733625
9251.000000;0.733586
9250.000000;0.733191
9249.000000;0.732401
9248.000000;0.731325
9247.000000;0.730253
9246.000000;0.729542
9245.000000;0.729421
9244.000000;0.729928
9243.000000;0.730960
9242.000000;0.732282
9241.000000;0.733496
9240.000000;0.734171
9239.000000;0.734100
9238.000000;0.733381
9237.000000;0.732244
9236.000000;0.730928
9235.000000;0.729766
9234.000000;0.729165
9233.000000;0.729302
9232.000000;0.729891
9231.000000;0.730422
9230.000000;0.730624
9229.000000;0.730548
9228.000000;0.730237
9227.000000;0.729574
9226.000000;0.728568
9225.000000;0.727593
9224.000000;0.727148
9223.000000;0.727415
9222.000000;0.728191
9221.000000;0.729177
9220.000000;0.730160
9219.000000;0.730897
9218.000000;0.731060
9217.000000;0.730465
9216.000000;0.729312
9215.000000;0.728051
9214.000000;0.727058
9213.000000;0.726509
9212.000000;0.726504
9211.000000;0.727080
9210.000000;0.728058
9209.000000;0.729027
9208.000000;0.729643
9207.000000;0.729881
9206.000000;0.729878
9205.000000;0.729603
9204.000000;0.728869
9203.000000;0.727680
9202.000000;0.726395
9201.000000;0.725478
9200.000000;0.725191
9199.000000;0.725545
9198.000000;0.726343
9197.000000;0.727175
9196.000000;0.727540
9195.000000;0.727222
9194.000000;0.726526
9193.000000;0.725955
9192.000000;0.725705
9191.000000;0.725601
9190.000000;0.725515
9189.000000;0.725552
9188.000000;0.725730
9187.000000;0.725719
9186.000000;0.725180
9185.000000;0.724282
9184.000000;0.723628
9183.000000;0.723653
9182.000000;0.724262
9181.000000;0.725053
9180.000000;0.725673
9179.000000;0.725903
9178.000000;0.725648
9177.000000;0.725052
9176.000000;0.724516
9175.000000;0.724368
9174.000000;0.724517
9173.000000;0.724585
9172.000000;0.724387
9171.000000;0.724124
9170.000000;0.724055
9169.000000;0.724170
9168.000000;0.724274
9167.000000;0.724272
9166.000000;0.724210
9165.000000;0.724072
9164.000000;0.723738
9163.000000;0.723191
9162.000000;0.722671
9161.000000;0.722518
9160.000000;0.722855
9159.000000;0.723481
9158.000000;0.724051
9157.000000;0.724317
9156.000000;0.724217
9155.000000;0.723800
9154.000000;0.723158
9153.000000;0.722406
9152.000000;0.721670
9151.000000;0.721059
9150.000000;0.720679
9149.000000;0.720673
9148.000000;0.721129
9147.000000;0.721929
9146.000000;0.722733
9145.000000;0.723232
9144.000000;0.723366
9143.000000;0.723238
9142.000000;0.722873
9141.000000;0.722167
9140.000000;0.721088
9139.000000;0.719844
9138.000000;0.718823
9137.000000;0.718417
9136.000000;0.718830
9135.000000;0.719938
9134.000000;0.721312
9133.000000;0.722484
9132.000000;0.723219
9131.000000;0.723477
9130.000000;0.723190
9129.000000;0.722300
9128.000000;0.721038
9127.000000;0.719916
9126.000000;0.719259
9125.000000;0.718924
9124.000000;0.718649
9123.000000;0.718548
9122.000000;0.718961
9121.000000;0.719867
9120.000000;0.720743
9119.000000;0.721110
9118.000000;0.721000
9117.000000;0.720736
9116.000000;0.720463
9115.000000;0.720111
9114.000000;0.719689
9113.000000;0.719331
9112.000000;0.719035
9111.000000;0.718606
9110.000000;0.718022
9109.000000;0.717639
9108.000000;0.717810
9107.000000;0.718351
9106.000000;0.718659
9105.000000;0.718419
9104.000000;0.717998
9103.000000;0.717966
9102.000000;0.718391
9101.000000;0.718826
9100.000000;0.718897
9099.000000;0.718654
9098.000000;0.718329
9097.000000;0.718037
9096.000000;0.717846
9095.000000;0.717909
9094.000000;0.718273
9093.000000;0.718680
9092.000000;0.718756
9091.000000;0.718416
9090.000000;0.717900
9089.000000;0.717426
9088.000000;0.716947
9087.000000;0.716317
9086.000000;0.715578
9085.000000;0.715016
9084.000000;0.714950
9083.000000;0.715464
9082.000000;0.716285
9081.000000;0.716965
9080.000000;0.717232
9079.000000;0.717142
9078.000000;0.716868
9077.000000;0.716454
9076.000000;0.715920
9075.000000;0.715473
9074.000000;0.715399
9073.000000;0.715674
9072.000000;0.715901
9071.000000;0.715728
9070.000000;0.715244
9069.000000;0.714840
9068.000000;0.714769
9067.000000;0.714955
9066.000000;0.715183
9065.000000;0.715308
9064.000000;0.715277
9063.000000;0.715059
9062.000000;0.714662
9061.000000;0.714222
9060.000000;0.713981
9059.000000;0.714118
9058.000000;0.714581
9057.000000;0.715111
9056.000000;0.715429
9055.000000;0.715361
9054.000000;0.714859
9053.000000;0.714062
