Criado como novo conjunto de dados;"2706_e01_daniel.spp","59945.2 Secs"
cm-1;Abs
10000.000000;0.952479
9999.000000;0.952472
9998.000000;0.952464
9997.000000;0.952457
9996.000000;0.952449
9995.000000;0.952441
9994.000000;0.952434
9993.000000;0.952426
9992.000000;0.952420
9991.000000;0.952366
9990.000000;0.952382
9989.000000;0.952478
9988.000000;0.952700
9987.000000;0.953131
9986.000000;0.953625
9985.000000;0.953764
9984.000000;0.953282
9983.000000;0.952422
9982.000000;0.951701
9981.000000;0.951364
9980.000000;0.951223
9979.000000;0.950991
9978.000000;0.950657
9977.000000;0.950520
9976.000000;0.950878
9975.000000;0.951670
9974.000000;0.952365
9973.000000;0.952321
9972.000000;0.951347
9971.000000;0.949865
9970.000000;0.948476
9969.000000;0.947501
9968.000000;0.946968
9967.000000;0.946818
9966.000000;0.946920
9965.000000;0.947015
9964.000000;0.946919
9963.000000;0.946790
9962.000000;0.947001
9961.000000;0.947676
9960.000000;0.948520
9959.000000;0.949154
9958.000000;0.949498
9957.000000;0.949703
9956.000000;0.949787
9955.000000;0.949534
9954.000000;0.948797
9953.000000;0.947810
9952.000000;0.947057
9951.000000;0.946810
9950.000000;0.946917
9949.000000;0.947097
9948.000000;0.947334
9947.000000;0.947800
9946.000000;0.948417
9945.000000;0.948760
9944.000000;0.948481
9943.000000;0.947703
9942.000000;0.946872
9941.000000;0.946365
9940.000000;0.946293
9939.000000;0.946496
9938.000000;0.946592
9937.000000;0.946224
9936.000000;0.945508
9935.000000;0.945063
9934.000000;0.945327
9933.000000;0.945907
9932.000000;0.945932
9931.000000;0.945083
9930.000000;0.943954
9929.000000;0.943343
9928.000000;0.943478
9927.000000;0.944058
9926.000000;0.944722
9925.000000;0.945244
9924.000000;0.945504
9923.000000;0.945571
9922.000000;0.945688
9921.000000;0.945912
9920.000000;0.945828
9919.000000;0.944928
9918.000000;0.943306
9917.000000;0.941730
9916.000000;0.940952
9915.000000;0.941129
9914.000000;0.941934
9913.000000;0.942960
9912.000000;0.943882
9911.000000;0.944427
9910.000000;0.944496
9909.000000;0.944327
9908.000000;0.944339
9907.000000;0.944689
9906.000000;0.945064
9905.000000;0.944974
9904.000000;0.944269
9903.000000;0.943310
9902.000000;0.942624
9901.000000;0.942396
9900.000000;0.942307
9899.000000;0.941922
9898.000000;0.941233
9897.000000;0.940770
9896.000000;0.941059
9895.000000;0.941956
9894.000000;0.942619
9893.000000;0.942284
9892.000000;0.941118
9891.000000;0.940181
9890.000000;0.940442
9889.000000;0.941859
9888.000000;0.943491
9887.000000;0.944463
9886.000000;0.944657
9885.000000;0.944465
9884.000000;0.944138
9883.000000;0.943619
9882.000000;0.942881
9881.000000;0.942110
9880.000000;0.941514
9879.000000;0.941151
9878.000000;0.940990
9877.000000;0.940965
9876.000000;0.940959
9875.000000;0.940868
9874.000000;0.940748
9873.000000;0.940721
9872.000000;0.940679
9871.000000;0.940296
9870.000000;0.939496
9869.000000;0.938695
9868.000000;0.938380
9867.000000;0.938576
9866.000000;0.938904
9865.000000;0.939055
9864.000000;0.938945
9863.000000;0.938501
9862.000000;0.937643
9861.000000;0.936605
9860.000000;0.935958
9859.000000;0.936107
9858.000000;0.936830
9857.000000;0.937460
9856.000000;0.937496
9855.000000;0.936975
9854.000000;0.936316
9853.000000;0.935917
9852.000000;0.935942
9851.000000;0.936408
9850.000000;0.937309
9849.000000;0.938535
9848.000000;0.939709
9847.000000;0.940315
9846.000000;0.940168
9845.000000;0.939651
9844.000000;0.939256
9843.000000;0.938971
9842.000000;0.938384
9841.000000;0.937378
9840.000000;0.936406
9839.000000;0.935945
9838.000000;0.935905
9837.000000;0.935826
9836.000000;0.935522
9835.000000;0.935253
9834.000000;0.935257
9833.000000;0.935381
9832.000000;0.935291
9831.000000;0.934924
9830.000000;0.934564
9829.000000;0.934453
9828.000000;0.934504
9827.000000;0.934463
9826.000000;0.934278
9825.000000;0.934104
9824.000000;0.933978
9823.000000;0.933731
9822.000000;0.933345
9821.000000;0.933161
9820.000000;0.933470
9819.000000;0.934066
9818.000000;0.934476
9817.000000;0.934569
9816.000000;0.934580
9815.000000;0.934553
9814.000000;0.934176
9813.000000;0.933330
9812.000000;0.932464
9811.000000;0.932193
9810.000000;0.932685
9809.000000;0.933565
9808.000000;0.934263
9807.000000;0.934373
9806.000000;0.933930
9805.000000;0.933466
9804.000000;0.933564
9803.000000;0.934168
9802.000000;0.934572
9801.000000;0.934296
9800.000000;0.933708
9799.000000;0.933489
9798.000000;0.933761
9797.000000;0.934087
9796.000000;0.934106
9795.000000;0.933770
9794.000000;0.933115
9793.000000;0.932237
9792.000000;0.931505
9791.000000;0.931345
9790.000000;0.931727
9789.000000;0.932154
9788.000000;0.932223
9787.000000;0.931952
9786.000000;0.931539
9785.000000;0.931120
9784.000000;0.930851
9783.000000;0.930893
9782.000000;0.931163
9781.000000;0.931345
9780.000000;0.931248
9779.000000;0.930952
9778.000000;0.930554
9777.000000;0.930032
9776.000000;0.929460
9775.000000;0.929107
9774.000000;0.929141
9773.000000;0.929405
9772.000000;0.929597
9771.000000;0.929552
9770.000000;0.929258
9769.000000;0.928829
9768.000000;0.928559
9767.000000;0.928773
9766.000000;0.929453
9765.000000;0.930154
9764.000000;0.930435
9763.000000;0.930232
9762.000000;0.929742
9761.000000;0.929181
9760.000000;0.928806
9759.000000;0.928908
9758.000000;0.929494
9757.000000;0.930098
9756.000000;0.930195
9755.000000;0.929743
9754.000000;0.929112
9753.000000;0.928551
9752.000000;0.927999
9751.000000;0.927389
9750.000000;0.926887
9749.000000;0.926753
9748.000000;0.927073
9747.000000;0.927671
9746.000000;0.928252
9745.000000;0.928621
9744.000000;0.928817
9743.000000;0.928971
9742.000000;0.929063
9741.000000;0.928957
9740.000000;0.928675
9739.000000;0.928431
9738.000000;0.928273
9737.000000;0.927945
9736.000000;0.927309
9735.000000;0.926694
9734.000000;0.926549
9733.000000;0.926844
9732.000000;0.927148
9731.000000;0.927215
9730.000000;0.927186
9729.000000;0.927192
9728.000000;0.927120
9727.000000;0.926897
9726.000000;0.926689
9725.000000;0.926602
9724.000000;0.926391
9723.000000;0.925753
9722.000000;0.924841
9721.000000;0.924268
9720.000000;0.924493
9719.000000;0.925332
9718.000000;0.926126
9717.000000;0.926366
9716.000000;0.926103
9715.000000;0.925752
9714.000000;0.925580
9713.000000;0.925478
9712.000000;0.925241
9711.000000;0.924930
9710.000000;0.924825
9709.000000;0.925044
9708.000000;0.925348
9707.000000;0.925404
9706.000000;0.925197
9705.000000;0.925077
9704.000000;0.925341
9703.000000;0.925804
9702.000000;0.925915
9701.000000;0.925350
9700.000000;0.924390
9699.000000;0.923575
9698.000000;0.923086
9697.000000;0.922694
9696.000000;0.922313
9695.000000;0.922266
9694.000000;0.922831
9693.000000;0.923752
9692.000000;0.924425
9691.000000;0.924492
9690.000000;0.924038
9689.000000;0.923328
9688.000000;0.922606
9687.000000;0.922106
9686.000000;0.921979
9685.000000;0.922135
9684.000000;0.922318
9683.000000;0.922390
9682.000000;0.922445
9681.000000;0.922625
9680.000000;0.922961
9679.000000;0.923367
9678.000000;0.923691
9677.000000;0.923784
9676.000000;0.923655
9675.000000;0.923530
9674.000000;0.923582
9673.000000;0.923622
9672.000000;0.923269
9671.000000;0.922462
9670.000000;0.921632
9669.000000;0.921264
9668.000000;0.921423
9667.000000;0.921754
9666.000000;0.921829
9665.000000;0.921442
9664.000000;0.920725
9663.000000;0.920076
9662.000000;0.919881
9661.000000;0.920211
9660.000000;0.920833
9659.000000;0.921472
9658.000000;0.921938
9657.000000;0.922031
9656.000000;0.921600
9655.000000;0.920803
9654.000000;0.920099
9653.000000;0.919814
9652.000000;0.919813
9651.000000;0.919722
9650.000000;0.919377
9649.000000;0.918928
9648.000000;0.918633
9647.000000;0.918699
9646.000000;0.919202
9645.000000;0.919969
9644.000000;0.920562
9643.000000;0.920590
9642.000000;0.920049
9641.000000;0.919273
9640.000000;0.918594
9639.000000;0.918155
9638.000000;0.917985
9637.000000;0.918058
9636.000000;0.918252
9635.000000;0.918399
9634.000000;0.918424
9633.000000;0.918371
9632.000000;0.918280
9631.000000;0.918157
9630.000000;0.918093
9629.000000;0.918270
9628.000000;0.918767
9627.000000;0.919402
9626.000000;0.919855
9625.000000;0.919934
9624.000000;0.919679
9623.000000;0.919268
9622.000000;0.918855
9621.000000;0.918478
9620.000000;0.918095
9619.000000;0.917680
9618.000000;0.917305
9617.000000;0.917113
9616.000000;0.917208
9615.000000;0.917579
9614.000000;0.918068
9613.000000;0.918410
9612.000000;0.918347
9611.000000;0.917815
9610.000000;0.917043
9609.000000;0.916406
9608.000000;0.916112
9607.000000;0.916067
9606.000000;0.916073
9605.000000;0.916100
9604.000000;0.916278
9603.000000;0.916622
9602.000000;0.916907
9601.000000;0.916879
9600.000000;0.916555
9599.000000;0.916196
9598.000000;0.915991
9597.000000;0.915864
9596.000000;0.915650
9595.000000;0.915364
9594.000000;0.915191
9593.000000;0.915253
9592.000000;0.915501
9591.000000;0.915835
9590.000000;0.916170
9589.000000;0.916348
9588.000000;0.916112
9587.000000;0.915354
9586.000000;0.914376
9585.000000;0.913736
9584.000000;0.913774
9583.000000;0.914299
9582.000000;0.914803
9581.000000;0.914943
9580.000000;0.914776
9579.000000;0.914580
9578.000000;0.914541
9577.000000;0.914662
9576.000000;0.914875
9575.000000;0.915113
9574.000000;0.915263
9573.000000;0.915155
9572.000000;0.914661
9571.000000;0.913793
9570.000000;0.912711
9569.000000;0.911701
9568.000000;0.911106
9567.000000;0.911147
9566.000000;0.911686
9565.000000;0.912267
9564.000000;0.912504
9563.000000;0.912424
9562.000000;0.912320
9561.000000;0.912364
9560.000000;0.912483
9559.000000;0.912579
9558.000000;0.912621
9557.000000;0.912506
9556.000000;0.912061
9555.000000;0.911336
9554.000000;0.910721
9553.000000;0.910579
9552.000000;0.910846
9551.000000;0.911141
9550.000000;0.911252
9549.000000;0.911328
9548.000000;0.911587
9547.000000;0.911994
9546.000000;0.912290
9545.000000;0.912264
9544.000000;0.911925
9543.000000;0.911466
9542.000000;0.911132
9541.000000;0.911070
9540.000000;0.911222
9539.000000;0.911371
9538.000000;0.911331
9537.000000;0.911133
9536.000000;0.910986
9535.000000;0.911010
9534.000000;0.911057
9533.000000;0.910856
9532.000000;0.910356
9531.000000;0.909859
9530.000000;0.909750
9529.000000;0.910095
9528.000000;0.910564
9527.000000;0.910788
9526.000000;0.910732
9525.000000;0.910661
9524.000000;0.910804
9523.000000;0.911112
9522.000000;0.911339
9521.000000;0.911304
9520.000000;0.911014
9519.000000;0.910582
9518.000000;0.910077
9517.000000;0.909518
9516.000000;0.908984
9515.000000;0.908636
9514.000000;0.908570
9513.000000;0.908701
9512.000000;0.908851
9511.000000;0.908932
9510.000000;0.908975
9509.000000;0.908999
9508.000000;0.908961
9507.000000;0.908835
9506.000000;0.908655
9505.000000;0.908443
9504.000000;0.908187
9503.000000;0.907923
9502.000000;0.907755
9501.000000;0.907746
9500.000000;0.907838
9499.000000;0.907931
9498.000000;0.908012
9497.000000;0.908144
9496.000000;0.908357
9495.000000;0.908553
9494.000000;0.908525
9493.000000;0.908081
9492.000000;0.907252
9491.000000;0.906393
9490.000000;0.905959
9489.000000;0.906124
9488.000000;0.906661
9487.000000;0.907206
9486.000000;0.907526
9485.000000;0.907499
9484.000000;0.907012
9483.000000;0.906118
9482.000000;0.905240
9481.000000;0.904959
9480.000000;0.905474
9479.000000;0.906340
9478.000000;0.906820
9477.000000;0.906521
9476.000000;0.905695
9475.000000;0.904972
9474.000000;0.904850
9473.000000;0.905367
9472.000000;0.906156
9471.000000;0.906739
9470.000000;0.906803
9469.000000;0.906344
9468.000000;0.905670
9467.000000;0.905258
9466.000000;0.905413
9465.000000;0.905995
9464.000000;0.906498
9463.000000;0.906465
9462.000000;0.905846
9461.000000;0.904951
9460.000000;0.904163
9459.000000;0.903718
9458.000000;0.903658
9457.000000;0.903853
9456.000000;0.904104
9455.000000;0.904287
9454.000000;0.904407
9453.000000;0.904478
9452.000000;0.904429
9451.000000;0.904204
9450.000000;0.903887
9449.000000;0.903641
9448.000000;0.903542
9447.000000;0.903555
9446.000000;0.903621
9445.000000;0.903690
9444.000000;0.903687
9443.000000;0.903566
9442.000000;0.903387
9441.000000;0.903248
9440.000000;0.903142
9439.000000;0.902970
9438.000000;0.902706
9437.000000;0.902445
9436.000000;0.902275
9435.000000;0.902183
9434.000000;0.902122
9433.000000;0.902085
9432.000000;0.902067
9431.000000;0.902003
9430.000000;0.901817
9429.000000;0.901520
9428.000000;0.901228
9427.000000;0.901094
9426.000000;0.901204
9425.000000;0.901506
9424.000000;0.901847
9423.000000;0.902069
9422.000000;0.902109
9421.000000;0.902019
9420.000000;0.901931
9419.000000;0.901970
9418.000000;0.902128
9417.000000;0.902195
9416.000000;0.901919
9415.000000;0.901308
9414.000000;0.900693
9413.000000;0.900417
9412.000000;0.900490
9411.000000;0.900624
9410.000000;0.900557
9409.000000;0.900261
9408.000000;0.899903
9407.000000;0.899709
9406.000000;0.899821
9405.000000;0.900166
9404.000000;0.900464
9403.000000;0.900498
9402.000000;0.900364
9401.000000;0.900333
9400.000000;0.900469
9399.000000;0.900545
9398.000000;0.900368
9397.000000;0.900034
9396.000000;0.899779
9395.000000;0.899688
9394.000000;0.899637
9393.000000;0.899465
9392.000000;0.899118
9391.000000;0.898675
9390.000000;0.898295
9389.000000;0.898120
9388.000000;0.898173
9387.000000;0.898337
9386.000000;0.898451
9385.000000;0.898406
9384.000000;0.898186
9383.000000;0.897889
9382.000000;0.897708
9381.000000;0.897785
9380.000000;0.898063
9379.000000;0.898341
9378.000000;0.898509
9377.000000;0.898622
9376.000000;0.898717
9375.000000;0.898680
9374.000000;0.898410
9373.000000;0.898008
9372.000000;0.897688
9371.000000;0.897508
9370.000000;0.897299
9369.000000;0.896904
9368.000000;0.896403
9367.000000;0.896082
9366.000000;0.896155
9365.000000;0.896537
9364.000000;0.896889
9363.000000;0.896937
9362.000000;0.896731
9361.000000;0.896561
9360.000000;0.896614
9359.000000;0.896809
9358.000000;0.896961
9357.000000;0.896993
9356.000000;0.896938
9355.000000;0.896817
9354.000000;0.896628
9353.000000;0.896431
9352.000000;0.896322
9351.000000;0.896325
9350.000000;0.896371
9349.000000;0.896391
9348.000000;0.896380
9347.000000;0.896354
9346.000000;0.896300
9345.000000;0.896191
9344.000000;0.896038
9343.000000;0.895894
9342.000000;0.895778
9341.000000;0.895628
9340.000000;0.895379
9339.000000;0.895090
9338.000000;0.894934
9337.000000;0.894996
9336.000000;0.895119
9335.000000;0.895040
9334.000000;0.894656
9333.000000;0.894092
9332.000000;0.893529
9331.000000;0.893074
9330.000000;0.892791
9329.000000;0.892741
9328.000000;0.892942
9327.000000;0.893358
9326.000000;0.893925
9325.000000;0.894504
9324.000000;0.894812
9323.000000;0.894594
9322.000000;0.893954
9321.000000;0.893366
9320.000000;0.893235
9319.000000;0.893499
9318.000000;0.893782
9317.000000;0.893882
9316.000000;0.893958
9315.000000;0.894232
9314.000000;0.894637
9313.000000;0.894840
9312.000000;0.894584
9311.000000;0.893967
9310.000000;0.893365
9309.000000;0.893087
9308.000000;0.893136
9307.000000;0.893320
9306.000000;0.893507
9305.000000;0.893634
9304.000000;0.893536
9303.000000;0.893008
9302.000000;0.892146
9301.000000;0.891416
9300.000000;0.891231
9299.000000;0.891558
9298.000000;0.892075
9297.000000;0.892567
9296.000000;0.892964
9295.000000;0.893106
9294.000000;0.892802
9293.000000;0.892167
9292.000000;0.891667
9291.000000;0.891672
9290.000000;0.892064
9289.000000;0.892366
9288.000000;0.892176
9287.000000;0.891446
9286.000000;0.890490
9285.000000;0.889781
9284.000000;0.889642
9283.000000;0.889979
9282.000000;0.890348
9281.000000;0.890361
9280.000000;0.890018
9279.000000;0.889616
9278.000000;0.889412
9277.000000;0.889445
9276.000000;0.889631
9275.000000;0.889888
9274.000000;0.890138
9273.000000;0.890266
9272.000000;0.890170
9271.000000;0.889853
9270.000000;0.889450
9269.000000;0.889152
9268.000000;0.889090
9267.000000;0.889259
9266.000000;0.889545
9265.000000;0.889778
9264.000000;0.889815
9263.000000;0.889630
9262.000000;0.889371
9261.000000;0.889254
9260.000000;0.889341
9259.000000;0.889452
9258.000000;0.889347
9257.000000;0.888995
9256.000000;0.888598
9255.000000;0.888389
9254.000000;0.888459
9253.000000;0.888752
9252.000000;0.889107
9251.000000;0.889318
9250.000000;0.889253
9249.000000;0.888962
9248.000000;0.888597
9247.000000;0.888217
9246.000000;0.887795
9245.000000;0.887411
9244.000000;0.887290
9243.000000;0.887513
9242.000000;0.887813
9241.000000;0.887834
9240.000000;0.887572
9239.000000;0.887401
9238.000000;0.887609
9237.000000;0.888053
9236.000000;0.888345
9235.000000;0.888267
9234.000000;0.887894
9233.000000;0.887387
9232.000000;0.886857
9231.000000;0.886434
9230.000000;0.886289
9229.000000;0.886455
9228.000000;0.886699
9227.000000;0.886722
9226.000000;0.886475
9225.000000;0.886150
9224.000000;0.885888
9223.000000;0.885637
9222.000000;0.885352
9221.000000;0.885176
9220.000000;0.885258
9219.000000;0.885487
9218.000000;0.885560
9217.000000;0.885329
9216.000000;0.884948
9215.000000;0.884667
9214.000000;0.884585
9213.000000;0.884660
9212.000000;0.884827
9211.000000;0.885052
9210.000000;0.885282
9209.000000;0.885428
9208.000000;0.885383
9207.000000;0.885093
9206.000000;0.884643
9205.000000;0.884259
9204.000000;0.884139
9203.000000;0.884256
9202.000000;0.884395
9201.000000;0.884404
9200.000000;0.884344
9199.000000;0.884342
9198.000000;0.884394
9197.000000;0.884407
9196.000000;0.884391
9195.000000;0.884484
9194.000000;0.884765
9193.000000;0.885102
9192.000000;0.885238
9191.000000;0.885044
9190.000000;0.884679
9189.000000;0.884465
9188.000000;0.884565
9187.000000;0.884790
9186.000000;0.884790
9185.000000;0.884468
9184.000000;0.884100
9183.000000;0.883992
9182.000000;0.884065
9181.000000;0.883929
9180.000000;0.883348
9179.000000;0.882527
9178.000000;0.881879
9177.000000;0.881605
9176.000000;0.881591
9175.000000;0.881670
9174.000000;0.881838
9173.000000;0.882158
9172.000000;0.882535
9171.000000;0.882703
9170.000000;0.882504
9169.000000;0.882069
9168.000000;0.881667
9167.000000;0.881407
9166.000000;0.881197
9165.000000;0.880994
9164.000000;0.880933
9163.000000;0.881120
9162.000000;0.881368
9161.000000;0.881329
9160.000000;0.880906
9159.000000;0.880403
9158.000000;0.880208
9157.000000;0.880396
9156.000000;0.880730
9155.000000;0.880976
9154.000000;0.881097
9153.000000;0.881166
9152.000000;0.881202
9151.000000;0.881175
9150.000000;0.881083
9149.000000;0.880941
9148.000000;0.880725
9147.000000;0.880401
9146.000000;0.880031
9145.000000;0.879767
9144.000000;0.879698
9143.000000;0.879737
9142.000000;0.879704
9141.000000;0.879532
9140.000000;0.879346
9139.000000;0.879346
9138.000000;0.879600
9137.000000;0.879955
9136.000000;0.880147
9135.000000;0.880036
9134.000000;0.879741
9133.000000;0.879512
9132.000000;0.879462
9131.000000;0.879473
9130.000000;0.879380
9129.000000;0.879180
9128.000000;0.878986
9127.000000;0.878801
9126.000000;0.878475
9125.000000;0.877961
9124.000000;0.877502
9123.000000;0.877429
9122.000000;0.877772
9121.000000;0.878170
9120.000000;0.878237
9119.000000;0.877947
9118.000000;0.877599
9117.000000;0.877446
9116.000000;0.877469
9115.000000;0.877505
9114.000000;0.877497
9113.000000;0.877520
9112.000000;0.877626
9111.000000;0.877762
9110.000000;0.877824
9109.000000;0.877732
9108.000000;0.877457
9107.000000;0.877071
9106.000000;0.876747
9105.000000;0.876626
9104.000000;0.876631
9103.000000;0.876520
9102.000000;0.876169
9101.000000;0.875739
9100.000000;0.875497
9099.000000;0.875538
9098.000000;0.875723
9097.000000;0.875851
9096.000000;0.875805
9095.000000;0.875619
9094.000000;0.875456
9093.000000;0.875465
9092.000000;0.875604
9091.000000;0.875648
9090.000000;0.875472
9089.000000;0.875246
9088.000000;0.875232
9087.000000;0.875439
9086.000000;0.875653
9085.000000;0.875760
9084.000000;0.875837
9083.000000;0.875906
9082.000000;0.875805
9081.000000;0.875430
9080.000000;0.874938
9079.000000;0.874568
9078.000000;0.874346
9077.000000;0.874122
9076.000000;0.873844
9075.000000;0.873655
9074.000000;0.873702
9073.000000;0.873946
9072.000000;0.874203
9071.000000;0.874315
9070.000000;0.874277
9069.000000;0.874225
9068.000000;0.874284
9067.000000;0.874435
9066.000000;0.874538
9065.000000;0.874511
9064.000000;0.874430
9063.000000;0.874436
9062.000000;0.874582
9061.000000;0.874778
9060.000000;0.874825
9059.000000;0.874524
9058.000000;0.873837
9057.000000;0.873017
9056.000000;0.872467
9055.000000;0.872376
9054.000000;0.872574
9053.000000;0.872777
