Criado como novo conjunto de dados;"2706_e01_daniel.spp","73445.6 Secs"
cm-1;Abs
10000.000000;0.834352
9999.000000;0.833944
9998.000000;0.833537
9997.000000;0.833131
9996.000000;0.832725
9995.000000;0.832320
9994.000000;0.831913
9993.000000;0.831511
9992.000000;0.831098
9991.000000;0.830928
9990.000000;0.830786
9989.000000;0.830600
9988.000000;0.830568
9987.000000;0.830842
9986.000000;0.831285
9985.000000;0.831511
9984.000000;0.831204
9983.000000;0.830446
9982.000000;0.829686
9981.000000;0.829323
9980.000000;0.829333
9979.000000;0.829361
9978.000000;0.829147
9977.000000;0.828756
9976.000000;0.828429
9975.000000;0.828356
9974.000000;0.828613
9973.000000;0.829153
9972.000000;0.829744
9971.000000;0.830039
9970.000000;0.829848
9969.000000;0.829325
9968.000000;0.828813
9967.000000;0.828509
9966.000000;0.828348
9965.000000;0.828199
9964.000000;0.828104
9963.000000;0.828216
9962.000000;0.828560
9961.000000;0.828925
9960.000000;0.829036
9959.000000;0.828782
9958.000000;0.828262
9957.000000;0.827686
9956.000000;0.827285
9955.000000;0.827205
9954.000000;0.827373
9953.000000;0.827481
9952.000000;0.827300
9951.000000;0.827015
9950.000000;0.827076
9949.000000;0.827599
9948.000000;0.828085
9947.000000;0.827877
9946.000000;0.826891
9945.000000;0.825747
9944.000000;0.825177
9943.000000;0.825373
9942.000000;0.825888
9941.000000;0.826143
9940.000000;0.826009
9939.000000;0.825888
9938.000000;0.826171
9937.000000;0.826705
9936.000000;0.826949
9935.000000;0.826640
9934.000000;0.826062
9933.000000;0.825626
9932.000000;0.825443
9931.000000;0.825409
9930.000000;0.825412
9929.000000;0.825246
9928.000000;0.824596
9927.000000;0.823451
9926.000000;0.822402
9925.000000;0.822184
9924.000000;0.822935
9923.000000;0.824114
9922.000000;0.825070
9921.000000;0.825493
9920.000000;0.825401
9919.000000;0.825008
9918.000000;0.824591
9917.000000;0.824231
9916.000000;0.823705
9915.000000;0.822857
9914.000000;0.822002
9913.000000;0.821656
9912.000000;0.821924
9911.000000;0.822506
9910.000000;0.823224
9909.000000;0.824101
9908.000000;0.824879
9907.000000;0.824990
9906.000000;0.824280
9905.000000;0.823329
9904.000000;0.822758
9903.000000;0.822510
9902.000000;0.822151
9901.000000;0.821610
9900.000000;0.821225
9899.000000;0.821187
9898.000000;0.821322
9897.000000;0.821375
9896.000000;0.821274
9895.000000;0.821113
9894.000000;0.821047
9893.000000;0.821149
9892.000000;0.821240
9891.000000;0.820954
9890.000000;0.820187
9889.000000;0.819362
9888.000000;0.819038
9887.000000;0.819308
9886.000000;0.819796
9885.000000;0.820144
9884.000000;0.820251
9883.000000;0.820097
9882.000000;0.819645
9881.000000;0.819016
9880.000000;0.818533
9879.000000;0.818436
9878.000000;0.818631
9877.000000;0.818789
9876.000000;0.818639
9875.000000;0.818143
9874.000000;0.817482
9873.000000;0.816933
9872.000000;0.816680
9871.000000;0.816723
9870.000000;0.816930
9869.000000;0.817168
9868.000000;0.817353
9867.000000;0.817426
9866.000000;0.817374
9865.000000;0.817221
9864.000000;0.816984
9863.000000;0.816672
9862.000000;0.816400
9861.000000;0.816397
9860.000000;0.816774
9859.000000;0.817309
9858.000000;0.817593
9857.000000;0.817406
9856.000000;0.816895
9855.000000;0.816381
9854.000000;0.816061
9853.000000;0.815899
9852.000000;0.815715
9851.000000;0.815381
9850.000000;0.814946
9849.000000;0.814615
9848.000000;0.814593
9847.000000;0.814943
9846.000000;0.815545
9845.000000;0.816138
9844.000000;0.816465
9843.000000;0.816465
9842.000000;0.816291
9841.000000;0.816051
9840.000000;0.815601
9839.000000;0.814795
9838.000000;0.813905
9837.000000;0.813502
9836.000000;0.813791
9835.000000;0.814304
9834.000000;0.814400
9833.000000;0.813898
9832.000000;0.813075
9831.000000;0.812231
9830.000000;0.811538
9829.000000;0.811173
9828.000000;0.811259
9827.000000;0.811655
9826.000000;0.812052
9825.000000;0.812335
9824.000000;0.812659
9823.000000;0.813137
9822.000000;0.813591
9821.000000;0.813723
9820.000000;0.813402
9819.000000;0.812748
9818.000000;0.812025
9817.000000;0.811507
9816.000000;0.811331
9815.000000;0.811388
9814.000000;0.811376
9813.000000;0.811059
9812.000000;0.810518
9811.000000;0.810126
9810.000000;0.810219
9809.000000;0.810744
9808.000000;0.811267
9807.000000;0.811399
9806.000000;0.811190
9805.000000;0.810973
9804.000000;0.810870
9803.000000;0.810665
9802.000000;0.810206
9801.000000;0.809678
9800.000000;0.809317
9799.000000;0.809080
9798.000000;0.808842
9797.000000;0.808749
9796.000000;0.809055
9795.000000;0.809648
9794.000000;0.810050
9793.000000;0.809969
9792.000000;0.809620
9791.000000;0.809404
9790.000000;0.809486
9789.000000;0.809787
9788.000000;0.810191
9787.000000;0.810571
9786.000000;0.810708
9785.000000;0.810413
9784.000000;0.809780
9783.000000;0.809205
9782.000000;0.809055
9781.000000;0.809318
9780.000000;0.809595
9779.000000;0.809483
9778.000000;0.808998
9777.000000;0.808573
9776.000000;0.808589
9775.000000;0.808931
9774.000000;0.809084
9773.000000;0.808621
9772.000000;0.807570
9771.000000;0.806362
9770.000000;0.805536
9769.000000;0.805431
9768.000000;0.806000
9767.000000;0.806819
9766.000000;0.807355
9765.000000;0.807328
9764.000000;0.806859
9763.000000;0.806313
9762.000000;0.806014
9761.000000;0.806066
9760.000000;0.806353
9759.000000;0.806661
9758.000000;0.806854
9757.000000;0.806969
9756.000000;0.807107
9755.000000;0.807230
9754.000000;0.807102
9753.000000;0.806510
9752.000000;0.805570
9751.000000;0.804742
9750.000000;0.804478
9749.000000;0.804805
9748.000000;0.805297
9747.000000;0.805503
9746.000000;0.805337
9745.000000;0.805010
9744.000000;0.804702
9743.000000;0.804445
9742.000000;0.804263
9741.000000;0.804239
9740.000000;0.804391
9739.000000;0.804645
9738.000000;0.804970
9737.000000;0.805379
9736.000000;0.805765
9735.000000;0.805905
9734.000000;0.805699
9733.000000;0.805300
9732.000000;0.804883
9731.000000;0.804478
9730.000000;0.804102
9729.000000;0.803893
9728.000000;0.803916
9727.000000;0.803992
9726.000000;0.803872
9725.000000;0.803554
9724.000000;0.803266
9723.000000;0.803174
9722.000000;0.803239
9721.000000;0.803330
9720.000000;0.803356
9719.000000;0.803324
9718.000000;0.803332
9717.000000;0.803453
9716.000000;0.803563
9715.000000;0.803400
9714.000000;0.802889
9713.000000;0.802313
9712.000000;0.802013
9711.000000;0.802035
9710.000000;0.802209
9709.000000;0.802435
9708.000000;0.802689
9707.000000;0.802840
9706.000000;0.802721
9705.000000;0.802370
9704.000000;0.801990
9703.000000;0.801677
9702.000000;0.801357
9701.000000;0.800991
9700.000000;0.800641
9699.000000;0.800358
9698.000000;0.800172
9697.000000;0.800190
9696.000000;0.800484
9695.000000;0.800829
9694.000000;0.800812
9693.000000;0.800323
9692.000000;0.799773
9691.000000;0.799662
9690.000000;0.800047
9689.000000;0.800526
9688.000000;0.800662
9687.000000;0.800326
9686.000000;0.799726
9685.000000;0.799234
9684.000000;0.799160
9683.000000;0.799532
9682.000000;0.800060
9681.000000;0.800325
9680.000000;0.800079
9679.000000;0.799403
9678.000000;0.798613
9677.000000;0.798019
9676.000000;0.797737
9675.000000;0.797693
9674.000000;0.797764
9673.000000;0.797855
9672.000000;0.797849
9671.000000;0.797615
9670.000000;0.797167
9669.000000;0.796771
9668.000000;0.796739
9667.000000;0.797103
9666.000000;0.797564
9665.000000;0.797780
9664.000000;0.797649
9663.000000;0.797316
9662.000000;0.797012
9661.000000;0.796890
9660.000000;0.796942
9659.000000;0.797036
9658.000000;0.797052
9657.000000;0.797016
9656.000000;0.797072
9655.000000;0.797334
9654.000000;0.797749
9653.000000;0.798077
9652.000000;0.798036
9651.000000;0.797537
9650.000000;0.796807
9649.000000;0.796170
9648.000000;0.795691
9647.000000;0.795168
9646.000000;0.794533
9645.000000;0.794099
9644.000000;0.794233
9643.000000;0.794861
9642.000000;0.795477
9641.000000;0.795628
9640.000000;0.795272
9639.000000;0.794710
9638.000000;0.794321
9637.000000;0.794363
9636.000000;0.794846
9635.000000;0.795517
9634.000000;0.796043
9633.000000;0.796229
9632.000000;0.796059
9631.000000;0.795583
9630.000000;0.794914
9629.000000;0.794259
9628.000000;0.793803
9627.000000;0.793561
9626.000000;0.793438
9625.000000;0.793413
9624.000000;0.793513
9623.000000;0.793655
9622.000000;0.793671
9621.000000;0.793496
9620.000000;0.793214
9619.000000;0.792904
9618.000000;0.792584
9617.000000;0.792302
9616.000000;0.792138
9615.000000;0.792109
9614.000000;0.792190
9613.000000;0.792415
9612.000000;0.792791
9611.000000;0.793117
9610.000000;0.793097
9609.000000;0.792675
9608.000000;0.792123
9607.000000;0.791726
9606.000000;0.791536
9605.000000;0.791470
9604.000000;0.791455
9603.000000;0.791393
9602.000000;0.791183
9601.000000;0.790901
9600.000000;0.790820
9599.000000;0.791091
9598.000000;0.791502
9597.000000;0.791720
9596.000000;0.791687
9595.000000;0.791601
9594.000000;0.791564
9593.000000;0.791445
9592.000000;0.791138
9591.000000;0.790783
9590.000000;0.790613
9589.000000;0.790654
9588.000000;0.790690
9587.000000;0.790555
9586.000000;0.790356
9585.000000;0.790317
9584.000000;0.790423
9583.000000;0.790355
9582.000000;0.789852
9581.000000;0.789040
9580.000000;0.788307
9579.000000;0.787894
9578.000000;0.787742
9577.000000;0.787665
9576.000000;0.787545
9575.000000;0.787394
9574.000000;0.787358
9573.000000;0.787682
9572.000000;0.788467
9571.000000;0.789435
9570.000000;0.790105
9569.000000;0.790273
9568.000000;0.790176
9567.000000;0.790085
9566.000000;0.789924
9565.000000;0.789463
9564.000000;0.788737
9563.000000;0.788042
9562.000000;0.787539
9561.000000;0.787116
9560.000000;0.786680
9559.000000;0.786412
9558.000000;0.786566
9557.000000;0.787100
9556.000000;0.787647
9555.000000;0.787871
9554.000000;0.787752
9553.000000;0.787497
9552.000000;0.787279
9551.000000;0.787141
9550.000000;0.787083
9549.000000;0.787101
9548.000000;0.787114
9547.000000;0.786983
9546.000000;0.786680
9545.000000;0.786345
9544.000000;0.786117
9543.000000;0.785980
9542.000000;0.785869
9541.000000;0.785823
9540.000000;0.785924
9539.000000;0.786101
9538.000000;0.786145
9537.000000;0.785904
9536.000000;0.785409
9535.000000;0.784817
9534.000000;0.784323
9533.000000;0.784071
9532.000000;0.784053
9531.000000;0.784134
9530.000000;0.784258
9529.000000;0.784553
9528.000000;0.785076
9527.000000;0.785548
9526.000000;0.785551
9525.000000;0.784987
9524.000000;0.784163
9523.000000;0.783426
9522.000000;0.782932
9521.000000;0.782739
9520.000000;0.782848
9519.000000;0.783054
9518.000000;0.782994
9517.000000;0.782543
9516.000000;0.782005
9515.000000;0.781782
9514.000000;0.781957
9513.000000;0.782328
9512.000000;0.782705
9511.000000;0.783008
9510.000000;0.783177
9509.000000;0.783175
9508.000000;0.783058
9507.000000;0.782923
9506.000000;0.782788
9505.000000;0.782621
9504.000000;0.782409
9503.000000;0.782133
9502.000000;0.781750
9501.000000;0.781333
9500.000000;0.781142
9499.000000;0.781395
9498.000000;0.781966
9497.000000;0.782443
9496.000000;0.782498
9495.000000;0.782130
9494.000000;0.781576
9493.000000;0.781089
9492.000000;0.780789
9491.000000;0.780649
9490.000000;0.780589
9489.000000;0.780596
9488.000000;0.780691
9487.000000;0.780771
9486.000000;0.780611
9485.000000;0.780167
9484.000000;0.779773
9483.000000;0.779814
9482.000000;0.780237
9481.000000;0.780548
9480.000000;0.780364
9479.000000;0.779808
9478.000000;0.779298
9477.000000;0.779099
9476.000000;0.779160
9475.000000;0.779295
9474.000000;0.779386
9473.000000;0.779452
9472.000000;0.779592
9471.000000;0.779814
9470.000000;0.779919
9469.000000;0.779618
9468.000000;0.778874
9467.000000;0.778040
9466.000000;0.777570
9465.000000;0.777594
9464.000000;0.777855
9463.000000;0.777994
9462.000000;0.777862
9461.000000;0.777580
9460.000000;0.777409
9459.000000;0.777540
9458.000000;0.777910
9457.000000;0.778201
9456.000000;0.778114
9455.000000;0.777687
9454.000000;0.777275
9453.000000;0.777186
9452.000000;0.777402
9451.000000;0.777668
9450.000000;0.777753
9449.000000;0.777584
9448.000000;0.777219
9447.000000;0.776816
9446.000000;0.776552
9445.000000;0.776454
9444.000000;0.776357
9443.000000;0.776148
9442.000000;0.775991
9441.000000;0.776130
9440.000000;0.776481
9439.000000;0.776643
9438.000000;0.776399
9437.000000;0.775998
9436.000000;0.775783
9435.000000;0.775728
9434.000000;0.775556
9433.000000;0.775192
9432.000000;0.774850
9431.000000;0.774657
9430.000000;0.774479
9429.000000;0.774206
9428.000000;0.773999
9427.000000;0.774056
9426.000000;0.774263
9425.000000;0.774267
9424.000000;0.773925
9423.000000;0.773528
9422.000000;0.773523
9421.000000;0.774048
9420.000000;0.774779
9419.000000;0.775210
9418.000000;0.775087
9417.000000;0.774556
9416.000000;0.773932
9415.000000;0.773408
9414.000000;0.772994
9413.000000;0.772685
9412.000000;0.772546
9411.000000;0.772604
9410.000000;0.772746
9409.000000;0.772805
9408.000000;0.772736
9407.000000;0.772641
9406.000000;0.772622
9405.000000;0.772641
9404.000000;0.772538
9403.000000;0.772215
9402.000000;0.771810
9401.000000;0.771643
9400.000000;0.771919
9399.000000;0.772453
9398.000000;0.772763
9397.000000;0.772512
9396.000000;0.771858
9395.000000;0.771294
9394.000000;0.771165
9393.000000;0.771377
9392.000000;0.771594
9391.000000;0.771629
9390.000000;0.771584
9389.000000;0.771626
9388.000000;0.771749
9387.000000;0.771795
9386.000000;0.771675
9385.000000;0.771485
9384.000000;0.771395
9383.000000;0.771445
9382.000000;0.771466
9381.000000;0.771204
9380.000000;0.770563
9379.000000;0.769765
9378.000000;0.769230
9377.000000;0.769210
9376.000000;0.769523
9375.000000;0.769722
9374.000000;0.769548
9373.000000;0.769144
9372.000000;0.768819
9371.000000;0.768706
9370.000000;0.768726
9369.000000;0.768778
9368.000000;0.768845
9367.000000;0.768905
9366.000000;0.768854
9365.000000;0.768587
9364.000000;0.768139
9363.000000;0.767720
9362.000000;0.767590
9361.000000;0.767839
9360.000000;0.768273
9359.000000;0.768568
9358.000000;0.768574
9357.000000;0.768447
9356.000000;0.768423
9355.000000;0.768520
9354.000000;0.768516
9353.000000;0.768226
9352.000000;0.767741
9351.000000;0.767373
9350.000000;0.767340
9349.000000;0.767519
9348.000000;0.767568
9347.000000;0.767334
9346.000000;0.767084
9345.000000;0.767201
9344.000000;0.767684
9343.000000;0.768115
9342.000000;0.768154
9341.000000;0.767871
9340.000000;0.767533
9339.000000;0.767240
9338.000000;0.766965
9337.000000;0.766760
9336.000000;0.766693
9335.000000;0.766626
9334.000000;0.766327
9333.000000;0.765812
9332.000000;0.765379
9331.000000;0.765252
9330.000000;0.765348
9329.000000;0.765470
9328.000000;0.765571
9327.000000;0.765725
9326.000000;0.765934
9325.000000;0.766085
9324.000000;0.766069
9323.000000;0.765886
9322.000000;0.765635
9321.000000;0.765421
9320.000000;0.765289
9319.000000;0.765226
9318.000000;0.765227
9317.000000;0.765291
9316.000000;0.765331
9315.000000;0.765193
9314.000000;0.764846
9313.000000;0.764483
9312.000000;0.764321
9311.000000;0.764329
9310.000000;0.764298
9309.000000;0.764147
9308.000000;0.764019
9307.000000;0.764080
9306.000000;0.764322
9305.000000;0.764580
9304.000000;0.764647
9303.000000;0.764388
9302.000000;0.763870
9301.000000;0.763390
9300.000000;0.763233
9299.000000;0.763371
9298.000000;0.763490
9297.000000;0.763326
9296.000000;0.762885
9295.000000;0.762362
9294.000000;0.761972
9293.000000;0.761868
9292.000000;0.762040
9291.000000;0.762256
9290.000000;0.762250
9289.000000;0.762033
9288.000000;0.761879
9287.000000;0.761969
9286.000000;0.762191
9285.000000;0.762348
9284.000000;0.762403
9283.000000;0.762402
9282.000000;0.762320
9281.000000;0.762120
9280.000000;0.761854
9279.000000;0.761576
9278.000000;0.761243
9277.000000;0.760847
9276.000000;0.760539
9275.000000;0.760486
9274.000000;0.760640
9273.000000;0.760792
9272.000000;0.760811
9271.000000;0.760714
9270.000000;0.760552
9269.000000;0.760376
9268.000000;0.760296
9267.000000;0.760411
9266.000000;0.760661
9265.000000;0.760849
9264.000000;0.760848
9263.000000;0.760701
9262.000000;0.760502
9261.000000;0.760266
9260.000000;0.759962
9259.000000;0.759595
9258.000000;0.759215
9257.000000;0.758889
9256.000000;0.758681
9255.000000;0.758615
9254.000000;0.758643
9253.000000;0.758677
9252.000000;0.758658
9251.000000;0.758566
9250.000000;0.758382
9249.000000;0.758103
9248.000000;0.757797
9247.000000;0.757604
9246.000000;0.757618
9245.000000;0.757790
9244.000000;0.757966
9243.000000;0.758021
9242.000000;0.757959
9241.000000;0.757895
9240.000000;0.757916
9239.000000;0.757974
9238.000000;0.757913
9237.000000;0.757626
9236.000000;0.757172
9235.000000;0.756733
9234.000000;0.756475
9233.000000;0.756435
9232.000000;0.756505
9231.000000;0.756507
9230.000000;0.756333
9229.000000;0.756049
9228.000000;0.755848
9227.000000;0.755865
9226.000000;0.756073
9225.000000;0.756362
9224.000000;0.756663
9223.000000;0.756931
9222.000000;0.757061
9221.000000;0.756937
9220.000000;0.756586
9219.000000;0.756180
9218.000000;0.755861
9217.000000;0.755611
9216.000000;0.755347
9215.000000;0.755085
9214.000000;0.754922
9213.000000;0.754883
9212.000000;0.754870
9211.000000;0.754787
9210.000000;0.754654
9209.000000;0.754561
9208.000000;0.754552
9207.000000;0.754597
9206.000000;0.754653
9205.000000;0.754690
9204.000000;0.754659
9203.000000;0.754509
9202.000000;0.754234
9201.000000;0.753885
9200.000000;0.753523
9199.000000;0.753210
9198.000000;0.753027
9197.000000;0.753026
9196.000000;0.753134
9195.000000;0.753203
9194.000000;0.753205
9193.000000;0.753277
9192.000000;0.753512
9191.000000;0.753777
9190.000000;0.753859
9189.000000;0.753731
9188.000000;0.753552
9187.000000;0.753435
9186.000000;0.753361
9185.000000;0.753306
9184.000000;0.753325
9183.000000;0.753445
9182.000000;0.753587
9181.000000;0.753664
9180.000000;0.753672
9179.000000;0.753620
9178.000000;0.753438
9177.000000;0.753058
9176.000000;0.752539
9175.000000;0.752060
9174.000000;0.751782
9173.000000;0.751734
9172.000000;0.751818
9171.000000;0.751896
9170.000000;0.751893
9169.000000;0.751840
9168.000000;0.751808
9167.000000;0.751796
9166.000000;0.751718
9165.000000;0.751494
9164.000000;0.751119
9163.000000;0.750631
9162.000000;0.750074
9161.000000;0.749537
9160.000000;0.749171
9159.000000;0.749099
9158.000000;0.749307
9157.000000;0.749642
9156.000000;0.749914
9155.000000;0.750001
9154.000000;0.749900
9153.000000;0.749696
9152.000000;0.749475
9151.000000;0.749252
9150.000000;0.749003
9149.000000;0.748744
9148.000000;0.748544
9147.000000;0.748480
9146.000000;0.748598
9145.000000;0.748906
9144.000000;0.749323
9143.000000;0.749646
9142.000000;0.749668
9141.000000;0.749363
9140.000000;0.748902
9139.000000;0.748453
9138.000000;0.748047
9137.000000;0.747686
9136.000000;0.747477
9135.000000;0.747565
9134.000000;0.747956
9133.000000;0.748477
9132.000000;0.748905
9131.000000;0.749061
9130.000000;0.748854
9129.000000;0.748333
9128.000000;0.747747
9127.000000;0.747406
9126.000000;0.747416
9125.000000;0.747562
9124.000000;0.747526
9123.000000;0.747209
9122.000000;0.746798
9121.000000;0.746523
9120.000000;0.746436
9119.000000;0.746422
9118.000000;0.746360
9117.000000;0.746227
9116.000000;0.746077
9115.000000;0.745976
9114.000000;0.745933
9113.000000;0.745857
9112.000000;0.745622
9111.000000;0.745249
9110.000000;0.744994
9109.000000;0.745129
9108.000000;0.745612
9107.000000;0.746049
9106.000000;0.746056
9105.000000;0.745625
9104.000000;0.745095
9103.000000;0.744830
9102.000000;0.744955
9101.000000;0.745313
9100.000000;0.745598
9099.000000;0.745591
9098.000000;0.745345
9097.000000;0.745109
9096.000000;0.745018
9095.000000;0.744931
9094.000000;0.744659
9093.000000;0.744249
9092.000000;0.743929
9091.000000;0.743833
9090.000000;0.743924
9089.000000;0.744136
9088.000000;0.744410
9087.000000;0.744598
9086.000000;0.744537
9085.000000;0.744284
9084.000000;0.744095
9083.000000;0.744102
9082.000000;0.744156
9081.000000;0.744068
9080.000000;0.743872
9079.000000;0.743717
9078.000000;0.743609
9077.000000;0.743413
9076.000000;0.743083
9075.000000;0.742746
9074.000000;0.742540
9073.000000;0.742482
9072.000000;0.742500
9071.000000;0.742546
9070.000000;0.742606
9069.000000;0.742646
9068.000000;0.742557
9067.000000;0.742222
9066.000000;0.741648
9065.000000;0.741036
9064.000000;0.740654
9063.000000;0.740631
9062.000000;0.740890
9061.000000;0.741254
9060.000000;0.741545
9059.000000;0.741635
9058.000000;0.741509
9057.000000;0.741331
9056.000000;0.741316
9055.000000;0.741474
9054.000000;0.741573
9053.000000;0.741405
