Criado como novo conjunto de dados;"2706_e01_daniel.spp","10982.3 Secs"
cm-1;Abs
10000.000000;0.764873
9999.000000;0.764588
9998.000000;0.764303
9997.000000;0.764019
9996.000000;0.763734
9995.000000;0.763450
9994.000000;0.763166
9993.000000;0.762883
9992.000000;0.762597
9991.000000;0.762319
9990.000000;0.762026
9989.000000;0.761793
9988.000000;0.761659
9987.000000;0.761686
9986.000000;0.762009
9985.000000;0.762492
9984.000000;0.762743
9983.000000;0.762520
9982.000000;0.762067
9981.000000;0.761844
9980.000000;0.762007
9979.000000;0.762314
9978.000000;0.762509
9977.000000;0.762595
9976.000000;0.762699
9975.000000;0.762790
9974.000000;0.762650
9973.000000;0.762108
9972.000000;0.761305
9971.000000;0.760680
9970.000000;0.760648
9969.000000;0.761247
9968.000000;0.762144
9967.000000;0.762937
9966.000000;0.763339
9965.000000;0.763155
9964.000000;0.762362
9963.000000;0.761308
9962.000000;0.760602
9961.000000;0.760568
9960.000000;0.760935
9959.000000;0.761196
9958.000000;0.761166
9957.000000;0.761019
9956.000000;0.760920
9955.000000;0.760834
9954.000000;0.760693
9953.000000;0.760549
9952.000000;0.760533
9951.000000;0.760722
9950.000000;0.761018
9949.000000;0.761133
9948.000000;0.760843
9947.000000;0.760327
9946.000000;0.760044
9945.000000;0.760149
9944.000000;0.760217
9943.000000;0.759791
9942.000000;0.759017
9941.000000;0.758473
9940.000000;0.758473
9939.000000;0.758851
9938.000000;0.759338
9937.000000;0.759813
9936.000000;0.760130
9935.000000;0.760022
9934.000000;0.759389
9933.000000;0.758509
9932.000000;0.757816
9931.000000;0.757507
9930.000000;0.757481
9929.000000;0.757593
9928.000000;0.757860
9927.000000;0.758346
9926.000000;0.758904
9925.000000;0.759188
9924.000000;0.759002
9923.000000;0.758556
9922.000000;0.758200
9921.000000;0.757987
9920.000000;0.757729
9919.000000;0.757427
9918.000000;0.757299
9917.000000;0.757328
9916.000000;0.757137
9915.000000;0.756555
9914.000000;0.755982
9913.000000;0.755908
9912.000000;0.756290
9911.000000;0.756727
9910.000000;0.757047
9909.000000;0.757354
9908.000000;0.757627
9907.000000;0.757676
9906.000000;0.757481
9905.000000;0.757234
9904.000000;0.756993
9903.000000;0.756573
9902.000000;0.755868
9901.000000;0.755067
9900.000000;0.754477
9899.000000;0.754285
9898.000000;0.754511
9897.000000;0.755041
9896.000000;0.755630
9895.000000;0.755993
9894.000000;0.755927
9893.000000;0.755401
9892.000000;0.754633
9891.000000;0.754107
9890.000000;0.754299
9889.000000;0.755155
9888.000000;0.755972
9887.000000;0.756055
9886.000000;0.755402
9885.000000;0.754553
9884.000000;0.753927
9883.000000;0.753577
9882.000000;0.753449
9881.000000;0.753510
9880.000000;0.753626
9879.000000;0.753595
9878.000000;0.753394
9877.000000;0.753191
9876.000000;0.753123
9875.000000;0.753215
9874.000000;0.753492
9873.000000;0.753930
9872.000000;0.754314
9871.000000;0.754348
9870.000000;0.753972
9869.000000;0.753413
9868.000000;0.752946
9867.000000;0.752737
9866.000000;0.752870
9865.000000;0.753280
9864.000000;0.753680
9863.000000;0.753773
9862.000000;0.753595
9861.000000;0.753454
9860.000000;0.753515
9859.000000;0.753612
9858.000000;0.753495
9857.000000;0.753128
9856.000000;0.752709
9855.000000;0.752503
9854.000000;0.752646
9853.000000;0.752972
9852.000000;0.753080
9851.000000;0.752695
9850.000000;0.751965
9849.000000;0.751289
9848.000000;0.750934
9847.000000;0.750946
9846.000000;0.751269
9845.000000;0.751717
9844.000000;0.751941
9843.000000;0.751713
9842.000000;0.751262
9841.000000;0.751058
9840.000000;0.751280
9839.000000;0.751712
9838.000000;0.752118
9837.000000;0.752428
9836.000000;0.752538
9835.000000;0.752285
9834.000000;0.751752
9833.000000;0.751330
9832.000000;0.751300
9831.000000;0.751510
9830.000000;0.751610
9829.000000;0.751440
9828.000000;0.751058
9827.000000;0.750560
9826.000000;0.750066
9825.000000;0.749807
9824.000000;0.750008
9823.000000;0.750642
9822.000000;0.751377
9821.000000;0.751801
9820.000000;0.751678
9819.000000;0.751086
9818.000000;0.750341
9817.000000;0.749801
9816.000000;0.749650
9815.000000;0.749827
9814.000000;0.750121
9813.000000;0.750340
9812.000000;0.750429
9811.000000;0.750488
9810.000000;0.750624
9809.000000;0.750777
9808.000000;0.750707
9807.000000;0.750189
9806.000000;0.749212
9805.000000;0.748023
9804.000000;0.747069
9803.000000;0.746823
9802.000000;0.747432
9801.000000;0.748440
9800.000000;0.749064
9799.000000;0.748912
9798.000000;0.748336
9797.000000;0.747957
9796.000000;0.747995
9795.000000;0.748220
9794.000000;0.748378
9793.000000;0.748409
9792.000000;0.748322
9791.000000;0.748109
9790.000000;0.747825
9789.000000;0.747592
9788.000000;0.747477
9787.000000;0.747460
9786.000000;0.747509
9785.000000;0.747593
9784.000000;0.747676
9783.000000;0.747762
9782.000000;0.747879
9781.000000;0.747953
9780.000000;0.747812
9779.000000;0.747465
9778.000000;0.747231
9777.000000;0.747419
9776.000000;0.747935
9775.000000;0.748384
9774.000000;0.748501
9773.000000;0.748319
9772.000000;0.747978
9771.000000;0.747581
9770.000000;0.747215
9769.000000;0.746944
9768.000000;0.746755
9767.000000;0.746614
9766.000000;0.746571
9765.000000;0.746704
9764.000000;0.746985
9763.000000;0.747271
9762.000000;0.747374
9761.000000;0.747106
9760.000000;0.746413
9759.000000;0.745596
9758.000000;0.745213
9757.000000;0.745539
9756.000000;0.746226
9755.000000;0.746672
9754.000000;0.746659
9753.000000;0.746408
9752.000000;0.746131
9751.000000;0.745827
9750.000000;0.745507
9749.000000;0.745311
9748.000000;0.745329
9747.000000;0.745468
9746.000000;0.745548
9745.000000;0.745424
9744.000000;0.745041
9743.000000;0.744513
9742.000000;0.744132
9741.000000;0.744137
9740.000000;0.744461
9739.000000;0.744829
9738.000000;0.745046
9737.000000;0.745058
9736.000000;0.744833
9735.000000;0.744403
9734.000000;0.744001
9733.000000;0.743917
9732.000000;0.744159
9731.000000;0.744462
9730.000000;0.744643
9729.000000;0.744763
9728.000000;0.744897
9727.000000;0.744959
9726.000000;0.744861
9725.000000;0.744677
9724.000000;0.744510
9723.000000;0.744311
9722.000000;0.743964
9721.000000;0.743499
9720.000000;0.743117
9719.000000;0.742981
9718.000000;0.743068
9717.000000;0.743225
9716.000000;0.743342
9715.000000;0.743411
9714.000000;0.743459
9713.000000;0.743478
9712.000000;0.743469
9711.000000;0.743491
9710.000000;0.743553
9709.000000;0.743542
9708.000000;0.743361
9707.000000;0.743117
9706.000000;0.742983
9705.000000;0.742883
9704.000000;0.742554
9703.000000;0.741966
9702.000000;0.741461
9701.000000;0.741346
9700.000000;0.741566
9699.000000;0.741855
9698.000000;0.742023
9697.000000;0.741947
9696.000000;0.741560
9695.000000;0.741065
9694.000000;0.740947
9693.000000;0.741493
9692.000000;0.742416
9691.000000;0.743165
9690.000000;0.743480
9689.000000;0.743415
9688.000000;0.743015
9687.000000;0.742303
9686.000000;0.741511
9685.000000;0.740969
9684.000000;0.740725
9683.000000;0.740539
9682.000000;0.740262
9681.000000;0.739995
9680.000000;0.739855
9679.000000;0.739817
9678.000000;0.739832
9677.000000;0.739926
9676.000000;0.740094
9675.000000;0.740244
9674.000000;0.740294
9673.000000;0.740230
9672.000000;0.740076
9671.000000;0.739896
9670.000000;0.739806
9669.000000;0.739867
9668.000000;0.739995
9667.000000;0.740060
9666.000000;0.740043
9665.000000;0.739971
9664.000000;0.739798
9663.000000;0.739462
9662.000000;0.739050
9661.000000;0.738767
9660.000000;0.738773
9659.000000;0.739108
9658.000000;0.739657
9657.000000;0.740098
9656.000000;0.740032
9655.000000;0.739362
9654.000000;0.738469
9653.000000;0.737849
9652.000000;0.737654
9651.000000;0.737710
9650.000000;0.737823
9649.000000;0.737880
9648.000000;0.737780
9647.000000;0.737519
9646.000000;0.737311
9645.000000;0.737394
9644.000000;0.737738
9643.000000;0.738119
9642.000000;0.738394
9641.000000;0.738542
9640.000000;0.738506
9639.000000;0.738279
9638.000000;0.738062
9637.000000;0.738082
9636.000000;0.738246
9635.000000;0.738212
9634.000000;0.737849
9633.000000;0.737413
9632.000000;0.737230
9631.000000;0.737366
9630.000000;0.737627
9629.000000;0.737717
9628.000000;0.737430
9627.000000;0.736874
9626.000000;0.736504
9625.000000;0.736715
9624.000000;0.737388
9623.000000;0.737989
9622.000000;0.738121
9621.000000;0.737815
9620.000000;0.737312
9619.000000;0.736809
9618.000000;0.736470
9617.000000;0.736402
9616.000000;0.736515
9615.000000;0.736571
9614.000000;0.736480
9613.000000;0.736411
9612.000000;0.736518
9611.000000;0.736700
9610.000000;0.736720
9609.000000;0.736452
9608.000000;0.735941
9607.000000;0.735344
9606.000000;0.734892
9605.000000;0.734779
9604.000000;0.734969
9603.000000;0.735168
9602.000000;0.735090
9601.000000;0.734728
9600.000000;0.734324
9599.000000;0.734144
9598.000000;0.734322
9597.000000;0.734841
9596.000000;0.735537
9595.000000;0.736117
9594.000000;0.736299
9593.000000;0.736026
9592.000000;0.735558
9591.000000;0.735275
9590.000000;0.735349
9589.000000;0.735604
9588.000000;0.735711
9587.000000;0.735506
9586.000000;0.735097
9585.000000;0.734721
9584.000000;0.734545
9583.000000;0.734557
9582.000000;0.734545
9581.000000;0.734270
9580.000000;0.733768
9579.000000;0.733426
9578.000000;0.733578
9577.000000;0.734056
9576.000000;0.734365
9575.000000;0.734276
9574.000000;0.734002
9573.000000;0.733783
9572.000000;0.733602
9571.000000;0.733435
9570.000000;0.733443
9569.000000;0.733702
9568.000000;0.733957
9567.000000;0.733910
9566.000000;0.733598
9565.000000;0.733286
9564.000000;0.733093
9563.000000;0.732965
9562.000000;0.732885
9561.000000;0.732911
9560.000000;0.733054
9559.000000;0.733281
9558.000000;0.733571
9557.000000;0.733823
9556.000000;0.733847
9555.000000;0.733569
9554.000000;0.733140
9553.000000;0.732721
9552.000000;0.732321
9551.000000;0.732005
9550.000000;0.732031
9549.000000;0.732515
9548.000000;0.733131
9547.000000;0.733422
9546.000000;0.733330
9545.000000;0.733144
9544.000000;0.733040
9543.000000;0.732951
9542.000000;0.732836
9541.000000;0.732773
9540.000000;0.732771
9539.000000;0.732750
9538.000000;0.732712
9537.000000;0.732740
9536.000000;0.732810
9535.000000;0.732779
9534.000000;0.732600
9533.000000;0.732363
9532.000000;0.732149
9531.000000;0.731957
9530.000000;0.731778
9529.000000;0.731585
9528.000000;0.731304
9527.000000;0.730936
9526.000000;0.730643
9525.000000;0.730547
9524.000000;0.730519
9523.000000;0.730360
9522.000000;0.730134
9521.000000;0.730103
9520.000000;0.730351
9519.000000;0.730679
9518.000000;0.730865
9517.000000;0.730834
9516.000000;0.730585
9515.000000;0.730127
9514.000000;0.729555
9513.000000;0.729061
9512.000000;0.728802
9511.000000;0.728849
9510.000000;0.729204
9509.000000;0.729759
9508.000000;0.730281
9507.000000;0.730557
9506.000000;0.730571
9505.000000;0.730429
9504.000000;0.730194
9503.000000;0.729897
9502.000000;0.729646
9501.000000;0.729560
9500.000000;0.729631
9499.000000;0.729749
9498.000000;0.729826
9497.000000;0.729798
9496.000000;0.729615
9495.000000;0.729345
9494.000000;0.729192
9493.000000;0.729219
9492.000000;0.729192
9491.000000;0.728896
9490.000000;0.728522
9489.000000;0.728499
9488.000000;0.728950
9487.000000;0.729538
9486.000000;0.729839
9485.000000;0.729693
9484.000000;0.729215
9483.000000;0.728657
9482.000000;0.728285
9481.000000;0.728209
9480.000000;0.728289
9479.000000;0.728297
9478.000000;0.728152
9477.000000;0.727940
9476.000000;0.727763
9475.000000;0.727713
9474.000000;0.727887
9473.000000;0.728261
9472.000000;0.728615
9471.000000;0.728748
9470.000000;0.728717
9469.000000;0.728693
9468.000000;0.728654
9467.000000;0.728417
9466.000000;0.727955
9465.000000;0.727463
9464.000000;0.727125
9463.000000;0.726987
9462.000000;0.727040
9461.000000;0.727226
9460.000000;0.727378
9459.000000;0.727336
9458.000000;0.727148
9457.000000;0.726990
9456.000000;0.726916
9455.000000;0.726835
9454.000000;0.726739
9453.000000;0.726742
9452.000000;0.726873
9451.000000;0.727003
9450.000000;0.727026
9449.000000;0.726952
9448.000000;0.726800
9447.000000;0.726553
9446.000000;0.726262
9445.000000;0.726042
9444.000000;0.725898
9443.000000;0.725686
9442.000000;0.725324
9441.000000;0.724946
9440.000000;0.724783
9439.000000;0.724929
9438.000000;0.725264
9437.000000;0.725567
9436.000000;0.725695
9435.000000;0.725660
9434.000000;0.725570
9433.000000;0.725485
9432.000000;0.725379
9431.000000;0.725234
9430.000000;0.725086
9429.000000;0.724981
9428.000000;0.724950
9427.000000;0.725043
9426.000000;0.725240
9425.000000;0.725321
9424.000000;0.725023
9423.000000;0.724414
9422.000000;0.723932
9421.000000;0.723919
9420.000000;0.724241
9419.000000;0.724513
9418.000000;0.724556
9417.000000;0.724512
9416.000000;0.724616
9415.000000;0.724976
9414.000000;0.725478
9413.000000;0.725787
9412.000000;0.725609
9411.000000;0.725061
9410.000000;0.724628
9409.000000;0.724613
9408.000000;0.724811
9407.000000;0.724860
9406.000000;0.724683
9405.000000;0.724389
9404.000000;0.723984
9403.000000;0.723470
9402.000000;0.723068
9401.000000;0.723002
9400.000000;0.723173
9399.000000;0.723309
9398.000000;0.723360
9397.000000;0.723459
9396.000000;0.723590
9395.000000;0.723583
9394.000000;0.723402
9393.000000;0.723162
9392.000000;0.722917
9391.000000;0.722671
9390.000000;0.722520
9389.000000;0.722525
9388.000000;0.722521
9387.000000;0.722321
9386.000000;0.722070
9385.000000;0.722069
9384.000000;0.722324
9383.000000;0.722554
9382.000000;0.722627
9381.000000;0.722647
9380.000000;0.722609
9379.000000;0.722358
9378.000000;0.721954
9377.000000;0.721753
9376.000000;0.721970
9375.000000;0.722406
9374.000000;0.722708
9373.000000;0.722688
9372.000000;0.722334
9371.000000;0.721760
9370.000000;0.721263
9369.000000;0.721176
9368.000000;0.721519
9367.000000;0.721951
9366.000000;0.722174
9365.000000;0.722212
9364.000000;0.722205
9363.000000;0.722137
9362.000000;0.721915
9361.000000;0.721553
9360.000000;0.721141
9359.000000;0.720749
9358.000000;0.720455
9357.000000;0.720373
9356.000000;0.720556
9355.000000;0.720917
9354.000000;0.721312
9353.000000;0.721607
9352.000000;0.721666
9351.000000;0.721407
9350.000000;0.720921
9349.000000;0.720424
9348.000000;0.720066
9347.000000;0.719870
9346.000000;0.719850
9345.000000;0.720018
9344.000000;0.720252
9343.000000;0.720348
9342.000000;0.720250
9341.000000;0.720091
9340.000000;0.719940
9339.000000;0.719699
9338.000000;0.719325
9337.000000;0.718997
9336.000000;0.718897
9335.000000;0.718967
9334.000000;0.718998
9333.000000;0.718896
9332.000000;0.718748
9331.000000;0.718668
9330.000000;0.718684
9329.000000;0.718738
9328.000000;0.718738
9327.000000;0.718627
9326.000000;0.718447
9325.000000;0.718326
9324.000000;0.718362
9323.000000;0.718539
9322.000000;0.718746
9321.000000;0.718875
9320.000000;0.718914
9319.000000;0.718966
9318.000000;0.719165
9317.000000;0.719474
9316.000000;0.719625
9315.000000;0.719340
9314.000000;0.718641
9313.000000;0.717871
9312.000000;0.717388
9311.000000;0.717299
9310.000000;0.717466
9309.000000;0.717697
9308.000000;0.717888
9307.000000;0.718019
9306.000000;0.718085
9305.000000;0.718035
9304.000000;0.717822
9303.000000;0.717490
9302.000000;0.717180
9301.000000;0.717026
9300.000000;0.717081
9299.000000;0.717315
9298.000000;0.717609
9297.000000;0.717792
9296.000000;0.717791
9295.000000;0.717749
9294.000000;0.717853
9293.000000;0.718025
9292.000000;0.717966
9291.000000;0.717559
9290.000000;0.717062
9289.000000;0.716789
9288.000000;0.716756
9287.000000;0.716780
9286.000000;0.716770
9285.000000;0.716758
9284.000000;0.716769
9283.000000;0.716809
9282.000000;0.716920
9281.000000;0.717086
9280.000000;0.717169
9279.000000;0.717083
9278.000000;0.716941
9277.000000;0.716894
9276.000000;0.716909
9275.000000;0.716855
9274.000000;0.716704
9273.000000;0.716507
9272.000000;0.716254
9271.000000;0.715919
9270.000000;0.715585
9269.000000;0.715363
9268.000000;0.715257
9267.000000;0.715216
9266.000000;0.715269
9265.000000;0.715448
9264.000000;0.715676
9263.000000;0.715854
9262.000000;0.715953
9261.000000;0.715910
9260.000000;0.715585
9259.000000;0.714996
9258.000000;0.714467
9257.000000;0.714325
9256.000000;0.714526
9255.000000;0.714769
9254.000000;0.714876
9253.000000;0.714857
9252.000000;0.714707
9251.000000;0.714419
9250.000000;0.714146
9249.000000;0.714109
9248.000000;0.714324
9247.000000;0.714604
9246.000000;0.714801
9245.000000;0.714872
9244.000000;0.714765
9243.000000;0.714479
9242.000000;0.714178
9241.000000;0.714064
9240.000000;0.714138
9239.000000;0.714288
9238.000000;0.714527
9237.000000;0.714918
9236.000000;0.715284
9235.000000;0.715290
9234.000000;0.714845
9233.000000;0.714226
9232.000000;0.713757
9231.000000;0.713565
9230.000000;0.713637
9229.000000;0.713896
9228.000000;0.714162
9227.000000;0.714243
9226.000000;0.714125
9225.000000;0.713956
9224.000000;0.713801
9223.000000;0.713603
9222.000000;0.713365
9221.000000;0.713200
9220.000000;0.713140
9219.000000;0.713081
9218.000000;0.712963
9217.000000;0.712855
9216.000000;0.712811
9215.000000;0.712791
9214.000000;0.712769
9213.000000;0.712796
9212.000000;0.712906
9211.000000;0.713065
9210.000000;0.713230
9209.000000;0.713337
9208.000000;0.713243
9207.000000;0.712825
9206.000000;0.712184
9205.000000;0.711614
9204.000000;0.711329
9203.000000;0.711326
9202.000000;0.711496
9201.000000;0.711745
9200.000000;0.711985
9199.000000;0.712134
9198.000000;0.712173
9197.000000;0.712130
9196.000000;0.712029
9195.000000;0.711897
9194.000000;0.711804
9193.000000;0.711773
9192.000000;0.711725
9191.000000;0.711596
9190.000000;0.711441
9189.000000;0.711309
9188.000000;0.711126
9187.000000;0.710874
9186.000000;0.710763
9185.000000;0.711004
9184.000000;0.711459
9183.000000;0.711744
9182.000000;0.711676
9181.000000;0.711412
9180.000000;0.711163
9179.000000;0.710991
9178.000000;0.710900
9177.000000;0.710898
9176.000000;0.710934
9175.000000;0.710927
9174.000000;0.710919
9173.000000;0.711025
9172.000000;0.711199
9171.000000;0.711227
9170.000000;0.710978
9169.000000;0.710546
9168.000000;0.710113
9167.000000;0.709825
9166.000000;0.709773
9165.000000;0.709932
9164.000000;0.710104
9163.000000;0.710085
9162.000000;0.709917
9161.000000;0.709825
9160.000000;0.709913
9159.000000;0.710080
9158.000000;0.710216
9157.000000;0.710287
9156.000000;0.710234
9155.000000;0.710000
9154.000000;0.709709
9153.000000;0.709605
9152.000000;0.709725
9151.000000;0.709826
9150.000000;0.709696
9149.000000;0.709379
9148.000000;0.709046
9147.000000;0.708785
9146.000000;0.708621
9145.000000;0.708568
9144.000000;0.708558
9143.000000;0.708467
9142.000000;0.708285
9141.000000;0.708170
9140.000000;0.708252
9139.000000;0.708478
9138.000000;0.708711
9137.000000;0.708868
9136.000000;0.708928
9135.000000;0.708892
9134.000000;0.708797
9133.000000;0.708684
9132.000000;0.708516
9131.000000;0.708223
9130.000000;0.707870
9129.000000;0.707658
9128.000000;0.707711
9127.000000;0.707944
9126.000000;0.708178
9125.000000;0.708284
9124.000000;0.708215
9123.000000;0.708008
9122.000000;0.707808
9121.000000;0.707775
9120.000000;0.707932
9119.000000;0.708145
9118.000000;0.708285
9117.000000;0.708303
9116.000000;0.708179
9115.000000;0.707915
9114.000000;0.707614
9113.000000;0.707427
9112.000000;0.707394
9111.000000;0.707427
9110.000000;0.707467
9109.000000;0.707535
9108.000000;0.707614
9107.000000;0.707599
9106.000000;0.707442
9105.000000;0.707241
9104.000000;0.707132
9103.000000;0.707145
9102.000000;0.707227
9101.000000;0.707325
9100.000000;0.707428
9099.000000;0.707553
9098.000000;0.707690
9097.000000;0.707719
9096.000000;0.707455
9095.000000;0.706863
9094.000000;0.706195
9093.000000;0.705783
9092.000000;0.705704
9091.000000;0.705778
9090.000000;0.705842
9089.000000;0.705896
9088.000000;0.705975
9087.000000;0.706060
9086.000000;0.706145
9085.000000;0.706250
9084.000000;0.706320
9083.000000;0.706234
9082.000000;0.705983
9081.000000;0.705728
9080.000000;0.705633
9079.000000;0.705708
9078.000000;0.705835
9077.000000;0.705881
9076.000000;0.705763
9075.000000;0.705506
9074.000000;0.705258
9073.000000;0.705160
9072.000000;0.705177
9071.000000;0.705138
9070.000000;0.704964
9069.000000;0.704760
9068.000000;0.704677
9067.000000;0.704765
9066.000000;0.704975
9065.000000;0.705189
9064.000000;0.705253
9063.000000;0.705078
9062.000000;0.704751
9061.000000;0.704491
9060.000000;0.704454
9059.000000;0.704611
9058.000000;0.704808
9057.000000;0.704887
9056.000000;0.704778
9055.000000;0.704559
9054.000000;0.704404
9053.000000;0.704382
