Criado como novo conjunto de dados;"2706_e01_daniel.spp","34383.6 Secs"
cm-1;Abs
10000.000000;0.647910
9999.000000;0.648083
9998.000000;0.648355
9997.000000;0.648561
9996.000000;0.648574
9995.000000;0.648538
9994.000000;0.648683
9993.000000;0.648938
9992.000000;0.649002
9991.000000;0.648777
9990.000000;0.648465
9989.000000;0.648202
9988.000000;0.647913
9987.000000;0.647576
9986.000000;0.647343
9985.000000;0.647275
9984.000000;0.647200
9983.000000;0.646948
9982.000000;0.646515
9981.000000;0.645923
9980.000000;0.645176
9979.000000;0.644506
9978.000000;0.644392
9977.000000;0.645066
9976.000000;0.646117
9975.000000;0.646821
9974.000000;0.646834
9973.000000;0.646432
9972.000000;0.646112
9971.000000;0.646093
9970.000000;0.646202
9969.000000;0.646147
9968.000000;0.645850
9967.000000;0.645519
9966.000000;0.645390
9965.000000;0.645470
9964.000000;0.645588
9963.000000;0.645624
9962.000000;0.645591
9961.000000;0.645560
9960.000000;0.645565
9959.000000;0.645581
9958.000000;0.645476
9957.000000;0.645105
9956.000000;0.644539
9955.000000;0.644114
9954.000000;0.644083
9953.000000;0.644313
9952.000000;0.644515
9951.000000;0.644652
9950.000000;0.644873
9949.000000;0.645120
9948.000000;0.645101
9947.000000;0.644689
9946.000000;0.644118
9945.000000;0.643701
9944.000000;0.643532
9943.000000;0.643508
9942.000000;0.643493
9941.000000;0.643420
9940.000000;0.643345
9939.000000;0.643393
9938.000000;0.643545
9937.000000;0.643576
9936.000000;0.643357
9935.000000;0.643088
9934.000000;0.643015
9933.000000;0.643000
9932.000000;0.642708
9931.000000;0.642148
9930.000000;0.641669
9929.000000;0.641384
9928.000000;0.640996
9927.000000;0.640350
9926.000000;0.639819
9925.000000;0.639880
9924.000000;0.640517
9923.000000;0.641273
9922.000000;0.641753
9921.000000;0.641902
9920.000000;0.641852
9919.000000;0.641737
9918.000000;0.641644
9917.000000;0.641605
9916.000000;0.641611
9915.000000;0.641636
9914.000000;0.641661
9913.000000;0.641668
9912.000000;0.641676
9911.000000;0.641775
9910.000000;0.642039
9909.000000;0.642382
9908.000000;0.642561
9907.000000;0.642356
9906.000000;0.641761
9905.000000;0.641040
9904.000000;0.640589
9903.000000;0.640603
9902.000000;0.640807
9901.000000;0.640662
9900.000000;0.639952
9899.000000;0.639040
9898.000000;0.638427
9897.000000;0.638205
9896.000000;0.638160
9895.000000;0.638220
9894.000000;0.638506
9893.000000;0.638982
9892.000000;0.639380
9891.000000;0.639506
9890.000000;0.639434
9889.000000;0.639356
9888.000000;0.639425
9887.000000;0.639736
9886.000000;0.640261
9885.000000;0.640777
9884.000000;0.641002
9883.000000;0.640795
9882.000000;0.640154
9881.000000;0.639139
9880.000000;0.637966
9879.000000;0.637039
9878.000000;0.636617
9877.000000;0.636533
9876.000000;0.636460
9875.000000;0.636357
9874.000000;0.636388
9873.000000;0.636537
9872.000000;0.636658
9871.000000;0.636825
9870.000000;0.637229
9869.000000;0.637715
9868.000000;0.637833
9867.000000;0.637448
9866.000000;0.636912
9865.000000;0.636557
9864.000000;0.636369
9863.000000;0.636284
9862.000000;0.636408
9861.000000;0.636728
9860.000000;0.636946
9859.000000;0.636830
9858.000000;0.636502
9857.000000;0.636178
9856.000000;0.635846
9855.000000;0.635432
9854.000000;0.635073
9853.000000;0.634963
9852.000000;0.635072
9851.000000;0.635212
9850.000000;0.635271
9849.000000;0.635237
9848.000000;0.635115
9847.000000;0.634963
9846.000000;0.634888
9845.000000;0.634863
9844.000000;0.634718
9843.000000;0.634455
9842.000000;0.634385
9841.000000;0.634765
9840.000000;0.635414
9839.000000;0.635895
9838.000000;0.635954
9837.000000;0.635625
9836.000000;0.635047
9835.000000;0.634413
9834.000000;0.634017
9833.000000;0.634064
9832.000000;0.634382
9831.000000;0.634533
9830.000000;0.634265
9829.000000;0.633783
9828.000000;0.633496
9827.000000;0.633596
9826.000000;0.633921
9825.000000;0.634192
9824.000000;0.634302
9823.000000;0.634320
9822.000000;0.634314
9821.000000;0.634280
9820.000000;0.634292
9819.000000;0.634496
9818.000000;0.634824
9817.000000;0.634883
9816.000000;0.634366
9815.000000;0.633514
9814.000000;0.632898
9813.000000;0.632757
9812.000000;0.632847
9811.000000;0.632919
9810.000000;0.633008
9809.000000;0.633166
9808.000000;0.633231
9807.000000;0.633078
9806.000000;0.632845
9805.000000;0.632715
9804.000000;0.632650
9803.000000;0.632521
9802.000000;0.632308
9801.000000;0.632001
9800.000000;0.631508
9799.000000;0.630896
9798.000000;0.630524
9797.000000;0.630640
9796.000000;0.630949
9795.000000;0.630905
9794.000000;0.630391
9793.000000;0.629823
9792.000000;0.629597
9791.000000;0.629725
9790.000000;0.630047
9789.000000;0.630474
9788.000000;0.630902
9787.000000;0.631106
9786.000000;0.630944
9785.000000;0.630557
9784.000000;0.630218
9783.000000;0.630059
9782.000000;0.630041
9781.000000;0.630100
9780.000000;0.630180
9779.000000;0.630171
9778.000000;0.629968
9777.000000;0.629598
9776.000000;0.629216
9775.000000;0.628960
9774.000000;0.628879
9773.000000;0.628975
9772.000000;0.629187
9771.000000;0.629341
9770.000000;0.629256
9769.000000;0.629006
9768.000000;0.628935
9767.000000;0.629264
9766.000000;0.629764
9765.000000;0.629960
9764.000000;0.629670
9763.000000;0.629184
9762.000000;0.628901
9761.000000;0.628941
9760.000000;0.629154
9759.000000;0.629344
9758.000000;0.629371
9757.000000;0.629161
9756.000000;0.628771
9755.000000;0.628372
9754.000000;0.628076
9753.000000;0.627837
9752.000000;0.627577
9751.000000;0.627355
9750.000000;0.627286
9749.000000;0.627347
9748.000000;0.627393
9747.000000;0.627340
9746.000000;0.627234
9745.000000;0.627173
9744.000000;0.627234
9743.000000;0.627469
9742.000000;0.627841
9741.000000;0.628175
9740.000000;0.628253
9739.000000;0.627993
9738.000000;0.627497
9737.000000;0.626961
9736.000000;0.626558
9735.000000;0.626391
9734.000000;0.626480
9733.000000;0.626771
9732.000000;0.627167
9731.000000;0.627530
9730.000000;0.627690
9729.000000;0.627564
9728.000000;0.627281
9727.000000;0.627078
9726.000000;0.627014
9725.000000;0.626903
9724.000000;0.626557
9723.000000;0.625998
9722.000000;0.625358
9721.000000;0.624734
9720.000000;0.624248
9719.000000;0.624086
9718.000000;0.624319
9717.000000;0.624777
9716.000000;0.625207
9715.000000;0.625502
9714.000000;0.625652
9713.000000;0.625623
9712.000000;0.625439
9711.000000;0.625289
9710.000000;0.625331
9709.000000;0.625488
9708.000000;0.625586
9707.000000;0.625614
9706.000000;0.625645
9705.000000;0.625587
9704.000000;0.625240
9703.000000;0.624595
9702.000000;0.623886
9701.000000;0.623358
9700.000000;0.623137
9699.000000;0.623279
9698.000000;0.623712
9697.000000;0.624174
9696.000000;0.624398
9695.000000;0.624397
9694.000000;0.624383
9693.000000;0.624438
9692.000000;0.624459
9691.000000;0.624419
9690.000000;0.624413
9689.000000;0.624395
9688.000000;0.624139
9687.000000;0.623609
9686.000000;0.623161
9685.000000;0.623183
9684.000000;0.623624
9683.000000;0.624044
9682.000000;0.624085
9681.000000;0.623771
9680.000000;0.623353
9679.000000;0.623013
9678.000000;0.622778
9677.000000;0.622644
9676.000000;0.622675
9675.000000;0.622885
9674.000000;0.623084
9673.000000;0.622994
9672.000000;0.622582
9671.000000;0.622154
9670.000000;0.622039
9669.000000;0.622258
9668.000000;0.622580
9667.000000;0.622809
9666.000000;0.622888
9665.000000;0.622796
9664.000000;0.622516
9663.000000;0.622096
9662.000000;0.621653
9661.000000;0.621303
9660.000000;0.621158
9659.000000;0.621292
9658.000000;0.621616
9657.000000;0.621871
9656.000000;0.621884
9655.000000;0.621756
9654.000000;0.621660
9653.000000;0.621577
9652.000000;0.621391
9651.000000;0.621132
9650.000000;0.620897
9649.000000;0.620623
9648.000000;0.620210
9647.000000;0.619819
9646.000000;0.619752
9645.000000;0.619995
9644.000000;0.620176
9643.000000;0.620092
9642.000000;0.620003
9641.000000;0.620252
9640.000000;0.620742
9639.000000;0.621012
9638.000000;0.620753
9637.000000;0.620105
9636.000000;0.619482
9635.000000;0.619212
9634.000000;0.619331
9633.000000;0.619629
9632.000000;0.619872
9631.000000;0.619981
9630.000000;0.620002
9629.000000;0.619973
9628.000000;0.619889
9627.000000;0.619769
9626.000000;0.619664
9625.000000;0.619587
9624.000000;0.619496
9623.000000;0.619353
9622.000000;0.619143
9621.000000;0.618880
9620.000000;0.618645
9619.000000;0.618556
9618.000000;0.618611
9617.000000;0.618604
9616.000000;0.618334
9615.000000;0.617865
9614.000000;0.617481
9613.000000;0.617392
9612.000000;0.617565
9611.000000;0.617817
9610.000000;0.617966
9609.000000;0.617922
9608.000000;0.617744
9607.000000;0.617586
9606.000000;0.617509
9605.000000;0.617371
9604.000000;0.617025
9603.000000;0.616556
9602.000000;0.616213
9601.000000;0.616117
9600.000000;0.616195
9599.000000;0.616345
9598.000000;0.616547
9597.000000;0.616792
9596.000000;0.617044
9595.000000;0.617271
9594.000000;0.617424
9593.000000;0.617394
9592.000000;0.617129
9591.000000;0.616782
9590.000000;0.616615
9589.000000;0.616725
9588.000000;0.616970
9587.000000;0.617167
9586.000000;0.617234
9585.000000;0.617138
9584.000000;0.616831
9583.000000;0.616321
9582.000000;0.615742
9581.000000;0.615323
9580.000000;0.615257
9579.000000;0.615551
9578.000000;0.615955
9577.000000;0.616145
9576.000000;0.616084
9575.000000;0.616095
9574.000000;0.616443
9573.000000;0.616930
9572.000000;0.617079
9571.000000;0.616706
9570.000000;0.616098
9569.000000;0.615640
9568.000000;0.615448
9567.000000;0.615414
9566.000000;0.615417
9565.000000;0.615398
9564.000000;0.615327
9563.000000;0.615219
9562.000000;0.615138
9561.000000;0.615164
9560.000000;0.615344
9559.000000;0.615645
9558.000000;0.615923
9557.000000;0.615996
9556.000000;0.615846
9555.000000;0.615667
9554.000000;0.615614
9553.000000;0.615593
9552.000000;0.615435
9551.000000;0.615189
9550.000000;0.615066
9549.000000;0.615139
9548.000000;0.615268
9547.000000;0.615306
9546.000000;0.615189
9545.000000;0.614842
9544.000000;0.614233
9543.000000;0.613566
9542.000000;0.613204
9541.000000;0.613287
9540.000000;0.613559
9539.000000;0.613676
9538.000000;0.613574
9537.000000;0.613453
9536.000000;0.613480
9535.000000;0.613621
9534.000000;0.613716
9533.000000;0.613655
9532.000000;0.613482
9531.000000;0.613332
9530.000000;0.613265
9529.000000;0.613192
9528.000000;0.613016
9527.000000;0.612792
9526.000000;0.612649
9525.000000;0.612593
9524.000000;0.612513
9523.000000;0.612361
9522.000000;0.612201
9521.000000;0.612081
9520.000000;0.611965
9519.000000;0.611821
9518.000000;0.611683
9517.000000;0.611617
9516.000000;0.611661
9515.000000;0.611798
9514.000000;0.611914
9513.000000;0.611815
9512.000000;0.611402
9511.000000;0.610829
9510.000000;0.610401
9509.000000;0.610308
9508.000000;0.610504
9507.000000;0.610809
9506.000000;0.611047
9505.000000;0.611128
9504.000000;0.611113
9503.000000;0.611167
9502.000000;0.611361
9501.000000;0.611530
9500.000000;0.611445
9499.000000;0.611084
9498.000000;0.610625
9497.000000;0.610202
9496.000000;0.609817
9495.000000;0.609470
9494.000000;0.609224
9493.000000;0.609107
9492.000000;0.609061
9491.000000;0.609051
9490.000000;0.609150
9489.000000;0.609459
9488.000000;0.609967
9487.000000;0.610495
9486.000000;0.610766
9485.000000;0.610621
9484.000000;0.610197
9483.000000;0.609824
9482.000000;0.609671
9481.000000;0.609585
9480.000000;0.609365
9479.000000;0.609064
9478.000000;0.608885
9477.000000;0.608884
9476.000000;0.608975
9475.000000;0.609128
9474.000000;0.609361
9473.000000;0.609574
9472.000000;0.609617
9471.000000;0.609493
9470.000000;0.609336
9469.000000;0.609180
9468.000000;0.608959
9467.000000;0.608717
9466.000000;0.608595
9465.000000;0.608579
9464.000000;0.608474
9463.000000;0.608188
9462.000000;0.607870
9461.000000;0.607684
9460.000000;0.607645
9459.000000;0.607735
9458.000000;0.607984
9457.000000;0.608305
9456.000000;0.608428
9455.000000;0.608181
9454.000000;0.607738
9453.000000;0.607421
9452.000000;0.607314
9451.000000;0.607232
9450.000000;0.607028
9449.000000;0.606765
9448.000000;0.606552
9447.000000;0.606345
9446.000000;0.606034
9445.000000;0.605667
9444.000000;0.605447
9443.000000;0.605477
9442.000000;0.605613
9441.000000;0.605682
9440.000000;0.605759
9439.000000;0.606043
9438.000000;0.606464
9437.000000;0.606646
9436.000000;0.606381
9435.000000;0.605953
9434.000000;0.605800
9433.000000;0.606005
9432.000000;0.606307
9431.000000;0.606515
9430.000000;0.606662
9429.000000;0.606782
9428.000000;0.606802
9427.000000;0.606695
9426.000000;0.606574
9425.000000;0.606518
9424.000000;0.606431
9423.000000;0.606152
9422.000000;0.605662
9421.000000;0.605155
9420.000000;0.604927
9419.000000;0.605131
9418.000000;0.605581
9417.000000;0.605874
9416.000000;0.605811
9415.000000;0.605615
9414.000000;0.605583
9413.000000;0.605657
9412.000000;0.605523
9411.000000;0.605090
9410.000000;0.604594
9409.000000;0.604256
9408.000000;0.604085
9407.000000;0.604046
9406.000000;0.604170
9405.000000;0.604375
9404.000000;0.604407
9403.000000;0.604127
9402.000000;0.603731
9401.000000;0.603555
9400.000000;0.603713
9399.000000;0.604032
9398.000000;0.604263
9397.000000;0.604262
9396.000000;0.604027
9395.000000;0.603655
9394.000000;0.603267
9393.000000;0.602947
9392.000000;0.602757
9391.000000;0.602765
9390.000000;0.602986
9389.000000;0.603293
9388.000000;0.603484
9387.000000;0.603461
9386.000000;0.603272
9385.000000;0.602997
9384.000000;0.602704
9383.000000;0.602504
9382.000000;0.602503
9381.000000;0.602640
9380.000000;0.602705
9379.000000;0.602560
9378.000000;0.602290
9377.000000;0.602072
9376.000000;0.602001
9375.000000;0.602088
9374.000000;0.602316
9373.000000;0.602635
9372.000000;0.602921
9371.000000;0.603052
9370.000000;0.602992
9369.000000;0.602806
9368.000000;0.602587
9367.000000;0.602383
9366.000000;0.602156
9365.000000;0.601855
9364.000000;0.601550
9363.000000;0.601426
9362.000000;0.601574
9361.000000;0.601801
9360.000000;0.601790
9359.000000;0.601440
9358.000000;0.600963
9357.000000;0.600644
9356.000000;0.600591
9355.000000;0.600730
9354.000000;0.600925
9353.000000;0.601078
9352.000000;0.601160
9351.000000;0.601198
9350.000000;0.601200
9349.000000;0.601117
9348.000000;0.600917
9347.000000;0.600653
9346.000000;0.600401
9345.000000;0.600172
9344.000000;0.599988
9343.000000;0.599956
9342.000000;0.600138
9341.000000;0.600398
9340.000000;0.600506
9339.000000;0.600404
9338.000000;0.600243
9337.000000;0.600152
9336.000000;0.600118
9335.000000;0.600098
9334.000000;0.600105
9333.000000;0.600130
9332.000000;0.600089
9331.000000;0.599946
9330.000000;0.599790
9329.000000;0.599738
9328.000000;0.599777
9327.000000;0.599767
9326.000000;0.599567
9325.000000;0.599181
9324.000000;0.598795
9323.000000;0.598644
9322.000000;0.598787
9321.000000;0.599040
9320.000000;0.599166
9319.000000;0.599101
9318.000000;0.598941
9317.000000;0.598773
9316.000000;0.598620
9315.000000;0.598482
9314.000000;0.598328
9313.000000;0.598098
9312.000000;0.597824
9311.000000;0.597700
9310.000000;0.597853
9309.000000;0.598122
9308.000000;0.598208
9307.000000;0.598062
9306.000000;0.597932
9305.000000;0.598000
9304.000000;0.598150
9303.000000;0.598158
9302.000000;0.597975
9301.000000;0.597713
9300.000000;0.597474
9299.000000;0.597272
9298.000000;0.597078
9297.000000;0.596881
9296.000000;0.596715
9295.000000;0.596634
9294.000000;0.596630
9293.000000;0.596589
9292.000000;0.596399
9291.000000;0.596080
9290.000000;0.595759
9289.000000;0.595531
9288.000000;0.595432
9287.000000;0.595491
9286.000000;0.595697
9285.000000;0.595921
9284.000000;0.595996
9283.000000;0.595896
9282.000000;0.595757
9281.000000;0.595723
9280.000000;0.595846
9279.000000;0.596103
9278.000000;0.596397
9277.000000;0.596562
9276.000000;0.596494
9275.000000;0.596267
9274.000000;0.596031
9273.000000;0.595816
9272.000000;0.595552
9271.000000;0.595252
9270.000000;0.595037
9269.000000;0.594976
9268.000000;0.595057
9267.000000;0.595314
9266.000000;0.595806
9265.000000;0.596412
9264.000000;0.596816
9263.000000;0.596785
9262.000000;0.596385
9261.000000;0.595860
9260.000000;0.595395
9259.000000;0.595062
9258.000000;0.594879
9257.000000;0.594809
9256.000000;0.594746
9255.000000;0.594575
9254.000000;0.594270
9253.000000;0.593924
9252.000000;0.593692
9251.000000;0.593702
9250.000000;0.593932
9249.000000;0.594213
9248.000000;0.594376
9247.000000;0.594403
9246.000000;0.594384
9245.000000;0.594365
9244.000000;0.594323
9243.000000;0.594235
9242.000000;0.594086
9241.000000;0.593857
9240.000000;0.593619
9239.000000;0.593571
9238.000000;0.593825
9237.000000;0.594193
9236.000000;0.594338
9235.000000;0.594145
9234.000000;0.593805
9233.000000;0.593536
9232.000000;0.593388
9231.000000;0.593329
9230.000000;0.593342
9229.000000;0.593359
9228.000000;0.593261
9227.000000;0.593025
9226.000000;0.592784
9225.000000;0.592671
9224.000000;0.592694
9223.000000;0.592802
9222.000000;0.592949
9221.000000;0.593059
9220.000000;0.593033
9219.000000;0.592849
9218.000000;0.592588
9217.000000;0.592324
9216.000000;0.592082
9215.000000;0.591932
9214.000000;0.591983
9213.000000;0.592228
9212.000000;0.592481
9211.000000;0.592536
9210.000000;0.592341
9209.000000;0.591986
9208.000000;0.591612
9207.000000;0.591340
9206.000000;0.591219
9205.000000;0.591187
9204.000000;0.591164
9203.000000;0.591177
9202.000000;0.591289
9201.000000;0.591404
9200.000000;0.591303
9199.000000;0.590910
9198.000000;0.590425
9197.000000;0.590103
9196.000000;0.590018
9195.000000;0.590088
9194.000000;0.590214
9193.000000;0.590331
9192.000000;0.590385
9191.000000;0.590360
9190.000000;0.590278
9189.000000;0.590171
9188.000000;0.590091
9187.000000;0.590139
9186.000000;0.590359
9185.000000;0.590612
9184.000000;0.590674
9183.000000;0.590521
9182.000000;0.590352
9181.000000;0.590301
9180.000000;0.590261
9179.000000;0.590084
9178.000000;0.589813
9177.000000;0.589604
9176.000000;0.589529
9175.000000;0.589540
9174.000000;0.589566
9173.000000;0.589527
9172.000000;0.589352
9171.000000;0.589074
9170.000000;0.588843
9169.000000;0.588771
9168.000000;0.588810
9167.000000;0.588855
9166.000000;0.588873
9165.000000;0.588855
9164.000000;0.588764
9163.000000;0.588618
9162.000000;0.588559
9161.000000;0.588693
9160.000000;0.588921
9159.000000;0.589020
9158.000000;0.588870
9157.000000;0.588501
9156.000000;0.588012
9155.000000;0.587553
9154.000000;0.587328
9153.000000;0.587445
9152.000000;0.587757
9151.000000;0.587977
9150.000000;0.587967
9149.000000;0.587831
9148.000000;0.587723
9147.000000;0.587665
9146.000000;0.587584
9145.000000;0.587416
9144.000000;0.587144
9143.000000;0.586798
9142.000000;0.586466
9141.000000;0.586261
9140.000000;0.586223
9139.000000;0.586290
9138.000000;0.586382
9137.000000;0.586475
9136.000000;0.586572
9135.000000;0.586643
9134.000000;0.586648
9133.000000;0.586594
9132.000000;0.586543
9131.000000;0.586544
9130.000000;0.586602
9129.000000;0.586702
9128.000000;0.586850
9127.000000;0.587028
9126.000000;0.587128
9125.000000;0.586972
9124.000000;0.586480
9123.000000;0.585807
9122.000000;0.585273
9121.000000;0.585124
9120.000000;0.585341
9119.000000;0.585685
9118.000000;0.585898
9117.000000;0.585896
9116.000000;0.585811
9115.000000;0.585844
9114.000000;0.586054
9113.000000;0.586279
9112.000000;0.586279
9111.000000;0.585968
9110.000000;0.585495
9109.000000;0.585114
9108.000000;0.584997
9107.000000;0.585139
9106.000000;0.585395
9105.000000;0.585591
9104.000000;0.585646
9103.000000;0.585582
9102.000000;0.585414
9101.000000;0.585091
9100.000000;0.584605
9099.000000;0.584126
9098.000000;0.583915
9097.000000;0.584074
9096.000000;0.584428
9095.000000;0.584705
9094.000000;0.584759
9093.000000;0.584620
9092.000000;0.584384
9091.000000;0.584128
9090.000000;0.583909
9089.000000;0.583768
9088.000000;0.583732
9087.000000;0.583800
9086.000000;0.583938
9085.000000;0.584095
9084.000000;0.584241
9083.000000;0.584378
9082.000000;0.584484
9081.000000;0.584488
9080.000000;0.584330
9079.000000;0.584045
9078.000000;0.583718
9077.000000;0.583394
9076.000000;0.583095
9075.000000;0.582890
9074.000000;0.582860
9073.000000;0.582966
9072.000000;0.583062
9071.000000;0.583033
9070.000000;0.582873
9069.000000;0.582619
9068.000000;0.582324
9067.000000;0.582119
9066.000000;0.582174
9065.000000;0.582485
9064.000000;0.582795
9063.000000;0.582832
9062.000000;0.582597
9061.000000;0.582331
9060.000000;0.582233
9059.000000;0.582301
9058.000000;0.582430
9057.000000;0.582532
9056.000000;0.582547
9055.000000;0.582424
9054.000000;0.582167
9053.000000;0.581864
