Criado como novo conjunto de dados;"2706_e01_daniel.spp","103687.2 Secs"
cm-1;Abs
10000.000000;0.868160
9999.000000;0.867861
9998.000000;0.867410
9997.000000;0.866955
9996.000000;0.866605
9995.000000;0.866334
9994.000000;0.866098
9993.000000;0.865834
9992.000000;0.865500
9991.000000;0.865117
9990.000000;0.864859
9989.000000;0.864928
9988.000000;0.865280
9987.000000;0.865549
9986.000000;0.865386
9985.000000;0.864841
9984.000000;0.864260
9983.000000;0.863848
9982.000000;0.863537
9981.000000;0.863294
9980.000000;0.863273
9979.000000;0.863557
9978.000000;0.863959
9977.000000;0.864254
9976.000000;0.864460
9975.000000;0.864681
9974.000000;0.864783
9973.000000;0.864483
9972.000000;0.863769
9971.000000;0.863035
9970.000000;0.862735
9969.000000;0.862993
9968.000000;0.863572
9967.000000;0.864111
9966.000000;0.864406
9965.000000;0.864493
9964.000000;0.864467
9963.000000;0.864225
9962.000000;0.863536
9961.000000;0.862458
9960.000000;0.861512
9959.000000;0.861216
9958.000000;0.861535
9957.000000;0.861990
9956.000000;0.862258
9955.000000;0.862411
9954.000000;0.862568
9953.000000;0.862595
9952.000000;0.862311
9951.000000;0.861799
9950.000000;0.861342
9949.000000;0.861137
9948.000000;0.861161
9947.000000;0.861253
9946.000000;0.861236
9945.000000;0.861031
9944.000000;0.860749
9943.000000;0.860627
9942.000000;0.860831
9941.000000;0.861355
9940.000000;0.862085
9939.000000;0.862850
9938.000000;0.863382
9937.000000;0.863389
9936.000000;0.862786
9935.000000;0.861789
9934.000000;0.860700
9933.000000;0.859700
9932.000000;0.858920
9931.000000;0.858572
9930.000000;0.858772
9929.000000;0.859264
9928.000000;0.859583
9927.000000;0.859560
9926.000000;0.859515
9925.000000;0.859811
9924.000000;0.860353
9923.000000;0.860688
9922.000000;0.860567
9921.000000;0.860209
9920.000000;0.859967
9919.000000;0.859910
9918.000000;0.859839
9917.000000;0.859625
9916.000000;0.859350
9915.000000;0.859131
9914.000000;0.858942
9913.000000;0.858661
9912.000000;0.858261
9911.000000;0.857899
9910.000000;0.857838
9909.000000;0.858214
9908.000000;0.858810
9907.000000;0.859124
9906.000000;0.858833
9905.000000;0.858162
9904.000000;0.857633
9903.000000;0.857457
9902.000000;0.857412
9901.000000;0.857357
9900.000000;0.857534
9899.000000;0.858166
9898.000000;0.858972
9897.000000;0.859393
9896.000000;0.859221
9895.000000;0.858757
9894.000000;0.858390
9893.000000;0.858238
9892.000000;0.858175
9891.000000;0.857984
9890.000000;0.857490
9889.000000;0.856719
9888.000000;0.855928
9887.000000;0.855338
9886.000000;0.854911
9885.000000;0.854549
9884.000000;0.854436
9883.000000;0.854857
9882.000000;0.855673
9881.000000;0.856280
9880.000000;0.856208
9879.000000;0.855581
9878.000000;0.854870
9877.000000;0.854402
9876.000000;0.854240
9875.000000;0.854352
9874.000000;0.854672
9873.000000;0.855085
9872.000000;0.855478
9871.000000;0.855778
9870.000000;0.855902
9869.000000;0.855769
9868.000000;0.855451
9867.000000;0.855220
9866.000000;0.855317
9865.000000;0.855730
9864.000000;0.856243
9863.000000;0.856644
9862.000000;0.856828
9861.000000;0.856786
9860.000000;0.856569
9859.000000;0.856264
9858.000000;0.855978
9857.000000;0.855846
9856.000000;0.855969
9855.000000;0.856280
9854.000000;0.856500
9853.000000;0.856367
9852.000000;0.855903
9851.000000;0.855325
9850.000000;0.854746
9849.000000;0.854172
9848.000000;0.853784
9847.000000;0.853886
9846.000000;0.854413
9845.000000;0.854755
9844.000000;0.854374
9843.000000;0.853474
9842.000000;0.852801
9841.000000;0.852808
9840.000000;0.853235
9839.000000;0.853532
9838.000000;0.853495
9837.000000;0.853396
9836.000000;0.853582
9835.000000;0.854065
9834.000000;0.854511
9833.000000;0.854566
9832.000000;0.854182
9831.000000;0.853602
9830.000000;0.853089
9829.000000;0.852747
9828.000000;0.852596
9827.000000;0.852653
9826.000000;0.852876
9825.000000;0.853135
9824.000000;0.853353
9823.000000;0.853600
9822.000000;0.853949
9821.000000;0.854286
9820.000000;0.854359
9819.000000;0.854025
9818.000000;0.853417
9817.000000;0.852859
9816.000000;0.852634
9815.000000;0.852772
9814.000000;0.852998
9813.000000;0.852968
9812.000000;0.852587
9811.000000;0.852072
9810.000000;0.851698
9809.000000;0.851548
9808.000000;0.851509
9807.000000;0.851420
9806.000000;0.851186
9805.000000;0.850875
9804.000000;0.850688
9803.000000;0.850723
9802.000000;0.850747
9801.000000;0.850426
9800.000000;0.849854
9799.000000;0.849595
9798.000000;0.850004
9797.000000;0.850702
9796.000000;0.850981
9795.000000;0.850664
9794.000000;0.850259
9793.000000;0.850285
9792.000000;0.850718
9791.000000;0.851144
9790.000000;0.851205
9789.000000;0.850794
9788.000000;0.850035
9787.000000;0.849276
9786.000000;0.848975
9785.000000;0.849345
9784.000000;0.850033
9783.000000;0.850334
9782.000000;0.849832
9781.000000;0.848830
9780.000000;0.848049
9779.000000;0.847904
9778.000000;0.848161
9777.000000;0.848330
9776.000000;0.848267
9775.000000;0.848241
9774.000000;0.848426
9773.000000;0.848600
9772.000000;0.848453
9771.000000;0.848048
9770.000000;0.847783
9769.000000;0.847952
9768.000000;0.848478
9767.000000;0.849049
9766.000000;0.849400
9765.000000;0.849458
9764.000000;0.849321
9763.000000;0.849118
9762.000000;0.848866
9761.000000;0.848481
9760.000000;0.847977
9759.000000;0.847550
9758.000000;0.847370
9757.000000;0.847332
9756.000000;0.847136
9755.000000;0.846606
9754.000000;0.845867
9753.000000;0.845241
9752.000000;0.845026
9751.000000;0.845318
9750.000000;0.845928
9749.000000;0.846521
9748.000000;0.846913
9747.000000;0.847189
9746.000000;0.847415
9745.000000;0.847392
9744.000000;0.846897
9743.000000;0.846138
9742.000000;0.845663
9741.000000;0.845762
9740.000000;0.846166
9739.000000;0.846437
9738.000000;0.846462
9737.000000;0.846420
9736.000000;0.846431
9735.000000;0.846459
9734.000000;0.846453
9733.000000;0.846379
9732.000000;0.846129
9731.000000;0.845627
9730.000000;0.845081
9729.000000;0.844913
9728.000000;0.845292
9727.000000;0.845842
9726.000000;0.845976
9725.000000;0.845541
9724.000000;0.844980
9723.000000;0.844818
9722.000000;0.845100
9721.000000;0.845435
9720.000000;0.845520
9719.000000;0.845465
9718.000000;0.845582
9717.000000;0.845963
9716.000000;0.846340
9715.000000;0.846323
9714.000000;0.845758
9713.000000;0.844881
9712.000000;0.844166
9711.000000;0.843950
9710.000000;0.844178
9709.000000;0.844506
9708.000000;0.844659
9707.000000;0.844608
9706.000000;0.844419
9705.000000;0.844104
9704.000000;0.843714
9703.000000;0.843430
9702.000000;0.843374
9701.000000;0.843420
9700.000000;0.843353
9699.000000;0.843194
9698.000000;0.843181
9697.000000;0.843406
9696.000000;0.843653
9695.000000;0.843632
9694.000000;0.843301
9693.000000;0.842894
9692.000000;0.842731
9691.000000;0.843026
9690.000000;0.843722
9689.000000;0.844433
9688.000000;0.844662
9687.000000;0.844241
9686.000000;0.843519
9685.000000;0.843034
9684.000000;0.843013
9683.000000;0.843260
9682.000000;0.843476
9681.000000;0.843537
9680.000000;0.843450
9679.000000;0.843204
9678.000000;0.842796
9677.000000;0.842370
9676.000000;0.842161
9675.000000;0.842247
9674.000000;0.842447
9673.000000;0.842550
9672.000000;0.842552
9671.000000;0.842563
9670.000000;0.842540
9669.000000;0.842314
9668.000000;0.841905
9667.000000;0.841606
9666.000000;0.841623
9665.000000;0.841791
9664.000000;0.841818
9663.000000;0.841695
9662.000000;0.841659
9661.000000;0.841766
9660.000000;0.841755
9659.000000;0.841397
9658.000000;0.840814
9657.000000;0.840339
9656.000000;0.840172
9655.000000;0.840253
9654.000000;0.840393
9653.000000;0.840456
9652.000000;0.840436
9651.000000;0.840430
9650.000000;0.840481
9649.000000;0.840459
9648.000000;0.840189
9647.000000;0.839733
9646.000000;0.839410
9645.000000;0.839426
9644.000000;0.839566
9643.000000;0.839446
9642.000000;0.839053
9641.000000;0.838855
9640.000000;0.839306
9639.000000;0.840308
9638.000000;0.841263
9637.000000;0.841630
9636.000000;0.841363
9635.000000;0.840816
9634.000000;0.840339
9633.000000;0.840035
9632.000000;0.839832
9631.000000;0.839614
9630.000000;0.839242
9629.000000;0.838576
9628.000000;0.837623
9627.000000;0.836662
9626.000000;0.836111
9625.000000;0.836218
9624.000000;0.836885
9623.000000;0.837750
9622.000000;0.838418
9621.000000;0.838675
9620.000000;0.838586
9619.000000;0.838416
9618.000000;0.838404
9617.000000;0.838591
9616.000000;0.838830
9615.000000;0.838952
9614.000000;0.838877
9613.000000;0.838633
9612.000000;0.838342
9611.000000;0.838134
9610.000000;0.838009
9609.000000;0.837810
9608.000000;0.837453
9607.000000;0.837141
9606.000000;0.837199
9605.000000;0.837662
9604.000000;0.838178
9603.000000;0.838383
9602.000000;0.838255
9601.000000;0.838029
9600.000000;0.837868
9599.000000;0.837715
9598.000000;0.837398
9597.000000;0.836835
9596.000000;0.836166
9595.000000;0.835727
9594.000000;0.835752
9593.000000;0.836082
9592.000000;0.836275
9591.000000;0.836126
9590.000000;0.835931
9589.000000;0.836097
9588.000000;0.836603
9587.000000;0.837057
9586.000000;0.837180
9585.000000;0.837015
9584.000000;0.836680
9583.000000;0.836185
9582.000000;0.835596
9581.000000;0.835131
9580.000000;0.834942
9579.000000;0.834929
9578.000000;0.834920
9577.000000;0.834934
9576.000000;0.835106
9575.000000;0.835460
9574.000000;0.835868
9573.000000;0.836213
9572.000000;0.836431
9571.000000;0.836415
9570.000000;0.836076
9569.000000;0.835531
9568.000000;0.835093
9567.000000;0.834969
9566.000000;0.835052
9565.000000;0.835063
9564.000000;0.834869
9563.000000;0.834602
9562.000000;0.834540
9561.000000;0.834897
9560.000000;0.835613
9559.000000;0.836294
9558.000000;0.836453
9557.000000;0.835935
9556.000000;0.835079
9555.000000;0.834358
9554.000000;0.833940
9553.000000;0.833702
9552.000000;0.833591
9551.000000;0.833726
9550.000000;0.834119
9549.000000;0.834482
9548.000000;0.834482
9547.000000;0.834081
9546.000000;0.833510
9545.000000;0.832995
9544.000000;0.832662
9543.000000;0.832600
9542.000000;0.832818
9541.000000;0.833111
9540.000000;0.833138
9539.000000;0.832736
9538.000000;0.832105
9537.000000;0.831639
9536.000000;0.831624
9535.000000;0.832061
9534.000000;0.832678
9533.000000;0.833079
9532.000000;0.833012
9531.000000;0.832581
9530.000000;0.832146
9529.000000;0.831969
9528.000000;0.831996
9527.000000;0.831999
9526.000000;0.831855
9525.000000;0.831635
9524.000000;0.831480
9523.000000;0.831480
9522.000000;0.831623
9521.000000;0.831796
9520.000000;0.831853
9519.000000;0.831754
9518.000000;0.831610
9517.000000;0.831547
9516.000000;0.831553
9515.000000;0.831518
9514.000000;0.831367
9513.000000;0.831110
9512.000000;0.830788
9511.000000;0.830492
9510.000000;0.830399
9509.000000;0.830656
9508.000000;0.831172
9507.000000;0.831635
9506.000000;0.831775
9505.000000;0.831569
9504.000000;0.831141
9503.000000;0.830572
9502.000000;0.829933
9501.000000;0.829422
9500.000000;0.829316
9499.000000;0.829697
9498.000000;0.830305
9497.000000;0.830751
9496.000000;0.830843
9495.000000;0.830659
9494.000000;0.830315
9493.000000;0.829799
9492.000000;0.829105
9491.000000;0.828454
9490.000000;0.828231
9489.000000;0.828654
9488.000000;0.829536
9487.000000;0.830425
9486.000000;0.830931
9485.000000;0.830918
9484.000000;0.830489
9483.000000;0.829901
9482.000000;0.829448
9481.000000;0.829270
9480.000000;0.829229
9479.000000;0.829046
9478.000000;0.828612
9477.000000;0.828112
9476.000000;0.827824
9475.000000;0.827880
9474.000000;0.828245
9473.000000;0.828793
9472.000000;0.829279
9471.000000;0.829336
9470.000000;0.828718
9469.000000;0.827626
9468.000000;0.826655
9467.000000;0.826332
9466.000000;0.826722
9465.000000;0.827494
9464.000000;0.828275
9463.000000;0.828831
9462.000000;0.829037
9461.000000;0.828864
9460.000000;0.828462
9459.000000;0.828139
9458.000000;0.828133
9457.000000;0.828385
9456.000000;0.828606
9455.000000;0.828547
9454.000000;0.828192
9453.000000;0.827711
9452.000000;0.827276
9451.000000;0.826949
9450.000000;0.826701
9449.000000;0.826497
9448.000000;0.826356
9447.000000;0.826326
9446.000000;0.826424
9445.000000;0.826567
9444.000000;0.826590
9443.000000;0.826385
9442.000000;0.826070
9441.000000;0.825956
9440.000000;0.826247
9439.000000;0.826753
9438.000000;0.827001
9437.000000;0.826716
9436.000000;0.826118
9435.000000;0.825677
9434.000000;0.825633
9433.000000;0.825840
9432.000000;0.826019
9431.000000;0.826008
9430.000000;0.825792
9429.000000;0.825487
9428.000000;0.825343
9427.000000;0.825587
9426.000000;0.826119
9425.000000;0.826493
9424.000000;0.826387
9423.000000;0.826006
9422.000000;0.825836
9421.000000;0.826030
9420.000000;0.826248
9419.000000;0.826119
9418.000000;0.825680
9417.000000;0.825271
9416.000000;0.825146
9415.000000;0.825296
9414.000000;0.825547
9413.000000;0.825708
9412.000000;0.825654
9411.000000;0.825390
9410.000000;0.825049
9409.000000;0.824770
9408.000000;0.824552
9407.000000;0.824284
9406.000000;0.823902
9405.000000;0.823506
9404.000000;0.823309
9403.000000;0.823460
9402.000000;0.823894
9401.000000;0.824326
9400.000000;0.824464
9399.000000;0.824235
9398.000000;0.823805
9397.000000;0.823381
9396.000000;0.823046
9395.000000;0.822760
9394.000000;0.822448
9393.000000;0.822065
9392.000000;0.821667
9391.000000;0.821457
9390.000000;0.821652
9389.000000;0.822236
9388.000000;0.822932
9387.000000;0.823456
9386.000000;0.823724
9385.000000;0.823759
9384.000000;0.823513
9383.000000;0.822968
9382.000000;0.822325
9381.000000;0.821909
9380.000000;0.821852
9379.000000;0.821986
9378.000000;0.822081
9377.000000;0.822050
9376.000000;0.821922
9375.000000;0.821723
9374.000000;0.821486
9373.000000;0.821289
9372.000000;0.821214
9371.000000;0.821298
9370.000000;0.821558
9369.000000;0.822009
9368.000000;0.822566
9367.000000;0.823003
9366.000000;0.823089
9365.000000;0.822798
9364.000000;0.822347
9363.000000;0.822004
9362.000000;0.821854
9361.000000;0.821757
9360.000000;0.821514
9359.000000;0.821093
9358.000000;0.820685
9357.000000;0.820524
9356.000000;0.820632
9355.000000;0.820786
9354.000000;0.820740
9353.000000;0.820470
9352.000000;0.820187
9351.000000;0.820102
9350.000000;0.820185
9349.000000;0.820193
9348.000000;0.819946
9347.000000;0.819571
9346.000000;0.819407
9345.000000;0.819650
9344.000000;0.820137
9343.000000;0.820518
9342.000000;0.820588
9341.000000;0.820399
9340.000000;0.820117
9339.000000;0.819875
9338.000000;0.819740
9337.000000;0.819689
9336.000000;0.819614
9335.000000;0.819428
9334.000000;0.819219
9333.000000;0.819196
9332.000000;0.819448
9331.000000;0.819818
9330.000000;0.820058
9329.000000;0.820053
9328.000000;0.819881
9327.000000;0.819701
9326.000000;0.819637
9325.000000;0.819717
9324.000000;0.819847
9323.000000;0.819859
9322.000000;0.819650
9321.000000;0.819284
9320.000000;0.818963
9319.000000;0.818850
9318.000000;0.818900
9317.000000;0.818859
9316.000000;0.818488
9315.000000;0.817842
9314.000000;0.817279
9313.000000;0.817139
9312.000000;0.817432
9311.000000;0.817908
9310.000000;0.818342
9309.000000;0.818632
9308.000000;0.818688
9307.000000;0.818453
9306.000000;0.818063
9305.000000;0.817776
9304.000000;0.817659
9303.000000;0.817518
9302.000000;0.817240
9301.000000;0.817034
9300.000000;0.817150
9299.000000;0.817495
9298.000000;0.817706
9297.000000;0.817576
9296.000000;0.817222
9295.000000;0.816864
9294.000000;0.816584
9293.000000;0.816322
9292.000000;0.815991
9291.000000;0.815599
9290.000000;0.815326
9289.000000;0.815430
9288.000000;0.815975
9287.000000;0.816658
9286.000000;0.817048
9285.000000;0.816992
9284.000000;0.816697
9283.000000;0.816433
9282.000000;0.816300
9281.000000;0.816256
9280.000000;0.816220
9279.000000;0.816103
9278.000000;0.815859
9277.000000;0.815569
9276.000000;0.815377
9275.000000;0.815313
9274.000000;0.815266
9273.000000;0.815162
9272.000000;0.815062
9271.000000;0.815050
9270.000000;0.815123
9269.000000;0.815242
9268.000000;0.815398
9267.000000;0.815571
9266.000000;0.815708
9265.000000;0.815787
9264.000000;0.815829
9263.000000;0.815800
9262.000000;0.815596
9261.000000;0.815218
9260.000000;0.814862
9259.000000;0.814742
9258.000000;0.814872
9257.000000;0.815091
9256.000000;0.815254
9255.000000;0.815316
9254.000000;0.815268
9253.000000;0.815106
9252.000000;0.814851
9251.000000;0.814551
9250.000000;0.814245
9249.000000;0.813972
9248.000000;0.813784
9247.000000;0.813690
9246.000000;0.813636
9245.000000;0.813566
9244.000000;0.813481
9243.000000;0.813390
9242.000000;0.813248
9241.000000;0.813017
9240.000000;0.812793
9239.000000;0.812786
9238.000000;0.813141
9237.000000;0.813767
9236.000000;0.814368
9235.000000;0.814634
9234.000000;0.814462
9233.000000;0.814014
9232.000000;0.813564
9231.000000;0.813302
9230.000000;0.813276
9229.000000;0.813455
9228.000000;0.813720
9227.000000;0.813824
9226.000000;0.813528
9225.000000;0.812882
9224.000000;0.812263
9223.000000;0.812025
9222.000000;0.812145
9221.000000;0.812309
9220.000000;0.812301
9219.000000;0.812163
9218.000000;0.812033
9217.000000;0.811949
9216.000000;0.811886
9215.000000;0.811867
9214.000000;0.811940
9213.000000;0.812088
9212.000000;0.812206
9211.000000;0.812171
9210.000000;0.811923
9209.000000;0.811504
9208.000000;0.811037
9207.000000;0.810655
9206.000000;0.810443
9205.000000;0.810412
9204.000000;0.810509
9203.000000;0.810624
9202.000000;0.810661
9201.000000;0.810622
9200.000000;0.810593
9199.000000;0.810622
9198.000000;0.810649
9197.000000;0.810607
9196.000000;0.810499
9195.000000;0.810332
9194.000000;0.810062
9193.000000;0.809703
9192.000000;0.809457
9191.000000;0.809574
9190.000000;0.810063
9189.000000;0.810647
9188.000000;0.811041
9187.000000;0.811176
9186.000000;0.811148
9185.000000;0.811009
9184.000000;0.810712
9183.000000;0.810206
9182.000000;0.809576
9181.000000;0.809075
9180.000000;0.808984
9179.000000;0.809359
9178.000000;0.809915
9177.000000;0.810260
9176.000000;0.810275
9175.000000;0.810174
9174.000000;0.810171
9173.000000;0.810224
9172.000000;0.810143
9171.000000;0.809856
9170.000000;0.809458
9169.000000;0.809065
9168.000000;0.808762
9167.000000;0.808637
9166.000000;0.808728
9165.000000;0.808926
9164.000000;0.809032
9163.000000;0.808943
9162.000000;0.808722
9161.000000;0.808490
9160.000000;0.808294
9159.000000;0.808130
9158.000000;0.808021
9157.000000;0.808024
9156.000000;0.808177
9155.000000;0.808440
9154.000000;0.808686
9153.000000;0.808757
9152.000000;0.808583
9151.000000;0.808265
9150.000000;0.808021
9149.000000;0.808012
9148.000000;0.808203
9147.000000;0.808384
9146.000000;0.808334
9145.000000;0.808007
9144.000000;0.807577
9143.000000;0.807316
9142.000000;0.807359
9141.000000;0.807607
9140.000000;0.807848
9139.000000;0.807980
9138.000000;0.808058
9137.000000;0.808168
9136.000000;0.808304
9135.000000;0.808393
9134.000000;0.808378
9133.000000;0.808250
9132.000000;0.808032
9131.000000;0.807769
9130.000000;0.807518
9129.000000;0.807324
9128.000000;0.807208
9127.000000;0.807159
9126.000000;0.807134
9125.000000;0.807067
9124.000000;0.806910
9123.000000;0.806687
9122.000000;0.806471
9121.000000;0.806317
9120.000000;0.806214
9119.000000;0.806130
9118.000000;0.806033
9117.000000;0.805889
9116.000000;0.805684
9115.000000;0.805486
9114.000000;0.805435
9113.000000;0.805597
9112.000000;0.805857
9111.000000;0.806007
9110.000000;0.805939
9109.000000;0.805699
9108.000000;0.805391
9107.000000;0.805092
9106.000000;0.804865
9105.000000;0.804765
9104.000000;0.804788
9103.000000;0.804849
9102.000000;0.804872
9101.000000;0.804858
9100.000000;0.804865
9099.000000;0.804928
9098.000000;0.805033
9097.000000;0.805126
9096.000000;0.805130
9095.000000;0.804975
9094.000000;0.804686
9093.000000;0.804406
9092.000000;0.804314
9091.000000;0.804488
9090.000000;0.804847
9089.000000;0.805212
9088.000000;0.805401
9087.000000;0.805331
9086.000000;0.805051
9085.000000;0.804694
9084.000000;0.804364
9083.000000;0.804101
9082.000000;0.803943
9081.000000;0.803969
9080.000000;0.804187
9079.000000;0.804426
9078.000000;0.804445
9077.000000;0.804175
9076.000000;0.803808
9075.000000;0.803593
9074.000000;0.803595
9073.000000;0.803668
9072.000000;0.803624
9071.000000;0.803377
9070.000000;0.802988
9069.000000;0.802624
9068.000000;0.802460
9067.000000;0.802559
9066.000000;0.802813
9065.000000;0.803045
9064.000000;0.803165
9063.000000;0.803214
9062.000000;0.803266
9061.000000;0.803319
9060.000000;0.803297
9059.000000;0.803141
9058.000000;0.802883
9057.000000;0.802654
9056.000000;0.802602
9055.000000;0.802765
9054.000000;0.803004
9053.000000;0.803106
