Criado como novo conjunto de dados;"2706_e01_daniel.spp","31143.4 Secs"
cm-1;Abs
10000.000000;0.779001
9999.000000;0.778650
9998.000000;0.778299
9997.000000;0.777949
9996.000000;0.777598
9995.000000;0.777250
9994.000000;0.776896
9993.000000;0.776508
9992.000000;0.776005
9991.000000;0.775368
9990.000000;0.774909
9989.000000;0.775036
9988.000000;0.775699
9987.000000;0.776255
9986.000000;0.776084
9985.000000;0.775280
9984.000000;0.774537
9983.000000;0.774401
9982.000000;0.774792
9981.000000;0.775238
9980.000000;0.775368
9979.000000;0.775080
9978.000000;0.774422
9977.000000;0.773528
9976.000000;0.772691
9975.000000;0.772337
9974.000000;0.772762
9973.000000;0.773849
9972.000000;0.775083
9971.000000;0.775890
9970.000000;0.775991
9969.000000;0.775475
9968.000000;0.774642
9967.000000;0.773846
9966.000000;0.773428
9965.000000;0.773587
9964.000000;0.774204
9963.000000;0.774856
9962.000000;0.775129
9961.000000;0.774914
9960.000000;0.774394
9959.000000;0.773796
9958.000000;0.773227
9957.000000;0.772719
9956.000000;0.772372
9955.000000;0.772380
9954.000000;0.772892
9953.000000;0.773763
9952.000000;0.774486
9951.000000;0.774526
9950.000000;0.773827
9949.000000;0.772909
9948.000000;0.772360
9947.000000;0.772308
9946.000000;0.772454
9945.000000;0.772483
9944.000000;0.772293
9943.000000;0.771901
9942.000000;0.771363
9941.000000;0.770835
9940.000000;0.770536
9939.000000;0.770563
9938.000000;0.770799
9937.000000;0.771063
9936.000000;0.771261
9935.000000;0.771381
9934.000000;0.771450
9933.000000;0.771568
9932.000000;0.771863
9931.000000;0.772312
9930.000000;0.772659
9929.000000;0.772629
9928.000000;0.772225
9927.000000;0.771719
9926.000000;0.771346
9925.000000;0.771102
9924.000000;0.770887
9923.000000;0.770752
9922.000000;0.770829
9921.000000;0.771022
9920.000000;0.770964
9919.000000;0.770437
9918.000000;0.769748
9917.000000;0.769476
9916.000000;0.769847
9915.000000;0.770498
9914.000000;0.770919
9913.000000;0.770957
9912.000000;0.770821
9911.000000;0.770717
9910.000000;0.770624
9909.000000;0.770338
9908.000000;0.769641
9907.000000;0.768514
9906.000000;0.767288
9905.000000;0.766476
9904.000000;0.766297
9903.000000;0.766431
9902.000000;0.766390
9901.000000;0.766075
9900.000000;0.765831
9899.000000;0.765961
9898.000000;0.766386
9897.000000;0.766806
9896.000000;0.767033
9895.000000;0.767108
9894.000000;0.767163
9893.000000;0.767228
9892.000000;0.767178
9891.000000;0.766904
9890.000000;0.766530
9889.000000;0.766354
9888.000000;0.766474
9887.000000;0.766593
9886.000000;0.766332
9885.000000;0.765689
9884.000000;0.765017
9883.000000;0.764638
9882.000000;0.764628
9881.000000;0.764908
9880.000000;0.765308
9879.000000;0.765559
9878.000000;0.765495
9877.000000;0.765279
9876.000000;0.765228
9875.000000;0.765355
9874.000000;0.765317
9873.000000;0.764888
9872.000000;0.764270
9871.000000;0.763827
9870.000000;0.763724
9869.000000;0.763920
9868.000000;0.764317
9867.000000;0.764738
9866.000000;0.764922
9865.000000;0.764749
9864.000000;0.764409
9863.000000;0.764192
9862.000000;0.764182
9861.000000;0.764271
9860.000000;0.764377
9859.000000;0.764488
9858.000000;0.764553
9857.000000;0.764474
9856.000000;0.764218
9855.000000;0.763828
9854.000000;0.763379
9853.000000;0.762958
9852.000000;0.762638
9851.000000;0.762385
9850.000000;0.762105
9849.000000;0.761872
9848.000000;0.762003
9847.000000;0.762741
9846.000000;0.763888
9845.000000;0.764888
9844.000000;0.765284
9843.000000;0.765027
9842.000000;0.764418
9841.000000;0.763829
9840.000000;0.763431
9839.000000;0.763074
9838.000000;0.762473
9837.000000;0.761598
9836.000000;0.760821
9835.000000;0.760569
9834.000000;0.760872
9833.000000;0.761373
9832.000000;0.761692
9831.000000;0.761659
9830.000000;0.761262
9829.000000;0.760611
9828.000000;0.759973
9827.000000;0.759677
9826.000000;0.759879
9825.000000;0.760457
9824.000000;0.761140
9823.000000;0.761653
9822.000000;0.761770
9821.000000;0.761421
9820.000000;0.760794
9819.000000;0.760232
9818.000000;0.759940
9817.000000;0.759841
9816.000000;0.759728
9815.000000;0.759465
9814.000000;0.759030
9813.000000;0.758496
9812.000000;0.758056
9811.000000;0.757963
9810.000000;0.758323
9809.000000;0.758951
9808.000000;0.759477
9807.000000;0.759601
9806.000000;0.759284
9805.000000;0.758748
9804.000000;0.758347
9803.000000;0.758326
9802.000000;0.758673
9801.000000;0.759189
9800.000000;0.759688
9799.000000;0.760051
9798.000000;0.760129
9797.000000;0.759772
9796.000000;0.759053
9795.000000;0.758332
9794.000000;0.757977
9793.000000;0.758044
9792.000000;0.758325
9791.000000;0.758634
9790.000000;0.758902
9789.000000;0.759032
9788.000000;0.758830
9787.000000;0.758190
9786.000000;0.757299
9785.000000;0.756574
9784.000000;0.756381
9783.000000;0.756770
9782.000000;0.757420
9781.000000;0.757866
9780.000000;0.757860
9779.000000;0.757537
9778.000000;0.757197
9777.000000;0.756972
9776.000000;0.756793
9775.000000;0.756654
9774.000000;0.756740
9773.000000;0.757161
9772.000000;0.757682
9771.000000;0.757881
9770.000000;0.757582
9769.000000;0.757045
9768.000000;0.756652
9767.000000;0.756531
9766.000000;0.756514
9765.000000;0.756386
9764.000000;0.756076
9763.000000;0.755648
9762.000000;0.755216
9761.000000;0.754905
9760.000000;0.754826
9759.000000;0.755026
9758.000000;0.755419
9757.000000;0.755774
9756.000000;0.755821
9755.000000;0.755462
9754.000000;0.754915
9753.000000;0.754583
9752.000000;0.754701
9751.000000;0.755102
9750.000000;0.755386
9749.000000;0.755324
9748.000000;0.755033
9747.000000;0.754782
9746.000000;0.754702
9745.000000;0.754707
9744.000000;0.754623
9743.000000;0.754344
9742.000000;0.753916
9741.000000;0.753508
9740.000000;0.753255
9739.000000;0.753120
9738.000000;0.752953
9737.000000;0.752700
9736.000000;0.752475
9735.000000;0.752399
9734.000000;0.752446
9733.000000;0.752519
9732.000000;0.752586
9731.000000;0.752648
9730.000000;0.752650
9729.000000;0.752551
9728.000000;0.752445
9727.000000;0.752486
9726.000000;0.752683
9725.000000;0.752880
9724.000000;0.752959
9723.000000;0.752946
9722.000000;0.752889
9721.000000;0.752744
9720.000000;0.752447
9719.000000;0.751999
9718.000000;0.751452
9717.000000;0.750890
9716.000000;0.750481
9715.000000;0.750434
9714.000000;0.750790
9713.000000;0.751304
9712.000000;0.751649
9711.000000;0.751706
9710.000000;0.751585
9709.000000;0.751438
9708.000000;0.751340
9707.000000;0.751334
9706.000000;0.751448
9705.000000;0.751642
9704.000000;0.751821
9703.000000;0.751911
9702.000000;0.751881
9701.000000;0.751695
9700.000000;0.751340
9699.000000;0.750881
9698.000000;0.750421
9697.000000;0.749983
9696.000000;0.749519
9695.000000;0.749056
9694.000000;0.748735
9693.000000;0.748662
9692.000000;0.748772
9691.000000;0.748913
9690.000000;0.749002
9689.000000;0.749064
9688.000000;0.749159
9687.000000;0.749328
9686.000000;0.749582
9685.000000;0.749853
9684.000000;0.749973
9683.000000;0.749805
9682.000000;0.749442
9681.000000;0.749213
9680.000000;0.749365
9679.000000;0.749758
9678.000000;0.749946
9677.000000;0.749648
9676.000000;0.749090
9675.000000;0.748766
9674.000000;0.748860
9673.000000;0.749031
9672.000000;0.748839
9671.000000;0.748286
9670.000000;0.747809
9669.000000;0.747778
9668.000000;0.748140
9667.000000;0.748520
9666.000000;0.748517
9665.000000;0.747929
9664.000000;0.746895
9663.000000;0.745886
9662.000000;0.745422
9661.000000;0.745616
9660.000000;0.746097
9659.000000;0.746442
9658.000000;0.746617
9657.000000;0.746858
9656.000000;0.747226
9655.000000;0.747452
9654.000000;0.747247
9653.000000;0.746638
9652.000000;0.745954
9651.000000;0.745580
9650.000000;0.745675
9649.000000;0.746065
9648.000000;0.746390
9647.000000;0.746473
9646.000000;0.746491
9645.000000;0.746695
9644.000000;0.747001
9643.000000;0.747045
9642.000000;0.746650
9641.000000;0.746079
9640.000000;0.745732
9639.000000;0.745722
9638.000000;0.745858
9637.000000;0.745930
9636.000000;0.745887
9635.000000;0.745790
9634.000000;0.745722
9633.000000;0.745754
9632.000000;0.745888
9631.000000;0.746014
9630.000000;0.745984
9629.000000;0.745741
9628.000000;0.745363
9627.000000;0.744985
9626.000000;0.744713
9625.000000;0.744573
9624.000000;0.744514
9623.000000;0.744481
9622.000000;0.744505
9621.000000;0.744685
9620.000000;0.745039
9619.000000;0.745390
9618.000000;0.745481
9617.000000;0.745236
9616.000000;0.744855
9615.000000;0.744620
9614.000000;0.744615
9613.000000;0.744674
9612.000000;0.744599
9611.000000;0.744379
9610.000000;0.744155
9609.000000;0.743998
9608.000000;0.743806
9607.000000;0.743467
9606.000000;0.743073
9605.000000;0.742858
9604.000000;0.742925
9603.000000;0.743119
9602.000000;0.743214
9601.000000;0.743164
9600.000000;0.743104
9599.000000;0.743111
9598.000000;0.743079
9597.000000;0.742855
9596.000000;0.742458
9595.000000;0.742118
9594.000000;0.742075
9593.000000;0.742343
9592.000000;0.742664
9591.000000;0.742702
9590.000000;0.742310
9589.000000;0.741667
9588.000000;0.741143
9587.000000;0.741004
9586.000000;0.741168
9585.000000;0.741292
9584.000000;0.741141
9583.000000;0.740855
9582.000000;0.740769
9581.000000;0.740964
9580.000000;0.741148
9579.000000;0.741028
9578.000000;0.740681
9577.000000;0.740446
9576.000000;0.740515
9575.000000;0.740763
9574.000000;0.740925
9573.000000;0.740821
9572.000000;0.740445
9571.000000;0.739983
9570.000000;0.739717
9569.000000;0.739776
9568.000000;0.739967
9567.000000;0.739991
9566.000000;0.739829
9565.000000;0.739741
9564.000000;0.739871
9563.000000;0.740041
9562.000000;0.740032
9561.000000;0.739898
9560.000000;0.739843
9559.000000;0.739921
9558.000000;0.740012
9557.000000;0.740039
9556.000000;0.740014
9555.000000;0.739908
9554.000000;0.739619
9553.000000;0.739110
9552.000000;0.738499
9551.000000;0.737991
9550.000000;0.737775
9549.000000;0.737959
9548.000000;0.738478
9547.000000;0.739042
9546.000000;0.739267
9545.000000;0.738983
9544.000000;0.738384
9543.000000;0.737851
9542.000000;0.737594
9541.000000;0.737486
9540.000000;0.737259
9539.000000;0.736854
9538.000000;0.736531
9537.000000;0.736584
9536.000000;0.737000
9535.000000;0.737465
9534.000000;0.737699
9533.000000;0.737670
9532.000000;0.737479
9531.000000;0.737181
9530.000000;0.736821
9529.000000;0.736539
9528.000000;0.736504
9527.000000;0.736727
9526.000000;0.737018
9525.000000;0.737139
9524.000000;0.736996
9523.000000;0.736704
9522.000000;0.736506
9521.000000;0.736571
9520.000000;0.736820
9519.000000;0.736980
9518.000000;0.736848
9517.000000;0.736492
9516.000000;0.736148
9515.000000;0.735988
9514.000000;0.736008
9513.000000;0.736072
9512.000000;0.736016
9511.000000;0.735754
9510.000000;0.735365
9509.000000;0.735059
9508.000000;0.734986
9507.000000;0.735132
9506.000000;0.735408
9505.000000;0.735756
9504.000000;0.736093
9503.000000;0.736234
9502.000000;0.736027
9501.000000;0.735559
9500.000000;0.735129
9499.000000;0.734980
9498.000000;0.735089
9497.000000;0.735223
9496.000000;0.735148
9495.000000;0.734819
9494.000000;0.734406
9493.000000;0.734123
9492.000000;0.734016
9491.000000;0.733947
9490.000000;0.733806
9489.000000;0.733651
9488.000000;0.733601
9487.000000;0.733663
9486.000000;0.733741
9485.000000;0.733772
9484.000000;0.733744
9483.000000;0.733653
9482.000000;0.733513
9481.000000;0.733392
9480.000000;0.733343
9479.000000;0.733322
9478.000000;0.733245
9477.000000;0.733098
9476.000000;0.732932
9475.000000;0.732825
9474.000000;0.732867
9473.000000;0.733097
9472.000000;0.733367
9471.000000;0.733384
9470.000000;0.733019
9469.000000;0.732498
9468.000000;0.732142
9467.000000;0.731998
9466.000000;0.731887
9465.000000;0.731733
9464.000000;0.731616
9463.000000;0.731545
9462.000000;0.731397
9461.000000;0.731155
9460.000000;0.730986
9459.000000;0.731005
9458.000000;0.731102
9457.000000;0.731091
9456.000000;0.730932
9455.000000;0.730727
9454.000000;0.730621
9453.000000;0.730742
9452.000000;0.731101
9451.000000;0.731507
9450.000000;0.731715
9449.000000;0.731716
9448.000000;0.731741
9447.000000;0.731902
9446.000000;0.731992
9445.000000;0.731783
9444.000000;0.731377
9443.000000;0.731099
9442.000000;0.731093
9441.000000;0.731169
9440.000000;0.731046
9439.000000;0.730651
9438.000000;0.730174
9437.000000;0.729874
9436.000000;0.729810
9435.000000;0.729771
9434.000000;0.729534
9433.000000;0.729152
9432.000000;0.728872
9431.000000;0.728766
9430.000000;0.728644
9429.000000;0.728401
9428.000000;0.728233
9427.000000;0.728338
9426.000000;0.728566
9425.000000;0.728591
9424.000000;0.728321
9423.000000;0.727943
9422.000000;0.727635
9421.000000;0.727467
9420.000000;0.727546
9419.000000;0.727969
9418.000000;0.728591
9417.000000;0.729040
9416.000000;0.729073
9415.000000;0.728790
9414.000000;0.728444
9413.000000;0.728224
9412.000000;0.728245
9411.000000;0.728565
9410.000000;0.729050
9409.000000;0.729361
9408.000000;0.729239
9407.000000;0.728752
9406.000000;0.728167
9405.000000;0.727646
9404.000000;0.727186
9403.000000;0.726783
9402.000000;0.726494
9401.000000;0.726348
9400.000000;0.726319
9399.000000;0.726381
9398.000000;0.726514
9397.000000;0.726654
9396.000000;0.726716
9395.000000;0.726708
9394.000000;0.726738
9393.000000;0.726884
9392.000000;0.727089
9391.000000;0.727221
9390.000000;0.727202
9389.000000;0.727046
9388.000000;0.726806
9387.000000;0.726497
9386.000000;0.726093
9385.000000;0.725609
9384.000000;0.725157
9383.000000;0.724884
9382.000000;0.724830
9381.000000;0.724884
9380.000000;0.724918
9379.000000;0.724931
9378.000000;0.725006
9377.000000;0.725167
9376.000000;0.725345
9375.000000;0.725447
9374.000000;0.725411
9373.000000;0.725195
9372.000000;0.724821
9371.000000;0.724424
9370.000000;0.724199
9369.000000;0.724242
9368.000000;0.724489
9367.000000;0.724828
9366.000000;0.725177
9365.000000;0.725448
9364.000000;0.725549
9363.000000;0.725487
9362.000000;0.725377
9361.000000;0.725268
9360.000000;0.725037
9359.000000;0.724568
9358.000000;0.723976
9357.000000;0.723528
9356.000000;0.723336
9355.000000;0.723289
9354.000000;0.723264
9353.000000;0.723263
9352.000000;0.723297
9351.000000;0.723289
9350.000000;0.723179
9349.000000;0.723056
9348.000000;0.723067
9347.000000;0.723256
9346.000000;0.723536
9345.000000;0.723764
9344.000000;0.723791
9343.000000;0.723530
9342.000000;0.723070
9341.000000;0.722661
9340.000000;0.722463
9339.000000;0.722367
9338.000000;0.722186
9337.000000;0.721944
9336.000000;0.721826
9335.000000;0.721868
9334.000000;0.721886
9333.000000;0.721747
9332.000000;0.721555
9331.000000;0.721499
9330.000000;0.721629
9329.000000;0.721846
9328.000000;0.722007
9327.000000;0.721963
9326.000000;0.721639
9325.000000;0.721182
9324.000000;0.720937
9323.000000;0.721109
9322.000000;0.721529
9321.000000;0.721849
9320.000000;0.721933
9319.000000;0.721921
9318.000000;0.721938
9317.000000;0.721924
9316.000000;0.721780
9315.000000;0.721544
9314.000000;0.721335
9313.000000;0.721225
9312.000000;0.721228
9311.000000;0.721343
9310.000000;0.721528
9309.000000;0.721668
9308.000000;0.721630
9307.000000;0.721370
9306.000000;0.720953
9305.000000;0.720488
9304.000000;0.720057
9303.000000;0.719691
9302.000000;0.719395
9301.000000;0.719208
9300.000000;0.719196
9299.000000;0.719353
9298.000000;0.719541
9297.000000;0.719601
9296.000000;0.719521
9295.000000;0.719449
9294.000000;0.719511
9293.000000;0.719684
9292.000000;0.719843
9291.000000;0.719850
9290.000000;0.719609
9289.000000;0.719136
9288.000000;0.718643
9287.000000;0.718435
9286.000000;0.718622
9285.000000;0.718986
9284.000000;0.719213
9283.000000;0.719200
9282.000000;0.719054
9281.000000;0.718871
9280.000000;0.718675
9279.000000;0.718535
9278.000000;0.718557
9277.000000;0.718719
9276.000000;0.718818
9275.000000;0.718678
9274.000000;0.718320
9273.000000;0.717897
9272.000000;0.717562
9271.000000;0.717424
9270.000000;0.717536
9269.000000;0.717813
9268.000000;0.718040
9267.000000;0.718064
9266.000000;0.717944
9265.000000;0.717837
9264.000000;0.717777
9263.000000;0.717665
9262.000000;0.717455
9261.000000;0.717251
9260.000000;0.717193
9259.000000;0.717345
9258.000000;0.717663
9257.000000;0.718000
9256.000000;0.718144
9255.000000;0.717950
9254.000000;0.717501
9253.000000;0.717067
9252.000000;0.716860
9251.000000;0.716855
9250.000000;0.716883
9249.000000;0.716834
9248.000000;0.716729
9247.000000;0.716629
9246.000000;0.716563
9245.000000;0.716534
9244.000000;0.716524
9243.000000;0.716478
9242.000000;0.716325
9241.000000;0.716070
9240.000000;0.715843
9239.000000;0.715784
9238.000000;0.715872
9237.000000;0.715903
9236.000000;0.715696
9235.000000;0.715295
9234.000000;0.714908
9233.000000;0.714695
9232.000000;0.714661
9231.000000;0.714759
9230.000000;0.714970
9229.000000;0.715209
9228.000000;0.715279
9227.000000;0.715049
9226.000000;0.714661
9225.000000;0.714412
9224.000000;0.714415
9223.000000;0.714471
9222.000000;0.714329
9221.000000;0.713985
9220.000000;0.713651
9219.000000;0.713504
9218.000000;0.713515
9217.000000;0.713531
9216.000000;0.713436
9215.000000;0.713263
9214.000000;0.713165
9213.000000;0.713279
9212.000000;0.713594
9211.000000;0.713910
9210.000000;0.713972
9209.000000;0.713652
9208.000000;0.713050
9207.000000;0.712443
9206.000000;0.712110
9205.000000;0.712145
9204.000000;0.712406
9203.000000;0.712649
9202.000000;0.712712
9201.000000;0.712593
9200.000000;0.712397
9199.000000;0.712248
9198.000000;0.712223
9197.000000;0.712293
9196.000000;0.712327
9195.000000;0.712211
9194.000000;0.711966
9193.000000;0.711691
9192.000000;0.711440
9191.000000;0.711220
9190.000000;0.711110
9189.000000;0.711199
9188.000000;0.711391
9187.000000;0.711421
9186.000000;0.711174
9185.000000;0.710872
9184.000000;0.710828
9183.000000;0.711069
9182.000000;0.711348
9181.000000;0.711479
9180.000000;0.711510
9179.000000;0.711568
9178.000000;0.711677
9177.000000;0.711788
9176.000000;0.711874
9175.000000;0.711923
9174.000000;0.711895
9173.000000;0.711757
9172.000000;0.711536
9171.000000;0.711290
9170.000000;0.711039
9169.000000;0.710761
9168.000000;0.710438
9167.000000;0.710092
9166.000000;0.709779
9165.000000;0.709554
9164.000000;0.709436
9163.000000;0.709414
9162.000000;0.709468
9161.000000;0.709565
9160.000000;0.709636
9159.000000;0.709588
9158.000000;0.709395
9157.000000;0.709140
9156.000000;0.708929
9155.000000;0.708759
9154.000000;0.708527
9153.000000;0.708188
9152.000000;0.707869
9151.000000;0.707782
9150.000000;0.708030
9149.000000;0.708483
9148.000000;0.708833
9147.000000;0.708821
9146.000000;0.708481
9145.000000;0.708139
9144.000000;0.708128
9143.000000;0.708478
9142.000000;0.708904
9141.000000;0.709072
9140.000000;0.708845
9139.000000;0.708306
9138.000000;0.707666
9137.000000;0.707185
9136.000000;0.707074
9135.000000;0.707360
9134.000000;0.707829
9133.000000;0.708173
9132.000000;0.708233
9131.000000;0.708097
9130.000000;0.707960
9129.000000;0.707902
9128.000000;0.707814
9127.000000;0.707535
9126.000000;0.707058
9125.000000;0.706570
9124.000000;0.706299
9123.000000;0.706316
9122.000000;0.706527
9121.000000;0.706806
9120.000000;0.707087
9119.000000;0.707334
9118.000000;0.707489
9117.000000;0.707513
9116.000000;0.707437
9115.000000;0.707338
9114.000000;0.707256
9113.000000;0.707188
9112.000000;0.707155
9111.000000;0.707203
9110.000000;0.707319
9109.000000;0.707374
9108.000000;0.707235
9107.000000;0.706913
9106.000000;0.706544
9105.000000;0.706198
9104.000000;0.705783
9103.000000;0.705225
9102.000000;0.704699
9101.000000;0.704547
9100.000000;0.704901
9099.000000;0.705484
9098.000000;0.705862
9097.000000;0.705869
9096.000000;0.705698
9095.000000;0.705616
9094.000000;0.705697
9093.000000;0.705823
9092.000000;0.705827
9091.000000;0.705598
9090.000000;0.705131
9089.000000;0.704561
9088.000000;0.704115
9087.000000;0.703952
9086.000000;0.704055
9085.000000;0.704289
9084.000000;0.704529
9083.000000;0.704688
9082.000000;0.704691
9081.000000;0.704494
9080.000000;0.704168
9079.000000;0.703887
9078.000000;0.703788
9077.000000;0.703848
9076.000000;0.703905
9075.000000;0.703806
9074.000000;0.703538
9073.000000;0.703228
9072.000000;0.703027
9071.000000;0.702981
9070.000000;0.703018
9069.000000;0.703039
9068.000000;0.703017
9067.000000;0.703018
9066.000000;0.703110
9065.000000;0.703288
9064.000000;0.703446
9063.000000;0.703450
9062.000000;0.703239
9061.000000;0.702900
9060.000000;0.702626
9059.000000;0.702563
9058.000000;0.702684
9057.000000;0.702795
9056.000000;0.702716
9055.000000;0.702449
9054.000000;0.702181
9053.000000;0.702088
