Criado como novo conjunto de dados;"2706_e01_daniel.spp","106027.6 Secs"
cm-1;Abs
10000.000000;0.867891
9999.000000;0.867235
9998.000000;0.866742
9997.000000;0.866415
9996.000000;0.865974
9995.000000;0.865229
9994.000000;0.864415
9993.000000;0.864002
9992.000000;0.864255
9991.000000;0.865039
9990.000000;0.865982
9989.000000;0.866701
9988.000000;0.866964
9987.000000;0.866823
9986.000000;0.866580
9985.000000;0.866463
9984.000000;0.866336
9983.000000;0.865904
9982.000000;0.865187
9981.000000;0.864576
9980.000000;0.864348
9979.000000;0.864337
9978.000000;0.864199
9977.000000;0.863854
9976.000000;0.863498
9975.000000;0.863301
9974.000000;0.863288
9973.000000;0.863446
9972.000000;0.863731
9971.000000;0.863962
9970.000000;0.863908
9969.000000;0.863542
9968.000000;0.863127
9967.000000;0.862992
9966.000000;0.863277
9965.000000;0.863854
9964.000000;0.864415
9963.000000;0.864640
9962.000000;0.864427
9961.000000;0.863967
9960.000000;0.863504
9959.000000;0.863036
9958.000000;0.862413
9957.000000;0.861721
9956.000000;0.861336
9955.000000;0.861476
9954.000000;0.861895
9953.000000;0.862228
9952.000000;0.862468
9951.000000;0.862876
9950.000000;0.863480
9949.000000;0.863932
9948.000000;0.863914
9947.000000;0.863483
9946.000000;0.862945
9945.000000;0.862539
9944.000000;0.862309
9943.000000;0.862131
9942.000000;0.861787
9941.000000;0.861136
9940.000000;0.860317
9939.000000;0.859708
9938.000000;0.859603
9937.000000;0.859966
9936.000000;0.860504
9935.000000;0.860871
9934.000000;0.860824
9933.000000;0.860382
9932.000000;0.859921
9931.000000;0.859896
9930.000000;0.860339
9929.000000;0.860784
9928.000000;0.860844
9927.000000;0.860717
9926.000000;0.860893
9925.000000;0.861515
9924.000000;0.862253
9923.000000;0.862701
9922.000000;0.862635
9921.000000;0.861978
9920.000000;0.860862
9919.000000;0.859743
9918.000000;0.859121
9917.000000;0.859075
9916.000000;0.859291
9915.000000;0.859583
9914.000000;0.860047
9913.000000;0.860614
9912.000000;0.860843
9911.000000;0.860456
9910.000000;0.859830
9909.000000;0.859619
9908.000000;0.859985
9907.000000;0.860470
9906.000000;0.860535
9905.000000;0.859996
9904.000000;0.859012
9903.000000;0.857919
9902.000000;0.857096
9901.000000;0.856785
9900.000000;0.856949
9899.000000;0.857435
9898.000000;0.858199
9897.000000;0.859234
9896.000000;0.860282
9895.000000;0.860866
9894.000000;0.860702
9893.000000;0.859985
9892.000000;0.859196
9891.000000;0.858711
9890.000000;0.858584
9889.000000;0.858617
9888.000000;0.858604
9887.000000;0.858541
9886.000000;0.858561
9885.000000;0.858685
9884.000000;0.858750
9883.000000;0.858677
9882.000000;0.858603
9881.000000;0.858594
9880.000000;0.858430
9879.000000;0.857936
9878.000000;0.857389
9877.000000;0.857215
9876.000000;0.857346
9875.000000;0.857255
9874.000000;0.856673
9873.000000;0.855913
9872.000000;0.855395
9871.000000;0.855222
9870.000000;0.855349
9869.000000;0.855773
9868.000000;0.856310
9867.000000;0.856496
9866.000000;0.856065
9865.000000;0.855330
9864.000000;0.854810
9863.000000;0.854671
9862.000000;0.854798
9861.000000;0.855198
9860.000000;0.855931
9859.000000;0.856735
9858.000000;0.857098
9857.000000;0.856760
9856.000000;0.855922
9855.000000;0.854971
9854.000000;0.854244
9853.000000;0.853987
9852.000000;0.854217
9851.000000;0.854610
9850.000000;0.854781
9849.000000;0.854729
9848.000000;0.854761
9847.000000;0.854990
9846.000000;0.855219
9845.000000;0.855361
9844.000000;0.855633
9843.000000;0.856126
9842.000000;0.856476
9841.000000;0.856212
9840.000000;0.855311
9839.000000;0.854216
9838.000000;0.853400
9837.000000;0.853036
9836.000000;0.852991
9835.000000;0.852996
9834.000000;0.852887
9833.000000;0.852778
9832.000000;0.852905
9831.000000;0.853279
9830.000000;0.853628
9829.000000;0.853754
9828.000000;0.853770
9827.000000;0.853856
9826.000000;0.853970
9825.000000;0.853960
9824.000000;0.853824
9823.000000;0.853670
9822.000000;0.853512
9821.000000;0.853309
9820.000000;0.853112
9819.000000;0.853013
9818.000000;0.852997
9817.000000;0.853041
9816.000000;0.853263
9815.000000;0.853736
9814.000000;0.854164
9813.000000;0.854043
9812.000000;0.853239
9811.000000;0.852219
9810.000000;0.851549
9809.000000;0.851315
9808.000000;0.851174
9807.000000;0.850912
9806.000000;0.850766
9805.000000;0.851113
9804.000000;0.851933
9803.000000;0.852696
9802.000000;0.852863
9801.000000;0.852468
9800.000000;0.852084
9799.000000;0.852184
9798.000000;0.852627
9797.000000;0.852830
9796.000000;0.852378
9795.000000;0.851380
9794.000000;0.850307
9793.000000;0.849613
9792.000000;0.849466
9791.000000;0.849690
9790.000000;0.849896
9789.000000;0.849804
9788.000000;0.849516
9787.000000;0.849438
9786.000000;0.849864
9785.000000;0.850658
9784.000000;0.851357
9783.000000;0.851563
9782.000000;0.851205
9781.000000;0.850475
9780.000000;0.849598
9779.000000;0.848711
9778.000000;0.847923
9777.000000;0.847395
9776.000000;0.847270
9775.000000;0.847546
9774.000000;0.848087
9773.000000;0.848737
9772.000000;0.849358
9771.000000;0.849787
9770.000000;0.849923
9769.000000;0.849892
9768.000000;0.849967
9767.000000;0.850234
9766.000000;0.850454
9765.000000;0.850366
9764.000000;0.849975
9763.000000;0.849405
9762.000000;0.848642
9761.000000;0.847682
9760.000000;0.846844
9759.000000;0.846620
9758.000000;0.847138
9757.000000;0.847962
9756.000000;0.848523
9755.000000;0.848617
9754.000000;0.848437
9753.000000;0.848280
9752.000000;0.848307
9751.000000;0.848467
9750.000000;0.848558
9749.000000;0.848449
9748.000000;0.848235
9747.000000;0.848093
9746.000000;0.847976
9745.000000;0.847645
9744.000000;0.847046
9743.000000;0.846472
9742.000000;0.846237
9741.000000;0.846364
9740.000000;0.846693
9739.000000;0.847110
9738.000000;0.847503
9737.000000;0.847644
9736.000000;0.847360
9735.000000;0.846782
9734.000000;0.846218
9733.000000;0.845826
9732.000000;0.845577
9731.000000;0.845492
9730.000000;0.845693
9729.000000;0.846164
9728.000000;0.846666
9727.000000;0.846960
9726.000000;0.847004
9725.000000;0.846902
9724.000000;0.846741
9723.000000;0.846538
9722.000000;0.846271
9721.000000;0.845925
9720.000000;0.845524
9719.000000;0.845155
9718.000000;0.844913
9717.000000;0.844854
9716.000000;0.845003
9715.000000;0.845339
9714.000000;0.845695
9713.000000;0.845764
9712.000000;0.845369
9711.000000;0.844690
9710.000000;0.844051
9709.000000;0.843544
9708.000000;0.843055
9707.000000;0.842652
9706.000000;0.842628
9705.000000;0.843064
9704.000000;0.843618
9703.000000;0.843926
9702.000000;0.844048
9701.000000;0.844254
9700.000000;0.844523
9699.000000;0.844558
9698.000000;0.844260
9697.000000;0.843884
9696.000000;0.843652
9695.000000;0.843454
9694.000000;0.843077
9693.000000;0.842598
9692.000000;0.842393
9691.000000;0.842785
9690.000000;0.843737
9689.000000;0.844825
9688.000000;0.845475
9687.000000;0.845359
9686.000000;0.844640
9685.000000;0.843816
9684.000000;0.843294
9683.000000;0.843131
9682.000000;0.843174
9681.000000;0.843300
9680.000000;0.843440
9679.000000;0.843476
9678.000000;0.843289
9677.000000;0.842917
9676.000000;0.842584
9675.000000;0.842509
9674.000000;0.842696
9673.000000;0.842895
9672.000000;0.842800
9671.000000;0.842351
9670.000000;0.841867
9669.000000;0.841789
9668.000000;0.842215
9667.000000;0.842738
9666.000000;0.842854
9665.000000;0.842466
9664.000000;0.841917
9663.000000;0.841546
9662.000000;0.841379
9661.000000;0.841246
9660.000000;0.841064
9659.000000;0.840908
9658.000000;0.840898
9657.000000;0.841107
9656.000000;0.841519
9655.000000;0.841979
9654.000000;0.842244
9653.000000;0.842196
9652.000000;0.841987
9651.000000;0.841884
9650.000000;0.841926
9649.000000;0.841849
9648.000000;0.841390
9647.000000;0.840617
9646.000000;0.839889
9645.000000;0.839512
9644.000000;0.839518
9643.000000;0.839768
9642.000000;0.840155
9641.000000;0.840637
9640.000000;0.841093
9639.000000;0.841271
9638.000000;0.840974
9637.000000;0.840297
9636.000000;0.839625
9635.000000;0.839335
9634.000000;0.839484
9633.000000;0.839805
9632.000000;0.840013
9631.000000;0.840070
9630.000000;0.840133
9629.000000;0.840288
9628.000000;0.840442
9627.000000;0.840444
9626.000000;0.840222
9625.000000;0.839767
9624.000000;0.839101
9623.000000;0.838340
9622.000000;0.837727
9621.000000;0.837470
9620.000000;0.837543
9619.000000;0.837753
9618.000000;0.837973
9617.000000;0.838205
9616.000000;0.838422
9615.000000;0.838500
9614.000000;0.838392
9613.000000;0.838269
9612.000000;0.838356
9611.000000;0.838622
9610.000000;0.838725
9609.000000;0.838335
9608.000000;0.837493
9607.000000;0.836656
9606.000000;0.836365
9605.000000;0.836832
9604.000000;0.837790
9603.000000;0.838704
9602.000000;0.839123
9601.000000;0.838888
9600.000000;0.838150
9599.000000;0.837295
9598.000000;0.836784
9597.000000;0.836883
9596.000000;0.837444
9595.000000;0.838033
9594.000000;0.838304
9593.000000;0.838221
9592.000000;0.837921
9591.000000;0.837506
9590.000000;0.837057
9589.000000;0.836690
9588.000000;0.836479
9587.000000;0.836383
9586.000000;0.836347
9585.000000;0.836408
9584.000000;0.836589
9583.000000;0.836759
9582.000000;0.836760
9581.000000;0.836620
9580.000000;0.836522
9579.000000;0.836536
9578.000000;0.836537
9577.000000;0.836411
9576.000000;0.836231
9575.000000;0.836173
9574.000000;0.836332
9573.000000;0.836641
9572.000000;0.836916
9571.000000;0.836936
9570.000000;0.836567
9569.000000;0.835863
9568.000000;0.835048
9567.000000;0.834374
9566.000000;0.834000
9565.000000;0.833955
9564.000000;0.834154
9563.000000;0.834434
9562.000000;0.834641
9561.000000;0.834715
9560.000000;0.834689
9559.000000;0.834657
9558.000000;0.834740
9557.000000;0.835002
9556.000000;0.835361
9555.000000;0.835636
9554.000000;0.835727
9553.000000;0.835650
9552.000000;0.835358
9551.000000;0.834711
9550.000000;0.833780
9549.000000;0.833023
9548.000000;0.832883
9547.000000;0.833265
9546.000000;0.833654
9545.000000;0.833753
9544.000000;0.833727
9543.000000;0.833797
9542.000000;0.833893
9541.000000;0.833864
9540.000000;0.833783
9539.000000;0.833830
9538.000000;0.833994
9537.000000;0.834077
9536.000000;0.833921
9535.000000;0.833526
9534.000000;0.833035
9533.000000;0.832683
9532.000000;0.832643
9531.000000;0.832808
9530.000000;0.832876
9529.000000;0.832744
9528.000000;0.832677
9527.000000;0.832920
9526.000000;0.833316
9525.000000;0.833528
9524.000000;0.833508
9523.000000;0.833477
9522.000000;0.833511
9521.000000;0.833436
9520.000000;0.833143
9519.000000;0.832744
9518.000000;0.832347
9517.000000;0.831916
9516.000000;0.831459
9515.000000;0.831148
9514.000000;0.831109
9513.000000;0.831203
9512.000000;0.831174
9511.000000;0.830966
9510.000000;0.830780
9509.000000;0.830820
9508.000000;0.831070
9507.000000;0.831312
9506.000000;0.831365
9505.000000;0.831274
9504.000000;0.831230
9503.000000;0.831295
9502.000000;0.831280
9501.000000;0.831011
9500.000000;0.830627
9499.000000;0.830448
9498.000000;0.830569
9497.000000;0.830771
9496.000000;0.830864
9495.000000;0.830930
9494.000000;0.831115
9493.000000;0.831323
9492.000000;0.831299
9491.000000;0.830949
9490.000000;0.830445
9489.000000;0.830014
9488.000000;0.829748
9487.000000;0.829599
9486.000000;0.829472
9485.000000;0.829290
9484.000000;0.829031
9483.000000;0.828744
9482.000000;0.828546
9481.000000;0.828560
9480.000000;0.828807
9479.000000;0.829110
9478.000000;0.829162
9477.000000;0.828803
9476.000000;0.828251
9475.000000;0.827928
9474.000000;0.828026
9473.000000;0.828346
9472.000000;0.828591
9471.000000;0.828644
9470.000000;0.828485
9469.000000;0.828046
9468.000000;0.827411
9467.000000;0.827014
9466.000000;0.827321
9465.000000;0.828230
9464.000000;0.829052
9463.000000;0.829220
9462.000000;0.828863
9461.000000;0.828532
9460.000000;0.828525
9459.000000;0.828657
9458.000000;0.828612
9457.000000;0.828289
9456.000000;0.827823
9455.000000;0.827423
9454.000000;0.827242
9453.000000;0.827291
9452.000000;0.827421
9451.000000;0.827485
9450.000000;0.827513
9449.000000;0.827651
9448.000000;0.827900
9447.000000;0.828043
9446.000000;0.827893
9445.000000;0.827515
9444.000000;0.827139
9443.000000;0.826927
9442.000000;0.826894
9441.000000;0.826977
9440.000000;0.827091
9439.000000;0.827161
9438.000000;0.827167
9437.000000;0.827136
9436.000000;0.827043
9435.000000;0.826820
9434.000000;0.826517
9433.000000;0.826363
9432.000000;0.826508
9431.000000;0.826780
9430.000000;0.826851
9429.000000;0.826645
9428.000000;0.826388
9427.000000;0.826260
9426.000000;0.826199
9425.000000;0.826099
9424.000000;0.826006
9423.000000;0.825981
9422.000000;0.825920
9421.000000;0.825699
9420.000000;0.825416
9419.000000;0.825303
9418.000000;0.825408
9417.000000;0.825533
9416.000000;0.825461
9415.000000;0.825139
9414.000000;0.824615
9413.000000;0.823980
9412.000000;0.823436
9411.000000;0.823278
9410.000000;0.823646
9409.000000;0.824317
9408.000000;0.824865
9407.000000;0.825046
9406.000000;0.824965
9405.000000;0.824851
9404.000000;0.824749
9403.000000;0.824558
9402.000000;0.824293
9401.000000;0.824162
9400.000000;0.824289
9399.000000;0.824476
9398.000000;0.824383
9397.000000;0.823958
9396.000000;0.823536
9395.000000;0.823468
9394.000000;0.823732
9393.000000;0.823989
9392.000000;0.823921
9391.000000;0.823470
9390.000000;0.822806
9389.000000;0.822187
9388.000000;0.821830
9387.000000;0.821822
9386.000000;0.822121
9385.000000;0.822635
9384.000000;0.823268
9383.000000;0.823840
9382.000000;0.824080
9381.000000;0.823837
9380.000000;0.823289
9379.000000;0.822846
9378.000000;0.822777
9377.000000;0.823011
9376.000000;0.823283
9375.000000;0.823385
9374.000000;0.823262
9373.000000;0.822956
9372.000000;0.822552
9371.000000;0.822166
9370.000000;0.821912
9369.000000;0.821862
9368.000000;0.822025
9367.000000;0.822338
9366.000000;0.822675
9365.000000;0.822915
9364.000000;0.823017
9363.000000;0.822990
9362.000000;0.822788
9361.000000;0.822341
9360.000000;0.821731
9359.000000;0.821257
9358.000000;0.821168
9357.000000;0.821379
9356.000000;0.821570
9355.000000;0.821593
9354.000000;0.821637
9353.000000;0.821908
9352.000000;0.822269
9351.000000;0.822346
9350.000000;0.821972
9349.000000;0.821361
9348.000000;0.820851
9347.000000;0.820612
9346.000000;0.820649
9345.000000;0.820893
9344.000000;0.821172
9343.000000;0.821206
9342.000000;0.820821
9341.000000;0.820168
9340.000000;0.819606
9339.000000;0.819378
9338.000000;0.819483
9337.000000;0.819803
9336.000000;0.820202
9335.000000;0.820496
9334.000000;0.820513
9333.000000;0.820268
9332.000000;0.819981
9331.000000;0.819843
9330.000000;0.819863
9329.000000;0.819961
9328.000000;0.820093
9327.000000;0.820202
9326.000000;0.820169
9325.000000;0.819956
9324.000000;0.819714
9323.000000;0.819625
9322.000000;0.819687
9321.000000;0.819777
9320.000000;0.819859
9319.000000;0.820006
9318.000000;0.820210
9317.000000;0.820304
9316.000000;0.820092
9315.000000;0.819525
9314.000000;0.818752
9313.000000;0.818066
9312.000000;0.817769
9311.000000;0.817951
9310.000000;0.818385
9309.000000;0.818705
9308.000000;0.818724
9307.000000;0.818529
9306.000000;0.818319
9305.000000;0.818217
9304.000000;0.818237
9303.000000;0.818313
9302.000000;0.818333
9301.000000;0.818212
9300.000000;0.817985
9299.000000;0.817766
9298.000000;0.817605
9297.000000;0.817439
9296.000000;0.817206
9295.000000;0.816971
9294.000000;0.816891
9293.000000;0.817047
9292.000000;0.817331
9291.000000;0.817495
9290.000000;0.817378
9289.000000;0.817088
9288.000000;0.816897
9287.000000;0.816921
9286.000000;0.816989
9285.000000;0.816911
9284.000000;0.816788
9283.000000;0.816893
9282.000000;0.817287
9281.000000;0.817700
9280.000000;0.817831
9279.000000;0.817629
9278.000000;0.817251
9277.000000;0.816904
9276.000000;0.816760
9275.000000;0.816879
9274.000000;0.817102
9273.000000;0.817135
9272.000000;0.816841
9271.000000;0.816386
9270.000000;0.816019
9269.000000;0.815797
9268.000000;0.815613
9267.000000;0.815409
9266.000000;0.815217
9265.000000;0.815044
9264.000000;0.814867
9263.000000;0.814739
9262.000000;0.814774
9261.000000;0.814996
9260.000000;0.815292
9259.000000;0.815529
9258.000000;0.815642
9257.000000;0.815606
9256.000000;0.815409
9255.000000;0.815112
9254.000000;0.814870
9253.000000;0.814815
9252.000000;0.814941
9251.000000;0.815111
9250.000000;0.815173
9249.000000;0.815040
9248.000000;0.814736
9247.000000;0.814378
9246.000000;0.814089
9245.000000;0.813883
9244.000000;0.813675
9243.000000;0.813432
9242.000000;0.813289
9241.000000;0.813433
9240.000000;0.813897
9239.000000;0.814481
9238.000000;0.814905
9237.000000;0.814990
9236.000000;0.814753
9235.000000;0.814363
9234.000000;0.814018
9233.000000;0.813792
9232.000000;0.813584
9231.000000;0.813284
9230.000000;0.812980
9229.000000;0.812911
9228.000000;0.813170
9227.000000;0.813546
9226.000000;0.813764
9225.000000;0.813817
9224.000000;0.813907
9223.000000;0.814065
9222.000000;0.814023
9221.000000;0.813519
9220.000000;0.812650
9219.000000;0.811812
9218.000000;0.811346
9217.000000;0.811328
9216.000000;0.811627
9215.000000;0.812042
9214.000000;0.812376
9213.000000;0.812490
9212.000000;0.812374
9211.000000;0.812162
9210.000000;0.812047
9209.000000;0.812142
9208.000000;0.812380
9207.000000;0.812531
9206.000000;0.812383
9205.000000;0.811949
9204.000000;0.811486
9203.000000;0.811263
9202.000000;0.811339
9201.000000;0.811548
9200.000000;0.811672
9199.000000;0.811603
9198.000000;0.811401
9197.000000;0.811259
9196.000000;0.811355
9195.000000;0.811680
9194.000000;0.812033
9193.000000;0.812218
9192.000000;0.812208
9191.000000;0.812077
9190.000000;0.811840
9189.000000;0.811473
9188.000000;0.811061
9187.000000;0.810797
9186.000000;0.810812
9185.000000;0.811060
9184.000000;0.811355
9183.000000;0.811505
9182.000000;0.811441
9181.000000;0.811285
9180.000000;0.811245
9179.000000;0.811361
9178.000000;0.811414
9177.000000;0.811197
9176.000000;0.810826
9175.000000;0.810628
9174.000000;0.810720
9173.000000;0.810876
9172.000000;0.810818
9171.000000;0.810484
9170.000000;0.809951
9169.000000;0.809284
9168.000000;0.808604
9167.000000;0.808171
9166.000000;0.808209
9165.000000;0.808656
9164.000000;0.809194
9163.000000;0.809532
9162.000000;0.809597
9161.000000;0.809497
9160.000000;0.809365
9159.000000;0.809247
9158.000000;0.809078
9157.000000;0.808782
9156.000000;0.808405
9155.000000;0.808125
9154.000000;0.808058
9153.000000;0.808130
9152.000000;0.808175
9151.000000;0.808141
9150.000000;0.808118
9149.000000;0.808202
9148.000000;0.808388
9147.000000;0.808567
9146.000000;0.808588
9145.000000;0.808355
9144.000000;0.807944
9143.000000;0.807561
9142.000000;0.807327
9141.000000;0.807163
9140.000000;0.806949
9139.000000;0.806765
9138.000000;0.806801
9137.000000;0.807064
9136.000000;0.807313
9135.000000;0.807346
9134.000000;0.807241
9133.000000;0.807234
9132.000000;0.807419
9131.000000;0.807661
9130.000000;0.807743
9129.000000;0.807547
9128.000000;0.807115
9127.000000;0.806621
9126.000000;0.806278
9125.000000;0.806205
9124.000000;0.806364
9123.000000;0.806626
9122.000000;0.806883
9121.000000;0.807073
9120.000000;0.807151
9119.000000;0.807118
9118.000000;0.807074
9117.000000;0.807172
9116.000000;0.807448
9115.000000;0.807737
9114.000000;0.807801
9113.000000;0.807547
9112.000000;0.807102
9111.000000;0.806670
9110.000000;0.806363
9109.000000;0.806209
9108.000000;0.806231
9107.000000;0.806440
9106.000000;0.806719
9105.000000;0.806810
9104.000000;0.806512
9103.000000;0.805919
9102.000000;0.805385
9101.000000;0.805219
9100.000000;0.805406
9099.000000;0.805662
9098.000000;0.805743
9097.000000;0.805660
9096.000000;0.805572
9095.000000;0.805549
9094.000000;0.805495
9093.000000;0.805318
9092.000000;0.805087
9091.000000;0.804967
9090.000000;0.805026
9089.000000;0.805148
9088.000000;0.805172
9087.000000;0.805070
9086.000000;0.804980
9085.000000;0.805069
9084.000000;0.805366
9083.000000;0.805713
9082.000000;0.805893
9081.000000;0.805798
9080.000000;0.805500
9079.000000;0.805160
9078.000000;0.804892
9077.000000;0.804712
9076.000000;0.804577
9075.000000;0.804445
9074.000000;0.804306
9073.000000;0.804205
9072.000000;0.804201
9071.000000;0.804261
9070.000000;0.804210
9069.000000;0.803877
9068.000000;0.803320
9067.000000;0.802851
9066.000000;0.802765
9065.000000;0.803056
9064.000000;0.803422
9063.000000;0.803551
9062.000000;0.803393
9061.000000;0.803159
9060.000000;0.803063
9059.000000;0.803116
9058.000000;0.803149
9057.000000;0.803026
9056.000000;0.802756
9055.000000;0.802438
9054.000000;0.802162
9053.000000;0.802028
