Criado como novo conjunto de dados;"2706_e01_daniel.spp","38163.8 Secs"
cm-1;Abs
10000.000000;0.698294
9999.000000;0.698601
9998.000000;0.698909
9997.000000;0.699215
9996.000000;0.699524
9995.000000;0.699830
9994.000000;0.700138
9993.000000;0.700299
9992.000000;0.700056
9991.000000;0.699429
9990.000000;0.698633
9989.000000;0.697991
9988.000000;0.697714
9987.000000;0.697720
9986.000000;0.697684
9985.000000;0.697399
9984.000000;0.697026
9983.000000;0.696872
9982.000000;0.696974
9981.000000;0.697034
9980.000000;0.696798
9979.000000;0.696371
9978.000000;0.696083
9977.000000;0.696096
9976.000000;0.696245
9975.000000;0.696290
9974.000000;0.696233
9973.000000;0.696275
9972.000000;0.696448
9971.000000;0.696452
9970.000000;0.695994
9969.000000;0.695256
9968.000000;0.694835
9967.000000;0.695157
9966.000000;0.696073
9965.000000;0.697037
9964.000000;0.697560
9963.000000;0.697429
9962.000000;0.696712
9961.000000;0.695747
9960.000000;0.695008
9959.000000;0.694768
9958.000000;0.694863
9957.000000;0.694953
9956.000000;0.694958
9955.000000;0.695071
9954.000000;0.695374
9953.000000;0.695665
9952.000000;0.695721
9951.000000;0.695572
9950.000000;0.695413
9949.000000;0.695379
9948.000000;0.695476
9947.000000;0.695596
9946.000000;0.695545
9945.000000;0.695185
9944.000000;0.694597
9943.000000;0.694014
9942.000000;0.693557
9941.000000;0.693221
9940.000000;0.693105
9939.000000;0.693390
9938.000000;0.693954
9937.000000;0.694283
9936.000000;0.694016
9935.000000;0.693434
9934.000000;0.693136
9933.000000;0.693330
9932.000000;0.693676
9931.000000;0.693775
9930.000000;0.693563
9929.000000;0.693215
9928.000000;0.692893
9927.000000;0.692686
9926.000000;0.692621
9925.000000;0.692676
9924.000000;0.692817
9923.000000;0.693013
9922.000000;0.693114
9921.000000;0.692849
9920.000000;0.692171
9919.000000;0.691525
9918.000000;0.691496
9917.000000;0.692131
9916.000000;0.692861
9915.000000;0.693179
9914.000000;0.693141
9913.000000;0.693089
9912.000000;0.693122
9911.000000;0.693093
9910.000000;0.692935
9909.000000;0.692714
9908.000000;0.692398
9907.000000;0.691830
9906.000000;0.690965
9905.000000;0.690027
9904.000000;0.689366
9903.000000;0.689225
9902.000000;0.689562
9901.000000;0.690057
9900.000000;0.690323
9899.000000;0.690237
9898.000000;0.690025
9897.000000;0.689966
9896.000000;0.690070
9895.000000;0.690162
9894.000000;0.690186
9893.000000;0.690241
9892.000000;0.690361
9891.000000;0.690432
9890.000000;0.690390
9889.000000;0.690301
9888.000000;0.690181
9887.000000;0.689854
9886.000000;0.689174
9885.000000;0.688340
9884.000000;0.687840
9883.000000;0.688008
9882.000000;0.688675
9881.000000;0.689334
9880.000000;0.689641
9879.000000;0.689681
9878.000000;0.689721
9877.000000;0.689809
9876.000000;0.689747
9875.000000;0.689423
9874.000000;0.688996
9873.000000;0.688689
9872.000000;0.688547
9871.000000;0.688512
9870.000000;0.688600
9869.000000;0.688820
9868.000000;0.688968
9867.000000;0.688729
9866.000000;0.688052
9865.000000;0.687284
9864.000000;0.686825
9863.000000;0.686746
9862.000000;0.686812
9861.000000;0.686825
9860.000000;0.686826
9859.000000;0.686968
9858.000000;0.687264
9857.000000;0.687518
9856.000000;0.687501
9855.000000;0.687210
9854.000000;0.686931
9853.000000;0.686974
9852.000000;0.687323
9851.000000;0.687578
9850.000000;0.687305
9849.000000;0.686465
9848.000000;0.685500
9847.000000;0.684975
9846.000000;0.685126
9845.000000;0.685692
9844.000000;0.686173
9843.000000;0.686281
9842.000000;0.686144
9841.000000;0.686065
9840.000000;0.686136
9839.000000;0.686178
9838.000000;0.686036
9837.000000;0.685789
9836.000000;0.685601
9835.000000;0.685495
9834.000000;0.685401
9833.000000;0.685362
9832.000000;0.685494
9831.000000;0.685740
9830.000000;0.685811
9829.000000;0.685478
9828.000000;0.684847
9827.000000;0.684257
9826.000000;0.683967
9825.000000;0.683992
9824.000000;0.684183
9823.000000;0.684356
9822.000000;0.684397
9821.000000;0.684337
9820.000000;0.684324
9819.000000;0.684438
9818.000000;0.684559
9817.000000;0.684494
9816.000000;0.684251
9815.000000;0.684041
9814.000000;0.684006
9813.000000;0.684045
9812.000000;0.683987
9811.000000;0.683829
9810.000000;0.683713
9809.000000;0.683720
9808.000000;0.683756
9807.000000;0.683675
9806.000000;0.683436
9805.000000;0.683151
9804.000000;0.682966
9803.000000;0.682888
9802.000000;0.682760
9801.000000;0.682470
9800.000000;0.682141
9799.000000;0.682005
9798.000000;0.682079
9797.000000;0.682140
9796.000000;0.682049
9795.000000;0.681935
9794.000000;0.681934
9793.000000;0.681926
9792.000000;0.681714
9791.000000;0.681378
9790.000000;0.681235
9789.000000;0.681444
9788.000000;0.681849
9787.000000;0.682196
9786.000000;0.682344
9785.000000;0.682239
9784.000000;0.681863
9783.000000;0.681323
9782.000000;0.680842
9781.000000;0.680571
9780.000000;0.680473
9779.000000;0.680428
9778.000000;0.680395
9777.000000;0.680398
9776.000000;0.680459
9775.000000;0.680576
9774.000000;0.680723
9773.000000;0.680824
9772.000000;0.680787
9771.000000;0.680605
9770.000000;0.680322
9769.000000;0.679922
9768.000000;0.679358
9767.000000;0.678750
9766.000000;0.678417
9765.000000;0.678588
9764.000000;0.679152
9763.000000;0.679769
9762.000000;0.680165
9761.000000;0.680246
9760.000000;0.680007
9759.000000;0.679492
9758.000000;0.678854
9757.000000;0.678336
9756.000000;0.678116
9755.000000;0.678220
9754.000000;0.678539
9753.000000;0.678897
9752.000000;0.679096
9751.000000;0.679020
9750.000000;0.678724
9749.000000;0.678409
9748.000000;0.678242
9747.000000;0.678222
9746.000000;0.678227
9745.000000;0.678189
9744.000000;0.678149
9743.000000;0.678130
9742.000000;0.678031
9741.000000;0.677747
9740.000000;0.677398
9739.000000;0.677268
9738.000000;0.677456
9737.000000;0.677700
9736.000000;0.677671
9735.000000;0.677378
9734.000000;0.677129
9733.000000;0.677131
9732.000000;0.677292
9731.000000;0.677425
9730.000000;0.677487
9729.000000;0.677541
9728.000000;0.677614
9727.000000;0.677650
9726.000000;0.677560
9725.000000;0.677282
9724.000000;0.676869
9723.000000;0.676528
9722.000000;0.676456
9721.000000;0.676633
9720.000000;0.676856
9719.000000;0.676961
9718.000000;0.676912
9717.000000;0.676703
9716.000000;0.676356
9715.000000;0.676027
9714.000000;0.675892
9713.000000;0.675861
9712.000000;0.675641
9711.000000;0.675178
9710.000000;0.674831
9709.000000;0.674939
9708.000000;0.675390
9707.000000;0.675811
9706.000000;0.675998
9705.000000;0.675964
9704.000000;0.675705
9703.000000;0.675213
9702.000000;0.674702
9701.000000;0.674520
9700.000000;0.674786
9699.000000;0.675247
9698.000000;0.675549
9697.000000;0.675527
9696.000000;0.675237
9695.000000;0.674821
9694.000000;0.674405
9693.000000;0.674036
9692.000000;0.673712
9691.000000;0.673492
9690.000000;0.673517
9689.000000;0.673820
9688.000000;0.674195
9687.000000;0.674372
9686.000000;0.674270
9685.000000;0.673981
9684.000000;0.673583
9683.000000;0.673155
9682.000000;0.672909
9681.000000;0.673076
9680.000000;0.673598
9679.000000;0.674080
9678.000000;0.674126
9677.000000;0.673660
9676.000000;0.672955
9675.000000;0.672434
9674.000000;0.672418
9673.000000;0.672870
9672.000000;0.673361
9671.000000;0.673434
9670.000000;0.673050
9669.000000;0.672598
9668.000000;0.672440
9667.000000;0.672571
9666.000000;0.672714
9665.000000;0.672639
9664.000000;0.672354
9663.000000;0.672093
9662.000000;0.672127
9661.000000;0.672470
9660.000000;0.672779
9659.000000;0.672686
9658.000000;0.672221
9657.000000;0.671742
9656.000000;0.671478
9655.000000;0.671340
9654.000000;0.671210
9653.000000;0.671171
9652.000000;0.671318
9651.000000;0.671530
9650.000000;0.671592
9649.000000;0.671456
9648.000000;0.671256
9647.000000;0.671149
9646.000000;0.671218
9645.000000;0.671437
9644.000000;0.671642
9643.000000;0.671629
9642.000000;0.671376
9641.000000;0.671068
9640.000000;0.670841
9639.000000;0.670645
9638.000000;0.670435
9637.000000;0.670345
9636.000000;0.670485
9635.000000;0.670705
9634.000000;0.670726
9633.000000;0.670473
9632.000000;0.670090
9631.000000;0.669710
9630.000000;0.669393
9629.000000;0.669248
9628.000000;0.669381
9627.000000;0.669693
9626.000000;0.669902
9625.000000;0.669831
9624.000000;0.669578
9623.000000;0.669347
9622.000000;0.669235
9621.000000;0.669212
9620.000000;0.669217
9619.000000;0.669202
9618.000000;0.669150
9617.000000;0.669119
9616.000000;0.669189
9615.000000;0.669347
9614.000000;0.669483
9613.000000;0.669515
9612.000000;0.669465
9611.000000;0.669362
9610.000000;0.669142
9609.000000;0.668742
9608.000000;0.668250
9607.000000;0.667899
9606.000000;0.667890
9605.000000;0.668216
9604.000000;0.668638
9603.000000;0.668848
9602.000000;0.668695
9601.000000;0.668313
9600.000000;0.667989
9599.000000;0.667889
9598.000000;0.667928
9597.000000;0.667924
9596.000000;0.667834
9595.000000;0.667789
9594.000000;0.667869
9593.000000;0.667939
9592.000000;0.667771
9591.000000;0.667349
9590.000000;0.666942
9589.000000;0.666812
9588.000000;0.666890
9587.000000;0.666849
9586.000000;0.666529
9585.000000;0.666162
9584.000000;0.666108
9583.000000;0.666408
9582.000000;0.666706
9581.000000;0.666607
9580.000000;0.666045
9579.000000;0.665313
9578.000000;0.664788
9577.000000;0.664661
9576.000000;0.664879
9575.000000;0.665277
9574.000000;0.665706
9573.000000;0.666038
9572.000000;0.666114
9571.000000;0.665825
9570.000000;0.665291
9569.000000;0.664865
9568.000000;0.664841
9567.000000;0.665176
9566.000000;0.665549
9565.000000;0.665677
9564.000000;0.665502
9563.000000;0.665135
9562.000000;0.664736
9561.000000;0.664466
9560.000000;0.664459
9559.000000;0.664766
9558.000000;0.665316
9557.000000;0.665931
9556.000000;0.666345
9555.000000;0.666317
9554.000000;0.665822
9553.000000;0.665138
9552.000000;0.664610
9551.000000;0.664309
9550.000000;0.664022
9549.000000;0.663598
9548.000000;0.663165
9547.000000;0.662950
9546.000000;0.662991
9545.000000;0.663171
9544.000000;0.663420
9543.000000;0.663731
9542.000000;0.663998
9541.000000;0.664025
9540.000000;0.663751
9539.000000;0.663377
9538.000000;0.663186
9537.000000;0.663303
9536.000000;0.663634
9535.000000;0.663983
9534.000000;0.664146
9533.000000;0.663976
9532.000000;0.663475
9531.000000;0.662862
9530.000000;0.662459
9529.000000;0.662464
9528.000000;0.662779
9527.000000;0.663095
9526.000000;0.663158
9525.000000;0.662976
9524.000000;0.662779
9523.000000;0.662768
9522.000000;0.662899
9521.000000;0.662920
9520.000000;0.662632
9519.000000;0.662083
9518.000000;0.661524
9517.000000;0.661184
9516.000000;0.661121
9515.000000;0.661266
9514.000000;0.661526
9513.000000;0.661811
9512.000000;0.661995
9511.000000;0.661924
9510.000000;0.661551
9509.000000;0.661011
9508.000000;0.660538
9507.000000;0.660277
9506.000000;0.660201
9505.000000;0.660203
9504.000000;0.660218
9503.000000;0.660247
9502.000000;0.660318
9501.000000;0.660472
9500.000000;0.660721
9499.000000;0.660962
9498.000000;0.660986
9497.000000;0.660678
9496.000000;0.660211
9495.000000;0.659926
9494.000000;0.659969
9493.000000;0.660135
9492.000000;0.660151
9491.000000;0.660015
9490.000000;0.659954
9489.000000;0.660093
9488.000000;0.660295
9487.000000;0.660351
9486.000000;0.660209
9485.000000;0.659973
9484.000000;0.659768
9483.000000;0.659653
9482.000000;0.659611
9481.000000;0.659551
9480.000000;0.659379
9479.000000;0.659104
9478.000000;0.658836
9477.000000;0.658653
9476.000000;0.658539
9475.000000;0.658497
9474.000000;0.658621
9473.000000;0.658950
9472.000000;0.659298
9471.000000;0.659367
9470.000000;0.659055
9469.000000;0.658547
9468.000000;0.658096
9467.000000;0.657802
9466.000000;0.657665
9465.000000;0.657713
9464.000000;0.657972
9463.000000;0.658331
9462.000000;0.658550
9461.000000;0.658432
9460.000000;0.657975
9459.000000;0.657367
9458.000000;0.656869
9457.000000;0.656655
9456.000000;0.656704
9455.000000;0.656828
9454.000000;0.656864
9453.000000;0.656830
9452.000000;0.656867
9451.000000;0.657027
9450.000000;0.657195
9449.000000;0.657252
9448.000000;0.657239
9447.000000;0.657288
9446.000000;0.657410
9445.000000;0.657437
9444.000000;0.657223
9443.000000;0.656854
9442.000000;0.656600
9441.000000;0.656668
9440.000000;0.657016
9439.000000;0.657427
9438.000000;0.657703
9437.000000;0.657771
9436.000000;0.657639
9435.000000;0.657343
9434.000000;0.656966
9433.000000;0.656638
9432.000000;0.656442
9431.000000;0.656334
9430.000000;0.656211
9429.000000;0.656060
9428.000000;0.655986
9427.000000;0.656059
9426.000000;0.656177
9425.000000;0.656137
9424.000000;0.655829
9423.000000;0.655347
9422.000000;0.654909
9421.000000;0.654688
9420.000000;0.654689
9419.000000;0.654770
9418.000000;0.654771
9417.000000;0.654658
9416.000000;0.654540
9415.000000;0.654535
9414.000000;0.654648
9413.000000;0.654782
9412.000000;0.654854
9411.000000;0.654834
9410.000000;0.654704
9409.000000;0.654457
9408.000000;0.654146
9407.000000;0.653882
9406.000000;0.653740
9405.000000;0.653681
9404.000000;0.653619
9403.000000;0.653517
9402.000000;0.653411
9401.000000;0.653346
9400.000000;0.653336
9399.000000;0.653346
9398.000000;0.653306
9397.000000;0.653164
9396.000000;0.652967
9395.000000;0.652841
9394.000000;0.652865
9393.000000;0.652985
9392.000000;0.653112
9391.000000;0.653253
9390.000000;0.653448
9389.000000;0.653613
9388.000000;0.653552
9387.000000;0.653195
9386.000000;0.652720
9385.000000;0.652377
9384.000000;0.652237
9383.000000;0.652193
9382.000000;0.652158
9381.000000;0.652170
9380.000000;0.652286
9379.000000;0.652471
9378.000000;0.652631
9377.000000;0.652710
9376.000000;0.652697
9375.000000;0.652584
9374.000000;0.652368
9373.000000;0.652121
9372.000000;0.651972
9371.000000;0.651976
9370.000000;0.652029
9369.000000;0.651987
9368.000000;0.651856
9367.000000;0.651791
9366.000000;0.651881
9365.000000;0.652022
9364.000000;0.652065
9363.000000;0.652030
9362.000000;0.652067
9361.000000;0.652228
9360.000000;0.652370
9359.000000;0.652323
9358.000000;0.652083
9357.000000;0.651781
9356.000000;0.651518
9355.000000;0.651297
9354.000000;0.651093
9353.000000;0.650934
9352.000000;0.650878
9351.000000;0.650953
9350.000000;0.651096
9349.000000;0.651172
9348.000000;0.651063
9347.000000;0.650758
9346.000000;0.650369
9345.000000;0.650069
9344.000000;0.649978
9343.000000;0.650075
9342.000000;0.650186
9341.000000;0.650124
9340.000000;0.649867
9339.000000;0.649593
9338.000000;0.649492
9337.000000;0.649574
9336.000000;0.649712
9335.000000;0.649809
9334.000000;0.649846
9333.000000;0.649795
9332.000000;0.649624
9331.000000;0.649404
9330.000000;0.649278
9329.000000;0.649260
9328.000000;0.649174
9327.000000;0.648884
9326.000000;0.648501
9325.000000;0.648279
9324.000000;0.648342
9323.000000;0.648590
9322.000000;0.648814
9321.000000;0.648857
9320.000000;0.648701
9319.000000;0.648486
9318.000000;0.648402
9317.000000;0.648496
9316.000000;0.648602
9315.000000;0.648524
9314.000000;0.648265
9313.000000;0.648005
9312.000000;0.647877
9311.000000;0.647881
9310.000000;0.647976
9309.000000;0.648146
9308.000000;0.648340
9307.000000;0.648453
9306.000000;0.648405
9305.000000;0.648200
9304.000000;0.647879
9303.000000;0.647480
9302.000000;0.647074
9301.000000;0.646777
9300.000000;0.646659
9299.000000;0.646664
9298.000000;0.646654
9297.000000;0.646533
9296.000000;0.646315
9295.000000;0.646107
9294.000000;0.646042
9293.000000;0.646187
9292.000000;0.646479
9291.000000;0.646738
9290.000000;0.646781
9289.000000;0.646562
9288.000000;0.646216
9287.000000;0.645975
9286.000000;0.645988
9285.000000;0.646197
9284.000000;0.646397
9283.000000;0.646441
9282.000000;0.646365
9281.000000;0.646283
9280.000000;0.646222
9279.000000;0.646107
9278.000000;0.645897
9277.000000;0.645651
9276.000000;0.645438
9275.000000;0.645265
9274.000000;0.645100
9273.000000;0.644928
9272.000000;0.644763
9271.000000;0.644641
9270.000000;0.644614
9269.000000;0.644712
9268.000000;0.644893
9267.000000;0.645045
9266.000000;0.645088
9265.000000;0.645050
9264.000000;0.645031
9263.000000;0.645087
9262.000000;0.645152
9261.000000;0.645074
9260.000000;0.644751
9259.000000;0.644255
9258.000000;0.643808
9257.000000;0.643605
9256.000000;0.643662
9255.000000;0.643852
9254.000000;0.644048
9253.000000;0.644178
9252.000000;0.644182
9251.000000;0.644025
9250.000000;0.643789
9249.000000;0.643658
9248.000000;0.643749
9247.000000;0.643963
9246.000000;0.644065
9245.000000;0.643928
9244.000000;0.643643
9243.000000;0.643394
9242.000000;0.643271
9241.000000;0.643241
9240.000000;0.643277
9239.000000;0.643412
9238.000000;0.643631
9237.000000;0.643770
9236.000000;0.643646
9235.000000;0.643302
9234.000000;0.643016
9233.000000;0.643023
9232.000000;0.643267
9231.000000;0.643519
9230.000000;0.643641
9229.000000;0.643655
9228.000000;0.643574
9227.000000;0.643342
9226.000000;0.642978
9225.000000;0.642660
9224.000000;0.642563
9223.000000;0.642635
9222.000000;0.642626
9221.000000;0.642363
9220.000000;0.641947
9219.000000;0.641636
9218.000000;0.641560
9217.000000;0.641614
9216.000000;0.641644
9215.000000;0.641657
9214.000000;0.641742
9213.000000;0.641840
9212.000000;0.641742
9211.000000;0.641369
9210.000000;0.640916
9209.000000;0.640627
9208.000000;0.640532
9207.000000;0.640510
9206.000000;0.640524
9205.000000;0.640628
9204.000000;0.640795
9203.000000;0.640906
9202.000000;0.640928
9201.000000;0.640932
9200.000000;0.640938
9199.000000;0.640866
9198.000000;0.640705
9197.000000;0.640570
9196.000000;0.640523
9195.000000;0.640476
9194.000000;0.640333
9193.000000;0.640148
9192.000000;0.640020
9191.000000;0.639950
9190.000000;0.639872
9189.000000;0.639770
9188.000000;0.639673
9187.000000;0.639576
9186.000000;0.639476
9185.000000;0.639435
9184.000000;0.639512
9183.000000;0.639663
9182.000000;0.639760
9181.000000;0.639720
9180.000000;0.639548
9179.000000;0.639306
9178.000000;0.639093
9177.000000;0.639008
9176.000000;0.639047
9175.000000;0.639073
9174.000000;0.638961
9173.000000;0.638766
9172.000000;0.638647
9171.000000;0.638650
9170.000000;0.638650
9169.000000;0.638525
9168.000000;0.638307
9167.000000;0.638124
9166.000000;0.638049
9165.000000;0.638059
9164.000000;0.638082
9163.000000;0.638057
9162.000000;0.637944
9161.000000;0.637744
9160.000000;0.637514
9159.000000;0.637364
9158.000000;0.637379
9157.000000;0.637540
9156.000000;0.637704
9155.000000;0.637720
9154.000000;0.637588
9153.000000;0.637471
9152.000000;0.637503
9151.000000;0.637635
9150.000000;0.637692
9149.000000;0.637580
9148.000000;0.637360
9147.000000;0.637138
9146.000000;0.636935
9145.000000;0.636699
9144.000000;0.636424
9143.000000;0.636210
9142.000000;0.636169
9141.000000;0.636288
9140.000000;0.636412
9139.000000;0.636386
9138.000000;0.636215
9137.000000;0.636053
9136.000000;0.636033
9135.000000;0.636155
9134.000000;0.636312
9133.000000;0.636396
9132.000000;0.636351
9131.000000;0.636192
9130.000000;0.636022
9129.000000;0.635957
9128.000000;0.636005
9127.000000;0.636042
9126.000000;0.635958
9125.000000;0.635786
9124.000000;0.635644
9123.000000;0.635578
9122.000000;0.635529
9121.000000;0.635436
9120.000000;0.635313
9119.000000;0.635218
9118.000000;0.635188
9117.000000;0.635210
9116.000000;0.635226
9115.000000;0.635164
9114.000000;0.634997
9113.000000;0.634767
9112.000000;0.634545
9111.000000;0.634382
9110.000000;0.634304
9109.000000;0.634318
9108.000000;0.634383
9107.000000;0.634392
9106.000000;0.634257
9105.000000;0.634001
9104.000000;0.633754
9103.000000;0.633646
9102.000000;0.633714
9101.000000;0.633881
9100.000000;0.634019
9099.000000;0.634044
9098.000000;0.633983
9097.000000;0.633912
9096.000000;0.633835
9095.000000;0.633695
9094.000000;0.633532
9093.000000;0.633529
9092.000000;0.633794
9091.000000;0.634157
9090.000000;0.634280
9089.000000;0.634006
9088.000000;0.633496
9087.000000;0.633047
9086.000000;0.632836
9085.000000;0.632842
9084.000000;0.632937
9083.000000;0.633002
9082.000000;0.633003
9081.000000;0.632966
9080.000000;0.632877
9079.000000;0.632644
9078.000000;0.632239
9077.000000;0.631818
9076.000000;0.631604
9075.000000;0.631658
9074.000000;0.631845
9073.000000;0.632021
9072.000000;0.632126
9071.000000;0.632118
9070.000000;0.631959
9069.000000;0.631718
9068.000000;0.631576
9067.000000;0.631614
9066.000000;0.631717
9065.000000;0.631752
9064.000000;0.631744
9063.000000;0.631781
9062.000000;0.631832
9061.000000;0.631773
9060.000000;0.631564
9059.000000;0.631275
9058.000000;0.630983
9057.000000;0.630759
9056.000000;0.630723
9055.000000;0.630946
9054.000000;0.631293
9053.000000;0.631466
