Criado como novo conjunto de dados;"2706_e01_daniel.spp","39424.0 Secs"
cm-1;Abs
10000.000000;0.714189
9999.000000;0.714494
9998.000000;0.715516
9997.000000;0.716667
9996.000000;0.717303
9995.000000;0.717339
9994.000000;0.716802
9993.000000;0.715936
9992.000000;0.715016
9991.000000;0.714334
9990.000000;0.713954
9989.000000;0.713810
9988.000000;0.713841
9987.000000;0.713965
9986.000000;0.713954
9985.000000;0.713578
9984.000000;0.712888
9983.000000;0.712220
9982.000000;0.711872
9981.000000;0.711873
9980.000000;0.712071
9979.000000;0.712296
9978.000000;0.712414
9977.000000;0.712344
9976.000000;0.712138
9975.000000;0.711973
9974.000000;0.711969
9973.000000;0.712063
9972.000000;0.712120
9971.000000;0.712132
9970.000000;0.712218
9969.000000;0.712425
9968.000000;0.712600
9967.000000;0.712512
9966.000000;0.712099
9965.000000;0.711554
9964.000000;0.711151
9963.000000;0.711027
9962.000000;0.711144
9961.000000;0.711416
9960.000000;0.711786
9959.000000;0.712158
9958.000000;0.712353
9957.000000;0.712197
9956.000000;0.711684
9955.000000;0.711031
9954.000000;0.710515
9953.000000;0.710239
9952.000000;0.710069
9951.000000;0.709828
9950.000000;0.709548
9949.000000;0.709464
9948.000000;0.709746
9947.000000;0.710315
9946.000000;0.710925
9945.000000;0.711331
9944.000000;0.711348
9943.000000;0.710915
9942.000000;0.710201
9941.000000;0.709537
9940.000000;0.709133
9939.000000;0.708916
9938.000000;0.708752
9937.000000;0.708693
9936.000000;0.708823
9935.000000;0.708978
9934.000000;0.708884
9933.000000;0.708568
9932.000000;0.708375
9931.000000;0.708508
9930.000000;0.708736
9929.000000;0.708664
9928.000000;0.708142
9927.000000;0.707351
9926.000000;0.706639
9925.000000;0.706332
9924.000000;0.706543
9923.000000;0.707033
9922.000000;0.707395
9921.000000;0.707473
9920.000000;0.707495
9919.000000;0.707710
9918.000000;0.708014
9917.000000;0.708111
9916.000000;0.707954
9915.000000;0.707826
9914.000000;0.707943
9913.000000;0.708133
9912.000000;0.708023
9911.000000;0.707529
9910.000000;0.707034
9909.000000;0.706997
9908.000000;0.707430
9907.000000;0.707879
9906.000000;0.707960
9905.000000;0.707738
9904.000000;0.707459
9903.000000;0.707101
9902.000000;0.706453
9901.000000;0.705571
9900.000000;0.704849
9899.000000;0.704561
9898.000000;0.704540
9897.000000;0.704423
9896.000000;0.704098
9895.000000;0.703791
9894.000000;0.703769
9893.000000;0.704010
9892.000000;0.704163
9891.000000;0.703884
9890.000000;0.703296
9889.000000;0.702993
9888.000000;0.703413
9887.000000;0.704286
9886.000000;0.704922
9885.000000;0.705001
9884.000000;0.704794
9883.000000;0.704628
9882.000000;0.704472
9881.000000;0.704174
9880.000000;0.703808
9879.000000;0.703563
9878.000000;0.703488
9877.000000;0.703523
9876.000000;0.703636
9875.000000;0.703772
9874.000000;0.703861
9873.000000;0.703994
9872.000000;0.704385
9871.000000;0.704961
9870.000000;0.705215
9869.000000;0.704747
9868.000000;0.703828
9867.000000;0.703124
9866.000000;0.702964
9865.000000;0.703137
9864.000000;0.703307
9863.000000;0.703330
9862.000000;0.703163
9861.000000;0.702773
9860.000000;0.702270
9859.000000;0.701930
9858.000000;0.701961
9857.000000;0.702307
9856.000000;0.702718
9855.000000;0.702927
9854.000000;0.702751
9853.000000;0.702197
9852.000000;0.701503
9851.000000;0.700983
9850.000000;0.700751
9849.000000;0.700671
9848.000000;0.700595
9847.000000;0.700559
9846.000000;0.700688
9845.000000;0.700972
9844.000000;0.701226
9843.000000;0.701245
9842.000000;0.700972
9841.000000;0.700536
9840.000000;0.700154
9839.000000;0.699991
9838.000000;0.700084
9837.000000;0.700364
9836.000000;0.700713
9835.000000;0.701032
9834.000000;0.701265
9833.000000;0.701395
9832.000000;0.701385
9831.000000;0.701169
9830.000000;0.700736
9829.000000;0.700203
9828.000000;0.699713
9827.000000;0.699297
9826.000000;0.698927
9825.000000;0.698720
9824.000000;0.698899
9823.000000;0.699486
9822.000000;0.700154
9821.000000;0.700513
9820.000000;0.700469
9819.000000;0.700208
9818.000000;0.699884
9817.000000;0.699477
9816.000000;0.698930
9815.000000;0.698318
9814.000000;0.697840
9813.000000;0.697668
9812.000000;0.697822
9811.000000;0.698168
9810.000000;0.698544
9809.000000;0.698855
9808.000000;0.699033
9807.000000;0.698958
9806.000000;0.698575
9805.000000;0.698081
9804.000000;0.697814
9803.000000;0.697877
9802.000000;0.698005
9801.000000;0.697938
9800.000000;0.697788
9799.000000;0.697869
9798.000000;0.698266
9797.000000;0.698733
9796.000000;0.699019
9795.000000;0.699089
9794.000000;0.699010
9793.000000;0.698756
9792.000000;0.698232
9791.000000;0.697445
9790.000000;0.696601
9789.000000;0.696023
9788.000000;0.695951
9787.000000;0.696363
9786.000000;0.696990
9785.000000;0.697511
9784.000000;0.697727
9783.000000;0.697562
9782.000000;0.696999
9781.000000;0.696148
9780.000000;0.695317
9779.000000;0.694867
9778.000000;0.694921
9777.000000;0.695250
9776.000000;0.695467
9775.000000;0.695346
9774.000000;0.694976
9773.000000;0.694629
9772.000000;0.694515
9771.000000;0.694639
9770.000000;0.694863
9769.000000;0.695055
9768.000000;0.695145
9767.000000;0.695108
9766.000000;0.694968
9765.000000;0.694832
9764.000000;0.694815
9763.000000;0.694898
9762.000000;0.694943
9761.000000;0.694867
9760.000000;0.694721
9759.000000;0.694569
9758.000000;0.694415
9757.000000;0.694284
9756.000000;0.694297
9755.000000;0.694538
9754.000000;0.694921
9753.000000;0.695261
9752.000000;0.695431
9751.000000;0.695388
9750.000000;0.695088
9749.000000;0.694493
9748.000000;0.693678
9747.000000;0.692853
9746.000000;0.692260
9745.000000;0.692046
9744.000000;0.692218
9743.000000;0.692659
9742.000000;0.693197
9741.000000;0.693666
9740.000000;0.693940
9739.000000;0.693985
9738.000000;0.693914
9737.000000;0.693930
9736.000000;0.694072
9735.000000;0.694050
9734.000000;0.693514
9733.000000;0.692550
9732.000000;0.691718
9731.000000;0.691505
9730.000000;0.691838
9729.000000;0.692241
9728.000000;0.692338
9727.000000;0.692087
9726.000000;0.691655
9725.000000;0.691235
9724.000000;0.690978
9723.000000;0.690933
9722.000000;0.691014
9721.000000;0.691090
9720.000000;0.691083
9719.000000;0.690948
9718.000000;0.690637
9717.000000;0.690213
9716.000000;0.689920
9715.000000;0.689994
9714.000000;0.690414
9713.000000;0.690926
9712.000000;0.691308
9711.000000;0.691500
9710.000000;0.691527
9709.000000;0.691419
9708.000000;0.691226
9707.000000;0.690979
9706.000000;0.690642
9705.000000;0.690192
9704.000000;0.689731
9703.000000;0.689436
9702.000000;0.689382
9701.000000;0.689505
9700.000000;0.689716
9699.000000;0.689944
9698.000000;0.690086
9697.000000;0.690040
9696.000000;0.689837
9695.000000;0.689608
9694.000000;0.689395
9693.000000;0.689098
9692.000000;0.688683
9691.000000;0.688329
9690.000000;0.688271
9689.000000;0.688546
9688.000000;0.688964
9687.000000;0.689273
9686.000000;0.689299
9685.000000;0.689017
9684.000000;0.688578
9683.000000;0.688259
9682.000000;0.688280
9681.000000;0.688624
9680.000000;0.689047
9679.000000;0.689279
9678.000000;0.689227
9677.000000;0.689012
9676.000000;0.688839
9675.000000;0.688810
9674.000000;0.688829
9673.000000;0.688675
9672.000000;0.688221
9671.000000;0.687563
9670.000000;0.686931
9669.000000;0.686507
9668.000000;0.686337
9667.000000;0.686375
9666.000000;0.686550
9665.000000;0.686756
9664.000000;0.686872
9663.000000;0.686869
9662.000000;0.686868
9661.000000;0.687007
9660.000000;0.687244
9659.000000;0.687369
9658.000000;0.687270
9657.000000;0.687104
9656.000000;0.687096
9655.000000;0.687209
9654.000000;0.687164
9653.000000;0.686800
9652.000000;0.686290
9651.000000;0.685914
9650.000000;0.685733
9649.000000;0.685613
9648.000000;0.685467
9647.000000;0.685337
9646.000000;0.685248
9645.000000;0.685161
9644.000000;0.685111
9643.000000;0.685239
9642.000000;0.685594
9641.000000;0.685970
9640.000000;0.686084
9639.000000;0.685884
9638.000000;0.685615
9637.000000;0.685558
9636.000000;0.685747
9635.000000;0.685941
9634.000000;0.685828
9633.000000;0.685277
9632.000000;0.684455
9631.000000;0.683725
9630.000000;0.683374
9629.000000;0.683416
9628.000000;0.683629
9627.000000;0.683799
9626.000000;0.683878
9625.000000;0.683925
9624.000000;0.683989
9623.000000;0.684100
9622.000000;0.684316
9621.000000;0.684640
9620.000000;0.684913
9619.000000;0.684867
9618.000000;0.684380
9617.000000;0.683633
9616.000000;0.682995
9615.000000;0.682763
9614.000000;0.682995
9613.000000;0.683508
9612.000000;0.683989
9611.000000;0.684168
9610.000000;0.683965
9609.000000;0.683481
9608.000000;0.682845
9607.000000;0.682162
9606.000000;0.681615
9605.000000;0.681489
9604.000000;0.681937
9603.000000;0.682724
9602.000000;0.683353
9601.000000;0.683492
9600.000000;0.683202
9599.000000;0.682748
9598.000000;0.682330
9597.000000;0.682064
9596.000000;0.682088
9595.000000;0.682455
9594.000000;0.682955
9593.000000;0.683178
9592.000000;0.682899
9591.000000;0.682321
9590.000000;0.681877
9589.000000;0.681792
9588.000000;0.681928
9587.000000;0.682034
9586.000000;0.682028
9585.000000;0.681971
9584.000000;0.681843
9583.000000;0.681523
9582.000000;0.681024
9581.000000;0.680611
9580.000000;0.680579
9579.000000;0.680940
9578.000000;0.681394
9577.000000;0.681608
9576.000000;0.681478
9575.000000;0.681166
9574.000000;0.680894
9573.000000;0.680724
9572.000000;0.680514
9571.000000;0.680144
9570.000000;0.679755
9569.000000;0.679634
9568.000000;0.679834
9567.000000;0.680047
9566.000000;0.679969
9565.000000;0.679683
9564.000000;0.679511
9563.000000;0.679586
9562.000000;0.679745
9561.000000;0.679806
9560.000000;0.679722
9559.000000;0.679479
9558.000000;0.679051
9557.000000;0.678545
9556.000000;0.678198
9555.000000;0.678137
9554.000000;0.678268
9553.000000;0.678462
9552.000000;0.678724
9551.000000;0.679084
9550.000000;0.679458
9549.000000;0.679734
9548.000000;0.679878
9547.000000;0.679882
9546.000000;0.679698
9545.000000;0.679352
9544.000000;0.679023
9543.000000;0.678860
9542.000000;0.678811
9541.000000;0.678728
9540.000000;0.678578
9539.000000;0.678402
9538.000000;0.678166
9537.000000;0.677816
9536.000000;0.677455
9535.000000;0.677280
9534.000000;0.677335
9533.000000;0.677461
9532.000000;0.677503
9531.000000;0.677445
9530.000000;0.677308
9529.000000;0.677081
9528.000000;0.676823
9527.000000;0.676704
9526.000000;0.676862
9525.000000;0.677249
9524.000000;0.677691
9523.000000;0.678035
9522.000000;0.678191
9521.000000;0.678109
9520.000000;0.677810
9519.000000;0.677432
9518.000000;0.677150
9517.000000;0.677051
9516.000000;0.677100
9515.000000;0.677206
9514.000000;0.677271
9513.000000;0.677201
9512.000000;0.676930
9511.000000;0.676481
9510.000000;0.675979
9509.000000;0.675592
9508.000000;0.675452
9507.000000;0.675584
9506.000000;0.675847
9505.000000;0.675971
9504.000000;0.675743
9503.000000;0.675245
9502.000000;0.674849
9501.000000;0.674876
9500.000000;0.675259
9499.000000;0.675600
9498.000000;0.675597
9497.000000;0.675341
9496.000000;0.675142
9495.000000;0.675153
9494.000000;0.675232
9493.000000;0.675143
9492.000000;0.674795
9491.000000;0.674290
9490.000000;0.673846
9489.000000;0.673661
9488.000000;0.673765
9487.000000;0.673944
9486.000000;0.673916
9485.000000;0.673626
9484.000000;0.673309
9483.000000;0.673208
9482.000000;0.673302
9481.000000;0.673397
9480.000000;0.673404
9479.000000;0.673376
9478.000000;0.673339
9477.000000;0.673243
9476.000000;0.673121
9475.000000;0.673140
9474.000000;0.673377
9473.000000;0.673645
9472.000000;0.673682
9471.000000;0.673469
9470.000000;0.673222
9469.000000;0.673077
9468.000000;0.672962
9467.000000;0.672813
9466.000000;0.672752
9465.000000;0.672904
9464.000000;0.673128
9463.000000;0.673134
9462.000000;0.672844
9461.000000;0.672455
9460.000000;0.672151
9459.000000;0.671928
9458.000000;0.671757
9457.000000;0.671712
9456.000000;0.671789
9455.000000;0.671786
9454.000000;0.671571
9453.000000;0.671356
9452.000000;0.671470
9451.000000;0.671896
9450.000000;0.672273
9449.000000;0.672388
9448.000000;0.672407
9447.000000;0.672528
9446.000000;0.672631
9445.000000;0.672436
9444.000000;0.671897
9443.000000;0.671268
9442.000000;0.670833
9441.000000;0.670704
9440.000000;0.670835
9439.000000;0.671098
9438.000000;0.671343
9437.000000;0.671458
9436.000000;0.671413
9435.000000;0.671227
9434.000000;0.670940
9433.000000;0.670643
9432.000000;0.670441
9431.000000;0.670349
9430.000000;0.670290
9429.000000;0.670250
9428.000000;0.670326
9427.000000;0.670535
9426.000000;0.670665
9425.000000;0.670475
9424.000000;0.670021
9423.000000;0.669628
9422.000000;0.669556
9421.000000;0.669806
9420.000000;0.670238
9419.000000;0.670696
9418.000000;0.670993
9417.000000;0.670919
9416.000000;0.670399
9415.000000;0.669609
9414.000000;0.668864
9413.000000;0.668414
9412.000000;0.668348
9411.000000;0.668606
9410.000000;0.669007
9409.000000;0.669319
9408.000000;0.669393
9407.000000;0.669237
9406.000000;0.668951
9405.000000;0.668625
9404.000000;0.668327
9403.000000;0.668125
9402.000000;0.668043
9401.000000;0.667994
9400.000000;0.667843
9399.000000;0.667569
9398.000000;0.667325
9397.000000;0.667302
9396.000000;0.667533
9395.000000;0.667838
9394.000000;0.667971
9393.000000;0.667836
9392.000000;0.667557
9391.000000;0.667351
9390.000000;0.667331
9389.000000;0.667462
9388.000000;0.667655
9387.000000;0.667872
9386.000000;0.668088
9385.000000;0.668230
9384.000000;0.668197
9383.000000;0.667954
9382.000000;0.667590
9381.000000;0.667270
9380.000000;0.667134
9379.000000;0.667197
9378.000000;0.667328
9377.000000;0.667370
9376.000000;0.667300
9375.000000;0.667234
9374.000000;0.667225
9373.000000;0.667112
9372.000000;0.666689
9371.000000;0.666036
9370.000000;0.665548
9369.000000;0.665550
9368.000000;0.665978
9367.000000;0.666503
9366.000000;0.666908
9365.000000;0.667201
9364.000000;0.667415
9363.000000;0.667470
9362.000000;0.667295
9361.000000;0.666957
9360.000000;0.666587
9359.000000;0.666240
9358.000000;0.665920
9357.000000;0.665669
9356.000000;0.665533
9355.000000;0.665466
9354.000000;0.665377
9353.000000;0.665278
9352.000000;0.665275
9351.000000;0.665403
9350.000000;0.665532
9349.000000;0.665487
9348.000000;0.665249
9347.000000;0.664983
9346.000000;0.664876
9345.000000;0.664956
9344.000000;0.665059
9343.000000;0.664992
9342.000000;0.664710
9341.000000;0.664342
9340.000000;0.664037
9339.000000;0.663839
9338.000000;0.663725
9337.000000;0.663689
9336.000000;0.663742
9335.000000;0.663838
9334.000000;0.663895
9333.000000;0.663865
9332.000000;0.663741
9331.000000;0.663530
9330.000000;0.663293
9329.000000;0.663189
9328.000000;0.663360
9327.000000;0.663732
9326.000000;0.664042
9325.000000;0.664108
9324.000000;0.664006
9323.000000;0.663901
9322.000000;0.663792
9321.000000;0.663530
9320.000000;0.663071
9319.000000;0.662573
9318.000000;0.662234
9317.000000;0.662089
9316.000000;0.662006
9315.000000;0.661852
9314.000000;0.661612
9313.000000;0.661397
9312.000000;0.661351
9311.000000;0.661538
9310.000000;0.661881
9309.000000;0.662205
9308.000000;0.662381
9307.000000;0.662444
9306.000000;0.662529
9305.000000;0.662677
9304.000000;0.662725
9303.000000;0.662481
9302.000000;0.661992
9301.000000;0.661556
9300.000000;0.661417
9299.000000;0.661511
9298.000000;0.661579
9297.000000;0.661481
9296.000000;0.661294
9295.000000;0.661144
9294.000000;0.661069
9293.000000;0.661065
9292.000000;0.661149
9291.000000;0.661294
9290.000000;0.661377
9289.000000;0.661277
9288.000000;0.660992
9287.000000;0.660621
9286.000000;0.660272
9285.000000;0.660039
9284.000000;0.659998
9283.000000;0.660135
9282.000000;0.660301
9281.000000;0.660335
9280.000000;0.660241
9279.000000;0.660168
9278.000000;0.660209
9277.000000;0.660293
9276.000000;0.660293
9275.000000;0.660187
9274.000000;0.660051
9273.000000;0.659938
9272.000000;0.659812
9271.000000;0.659599
9270.000000;0.659271
9269.000000;0.658895
9268.000000;0.658615
9267.000000;0.658574
9266.000000;0.658805
9265.000000;0.659183
9264.000000;0.659509
9263.000000;0.659657
9262.000000;0.659627
9261.000000;0.659460
9260.000000;0.659168
9259.000000;0.658786
9258.000000;0.658441
9257.000000;0.658300
9256.000000;0.658412
9255.000000;0.658645
9254.000000;0.658816
9253.000000;0.658858
9252.000000;0.658822
9251.000000;0.658757
9250.000000;0.658635
9249.000000;0.658398
9248.000000;0.658042
9247.000000;0.657636
9246.000000;0.657294
9245.000000;0.657139
9244.000000;0.657240
9243.000000;0.657524
9242.000000;0.657775
9241.000000;0.657774
9240.000000;0.657499
9239.000000;0.657152
9238.000000;0.656967
9237.000000;0.656963
9236.000000;0.656952
9235.000000;0.656787
9234.000000;0.656540
9233.000000;0.656397
9232.000000;0.656429
9231.000000;0.656552
9230.000000;0.656678
9229.000000;0.656785
9228.000000;0.656808
9227.000000;0.656600
9226.000000;0.656110
9225.000000;0.655542
9224.000000;0.655209
9223.000000;0.655246
9222.000000;0.655507
9221.000000;0.655747
9220.000000;0.655812
9219.000000;0.655666
9218.000000;0.655359
9217.000000;0.655013
9216.000000;0.654795
9215.000000;0.654839
9214.000000;0.655152
9213.000000;0.655587
9212.000000;0.655904
9211.000000;0.655898
9210.000000;0.655554
9209.000000;0.655072
9208.000000;0.654701
9207.000000;0.654536
9206.000000;0.654495
9205.000000;0.654464
9204.000000;0.654413
9203.000000;0.654362
9202.000000;0.654326
9201.000000;0.654296
9200.000000;0.654248
9199.000000;0.654159
9198.000000;0.654068
9197.000000;0.654081
9196.000000;0.654240
9195.000000;0.654400
9194.000000;0.654341
9193.000000;0.654031
9192.000000;0.653707
9191.000000;0.653625
9190.000000;0.653819
9189.000000;0.654119
9188.000000;0.654338
9187.000000;0.654374
9186.000000;0.654204
9185.000000;0.653903
9184.000000;0.653626
9183.000000;0.653483
9182.000000;0.653442
9181.000000;0.653398
9180.000000;0.653327
9179.000000;0.653276
9178.000000;0.653247
9177.000000;0.653184
9176.000000;0.653102
9175.000000;0.653129
9174.000000;0.653348
9173.000000;0.653662
9172.000000;0.653866
9171.000000;0.653849
9170.000000;0.653663
9169.000000;0.653426
9168.000000;0.653221
9167.000000;0.653082
9166.000000;0.652995
9165.000000;0.652872
9164.000000;0.652578
9163.000000;0.652072
9162.000000;0.651530
9161.000000;0.651244
9160.000000;0.651361
9159.000000;0.651736
9158.000000;0.652072
9157.000000;0.652156
9156.000000;0.651973
9155.000000;0.651656
9154.000000;0.651391
9153.000000;0.651316
9152.000000;0.651423
9151.000000;0.651537
9150.000000;0.651467
9149.000000;0.651183
9148.000000;0.650842
9147.000000;0.650628
9146.000000;0.650627
9145.000000;0.650829
9144.000000;0.651140
9143.000000;0.651405
9142.000000;0.651481
9141.000000;0.651359
9140.000000;0.651158
9139.000000;0.650993
9138.000000;0.650887
9137.000000;0.650845
9136.000000;0.650887
9135.000000;0.650969
9134.000000;0.650946
9133.000000;0.650720
9132.000000;0.650365
9131.000000;0.650033
9130.000000;0.649775
9129.000000;0.649562
9128.000000;0.649431
9127.000000;0.649495
9126.000000;0.649767
9125.000000;0.650071
9124.000000;0.650181
9123.000000;0.650020
9122.000000;0.649714
9121.000000;0.649492
9120.000000;0.649520
9119.000000;0.649760
9118.000000;0.649969
9117.000000;0.649906
9116.000000;0.649568
9115.000000;0.649192
9114.000000;0.649007
9113.000000;0.649036
9112.000000;0.649155
9111.000000;0.649253
9110.000000;0.649275
9109.000000;0.649187
9108.000000;0.648985
9107.000000;0.648745
9106.000000;0.648581
9105.000000;0.648539
9104.000000;0.648580
9103.000000;0.648653
9102.000000;0.648752
9101.000000;0.648864
9100.000000;0.648933
9099.000000;0.648904
9098.000000;0.648775
9097.000000;0.648583
9096.000000;0.648353
9095.000000;0.648096
9094.000000;0.647833
9093.000000;0.647595
9092.000000;0.647387
9091.000000;0.647208
9090.000000;0.647088
9089.000000;0.647095
9088.000000;0.647259
9087.000000;0.647506
9086.000000;0.647677
9085.000000;0.647639
9084.000000;0.647382
9083.000000;0.647028
9082.000000;0.646749
9081.000000;0.646661
9080.000000;0.646763
9079.000000;0.646953
9078.000000;0.647091
9077.000000;0.647052
9076.000000;0.646791
9075.000000;0.646398
9074.000000;0.646075
9073.000000;0.645993
9072.000000;0.646127
9071.000000;0.646247
9070.000000;0.646134
9069.000000;0.645809
9068.000000;0.645521
9067.000000;0.645494
9066.000000;0.645718
9065.000000;0.645975
9064.000000;0.646059
9063.000000;0.645938
9062.000000;0.645739
9061.000000;0.645633
9060.000000;0.645725
9059.000000;0.645999
9058.000000;0.646312
9057.000000;0.646456
9056.000000;0.646295
9055.000000;0.645874
9054.000000;0.645399
9053.000000;0.645097
