Criado como novo conjunto de dados;"2706_e01_daniel.spp","51304.4 Secs"
cm-1;Abs
10000.000000;0.612720
9999.000000;0.612108
9998.000000;0.611612
9997.000000;0.611375
9996.000000;0.611275
9995.000000;0.611190
9994.000000;0.611086
9993.000000;0.610898
9992.000000;0.610585
9991.000000;0.610318
9990.000000;0.610350
9989.000000;0.610618
9988.000000;0.610700
9987.000000;0.610291
9986.000000;0.609561
9985.000000;0.608938
9984.000000;0.608688
9983.000000;0.608772
9982.000000;0.608976
9981.000000;0.609078
9980.000000;0.609030
9979.000000;0.609030
9978.000000;0.609310
9977.000000;0.609786
9976.000000;0.610092
9975.000000;0.610015
9974.000000;0.609734
9973.000000;0.609536
9972.000000;0.609460
9971.000000;0.609378
9970.000000;0.609260
9969.000000;0.609190
9968.000000;0.609200
9967.000000;0.609229
9966.000000;0.609209
9965.000000;0.609089
9964.000000;0.608837
9963.000000;0.608495
9962.000000;0.608196
9961.000000;0.608038
9960.000000;0.607996
9959.000000;0.607998
9958.000000;0.608019
9957.000000;0.608042
9956.000000;0.608011
9955.000000;0.607894
9954.000000;0.607725
9953.000000;0.607550
9952.000000;0.607383
9951.000000;0.607267
9950.000000;0.607258
9949.000000;0.607283
9948.000000;0.607118
9947.000000;0.606629
9946.000000;0.605962
9945.000000;0.605414
9944.000000;0.605151
9943.000000;0.605123
9942.000000;0.605201
9941.000000;0.605327
9940.000000;0.605536
9939.000000;0.605837
9938.000000;0.606095
9937.000000;0.606060
9936.000000;0.605628
9935.000000;0.605055
9934.000000;0.604802
9933.000000;0.605097
9932.000000;0.605748
9931.000000;0.606365
9930.000000;0.606676
9929.000000;0.606590
9928.000000;0.606106
9927.000000;0.605305
9926.000000;0.604370
9925.000000;0.603536
9924.000000;0.603006
9923.000000;0.602901
9922.000000;0.603199
9921.000000;0.603682
9920.000000;0.604027
9919.000000;0.604043
9918.000000;0.603803
9917.000000;0.603556
9916.000000;0.603521
9915.000000;0.603749
9914.000000;0.604102
9913.000000;0.604362
9912.000000;0.604447
9911.000000;0.604465
9910.000000;0.604488
9909.000000;0.604325
9908.000000;0.603703
9907.000000;0.602671
9906.000000;0.601653
9905.000000;0.601068
9904.000000;0.601030
9903.000000;0.601418
9902.000000;0.602031
9901.000000;0.602616
9900.000000;0.602935
9899.000000;0.602958
9898.000000;0.602887
9897.000000;0.602878
9896.000000;0.602835
9895.000000;0.602558
9894.000000;0.602001
9893.000000;0.601296
9892.000000;0.600617
9891.000000;0.600112
9890.000000;0.599877
9889.000000;0.599903
9888.000000;0.600084
9887.000000;0.600340
9886.000000;0.600674
9885.000000;0.601082
9884.000000;0.601462
9883.000000;0.601647
9882.000000;0.601482
9881.000000;0.600905
9880.000000;0.600053
9879.000000;0.599288
9878.000000;0.598974
9877.000000;0.599149
9876.000000;0.599518
9875.000000;0.599794
9874.000000;0.599937
9873.000000;0.600048
9872.000000;0.600151
9871.000000;0.600173
9870.000000;0.600031
9869.000000;0.599689
9868.000000;0.599224
9867.000000;0.598839
9866.000000;0.598683
9865.000000;0.598656
9864.000000;0.598545
9863.000000;0.598369
9862.000000;0.598387
9861.000000;0.598683
9860.000000;0.598974
9859.000000;0.598985
9858.000000;0.598826
9857.000000;0.598770
9856.000000;0.598816
9855.000000;0.598692
9854.000000;0.598251
9853.000000;0.597673
9852.000000;0.597261
9851.000000;0.597195
9850.000000;0.597463
9849.000000;0.597904
9848.000000;0.598296
9847.000000;0.598496
9846.000000;0.598519
9845.000000;0.598440
9844.000000;0.598300
9843.000000;0.598176
9842.000000;0.598235
9841.000000;0.598564
9840.000000;0.598973
9839.000000;0.599116
9838.000000;0.598830
9837.000000;0.598234
9836.000000;0.597509
9835.000000;0.596728
9834.000000;0.595986
9833.000000;0.595545
9832.000000;0.595623
9831.000000;0.596037
9830.000000;0.596235
9829.000000;0.595826
9828.000000;0.595047
9827.000000;0.594553
9826.000000;0.594720
9825.000000;0.595299
9824.000000;0.595785
9823.000000;0.595968
9822.000000;0.596006
9821.000000;0.596102
9820.000000;0.596307
9819.000000;0.596593
9818.000000;0.596894
9817.000000;0.597047
9816.000000;0.596877
9815.000000;0.596381
9814.000000;0.595720
9813.000000;0.595018
9812.000000;0.594335
9811.000000;0.593849
9810.000000;0.593820
9809.000000;0.594264
9808.000000;0.594809
9807.000000;0.595039
9806.000000;0.594866
9805.000000;0.594485
9804.000000;0.594082
9803.000000;0.593742
9802.000000;0.593523
9801.000000;0.593449
9800.000000;0.593451
9799.000000;0.593444
9798.000000;0.593465
9797.000000;0.593591
9796.000000;0.593733
9795.000000;0.593646
9794.000000;0.593190
9793.000000;0.592515
9792.000000;0.591928
9791.000000;0.591648
9790.000000;0.591728
9789.000000;0.592117
9788.000000;0.592670
9787.000000;0.593094
9786.000000;0.593057
9785.000000;0.592496
9784.000000;0.591775
9783.000000;0.591390
9782.000000;0.591496
9781.000000;0.591821
9780.000000;0.592058
9779.000000;0.592129
9778.000000;0.592021
9777.000000;0.591629
9776.000000;0.590983
9775.000000;0.590505
9774.000000;0.590680
9773.000000;0.591462
9772.000000;0.592221
9771.000000;0.592376
9770.000000;0.591923
9769.000000;0.591309
9768.000000;0.590928
9767.000000;0.590827
9766.000000;0.590813
9765.000000;0.590734
9764.000000;0.590654
9763.000000;0.590719
9762.000000;0.590851
9761.000000;0.590696
9760.000000;0.590034
9759.000000;0.589147
9758.000000;0.588555
9757.000000;0.588432
9756.000000;0.588521
9755.000000;0.588607
9754.000000;0.588799
9753.000000;0.589261
9752.000000;0.589899
9751.000000;0.590464
9750.000000;0.590796
9749.000000;0.590851
9748.000000;0.590660
9747.000000;0.590395
9746.000000;0.590300
9745.000000;0.590407
9744.000000;0.590435
9743.000000;0.590113
9742.000000;0.589536
9741.000000;0.589047
9740.000000;0.588847
9739.000000;0.588861
9738.000000;0.588920
9737.000000;0.588930
9736.000000;0.588880
9735.000000;0.588804
9734.000000;0.588749
9733.000000;0.588729
9732.000000;0.588713
9731.000000;0.588649
9730.000000;0.588482
9729.000000;0.588156
9728.000000;0.587712
9727.000000;0.587374
9726.000000;0.587399
9725.000000;0.587781
9724.000000;0.588207
9723.000000;0.588379
9722.000000;0.588270
9721.000000;0.588021
9720.000000;0.587704
9719.000000;0.587337
9718.000000;0.587013
9717.000000;0.586866
9716.000000;0.586909
9715.000000;0.586991
9714.000000;0.586894
9713.000000;0.586497
9712.000000;0.585884
9711.000000;0.585348
9710.000000;0.585189
9709.000000;0.585451
9708.000000;0.585911
9707.000000;0.586335
9706.000000;0.586628
9705.000000;0.586730
9704.000000;0.586554
9703.000000;0.586159
9702.000000;0.585854
9701.000000;0.585937
9700.000000;0.586365
9699.000000;0.586764
9698.000000;0.586752
9697.000000;0.586201
9696.000000;0.585296
9695.000000;0.584446
9694.000000;0.584074
9693.000000;0.584327
9692.000000;0.584976
9691.000000;0.585611
9690.000000;0.585926
9689.000000;0.585829
9688.000000;0.585424
9687.000000;0.584979
9686.000000;0.584799
9685.000000;0.584998
9684.000000;0.585405
9683.000000;0.585751
9682.000000;0.585873
9681.000000;0.585658
9680.000000;0.584984
9679.000000;0.583922
9678.000000;0.582899
9677.000000;0.582413
9676.000000;0.582551
9675.000000;0.582956
9674.000000;0.583291
9673.000000;0.583549
9672.000000;0.583830
9671.000000;0.584018
9670.000000;0.583899
9669.000000;0.583483
9668.000000;0.583037
9667.000000;0.582781
9666.000000;0.582712
9665.000000;0.582725
9664.000000;0.582780
9663.000000;0.582866
9662.000000;0.582903
9661.000000;0.582808
9660.000000;0.582629
9659.000000;0.582533
9658.000000;0.582628
9657.000000;0.582832
9656.000000;0.582936
9655.000000;0.582772
9654.000000;0.582361
9653.000000;0.581951
9652.000000;0.581840
9651.000000;0.582059
9650.000000;0.582246
9649.000000;0.581983
9648.000000;0.581306
9647.000000;0.580714
9646.000000;0.580622
9645.000000;0.580929
9644.000000;0.581237
9643.000000;0.581348
9642.000000;0.581362
9641.000000;0.581394
9640.000000;0.581416
9639.000000;0.581352
9638.000000;0.581174
9637.000000;0.580888
9636.000000;0.580617
9635.000000;0.580638
9634.000000;0.581149
9633.000000;0.581938
9632.000000;0.582453
9631.000000;0.582293
9630.000000;0.581553
9629.000000;0.580664
9628.000000;0.580017
9627.000000;0.579747
9626.000000;0.579728
9625.000000;0.579703
9624.000000;0.579540
9623.000000;0.579372
9622.000000;0.579396
9621.000000;0.579524
9620.000000;0.579428
9619.000000;0.578990
9618.000000;0.578515
9617.000000;0.578393
9616.000000;0.578683
9615.000000;0.579151
9614.000000;0.579557
9613.000000;0.579751
9612.000000;0.579614
9611.000000;0.579114
9610.000000;0.578463
9609.000000;0.578034
9608.000000;0.578055
9607.000000;0.578423
9606.000000;0.578833
9605.000000;0.579048
9604.000000;0.579040
9603.000000;0.578934
9602.000000;0.578845
9601.000000;0.578779
9600.000000;0.578668
9599.000000;0.578469
9598.000000;0.578210
9597.000000;0.577983
9596.000000;0.577937
9595.000000;0.578207
9594.000000;0.578729
9593.000000;0.579153
9592.000000;0.579126
9591.000000;0.578690
9590.000000;0.578261
9589.000000;0.578123
9588.000000;0.578111
9587.000000;0.577910
9586.000000;0.577544
9585.000000;0.577356
9584.000000;0.577555
9583.000000;0.577956
9582.000000;0.578214
9581.000000;0.578187
9580.000000;0.577980
9579.000000;0.577742
9578.000000;0.577512
9577.000000;0.577303
9576.000000;0.577199
9575.000000;0.577295
9574.000000;0.577534
9573.000000;0.577690
9572.000000;0.577587
9571.000000;0.577297
9570.000000;0.577052
9569.000000;0.576981
9568.000000;0.576984
9567.000000;0.576846
9566.000000;0.576432
9565.000000;0.575784
9564.000000;0.575125
9563.000000;0.574744
9562.000000;0.574781
9561.000000;0.575068
9560.000000;0.575247
9559.000000;0.575102
9558.000000;0.574776
9557.000000;0.574640
9556.000000;0.574961
9555.000000;0.575677
9554.000000;0.576411
9553.000000;0.576724
9552.000000;0.576421
9551.000000;0.575690
9550.000000;0.574927
9549.000000;0.574446
9548.000000;0.574308
9547.000000;0.574362
9546.000000;0.574396
9545.000000;0.574303
9544.000000;0.574168
9543.000000;0.574169
9542.000000;0.574338
9541.000000;0.574475
9540.000000;0.574372
9539.000000;0.574067
9538.000000;0.573784
9537.000000;0.573650
9536.000000;0.573602
9535.000000;0.573521
9534.000000;0.573347
9533.000000;0.573072
9532.000000;0.572739
9531.000000;0.572463
9530.000000;0.572351
9529.000000;0.572412
9528.000000;0.572624
9527.000000;0.573032
9526.000000;0.573656
9525.000000;0.574317
9524.000000;0.574705
9523.000000;0.574662
9522.000000;0.574289
9521.000000;0.573781
9520.000000;0.573271
9519.000000;0.572856
9518.000000;0.572608
9517.000000;0.572514
9516.000000;0.572479
9515.000000;0.572423
9514.000000;0.572306
9513.000000;0.572077
9512.000000;0.571720
9511.000000;0.571357
9510.000000;0.571180
9509.000000;0.571244
9508.000000;0.571428
9507.000000;0.571603
9506.000000;0.571727
9505.000000;0.571771
9504.000000;0.571699
9503.000000;0.571555
9502.000000;0.571454
9501.000000;0.571436
9500.000000;0.571426
9499.000000;0.571346
9498.000000;0.571164
9497.000000;0.570850
9496.000000;0.570431
9495.000000;0.570085
9494.000000;0.570006
9493.000000;0.570134
9492.000000;0.570207
9491.000000;0.570120
9490.000000;0.570044
9489.000000;0.570107
9488.000000;0.570169
9487.000000;0.570064
9486.000000;0.569885
9485.000000;0.569866
9484.000000;0.570087
9483.000000;0.570430
9482.000000;0.570741
9481.000000;0.570877
9480.000000;0.570686
9479.000000;0.570134
9478.000000;0.569428
9477.000000;0.568902
9476.000000;0.568755
9475.000000;0.568948
9474.000000;0.569269
9473.000000;0.569422
9472.000000;0.569180
9471.000000;0.568584
9470.000000;0.567970
9469.000000;0.567697
9468.000000;0.567844
9467.000000;0.568211
9466.000000;0.568557
9465.000000;0.568738
9464.000000;0.568728
9463.000000;0.568615
9462.000000;0.568575
9461.000000;0.568701
9460.000000;0.568857
9459.000000;0.568804
9458.000000;0.568490
9457.000000;0.568137
9456.000000;0.567991
9455.000000;0.568081
9454.000000;0.568256
9453.000000;0.568395
9452.000000;0.568500
9451.000000;0.568585
9450.000000;0.568569
9449.000000;0.568362
9448.000000;0.568043
9447.000000;0.567829
9446.000000;0.567820
9445.000000;0.567850
9444.000000;0.567692
9443.000000;0.567350
9442.000000;0.567041
9441.000000;0.566903
9440.000000;0.566873
9439.000000;0.566834
9438.000000;0.566760
9437.000000;0.566654
9436.000000;0.566491
9435.000000;0.566290
9434.000000;0.566144
9433.000000;0.566132
9432.000000;0.566232
9431.000000;0.566356
9430.000000;0.566411
9429.000000;0.566317
9428.000000;0.566089
9427.000000;0.565887
9426.000000;0.565891
9425.000000;0.566067
9424.000000;0.566172
9423.000000;0.566046
9422.000000;0.565777
9421.000000;0.565550
9420.000000;0.565447
9419.000000;0.565454
9418.000000;0.565530
9417.000000;0.565576
9416.000000;0.565452
9415.000000;0.565126
9414.000000;0.564745
9413.000000;0.564481
9412.000000;0.564373
9411.000000;0.564370
9410.000000;0.564417
9409.000000;0.564442
9408.000000;0.564373
9407.000000;0.564243
9406.000000;0.564175
9405.000000;0.564182
9404.000000;0.564116
9403.000000;0.563914
9402.000000;0.563750
9401.000000;0.563799
9400.000000;0.563957
9399.000000;0.563984
9398.000000;0.563849
9397.000000;0.563744
9396.000000;0.563769
9395.000000;0.563821
9394.000000;0.563791
9393.000000;0.563734
9392.000000;0.563780
9391.000000;0.563976
9390.000000;0.564245
9389.000000;0.564445
9388.000000;0.564450
9387.000000;0.564257
9386.000000;0.564005
9385.000000;0.563808
9384.000000;0.563598
9383.000000;0.563228
9382.000000;0.562725
9381.000000;0.562317
9380.000000;0.562156
9379.000000;0.562136
9378.000000;0.562040
9377.000000;0.561804
9376.000000;0.561549
9375.000000;0.561407
9374.000000;0.561415
9373.000000;0.561556
9372.000000;0.561815
9371.000000;0.562143
9370.000000;0.562398
9369.000000;0.562419
9368.000000;0.562163
9367.000000;0.561766
9366.000000;0.561433
9365.000000;0.561277
9364.000000;0.561275
9363.000000;0.561354
9362.000000;0.561472
9361.000000;0.561604
9360.000000;0.561709
9359.000000;0.561754
9358.000000;0.561735
9357.000000;0.561683
9356.000000;0.561643
9355.000000;0.561647
9354.000000;0.561678
9353.000000;0.561666
9352.000000;0.561544
9351.000000;0.561310
9350.000000;0.561012
9349.000000;0.560704
9348.000000;0.560455
9347.000000;0.560356
9346.000000;0.560434
9345.000000;0.560568
9344.000000;0.560578
9343.000000;0.560399
9342.000000;0.560121
9341.000000;0.559853
9340.000000;0.559645
9339.000000;0.559543
9338.000000;0.559594
9337.000000;0.559748
9336.000000;0.559834
9335.000000;0.559716
9334.000000;0.559428
9333.000000;0.559137
9332.000000;0.559020
9331.000000;0.559181
9330.000000;0.559586
9329.000000;0.560012
9328.000000;0.560151
9327.000000;0.559868
9326.000000;0.559365
9325.000000;0.559023
9324.000000;0.559062
9323.000000;0.559366
9322.000000;0.559594
9321.000000;0.559481
9320.000000;0.559061
9319.000000;0.558604
9318.000000;0.558330
9317.000000;0.558199
9316.000000;0.558026
9315.000000;0.557773
9314.000000;0.557626
9313.000000;0.557786
9312.000000;0.558241
9311.000000;0.558750
9310.000000;0.559010
9309.000000;0.558878
9308.000000;0.558507
9307.000000;0.558247
9306.000000;0.558307
9305.000000;0.558508
9304.000000;0.558476
9303.000000;0.558072
9302.000000;0.557517
9301.000000;0.557093
9300.000000;0.556891
9299.000000;0.556858
9298.000000;0.556906
9297.000000;0.556885
9296.000000;0.556633
9295.000000;0.556161
9294.000000;0.555718
9293.000000;0.555554
9292.000000;0.555711
9291.000000;0.556072
9290.000000;0.556493
9289.000000;0.556813
9288.000000;0.556878
9287.000000;0.556703
9286.000000;0.556503
9285.000000;0.556445
9284.000000;0.556449
9283.000000;0.556352
9282.000000;0.556187
9281.000000;0.556114
9280.000000;0.556177
9279.000000;0.556271
9278.000000;0.556332
9277.000000;0.556388
9276.000000;0.556423
9275.000000;0.556348
9274.000000;0.556130
9273.000000;0.555829
9272.000000;0.555487
9271.000000;0.555080
9270.000000;0.554625
9269.000000;0.554252
9268.000000;0.554111
9267.000000;0.554234
9266.000000;0.554503
9265.000000;0.554730
9264.000000;0.554800
9263.000000;0.554766
9262.000000;0.554768
9261.000000;0.554844
9260.000000;0.554853
9259.000000;0.554650
9258.000000;0.554286
9257.000000;0.553964
9256.000000;0.553858
9255.000000;0.554013
9254.000000;0.554346
9253.000000;0.554636
9252.000000;0.554605
9251.000000;0.554159
9250.000000;0.553552
9249.000000;0.553175
9248.000000;0.553180
9247.000000;0.553380
9246.000000;0.553514
9245.000000;0.553487
9244.000000;0.553339
9243.000000;0.553123
9242.000000;0.552881
9241.000000;0.552688
9240.000000;0.552636
9239.000000;0.552768
9238.000000;0.553019
9237.000000;0.553207
9236.000000;0.553142
9235.000000;0.552808
9234.000000;0.552427
9233.000000;0.552245
9232.000000;0.552291
9231.000000;0.552412
9230.000000;0.552494
9229.000000;0.552543
9228.000000;0.552546
9227.000000;0.552427
9226.000000;0.552190
9225.000000;0.551967
9224.000000;0.551841
9223.000000;0.551738
9222.000000;0.551586
9221.000000;0.551470
9220.000000;0.551502
9219.000000;0.551596
9218.000000;0.551523
9217.000000;0.551213
9216.000000;0.550885
9215.000000;0.550827
9214.000000;0.551085
9213.000000;0.551431
9212.000000;0.551579
9211.000000;0.551420
9210.000000;0.551065
9209.000000;0.550705
9208.000000;0.550449
9207.000000;0.550286
9206.000000;0.550184
9205.000000;0.550176
9204.000000;0.550316
9203.000000;0.550565
9202.000000;0.550770
9201.000000;0.550785
9200.000000;0.550605
9199.000000;0.550353
9198.000000;0.550161
9197.000000;0.550078
9196.000000;0.550074
9195.000000;0.550089
9194.000000;0.550061
9193.000000;0.549956
9192.000000;0.549790
9191.000000;0.549610
9190.000000;0.549460
9189.000000;0.549365
9188.000000;0.549360
9187.000000;0.549482
9186.000000;0.549697
9185.000000;0.549885
9184.000000;0.549936
9183.000000;0.549860
9182.000000;0.549736
9181.000000;0.549589
9180.000000;0.549370
9179.000000;0.549070
9178.000000;0.548773
9177.000000;0.548552
9176.000000;0.548397
9175.000000;0.548278
9174.000000;0.548237
9173.000000;0.548344
9172.000000;0.548564
9171.000000;0.548736
9170.000000;0.548715
9169.000000;0.548501
9168.000000;0.548234
9167.000000;0.548055
9166.000000;0.547999
9165.000000;0.547997
9164.000000;0.547961
9163.000000;0.547868
9162.000000;0.547768
9161.000000;0.547727
9160.000000;0.547776
9159.000000;0.547876
9158.000000;0.547929
9157.000000;0.547857
9156.000000;0.547693
9155.000000;0.547571
9154.000000;0.547566
9153.000000;0.547586
9152.000000;0.547467
9151.000000;0.547185
9150.000000;0.546901
9149.000000;0.546774
9148.000000;0.546799
9147.000000;0.546836
9146.000000;0.546765
9145.000000;0.546582
9144.000000;0.546375
9143.000000;0.546244
9142.000000;0.546209
9141.000000;0.546197
9140.000000;0.546123
9139.000000;0.545984
9138.000000;0.545834
9137.000000;0.545696
9136.000000;0.545572
9135.000000;0.545535
9134.000000;0.545695
9133.000000;0.546021
9132.000000;0.546284
9131.000000;0.546264
9130.000000;0.545960
9129.000000;0.545546
9128.000000;0.545162
9127.000000;0.544855
9126.000000;0.544679
9125.000000;0.544724
9124.000000;0.545013
9123.000000;0.545427
9122.000000;0.545787
9121.000000;0.545986
9120.000000;0.546038
9119.000000;0.546015
9118.000000;0.545952
9117.000000;0.545822
9116.000000;0.545592
9115.000000;0.545304
9114.000000;0.545055
9113.000000;0.544885
9112.000000;0.544739
9111.000000;0.544567
9110.000000;0.544410
9109.000000;0.544335
9108.000000;0.544325
9107.000000;0.544302
9106.000000;0.544253
9105.000000;0.544237
9104.000000;0.544263
9103.000000;0.544240
9102.000000;0.544076
9101.000000;0.543793
9100.000000;0.543495
9099.000000;0.543273
9098.000000;0.543161
9097.000000;0.543159
9096.000000;0.543231
9095.000000;0.543288
9094.000000;0.543218
9093.000000;0.542957
9092.000000;0.542538
9091.000000;0.542084
9090.000000;0.541765
9089.000000;0.541722
9088.000000;0.541979
9087.000000;0.542414
9086.000000;0.542836
9085.000000;0.543089
9084.000000;0.543112
9083.000000;0.542923
9082.000000;0.542621
9081.000000;0.542375
9080.000000;0.542334
9079.000000;0.542478
9078.000000;0.542596
9077.000000;0.542478
9076.000000;0.542128
9075.000000;0.541753
9074.000000;0.541538
9073.000000;0.541487
9072.000000;0.541460
9071.000000;0.541335
9070.000000;0.541094
9069.000000;0.540820
9068.000000;0.540646
9067.000000;0.540680
9066.000000;0.540923
9065.000000;0.541261
9064.000000;0.541539
9063.000000;0.541647
9062.000000;0.541544
9061.000000;0.541270
9060.000000;0.540947
9059.000000;0.540712
9058.000000;0.540596
9057.000000;0.540510
9056.000000;0.540407
9055.000000;0.540382
9054.000000;0.540533
9053.000000;0.540773
