Criado como novo conjunto de dados;"2706_e01_daniel.spp","74525.9 Secs"
cm-1;Abs
10000.000000;0.879370
9999.000000;0.879936
9998.000000;0.880503
9997.000000;0.881071
9996.000000;0.881640
9995.000000;0.882210
9994.000000;0.882780
9993.000000;0.883351
9992.000000;0.883922
9991.000000;0.884527
9990.000000;0.885274
9989.000000;0.886016
9988.000000;0.886444
9987.000000;0.886455
9986.000000;0.886105
9985.000000;0.885376
9984.000000;0.884313
9983.000000;0.883332
9982.000000;0.882969
9981.000000;0.883258
9980.000000;0.883601
9979.000000;0.883399
9978.000000;0.882670
9977.000000;0.881971
9976.000000;0.881855
9975.000000;0.882467
9974.000000;0.883498
9973.000000;0.884362
9972.000000;0.884537
9971.000000;0.883914
9970.000000;0.882886
9969.000000;0.882032
9968.000000;0.881661
9967.000000;0.881607
9966.000000;0.881464
9965.000000;0.881034
9964.000000;0.880556
9963.000000;0.880473
9962.000000;0.880909
9961.000000;0.881422
9960.000000;0.881384
9959.000000;0.880633
9958.000000;0.879658
9957.000000;0.879071
9956.000000;0.879018
9955.000000;0.879203
9954.000000;0.879389
9953.000000;0.879652
9952.000000;0.880100
9951.000000;0.880537
9950.000000;0.880575
9949.000000;0.880022
9948.000000;0.879076
9947.000000;0.878226
9946.000000;0.878081
9945.000000;0.879086
9944.000000;0.881031
9943.000000;0.882847
9942.000000;0.883308
9941.000000;0.882212
9940.000000;0.880648
9939.000000;0.879854
9938.000000;0.880009
9937.000000;0.880345
9936.000000;0.880249
9935.000000;0.879862
9934.000000;0.879635
9933.000000;0.879682
9932.000000;0.879737
9931.000000;0.879491
9930.000000;0.878834
9929.000000;0.877900
9928.000000;0.877046
9927.000000;0.876655
9926.000000;0.876816
9925.000000;0.877246
9924.000000;0.877581
9923.000000;0.877642
9922.000000;0.877420
9921.000000;0.876983
9920.000000;0.876545
9919.000000;0.876428
9918.000000;0.876713
9917.000000;0.877001
9916.000000;0.876786
9915.000000;0.876081
9914.000000;0.875432
9913.000000;0.875266
9912.000000;0.875432
9911.000000;0.875486
9910.000000;0.875267
9909.000000;0.874942
9908.000000;0.874603
9907.000000;0.874100
9906.000000;0.873398
9905.000000;0.872866
9904.000000;0.872971
9903.000000;0.873675
9902.000000;0.874363
9901.000000;0.874453
9900.000000;0.873976
9899.000000;0.873461
9898.000000;0.873351
9897.000000;0.873654
9896.000000;0.874074
9895.000000;0.874311
9894.000000;0.874225
9893.000000;0.873855
9892.000000;0.873377
9891.000000;0.873021
9890.000000;0.872958
9889.000000;0.873239
9888.000000;0.873788
9887.000000;0.874392
9886.000000;0.874728
9885.000000;0.874527
9884.000000;0.873748
9883.000000;0.872598
9882.000000;0.871408
9881.000000;0.870530
9880.000000;0.870240
9879.000000;0.870544
9878.000000;0.871111
9877.000000;0.871556
9876.000000;0.871855
9875.000000;0.872303
9874.000000;0.873039
9873.000000;0.873757
9872.000000;0.874010
9871.000000;0.873649
9870.000000;0.872884
9869.000000;0.872045
9868.000000;0.871434
9867.000000;0.871283
9866.000000;0.871620
9865.000000;0.872175
9864.000000;0.872540
9863.000000;0.872481
9862.000000;0.872066
9861.000000;0.871548
9860.000000;0.871202
9859.000000;0.871179
9858.000000;0.871365
9857.000000;0.871434
9856.000000;0.871164
9855.000000;0.870706
9854.000000;0.870389
9853.000000;0.870289
9852.000000;0.870128
9851.000000;0.869653
9850.000000;0.868981
9849.000000;0.868510
9848.000000;0.868558
9847.000000;0.869092
9846.000000;0.869714
9845.000000;0.869925
9844.000000;0.869499
9843.000000;0.868652
9842.000000;0.867772
9841.000000;0.867053
9840.000000;0.866517
9839.000000;0.866307
9838.000000;0.866671
9837.000000;0.867552
9836.000000;0.868422
9835.000000;0.868742
9834.000000;0.868472
9833.000000;0.867958
9832.000000;0.867448
9831.000000;0.866933
9830.000000;0.866384
9829.000000;0.865860
9828.000000;0.865379
9827.000000;0.864906
9826.000000;0.864559
9825.000000;0.864605
9824.000000;0.865132
9823.000000;0.865863
9822.000000;0.866394
9821.000000;0.866570
9820.000000;0.866492
9819.000000;0.866254
9818.000000;0.865818
9817.000000;0.865152
9816.000000;0.864349
9815.000000;0.863586
9814.000000;0.863033
9813.000000;0.862799
9812.000000;0.862897
9811.000000;0.863210
9810.000000;0.863590
9809.000000;0.864020
9808.000000;0.864593
9807.000000;0.865240
9806.000000;0.865590
9805.000000;0.865279
9804.000000;0.864402
9803.000000;0.863506
9802.000000;0.863030
9801.000000;0.862905
9800.000000;0.862818
9799.000000;0.862718
9798.000000;0.862828
9797.000000;0.863208
9796.000000;0.863576
9795.000000;0.863650
9794.000000;0.863451
9793.000000;0.863109
9792.000000;0.862609
9791.000000;0.861948
9790.000000;0.861424
9789.000000;0.861444
9788.000000;0.861998
9787.000000;0.862560
9786.000000;0.862616
9785.000000;0.862154
9784.000000;0.861542
9783.000000;0.861061
9782.000000;0.860707
9781.000000;0.860383
9780.000000;0.860120
9779.000000;0.860067
9778.000000;0.860328
9777.000000;0.860811
9776.000000;0.861252
9775.000000;0.861402
9774.000000;0.861214
9773.000000;0.860848
9772.000000;0.860515
9771.000000;0.860308
9770.000000;0.860182
9769.000000;0.860028
9768.000000;0.859808
9767.000000;0.859634
9766.000000;0.859670
9765.000000;0.859914
9764.000000;0.860114
9763.000000;0.860023
9762.000000;0.859667
9761.000000;0.859253
9760.000000;0.858883
9759.000000;0.858549
9758.000000;0.858339
9757.000000;0.858418
9756.000000;0.858748
9755.000000;0.859062
9754.000000;0.859211
9753.000000;0.859346
9752.000000;0.859603
9751.000000;0.859808
9750.000000;0.859668
9749.000000;0.859132
9748.000000;0.858418
9747.000000;0.857767
9746.000000;0.857333
9745.000000;0.857190
9744.000000;0.857274
9743.000000;0.857378
9742.000000;0.857359
9741.000000;0.857307
9740.000000;0.857364
9739.000000;0.857477
9738.000000;0.857490
9737.000000;0.857378
9736.000000;0.857199
9735.000000;0.856910
9734.000000;0.856471
9733.000000;0.856083
9732.000000;0.856041
9731.000000;0.856312
9730.000000;0.856520
9729.000000;0.856422
9728.000000;0.856184
9727.000000;0.856078
9726.000000;0.856132
9725.000000;0.856207
9724.000000;0.856224
9723.000000;0.856169
9722.000000;0.856025
9721.000000;0.855865
9720.000000;0.855883
9719.000000;0.856140
9718.000000;0.856390
9717.000000;0.856327
9716.000000;0.855963
9715.000000;0.855542
9714.000000;0.855157
9713.000000;0.854712
9712.000000;0.854291
9711.000000;0.854280
9710.000000;0.854880
9709.000000;0.855664
9708.000000;0.855906
9707.000000;0.855375
9706.000000;0.854584
9705.000000;0.854167
9704.000000;0.854166
9703.000000;0.854101
9702.000000;0.853624
9701.000000;0.852916
9700.000000;0.852414
9699.000000;0.852360
9698.000000;0.852696
9697.000000;0.853232
9696.000000;0.853783
9695.000000;0.854181
9694.000000;0.854301
9693.000000;0.854109
9692.000000;0.853673
9691.000000;0.853139
9690.000000;0.852667
9689.000000;0.852304
9688.000000;0.851908
9687.000000;0.851351
9686.000000;0.850848
9685.000000;0.850894
9684.000000;0.851728
9683.000000;0.852945
9682.000000;0.853806
9681.000000;0.853857
9680.000000;0.853143
9679.000000;0.851957
9678.000000;0.850646
9677.000000;0.849597
9676.000000;0.849120
9675.000000;0.849235
9674.000000;0.849661
9673.000000;0.850043
9672.000000;0.850128
9671.000000;0.849822
9670.000000;0.849286
9669.000000;0.848922
9668.000000;0.849045
9667.000000;0.849511
9666.000000;0.849849
9665.000000;0.849800
9664.000000;0.849555
9663.000000;0.849444
9662.000000;0.849564
9661.000000;0.849796
9660.000000;0.849982
9659.000000;0.850009
9658.000000;0.849855
9657.000000;0.849637
9656.000000;0.849469
9655.000000;0.849264
9654.000000;0.848848
9653.000000;0.848287
9652.000000;0.847849
9651.000000;0.847598
9650.000000;0.847288
9649.000000;0.846815
9648.000000;0.846508
9647.000000;0.846709
9646.000000;0.847252
9645.000000;0.847624
9644.000000;0.847547
9643.000000;0.847211
9642.000000;0.846981
9641.000000;0.847072
9640.000000;0.847445
9639.000000;0.847843
9638.000000;0.847973
9637.000000;0.847796
9636.000000;0.847567
9635.000000;0.847453
9634.000000;0.847237
9633.000000;0.846613
9632.000000;0.845697
9631.000000;0.844996
9630.000000;0.844835
9629.000000;0.845041
9628.000000;0.845203
9627.000000;0.845098
9626.000000;0.844803
9625.000000;0.844554
9624.000000;0.844559
9623.000000;0.844843
9622.000000;0.845208
9621.000000;0.845409
9620.000000;0.845412
9619.000000;0.845373
9618.000000;0.845375
9617.000000;0.845313
9616.000000;0.845080
9615.000000;0.844763
9614.000000;0.844542
9613.000000;0.844459
9612.000000;0.844368
9611.000000;0.844138
9610.000000;0.843825
9609.000000;0.843608
9608.000000;0.843516
9607.000000;0.843311
9606.000000;0.842745
9605.000000;0.841935
9604.000000;0.841326
9603.000000;0.841205
9602.000000;0.841381
9601.000000;0.841459
9600.000000;0.841332
9599.000000;0.841235
9598.000000;0.841363
9597.000000;0.841620
9596.000000;0.841784
9595.000000;0.841765
9594.000000;0.841635
9593.000000;0.841510
9592.000000;0.841450
9591.000000;0.841435
9590.000000;0.841405
9589.000000;0.841348
9588.000000;0.841325
9587.000000;0.841380
9586.000000;0.841461
9585.000000;0.841505
9584.000000;0.841548
9583.000000;0.841637
9582.000000;0.841688
9581.000000;0.841565
9580.000000;0.841306
9579.000000;0.841126
9578.000000;0.841157
9577.000000;0.841316
9576.000000;0.841450
9575.000000;0.841527
9574.000000;0.841600
9573.000000;0.841696
9572.000000;0.841798
9571.000000;0.841869
9570.000000;0.841837
9569.000000;0.841620
9568.000000;0.841220
9567.000000;0.840756
9566.000000;0.840376
9565.000000;0.840164
9564.000000;0.840137
9563.000000;0.840252
9562.000000;0.840387
9561.000000;0.840388
9560.000000;0.840175
9559.000000;0.839788
9558.000000;0.839353
9557.000000;0.839052
9556.000000;0.839068
9555.000000;0.839403
9554.000000;0.839742
9553.000000;0.839682
9552.000000;0.839178
9551.000000;0.838644
9550.000000;0.838495
9549.000000;0.838707
9548.000000;0.838947
9547.000000;0.839007
9546.000000;0.838928
9545.000000;0.838761
9544.000000;0.838461
9543.000000;0.838051
9542.000000;0.837724
9541.000000;0.837630
9540.000000;0.837678
9539.000000;0.837637
9538.000000;0.837393
9537.000000;0.837046
9536.000000;0.836798
9535.000000;0.836798
9534.000000;0.837061
9533.000000;0.837430
9532.000000;0.837620
9531.000000;0.837403
9530.000000;0.836796
9529.000000;0.836066
9528.000000;0.835514
9527.000000;0.835271
9526.000000;0.835291
9525.000000;0.835457
9524.000000;0.835662
9523.000000;0.835800
9522.000000;0.835777
9521.000000;0.835567
9520.000000;0.835249
9519.000000;0.834958
9518.000000;0.834803
9517.000000;0.834847
9516.000000;0.835102
9515.000000;0.835472
9514.000000;0.835727
9513.000000;0.835623
9512.000000;0.835152
9511.000000;0.834615
9510.000000;0.834374
9509.000000;0.834530
9508.000000;0.834876
9507.000000;0.835149
9506.000000;0.835266
9505.000000;0.835289
9504.000000;0.835265
9503.000000;0.835171
9502.000000;0.834968
9501.000000;0.834643
9500.000000;0.834214
9499.000000;0.833760
9498.000000;0.833438
9497.000000;0.833379
9496.000000;0.833566
9495.000000;0.833835
9494.000000;0.834000
9493.000000;0.833922
9492.000000;0.833527
9491.000000;0.832884
9490.000000;0.832275
9489.000000;0.832024
9488.000000;0.832171
9487.000000;0.832397
9486.000000;0.832370
9485.000000;0.832083
9484.000000;0.831779
9483.000000;0.831633
9482.000000;0.831631
9481.000000;0.831697
9480.000000;0.831772
9479.000000;0.831778
9478.000000;0.831618
9477.000000;0.831283
9476.000000;0.830869
9475.000000;0.830488
9474.000000;0.830212
9473.000000;0.830118
9472.000000;0.830273
9471.000000;0.830631
9470.000000;0.830999
9469.000000;0.831137
9468.000000;0.830928
9467.000000;0.830475
9466.000000;0.830073
9465.000000;0.830006
9464.000000;0.830253
9463.000000;0.830456
9462.000000;0.830269
9461.000000;0.829740
9460.000000;0.829233
9459.000000;0.829027
9458.000000;0.829122
9457.000000;0.829389
9456.000000;0.829697
9455.000000;0.829871
9454.000000;0.829732
9453.000000;0.829308
9452.000000;0.828847
9451.000000;0.828521
9450.000000;0.828232
9449.000000;0.827854
9448.000000;0.827534
9447.000000;0.827580
9446.000000;0.828080
9445.000000;0.828747
9444.000000;0.829147
9443.000000;0.829000
9442.000000;0.828338
9441.000000;0.827516
9440.000000;0.827019
9439.000000;0.827128
9438.000000;0.827672
9437.000000;0.828170
9436.000000;0.828248
9435.000000;0.827921
9434.000000;0.827487
9433.000000;0.827219
9432.000000;0.827148
9431.000000;0.827111
9430.000000;0.826963
9429.000000;0.826718
9428.000000;0.826485
9427.000000;0.826284
9426.000000;0.826010
9425.000000;0.825608
9424.000000;0.825183
9423.000000;0.824929
9422.000000;0.824984
9421.000000;0.825388
9420.000000;0.826045
9419.000000;0.826689
9418.000000;0.826988
9417.000000;0.826789
9416.000000;0.826203
9415.000000;0.825428
9414.000000;0.824618
9413.000000;0.823978
9412.000000;0.823804
9411.000000;0.824192
9410.000000;0.824802
9409.000000;0.825128
9408.000000;0.825041
9407.000000;0.824886
9406.000000;0.825003
9405.000000;0.825322
9404.000000;0.825501
9403.000000;0.825317
9402.000000;0.824835
9401.000000;0.824292
9400.000000;0.823933
9399.000000;0.823890
9398.000000;0.824083
9397.000000;0.824216
9396.000000;0.823980
9395.000000;0.823367
9394.000000;0.822751
9393.000000;0.822589
9392.000000;0.822981
9391.000000;0.823569
9390.000000;0.823902
9389.000000;0.823855
9388.000000;0.823619
9387.000000;0.823374
9386.000000;0.823129
9385.000000;0.822881
9384.000000;0.822693
9383.000000;0.822548
9382.000000;0.822284
9381.000000;0.821846
9380.000000;0.821452
9379.000000;0.821371
9378.000000;0.821642
9377.000000;0.822149
9376.000000;0.822820
9375.000000;0.823520
9374.000000;0.823844
9373.000000;0.823382
9372.000000;0.822249
9371.000000;0.821112
9370.000000;0.820571
9369.000000;0.820657
9368.000000;0.820978
9367.000000;0.821162
9366.000000;0.821075
9365.000000;0.820798
9364.000000;0.820543
9363.000000;0.820501
9362.000000;0.820619
9361.000000;0.820599
9360.000000;0.820195
9359.000000;0.819489
9358.000000;0.818804
9357.000000;0.818411
9356.000000;0.818375
9355.000000;0.818605
9354.000000;0.818964
9353.000000;0.819358
9352.000000;0.819762
9351.000000;0.820151
9350.000000;0.820394
9349.000000;0.820296
9348.000000;0.819806
9347.000000;0.819115
9346.000000;0.818507
9345.000000;0.818152
9344.000000;0.818037
9343.000000;0.817994
9342.000000;0.817802
9341.000000;0.817366
9340.000000;0.816871
9339.000000;0.816637
9338.000000;0.816758
9337.000000;0.816970
9336.000000;0.816961
9335.000000;0.816687
9334.000000;0.816315
9333.000000;0.815995
9332.000000;0.815809
9331.000000;0.815844
9330.000000;0.816139
9329.000000;0.816560
9328.000000;0.816863
9327.000000;0.816885
9326.000000;0.816619
9325.000000;0.816179
9324.000000;0.815778
9323.000000;0.815640
9322.000000;0.815789
9321.000000;0.815981
9320.000000;0.815988
9319.000000;0.815907
9318.000000;0.816001
9317.000000;0.816257
9316.000000;0.816324
9315.000000;0.815950
9314.000000;0.815329
9313.000000;0.814915
9312.000000;0.814975
9311.000000;0.815397
9310.000000;0.815820
9309.000000;0.815903
9308.000000;0.815576
9307.000000;0.815110
9306.000000;0.814903
9305.000000;0.815102
9304.000000;0.815480
9303.000000;0.815701
9302.000000;0.815650
9301.000000;0.815450
9300.000000;0.815238
9299.000000;0.814995
9298.000000;0.814597
9297.000000;0.813975
9296.000000;0.813237
9295.000000;0.812650
9294.000000;0.812411
9293.000000;0.812415
9292.000000;0.812343
9291.000000;0.812033
9290.000000;0.811702
9289.000000;0.811684
9288.000000;0.812028
9287.000000;0.812451
9286.000000;0.812671
9285.000000;0.812677
9284.000000;0.812642
9283.000000;0.812668
9282.000000;0.812715
9281.000000;0.812728
9280.000000;0.812770
9279.000000;0.812955
9278.000000;0.813278
9277.000000;0.813552
9276.000000;0.813553
9275.000000;0.813224
9274.000000;0.812702
9273.000000;0.812175
9272.000000;0.811770
9271.000000;0.811540
9270.000000;0.811435
9269.000000;0.811284
9268.000000;0.810938
9267.000000;0.810505
9266.000000;0.810303
9265.000000;0.810522
9264.000000;0.810991
9263.000000;0.811384
9262.000000;0.811547
9261.000000;0.811509
9260.000000;0.811287
9259.000000;0.810884
9258.000000;0.810434
9257.000000;0.810154
9256.000000;0.810104
9255.000000;0.810135
9254.000000;0.810107
9253.000000;0.810026
9252.000000;0.809921
9251.000000;0.809731
9250.000000;0.809414
9249.000000;0.809080
9248.000000;0.808895
9247.000000;0.808896
9246.000000;0.808970
9245.000000;0.808966
9244.000000;0.808814
9243.000000;0.808560
9242.000000;0.808336
9241.000000;0.808263
9240.000000;0.808343
9239.000000;0.808507
9238.000000;0.808729
9237.000000;0.809025
9236.000000;0.809294
9235.000000;0.809309
9234.000000;0.808946
9233.000000;0.808370
9232.000000;0.807904
9231.000000;0.807737
9230.000000;0.807822
9229.000000;0.807975
9228.000000;0.807996
9227.000000;0.807747
9226.000000;0.807250
9225.000000;0.806730
9224.000000;0.806457
9223.000000;0.806510
9222.000000;0.806712
9221.000000;0.806820
9220.000000;0.806743
9219.000000;0.806559
9218.000000;0.806381
9217.000000;0.806240
9216.000000;0.806122
9215.000000;0.806078
9214.000000;0.806231
9213.000000;0.806625
9212.000000;0.807099
9211.000000;0.807353
9210.000000;0.807182
9209.000000;0.806601
9208.000000;0.805809
9207.000000;0.805089
9206.000000;0.804695
9205.000000;0.804705
9204.000000;0.804938
9203.000000;0.805109
9202.000000;0.805112
9201.000000;0.805066
9200.000000;0.805082
9199.000000;0.805128
9198.000000;0.805158
9197.000000;0.805215
9196.000000;0.805300
9195.000000;0.805264
9194.000000;0.804952
9193.000000;0.804408
9192.000000;0.803811
9191.000000;0.803303
9190.000000;0.802963
9189.000000;0.802876
9188.000000;0.803042
9187.000000;0.803288
9186.000000;0.803378
9185.000000;0.803230
9184.000000;0.802922
9183.000000;0.802584
9182.000000;0.802384
9181.000000;0.802521
9180.000000;0.803037
9179.000000;0.803653
9178.000000;0.803971
9177.000000;0.803864
9176.000000;0.803526
9175.000000;0.803170
9174.000000;0.802847
9173.000000;0.802563
9172.000000;0.802368
9171.000000;0.802231
9170.000000;0.802004
9169.000000;0.801620
9168.000000;0.801243
9167.000000;0.801111
9166.000000;0.801273
9165.000000;0.801539
9164.000000;0.801656
9163.000000;0.801516
9162.000000;0.801237
9161.000000;0.801047
9160.000000;0.801046
9159.000000;0.801103
9158.000000;0.801034
9157.000000;0.800847
9156.000000;0.800681
9155.000000;0.800584
9154.000000;0.800512
9153.000000;0.800515
9152.000000;0.800728
9151.000000;0.801105
9150.000000;0.801334
9149.000000;0.801125
9148.000000;0.800479
9147.000000;0.799650
9146.000000;0.798959
9145.000000;0.798648
9144.000000;0.798735
9143.000000;0.798927
9142.000000;0.798847
9141.000000;0.798474
9140.000000;0.798177
9139.000000;0.798244
9138.000000;0.798529
9137.000000;0.798712
9136.000000;0.798723
9135.000000;0.798726
9134.000000;0.798791
9133.000000;0.798822
9132.000000;0.798759
9131.000000;0.798639
9130.000000;0.798485
9129.000000;0.798293
9128.000000;0.798148
9127.000000;0.798176
9126.000000;0.798364
9125.000000;0.798577
9124.000000;0.798743
9123.000000;0.798877
9122.000000;0.798911
9121.000000;0.798655
9120.000000;0.798035
9119.000000;0.797268
9118.000000;0.796691
9117.000000;0.796460
9116.000000;0.796462
9115.000000;0.796488
9114.000000;0.796454
9113.000000;0.796446
9112.000000;0.796558
9111.000000;0.796717
9110.000000;0.796715
9109.000000;0.796448
9108.000000;0.796055
9107.000000;0.795769
9106.000000;0.795666
9105.000000;0.795646
9104.000000;0.795605
9103.000000;0.795503
9102.000000;0.795309
9101.000000;0.795021
9100.000000;0.794769
9099.000000;0.794755
9098.000000;0.795011
9097.000000;0.795299
9096.000000;0.795349
9095.000000;0.795143
9094.000000;0.794887
9093.000000;0.794746
9092.000000;0.794695
9091.000000;0.794621
9090.000000;0.794476
9089.000000;0.794273
9088.000000;0.794026
9087.000000;0.793786
9086.000000;0.793711
9085.000000;0.793952
9084.000000;0.794421
9083.000000;0.794768
9082.000000;0.794711
9081.000000;0.794337
9080.000000;0.793975
9079.000000;0.793771
9078.000000;0.793550
9077.000000;0.793112
9076.000000;0.792527
9075.000000;0.792040
9074.000000;0.791799
9073.000000;0.791769
9072.000000;0.791829
9071.000000;0.791871
9070.000000;0.791836
9069.000000;0.791750
9068.000000;0.791701
9067.000000;0.791713
9066.000000;0.791714
9065.000000;0.791670
9064.000000;0.791681
9063.000000;0.791847
9062.000000;0.792095
9061.000000;0.792243
9060.000000;0.792197
9059.000000;0.791986
9058.000000;0.791664
9057.000000;0.791312
9056.000000;0.791086
9055.000000;0.791102
9054.000000;0.791276
9053.000000;0.791401
