Criado como novo conjunto de dados;"2706_e01_daniel.spp","98107.5 Secs"
cm-1;Abs
10000.000000;0.864238
9999.000000;0.864435
9998.000000;0.864485
9997.000000;0.864472
9996.000000;0.864531
9995.000000;0.864553
9994.000000;0.864255
9993.000000;0.863461
9992.000000;0.862352
9991.000000;0.861344
9990.000000;0.860815
9989.000000;0.860876
9988.000000;0.861315
9987.000000;0.861739
9986.000000;0.861864
9985.000000;0.861710
9984.000000;0.861503
9983.000000;0.861419
9982.000000;0.861467
9981.000000;0.861570
9980.000000;0.861651
9979.000000;0.861656
9978.000000;0.861593
9977.000000;0.861546
9976.000000;0.861578
9975.000000;0.861655
9974.000000;0.861764
9973.000000;0.862030
9972.000000;0.862504
9971.000000;0.862894
9970.000000;0.862735
9969.000000;0.861894
9968.000000;0.860753
9967.000000;0.859828
9966.000000;0.859362
9965.000000;0.859312
9964.000000;0.859507
9963.000000;0.859706
9962.000000;0.859713
9961.000000;0.859614
9960.000000;0.859761
9959.000000;0.860359
9958.000000;0.861170
9957.000000;0.861753
9956.000000;0.861905
9955.000000;0.861686
9954.000000;0.861175
9953.000000;0.860444
9952.000000;0.859719
9951.000000;0.859317
9950.000000;0.859320
9949.000000;0.859468
9948.000000;0.859433
9947.000000;0.859129
9946.000000;0.858746
9945.000000;0.858568
9944.000000;0.858743
9943.000000;0.859166
9942.000000;0.859583
9941.000000;0.859866
9940.000000;0.860086
9939.000000;0.860272
9938.000000;0.860227
9937.000000;0.859795
9936.000000;0.859219
9935.000000;0.858975
9934.000000;0.859202
9933.000000;0.859501
9932.000000;0.859398
9931.000000;0.858855
9930.000000;0.858211
9929.000000;0.857739
9928.000000;0.857448
9927.000000;0.857255
9926.000000;0.857194
9925.000000;0.857361
9924.000000;0.857736
9923.000000;0.858144
9922.000000;0.858398
9921.000000;0.858444
9920.000000;0.858303
9919.000000;0.857947
9918.000000;0.857303
9917.000000;0.856406
9916.000000;0.855497
9915.000000;0.854894
9914.000000;0.854775
9913.000000;0.855081
9912.000000;0.855550
9911.000000;0.855887
9910.000000;0.855990
9909.000000;0.856064
9908.000000;0.856356
9907.000000;0.856755
9906.000000;0.856804
9905.000000;0.856268
9904.000000;0.855508
9903.000000;0.855083
9902.000000;0.855064
9901.000000;0.855042
9900.000000;0.854767
9899.000000;0.854488
9898.000000;0.854591
9897.000000;0.855120
9896.000000;0.855804
9895.000000;0.856347
9894.000000;0.856530
9893.000000;0.856196
9892.000000;0.855384
9891.000000;0.854477
9890.000000;0.854007
9889.000000;0.854221
9888.000000;0.854896
9887.000000;0.855581
9886.000000;0.855947
9885.000000;0.855939
9884.000000;0.855675
9883.000000;0.855285
9882.000000;0.854809
9881.000000;0.854240
9880.000000;0.853631
9879.000000;0.853139
9878.000000;0.852908
9877.000000;0.852931
9876.000000;0.853060
9875.000000;0.853119
9874.000000;0.852994
9873.000000;0.852648
9872.000000;0.852175
9871.000000;0.851850
9870.000000;0.851976
9869.000000;0.852595
9868.000000;0.853371
9867.000000;0.853893
9866.000000;0.854073
9865.000000;0.854147
9864.000000;0.854275
9863.000000;0.854297
9862.000000;0.853997
9861.000000;0.853480
9860.000000;0.853102
9859.000000;0.853033
9858.000000;0.853034
9857.000000;0.852746
9856.000000;0.852081
9855.000000;0.851269
9854.000000;0.850577
9853.000000;0.850122
9852.000000;0.849913
9851.000000;0.849925
9850.000000;0.850082
9849.000000;0.850227
9848.000000;0.850252
9847.000000;0.850265
9846.000000;0.850515
9845.000000;0.851052
9844.000000;0.851506
9843.000000;0.851379
9842.000000;0.850610
9841.000000;0.849730
9840.000000;0.849355
9839.000000;0.849586
9838.000000;0.850022
9837.000000;0.850263
9836.000000;0.850235
9835.000000;0.850073
9834.000000;0.849915
9833.000000;0.849859
9832.000000;0.849922
9831.000000;0.849950
9830.000000;0.849743
9829.000000;0.849386
9828.000000;0.849284
9827.000000;0.849710
9826.000000;0.850429
9825.000000;0.850916
9824.000000;0.850874
9823.000000;0.850400
9822.000000;0.849764
9821.000000;0.849222
9820.000000;0.848983
9819.000000;0.849112
9818.000000;0.849417
9817.000000;0.849616
9816.000000;0.849681
9815.000000;0.849859
9814.000000;0.850273
9813.000000;0.850638
9812.000000;0.850509
9811.000000;0.849776
9810.000000;0.848830
9809.000000;0.848203
9808.000000;0.848087
9807.000000;0.848215
9806.000000;0.848206
9805.000000;0.847998
9804.000000;0.847853
9803.000000;0.847970
9802.000000;0.848232
9801.000000;0.848429
9800.000000;0.848584
9799.000000;0.848827
9798.000000;0.849026
9797.000000;0.848798
9796.000000;0.847986
9795.000000;0.846935
9794.000000;0.846159
9793.000000;0.845863
9792.000000;0.845889
9791.000000;0.845990
9790.000000;0.846022
9789.000000;0.845947
9788.000000;0.845839
9787.000000;0.845895
9786.000000;0.846297
9785.000000;0.846985
9784.000000;0.847649
9783.000000;0.847993
9782.000000;0.847960
9781.000000;0.847685
9780.000000;0.847311
9779.000000;0.846935
9778.000000;0.846685
9777.000000;0.846727
9776.000000;0.847098
9775.000000;0.847594
9774.000000;0.847902
9773.000000;0.847895
9772.000000;0.847715
9771.000000;0.847527
9770.000000;0.847305
9769.000000;0.846925
9768.000000;0.846447
9767.000000;0.846121
9766.000000;0.846102
9765.000000;0.846292
9764.000000;0.846523
9763.000000;0.846760
9762.000000;0.847003
9761.000000;0.847091
9760.000000;0.846799
9759.000000;0.846163
9758.000000;0.845516
9757.000000;0.845121
9756.000000;0.844913
9755.000000;0.844700
9754.000000;0.844495
9753.000000;0.844475
9752.000000;0.844654
9751.000000;0.844792
9750.000000;0.844698
9749.000000;0.844477
9748.000000;0.844361
9747.000000;0.844401
9746.000000;0.844466
9745.000000;0.844476
9744.000000;0.844462
9743.000000;0.844390
9742.000000;0.844097
9741.000000;0.843511
9740.000000;0.842833
9739.000000;0.842382
9738.000000;0.842299
9737.000000;0.842495
9736.000000;0.842803
9735.000000;0.843073
9734.000000;0.843139
9733.000000;0.842892
9732.000000;0.842446
9731.000000;0.842132
9730.000000;0.842199
9729.000000;0.842544
9728.000000;0.842841
9727.000000;0.842887
9726.000000;0.842746
9725.000000;0.842540
9724.000000;0.842257
9723.000000;0.841850
9722.000000;0.841452
9721.000000;0.841364
9720.000000;0.841779
9719.000000;0.842546
9718.000000;0.843227
9717.000000;0.843405
9716.000000;0.842978
9715.000000;0.842199
9714.000000;0.841423
9713.000000;0.840818
9712.000000;0.840346
9711.000000;0.840011
9710.000000;0.839991
9709.000000;0.840403
9708.000000;0.841013
9707.000000;0.841365
9706.000000;0.841218
9705.000000;0.840740
9704.000000;0.840225
9703.000000;0.839773
9702.000000;0.839349
9701.000000;0.838999
9700.000000;0.838870
9699.000000;0.839048
9698.000000;0.839480
9697.000000;0.840024
9696.000000;0.840501
9695.000000;0.840774
9694.000000;0.840864
9693.000000;0.840917
9692.000000;0.840969
9691.000000;0.840855
9690.000000;0.840473
9689.000000;0.840022
9688.000000;0.839808
9687.000000;0.839876
9686.000000;0.840019
9685.000000;0.840084
9684.000000;0.840084
9683.000000;0.840032
9682.000000;0.839894
9681.000000;0.839735
9680.000000;0.839700
9679.000000;0.839816
9678.000000;0.839969
9677.000000;0.840127
9676.000000;0.840371
9675.000000;0.840634
9674.000000;0.840637
9673.000000;0.840205
9672.000000;0.839478
9671.000000;0.838717
9670.000000;0.838036
9669.000000;0.837462
9668.000000;0.837087
9667.000000;0.836995
9666.000000;0.837148
9665.000000;0.837439
9664.000000;0.837776
9663.000000;0.838011
9662.000000;0.837965
9661.000000;0.837630
9660.000000;0.837230
9659.000000;0.836953
9658.000000;0.836745
9657.000000;0.836496
9656.000000;0.836269
9655.000000;0.836195
9654.000000;0.836301
9653.000000;0.836633
9652.000000;0.837345
9651.000000;0.838367
9650.000000;0.839107
9649.000000;0.838877
9648.000000;0.837686
9647.000000;0.836320
9646.000000;0.835551
9645.000000;0.835488
9644.000000;0.835762
9643.000000;0.836087
9642.000000;0.836429
9641.000000;0.836804
9640.000000;0.837124
9639.000000;0.837292
9638.000000;0.837319
9637.000000;0.837293
9636.000000;0.837253
9635.000000;0.837105
9634.000000;0.836710
9633.000000;0.836091
9632.000000;0.835506
9631.000000;0.835237
9630.000000;0.835352
9629.000000;0.835695
9628.000000;0.836069
9627.000000;0.836328
9626.000000;0.836376
9625.000000;0.836212
9624.000000;0.835968
9623.000000;0.835789
9622.000000;0.835700
9621.000000;0.835672
9620.000000;0.835729
9619.000000;0.835835
9618.000000;0.835745
9617.000000;0.835210
9616.000000;0.834375
9615.000000;0.833751
9614.000000;0.833708
9613.000000;0.834126
9612.000000;0.834588
9611.000000;0.834791
9610.000000;0.834690
9609.000000;0.834395
9608.000000;0.834045
9607.000000;0.833755
9606.000000;0.833595
9605.000000;0.833623
9604.000000;0.833880
9603.000000;0.834253
9602.000000;0.834439
9601.000000;0.834221
9600.000000;0.833776
9599.000000;0.833500
9598.000000;0.833509
9597.000000;0.833540
9596.000000;0.833405
9595.000000;0.833281
9594.000000;0.833390
9593.000000;0.833628
9592.000000;0.833732
9591.000000;0.833655
9590.000000;0.833547
9589.000000;0.833468
9588.000000;0.833371
9587.000000;0.833291
9586.000000;0.833297
9585.000000;0.833290
9584.000000;0.833072
9583.000000;0.832640
9582.000000;0.832215
9581.000000;0.831937
9580.000000;0.831727
9579.000000;0.831475
9578.000000;0.831202
9577.000000;0.830977
9576.000000;0.830843
9575.000000;0.830892
9574.000000;0.831236
9573.000000;0.831828
9572.000000;0.832425
9571.000000;0.832852
9570.000000;0.833154
9569.000000;0.833386
9568.000000;0.833396
9567.000000;0.833001
9566.000000;0.832304
9565.000000;0.831670
9564.000000;0.831384
9563.000000;0.831446
9562.000000;0.831650
9561.000000;0.831733
9560.000000;0.831503
9559.000000;0.830989
9558.000000;0.830491
9557.000000;0.830339
9556.000000;0.830557
9555.000000;0.830841
9554.000000;0.830928
9553.000000;0.830859
9552.000000;0.830822
9551.000000;0.830861
9550.000000;0.830858
9549.000000;0.830755
9548.000000;0.830672
9547.000000;0.830800
9546.000000;0.831212
9545.000000;0.831743
9544.000000;0.832029
9543.000000;0.831737
9542.000000;0.830869
9541.000000;0.829793
9540.000000;0.828913
9539.000000;0.828358
9538.000000;0.828058
9537.000000;0.827982
9536.000000;0.828168
9535.000000;0.828551
9534.000000;0.828979
9533.000000;0.829389
9532.000000;0.829771
9531.000000;0.829943
9530.000000;0.829606
9529.000000;0.828773
9528.000000;0.827951
9527.000000;0.827703
9526.000000;0.828100
9525.000000;0.828728
9524.000000;0.829124
9523.000000;0.829048
9522.000000;0.828460
9521.000000;0.827562
9520.000000;0.826845
9519.000000;0.826812
9518.000000;0.827462
9517.000000;0.828208
9516.000000;0.828453
9515.000000;0.828173
9514.000000;0.827806
9513.000000;0.827660
9512.000000;0.827614
9511.000000;0.827391
9510.000000;0.826965
9509.000000;0.826620
9508.000000;0.826679
9507.000000;0.827222
9506.000000;0.828020
9505.000000;0.828698
9504.000000;0.828954
9503.000000;0.828689
9502.000000;0.828008
9501.000000;0.827199
9500.000000;0.826672
9499.000000;0.826756
9498.000000;0.827409
9497.000000;0.828158
9496.000000;0.828472
9495.000000;0.828228
9494.000000;0.827757
9493.000000;0.827419
9492.000000;0.827269
9491.000000;0.827182
9490.000000;0.827135
9489.000000;0.827208
9488.000000;0.827368
9487.000000;0.827433
9486.000000;0.827315
9485.000000;0.827118
9484.000000;0.826955
9483.000000;0.826774
9482.000000;0.826473
9481.000000;0.826082
9480.000000;0.825710
9479.000000;0.825381
9478.000000;0.825089
9477.000000;0.824950
9476.000000;0.825131
9475.000000;0.825576
9474.000000;0.825940
9473.000000;0.825895
9472.000000;0.825445
9471.000000;0.824894
9470.000000;0.824591
9469.000000;0.824702
9468.000000;0.825124
9467.000000;0.825537
9466.000000;0.825629
9465.000000;0.825351
9464.000000;0.824922
9463.000000;0.824590
9462.000000;0.824448
9461.000000;0.824500
9460.000000;0.824720
9459.000000;0.824981
9458.000000;0.825051
9457.000000;0.824817
9456.000000;0.824428
9455.000000;0.824119
9454.000000;0.823929
9453.000000;0.823705
9452.000000;0.823356
9451.000000;0.822977
9450.000000;0.822772
9449.000000;0.822928
9448.000000;0.823510
9447.000000;0.824353
9446.000000;0.825077
9445.000000;0.825345
9444.000000;0.825108
9443.000000;0.824567
9442.000000;0.823974
9441.000000;0.823537
9440.000000;0.823394
9439.000000;0.823503
9438.000000;0.823594
9437.000000;0.823419
9436.000000;0.823034
9435.000000;0.822710
9434.000000;0.822596
9433.000000;0.822632
9432.000000;0.822752
9431.000000;0.822929
9430.000000;0.823029
9429.000000;0.822869
9428.000000;0.822507
9427.000000;0.822279
9426.000000;0.822412
9425.000000;0.822741
9424.000000;0.822928
9423.000000;0.822815
9422.000000;0.822464
9421.000000;0.822005
9420.000000;0.821591
9419.000000;0.821393
9418.000000;0.821464
9417.000000;0.821652
9416.000000;0.821736
9415.000000;0.821614
9414.000000;0.821323
9413.000000;0.820977
9412.000000;0.820777
9411.000000;0.820909
9410.000000;0.821295
9409.000000;0.821551
9408.000000;0.821374
9407.000000;0.820883
9406.000000;0.820435
9405.000000;0.820199
9404.000000;0.820098
9403.000000;0.820091
9402.000000;0.820236
9401.000000;0.820485
9400.000000;0.820652
9399.000000;0.820659
9398.000000;0.820632
9397.000000;0.820673
9396.000000;0.820698
9395.000000;0.820590
9394.000000;0.820377
9393.000000;0.820156
9392.000000;0.819955
9391.000000;0.819792
9390.000000;0.819748
9389.000000;0.819853
9388.000000;0.819954
9387.000000;0.819859
9386.000000;0.819588
9385.000000;0.819359
9384.000000;0.819302
9383.000000;0.819304
9382.000000;0.819172
9381.000000;0.818900
9380.000000;0.818685
9379.000000;0.818710
9378.000000;0.818948
9377.000000;0.819191
9376.000000;0.819256
9375.000000;0.819124
9374.000000;0.818899
9373.000000;0.818690
9372.000000;0.818555
9371.000000;0.818520
9370.000000;0.818575
9369.000000;0.818652
9368.000000;0.818687
9367.000000;0.818673
9366.000000;0.818626
9365.000000;0.818515
9364.000000;0.818317
9363.000000;0.818120
9362.000000;0.818051
9361.000000;0.818074
9360.000000;0.817968
9359.000000;0.817575
9358.000000;0.817013
9357.000000;0.816552
9356.000000;0.816349
9355.000000;0.816371
9354.000000;0.816520
9353.000000;0.816718
9352.000000;0.816893
9351.000000;0.816991
9350.000000;0.817011
9349.000000;0.816988
9348.000000;0.816918
9347.000000;0.816786
9346.000000;0.816658
9345.000000;0.816664
9344.000000;0.816841
9343.000000;0.817055
9342.000000;0.817134
9341.000000;0.817045
9340.000000;0.816870
9339.000000;0.816647
9338.000000;0.816312
9337.000000;0.815845
9336.000000;0.815417
9335.000000;0.815297
9334.000000;0.815591
9333.000000;0.816074
9332.000000;0.816372
9331.000000;0.816325
9330.000000;0.816137
9329.000000;0.816080
9328.000000;0.816132
9327.000000;0.816023
9326.000000;0.815645
9325.000000;0.815261
9324.000000;0.815221
9323.000000;0.815523
9322.000000;0.815817
9321.000000;0.815798
9320.000000;0.815499
9319.000000;0.815168
9318.000000;0.814972
9317.000000;0.814881
9316.000000;0.814779
9315.000000;0.814603
9314.000000;0.814401
9313.000000;0.814315
9312.000000;0.814465
9311.000000;0.814793
9310.000000;0.815066
9309.000000;0.815087
9308.000000;0.814908
9307.000000;0.814746
9306.000000;0.814721
9305.000000;0.814753
9304.000000;0.814719
9303.000000;0.814626
9302.000000;0.814564
9301.000000;0.814561
9300.000000;0.814543
9299.000000;0.814420
9298.000000;0.814166
9297.000000;0.813839
9296.000000;0.813573
9295.000000;0.813519
9294.000000;0.813718
9293.000000;0.814021
9292.000000;0.814201
9291.000000;0.814155
9290.000000;0.813972
9289.000000;0.813780
9288.000000;0.813580
9287.000000;0.813279
9286.000000;0.812863
9285.000000;0.812486
9284.000000;0.812335
9283.000000;0.812432
9282.000000;0.812606
9281.000000;0.812681
9280.000000;0.812656
9279.000000;0.812665
9278.000000;0.812772
9277.000000;0.812866
9276.000000;0.812802
9275.000000;0.812585
9274.000000;0.812372
9273.000000;0.812292
9272.000000;0.812335
9271.000000;0.812400
9270.000000;0.812411
9269.000000;0.812352
9268.000000;0.812255
9267.000000;0.812176
9266.000000;0.812162
9265.000000;0.812209
9264.000000;0.812257
9263.000000;0.812253
9262.000000;0.812206
9261.000000;0.812142
9260.000000;0.812043
9259.000000;0.811870
9258.000000;0.811651
9257.000000;0.811494
9256.000000;0.811465
9255.000000;0.811481
9254.000000;0.811368
9253.000000;0.811063
9252.000000;0.810695
9251.000000;0.810455
9250.000000;0.810407
9249.000000;0.810465
9248.000000;0.810528
9247.000000;0.810572
9246.000000;0.810573
9245.000000;0.810452
9244.000000;0.810174
9243.000000;0.809852
9242.000000;0.809667
9241.000000;0.809681
9240.000000;0.809778
9239.000000;0.809815
9238.000000;0.809756
9237.000000;0.809672
9236.000000;0.809664
9235.000000;0.809802
9234.000000;0.810060
9233.000000;0.810271
9232.000000;0.810238
9231.000000;0.809930
9230.000000;0.809527
9229.000000;0.809218
9228.000000;0.809009
9227.000000;0.808797
9226.000000;0.808579
9225.000000;0.808504
9224.000000;0.808711
9223.000000;0.809173
9222.000000;0.809682
9221.000000;0.809976
9220.000000;0.809895
9219.000000;0.809483
9218.000000;0.808950
9217.000000;0.808494
9216.000000;0.808204
9215.000000;0.808120
9214.000000;0.808280
9213.000000;0.808620
9212.000000;0.808875
9211.000000;0.808761
9210.000000;0.808270
9209.000000;0.807708
9208.000000;0.807409
9207.000000;0.807492
9206.000000;0.807865
9205.000000;0.808328
9204.000000;0.808629
9203.000000;0.808581
9202.000000;0.808235
9201.000000;0.807850
9200.000000;0.807616
9199.000000;0.807498
9198.000000;0.807429
9197.000000;0.807509
9196.000000;0.807833
9195.000000;0.808198
9194.000000;0.808232
9193.000000;0.807859
9192.000000;0.807461
9191.000000;0.807460
9190.000000;0.807833
9189.000000;0.808141
9188.000000;0.807996
9187.000000;0.807422
9186.000000;0.806776
9185.000000;0.806413
9184.000000;0.806425
9183.000000;0.806623
9182.000000;0.806750
9181.000000;0.806707
9180.000000;0.806598
9179.000000;0.806568
9178.000000;0.806627
9177.000000;0.806654
9176.000000;0.806550
9175.000000;0.806352
9174.000000;0.806184
9173.000000;0.806118
9172.000000;0.806103
9171.000000;0.806024
9170.000000;0.805824
9169.000000;0.805564
9168.000000;0.805387
9167.000000;0.805395
9166.000000;0.805541
9165.000000;0.805636
9164.000000;0.805510
9163.000000;0.805202
9162.000000;0.804963
9161.000000;0.805009
9160.000000;0.805261
9159.000000;0.805420
9158.000000;0.805301
9157.000000;0.805026
9156.000000;0.804837
9155.000000;0.804811
9154.000000;0.804855
9153.000000;0.804919
9152.000000;0.805064
9151.000000;0.805297
9150.000000;0.805465
9149.000000;0.805400
9148.000000;0.805104
9147.000000;0.804723
9146.000000;0.804381
9145.000000;0.804114
9144.000000;0.803934
9143.000000;0.803883
9142.000000;0.803967
9141.000000;0.804081
9140.000000;0.804057
9139.000000;0.803802
9138.000000;0.803403
9137.000000;0.803087
9136.000000;0.803070
9135.000000;0.803395
9134.000000;0.803872
9133.000000;0.804184
9132.000000;0.804107
9131.000000;0.803681
9130.000000;0.803163
9129.000000;0.802792
9128.000000;0.802622
9127.000000;0.802606
9126.000000;0.802740
9125.000000;0.803012
9124.000000;0.803233
9123.000000;0.803128
9122.000000;0.802695
9121.000000;0.802349
9120.000000;0.802527
9119.000000;0.803205
9118.000000;0.803904
9117.000000;0.804166
9116.000000;0.803914
9115.000000;0.803391
9114.000000;0.802913
9113.000000;0.802708
9112.000000;0.802827
9111.000000;0.803097
9110.000000;0.803223
9109.000000;0.803037
9108.000000;0.802642
9107.000000;0.802285
9106.000000;0.802128
9105.000000;0.802165
9104.000000;0.802289
9103.000000;0.802361
9102.000000;0.802269
9101.000000;0.802005
9100.000000;0.801690
9099.000000;0.801463
9098.000000;0.801364
9097.000000;0.801312
9096.000000;0.801218
9095.000000;0.801080
9094.000000;0.800993
9093.000000;0.801050
9092.000000;0.801217
9091.000000;0.801328
9090.000000;0.801250
9089.000000;0.801044
9088.000000;0.800924
9087.000000;0.801034
9086.000000;0.801325
9085.000000;0.801632
9084.000000;0.801810
9083.000000;0.801794
9082.000000;0.801608
9081.000000;0.801359
9080.000000;0.801155
9079.000000;0.801002
9078.000000;0.800846
9077.000000;0.800702
9076.000000;0.800649
9075.000000;0.800655
9074.000000;0.800557
9073.000000;0.800295
9072.000000;0.800037
9071.000000;0.799966
9070.000000;0.800027
9069.000000;0.800045
9068.000000;0.799993
9067.000000;0.799972
9066.000000;0.799953
9065.000000;0.799763
9064.000000;0.799360
9063.000000;0.798954
9062.000000;0.798771
9061.000000;0.798835
9060.000000;0.799033
9059.000000;0.799269
9058.000000;0.799467
9057.000000;0.799546
9056.000000;0.799504
9055.000000;0.799456
9054.000000;0.799456
9053.000000;0.799362
