Criado como novo conjunto de dados;"2706_e01_daniel.spp","67505.5 Secs"
cm-1;Abs
10000.000000;0.732970
9999.000000;0.733425
9998.000000;0.733423
9997.000000;0.732869
9996.000000;0.732158
9995.000000;0.731682
9994.000000;0.731468
9993.000000;0.731224
9992.000000;0.730776
9991.000000;0.730166
9990.000000;0.729502
9989.000000;0.728847
9988.000000;0.728304
9987.000000;0.728035
9986.000000;0.728129
9985.000000;0.728482
9984.000000;0.728840
9983.000000;0.728946
9982.000000;0.728725
9981.000000;0.728393
9980.000000;0.728302
9979.000000;0.728571
9978.000000;0.728921
9977.000000;0.728976
9976.000000;0.728719
9975.000000;0.728538
9974.000000;0.728807
9973.000000;0.729492
9972.000000;0.730176
9971.000000;0.730418
9970.000000;0.730071
9969.000000;0.729319
9968.000000;0.728456
9967.000000;0.727681
9966.000000;0.727047
9965.000000;0.726545
9964.000000;0.726170
9963.000000;0.725925
9962.000000;0.725813
9961.000000;0.725816
9960.000000;0.725885
9959.000000;0.725980
9958.000000;0.726166
9957.000000;0.726613
9956.000000;0.727392
9955.000000;0.728257
9954.000000;0.728736
9953.000000;0.728508
9952.000000;0.727703
9951.000000;0.726810
9950.000000;0.726270
9949.000000;0.726140
9948.000000;0.726174
9947.000000;0.726189
9946.000000;0.726250
9945.000000;0.726430
9944.000000;0.726522
9943.000000;0.726216
9942.000000;0.725522
9941.000000;0.724782
9940.000000;0.724249
9939.000000;0.723898
9938.000000;0.723724
9937.000000;0.723915
9936.000000;0.724480
9935.000000;0.724943
9934.000000;0.724716
9933.000000;0.723754
9932.000000;0.722597
9931.000000;0.721804
9930.000000;0.721510
9929.000000;0.721514
9928.000000;0.721585
9927.000000;0.721665
9926.000000;0.721902
9925.000000;0.722488
9924.000000;0.723374
9923.000000;0.724180
9922.000000;0.724509
9921.000000;0.724341
9920.000000;0.724002
9919.000000;0.723783
9918.000000;0.723669
9917.000000;0.723383
9916.000000;0.722686
9915.000000;0.721677
9914.000000;0.720840
9913.000000;0.720638
9912.000000;0.721020
9911.000000;0.721475
9910.000000;0.721639
9909.000000;0.721613
9908.000000;0.721594
9907.000000;0.721498
9906.000000;0.721193
9905.000000;0.720873
9904.000000;0.720853
9903.000000;0.721115
9902.000000;0.721346
9901.000000;0.721376
9900.000000;0.721338
9899.000000;0.721440
9898.000000;0.721745
9897.000000;0.722120
9896.000000;0.722218
9895.000000;0.721684
9894.000000;0.720601
9893.000000;0.719584
9892.000000;0.719188
9891.000000;0.719336
9890.000000;0.719546
9889.000000;0.719589
9888.000000;0.719610
9887.000000;0.719698
9886.000000;0.719729
9885.000000;0.719598
9884.000000;0.719336
9883.000000;0.718958
9882.000000;0.718465
9881.000000;0.717990
9880.000000;0.717735
9879.000000;0.717759
9878.000000;0.718029
9877.000000;0.718565
9876.000000;0.719301
9875.000000;0.719922
9874.000000;0.720129
9873.000000;0.719996
9872.000000;0.719759
9871.000000;0.719365
9870.000000;0.718592
9869.000000;0.717544
9868.000000;0.716643
9867.000000;0.716120
9866.000000;0.715911
9865.000000;0.716015
9864.000000;0.716512
9863.000000;0.717143
9862.000000;0.717311
9861.000000;0.716722
9860.000000;0.715729
9859.000000;0.714927
9858.000000;0.714667
9857.000000;0.715060
9856.000000;0.716046
9855.000000;0.717233
9854.000000;0.717976
9853.000000;0.717902
9852.000000;0.717231
9851.000000;0.716440
9850.000000;0.715811
9849.000000;0.715425
9848.000000;0.715325
9847.000000;0.715453
9846.000000;0.715596
9845.000000;0.715603
9844.000000;0.715512
9843.000000;0.715335
9842.000000;0.714903
9841.000000;0.714098
9840.000000;0.713135
9839.000000;0.712426
9838.000000;0.712255
9837.000000;0.712671
9836.000000;0.713537
9835.000000;0.714518
9834.000000;0.715181
9833.000000;0.715324
9832.000000;0.715187
9831.000000;0.715164
9830.000000;0.715339
9829.000000;0.715407
9828.000000;0.715024
9827.000000;0.714153
9826.000000;0.713106
9825.000000;0.712294
9824.000000;0.711920
9823.000000;0.711847
9822.000000;0.711787
9821.000000;0.711613
9820.000000;0.711453
9819.000000;0.711467
9818.000000;0.711639
9817.000000;0.711801
9816.000000;0.711825
9815.000000;0.711724
9814.000000;0.711619
9813.000000;0.711636
9812.000000;0.711814
9811.000000;0.712095
9810.000000;0.712372
9809.000000;0.712499
9808.000000;0.712277
9807.000000;0.711591
9806.000000;0.710644
9805.000000;0.709916
9804.000000;0.709744
9803.000000;0.710010
9802.000000;0.710357
9801.000000;0.710594
9800.000000;0.710747
9799.000000;0.710813
9798.000000;0.710689
9797.000000;0.710336
9796.000000;0.709833
9795.000000;0.709320
9794.000000;0.709005
9793.000000;0.709101
9792.000000;0.709553
9791.000000;0.709931
9790.000000;0.709846
9789.000000;0.709439
9788.000000;0.709180
9787.000000;0.709255
9786.000000;0.709408
9785.000000;0.709391
9784.000000;0.709249
9783.000000;0.709105
9782.000000;0.708941
9781.000000;0.708709
9780.000000;0.708440
9779.000000;0.708147
9778.000000;0.707823
9777.000000;0.707626
9776.000000;0.707821
9775.000000;0.708376
9774.000000;0.708820
9773.000000;0.708719
9772.000000;0.708187
9771.000000;0.707752
9770.000000;0.707792
9769.000000;0.708231
9768.000000;0.708719
9767.000000;0.708942
9766.000000;0.708789
9765.000000;0.708376
9764.000000;0.707984
9763.000000;0.707841
9762.000000;0.707850
9761.000000;0.707601
9760.000000;0.706830
9759.000000;0.705876
9758.000000;0.705471
9757.000000;0.705940
9756.000000;0.706743
9755.000000;0.707037
9754.000000;0.706647
9753.000000;0.706162
9752.000000;0.706068
9751.000000;0.706169
9750.000000;0.706031
9749.000000;0.705664
9748.000000;0.705446
9747.000000;0.705548
9746.000000;0.705761
9745.000000;0.705810
9744.000000;0.705619
9743.000000;0.705322
9742.000000;0.705162
9741.000000;0.705288
9740.000000;0.705506
9739.000000;0.705383
9738.000000;0.704766
9737.000000;0.704049
9736.000000;0.703727
9735.000000;0.703859
9734.000000;0.704157
9733.000000;0.704392
9732.000000;0.704433
9731.000000;0.704112
9730.000000;0.703426
9729.000000;0.702775
9728.000000;0.702600
9727.000000;0.702843
9726.000000;0.703062
9725.000000;0.703031
9724.000000;0.702888
9723.000000;0.702776
9722.000000;0.702679
9721.000000;0.702590
9720.000000;0.702488
9719.000000;0.702187
9718.000000;0.701548
9717.000000;0.700878
9716.000000;0.700729
9715.000000;0.701233
9714.000000;0.701920
9713.000000;0.702277
9712.000000;0.702201
9711.000000;0.701873
9710.000000;0.701494
9709.000000;0.701255
9708.000000;0.701292
9707.000000;0.701514
9706.000000;0.701656
9705.000000;0.701559
9704.000000;0.701276
9703.000000;0.700921
9702.000000;0.700610
9701.000000;0.700521
9700.000000;0.700724
9699.000000;0.700979
9698.000000;0.700968
9697.000000;0.700766
9696.000000;0.700763
9695.000000;0.701109
9694.000000;0.701544
9693.000000;0.701824
9692.000000;0.701973
9691.000000;0.702041
9690.000000;0.701933
9689.000000;0.701628
9688.000000;0.701317
9687.000000;0.701165
9686.000000;0.701111
9685.000000;0.700992
9684.000000;0.700678
9683.000000;0.700098
9682.000000;0.699387
9681.000000;0.698982
9680.000000;0.699249
9679.000000;0.699944
9678.000000;0.700361
9677.000000;0.700135
9676.000000;0.699566
9675.000000;0.699073
9674.000000;0.698688
9673.000000;0.698286
9672.000000;0.697934
9671.000000;0.697749
9670.000000;0.697684
9669.000000;0.697707
9668.000000;0.697949
9667.000000;0.698387
9666.000000;0.698619
9665.000000;0.698258
9664.000000;0.697470
9663.000000;0.696836
9662.000000;0.696740
9661.000000;0.697046
9660.000000;0.697335
9659.000000;0.697307
9658.000000;0.697007
9657.000000;0.696787
9656.000000;0.696987
9655.000000;0.697576
9654.000000;0.698181
9653.000000;0.698510
9652.000000;0.698616
9651.000000;0.698647
9650.000000;0.698562
9649.000000;0.698217
9648.000000;0.697648
9647.000000;0.697075
9646.000000;0.696692
9645.000000;0.696540
9644.000000;0.696534
9643.000000;0.696535
9642.000000;0.696463
9641.000000;0.696383
9640.000000;0.696395
9639.000000;0.696440
9638.000000;0.696346
9637.000000;0.696088
9636.000000;0.695834
9635.000000;0.695709
9634.000000;0.695655
9633.000000;0.695599
9632.000000;0.695568
9631.000000;0.695568
9630.000000;0.695472
9629.000000;0.695155
9628.000000;0.694643
9627.000000;0.694089
9626.000000;0.693713
9625.000000;0.693745
9624.000000;0.694248
9623.000000;0.694946
9622.000000;0.695417
9621.000000;0.695503
9620.000000;0.695361
9619.000000;0.695087
9618.000000;0.694573
9617.000000;0.693858
9616.000000;0.693335
9615.000000;0.693361
9614.000000;0.693822
9613.000000;0.694294
9612.000000;0.694550
9611.000000;0.694684
9610.000000;0.694781
9609.000000;0.694681
9608.000000;0.694151
9607.000000;0.693216
9606.000000;0.692250
9605.000000;0.691727
9604.000000;0.691837
9603.000000;0.692350
9602.000000;0.692884
9601.000000;0.693268
9600.000000;0.693544
9599.000000;0.693699
9598.000000;0.693595
9597.000000;0.693186
9596.000000;0.692628
9595.000000;0.692124
9594.000000;0.691774
9593.000000;0.691598
9592.000000;0.691565
9591.000000;0.691576
9590.000000;0.691570
9589.000000;0.691652
9588.000000;0.691937
9587.000000;0.692282
9586.000000;0.692379
9585.000000;0.692156
9584.000000;0.691858
9583.000000;0.691690
9582.000000;0.691609
9581.000000;0.691540
9580.000000;0.691541
9579.000000;0.691614
9578.000000;0.691568
9577.000000;0.691295
9576.000000;0.691025
9575.000000;0.691089
9574.000000;0.691496
9573.000000;0.691871
9572.000000;0.691811
9571.000000;0.691225
9570.000000;0.690426
9569.000000;0.689916
9568.000000;0.689975
9567.000000;0.690371
9566.000000;0.690579
9565.000000;0.690345
9564.000000;0.689884
9563.000000;0.689503
9562.000000;0.689245
9561.000000;0.689006
9560.000000;0.688795
9559.000000;0.688678
9558.000000;0.688609
9557.000000;0.688512
9556.000000;0.688459
9555.000000;0.688608
9554.000000;0.688966
9553.000000;0.689317
9552.000000;0.689390
9551.000000;0.689067
9550.000000;0.688504
9549.000000;0.688084
9548.000000;0.688157
9547.000000;0.688729
9546.000000;0.689431
9545.000000;0.689832
9544.000000;0.689722
9543.000000;0.689161
9542.000000;0.688392
9541.000000;0.687756
9540.000000;0.687492
9539.000000;0.687507
9538.000000;0.687484
9537.000000;0.687278
9536.000000;0.687087
9535.000000;0.687139
9534.000000;0.687367
9533.000000;0.687520
9532.000000;0.687460
9531.000000;0.687217
9530.000000;0.686858
9529.000000;0.686469
9528.000000;0.686193
9527.000000;0.686136
9526.000000;0.686253
9525.000000;0.686437
9524.000000;0.686634
9523.000000;0.686770
9522.000000;0.686661
9521.000000;0.686178
9520.000000;0.685483
9519.000000;0.684940
9518.000000;0.684770
9517.000000;0.684901
9516.000000;0.685167
9515.000000;0.685502
9514.000000;0.685878
9513.000000;0.686149
9512.000000;0.686116
9511.000000;0.685762
9510.000000;0.685332
9509.000000;0.685116
9508.000000;0.685180
9507.000000;0.685342
9506.000000;0.685386
9505.000000;0.685232
9504.000000;0.684909
9503.000000;0.684497
9502.000000;0.684141
9501.000000;0.684021
9500.000000;0.684195
9499.000000;0.684519
9498.000000;0.684769
9497.000000;0.684787
9496.000000;0.684487
9495.000000;0.683861
9494.000000;0.683108
9493.000000;0.682627
9492.000000;0.682688
9491.000000;0.683154
9490.000000;0.683656
9489.000000;0.683963
9488.000000;0.684035
9487.000000;0.683828
9486.000000;0.683335
9485.000000;0.682754
9484.000000;0.682367
9483.000000;0.682192
9482.000000;0.681996
9481.000000;0.681687
9480.000000;0.681450
9479.000000;0.681426
9478.000000;0.681502
9477.000000;0.681532
9476.000000;0.681563
9475.000000;0.681678
9474.000000;0.681809
9473.000000;0.681853
9472.000000;0.681844
9471.000000;0.681849
9470.000000;0.681803
9469.000000;0.681614
9468.000000;0.681389
9467.000000;0.681345
9466.000000;0.681514
9465.000000;0.681678
9464.000000;0.681617
9463.000000;0.681345
9462.000000;0.681044
9461.000000;0.680839
9460.000000;0.680696
9459.000000;0.680533
9458.000000;0.680353
9457.000000;0.680198
9456.000000;0.680002
9455.000000;0.679648
9454.000000;0.679208
9453.000000;0.678990
9452.000000;0.679191
9451.000000;0.679606
9450.000000;0.679831
9449.000000;0.679708
9448.000000;0.679417
9447.000000;0.679189
9446.000000;0.679119
9445.000000;0.679244
9444.000000;0.679570
9443.000000;0.679947
9442.000000;0.680105
9441.000000;0.679918
9440.000000;0.679524
9439.000000;0.679130
9438.000000;0.678812
9437.000000;0.678534
9436.000000;0.678267
9435.000000;0.678020
9434.000000;0.677834
9433.000000;0.677776
9432.000000;0.677853
9431.000000;0.677937
9430.000000;0.677850
9429.000000;0.677545
9428.000000;0.677100
9427.000000;0.676602
9426.000000;0.676124
9425.000000;0.675818
9424.000000;0.675811
9423.000000;0.676021
9422.000000;0.676206
9421.000000;0.676255
9420.000000;0.676288
9419.000000;0.676431
9418.000000;0.676625
9417.000000;0.676724
9416.000000;0.676647
9415.000000;0.676412
9414.000000;0.676110
9413.000000;0.675897
9412.000000;0.675878
9411.000000;0.675988
9410.000000;0.676076
9409.000000;0.676117
9408.000000;0.676195
9407.000000;0.676277
9406.000000;0.676187
9405.000000;0.675867
9404.000000;0.675503
9403.000000;0.675306
9402.000000;0.675285
9401.000000;0.675292
9400.000000;0.675179
9399.000000;0.674847
9398.000000;0.674285
9397.000000;0.673662
9396.000000;0.673293
9395.000000;0.673375
9394.000000;0.673792
9393.000000;0.674220
9392.000000;0.674435
9391.000000;0.674484
9390.000000;0.674600
9389.000000;0.674929
9388.000000;0.675307
9387.000000;0.675347
9386.000000;0.674849
9385.000000;0.674077
9384.000000;0.673506
9383.000000;0.673318
9382.000000;0.673289
9381.000000;0.673128
9380.000000;0.672809
9379.000000;0.672536
9378.000000;0.672544
9377.000000;0.672928
9376.000000;0.673505
9375.000000;0.673853
9374.000000;0.673660
9373.000000;0.673083
9372.000000;0.672624
9371.000000;0.672598
9370.000000;0.672876
9369.000000;0.673173
9368.000000;0.673376
9367.000000;0.673513
9366.000000;0.673586
9365.000000;0.673595
9364.000000;0.673598
9363.000000;0.673623
9362.000000;0.673567
9361.000000;0.673297
9360.000000;0.672825
9359.000000;0.672320
9358.000000;0.671990
9357.000000;0.671949
9356.000000;0.672114
9355.000000;0.672223
9354.000000;0.672052
9353.000000;0.671637
9352.000000;0.671223
9351.000000;0.670982
9350.000000;0.670884
9349.000000;0.670817
9348.000000;0.670703
9347.000000;0.670486
9346.000000;0.670169
9345.000000;0.669880
9344.000000;0.669783
9343.000000;0.669879
9342.000000;0.670000
9341.000000;0.670045
9340.000000;0.670070
9339.000000;0.670127
9338.000000;0.670154
9337.000000;0.670103
9336.000000;0.670038
9335.000000;0.670045
9334.000000;0.670116
9333.000000;0.670183
9332.000000;0.670185
9331.000000;0.670090
9330.000000;0.669930
9329.000000;0.669814
9328.000000;0.669803
9327.000000;0.669801
9326.000000;0.669693
9325.000000;0.669575
9324.000000;0.669645
9323.000000;0.669874
9322.000000;0.669997
9321.000000;0.669871
9320.000000;0.669642
9319.000000;0.669465
9318.000000;0.669275
9317.000000;0.668972
9316.000000;0.668651
9315.000000;0.668484
9314.000000;0.668482
9313.000000;0.668510
9312.000000;0.668465
9311.000000;0.668319
9310.000000;0.668076
9309.000000;0.667806
9308.000000;0.667651
9307.000000;0.667687
9306.000000;0.667813
9305.000000;0.667855
9304.000000;0.667734
9303.000000;0.667486
9302.000000;0.667190
9301.000000;0.666935
9300.000000;0.666768
9299.000000;0.666647
9298.000000;0.666491
9297.000000;0.666340
9296.000000;0.666344
9295.000000;0.666549
9294.000000;0.666788
9293.000000;0.666854
9292.000000;0.666721
9291.000000;0.666523
9290.000000;0.666382
9289.000000;0.666333
9288.000000;0.666343
9287.000000;0.666356
9286.000000;0.666339
9285.000000;0.666317
9284.000000;0.666304
9283.000000;0.666220
9282.000000;0.665968
9281.000000;0.665602
9280.000000;0.665283
9279.000000;0.665059
9278.000000;0.664830
9277.000000;0.664565
9276.000000;0.664410
9275.000000;0.664492
9274.000000;0.664734
9273.000000;0.664960
9272.000000;0.665102
9271.000000;0.665201
9270.000000;0.665282
9269.000000;0.665295
9268.000000;0.665169
9267.000000;0.664872
9266.000000;0.664472
9265.000000;0.664144
9264.000000;0.664018
9263.000000;0.664016
9262.000000;0.663919
9261.000000;0.663642
9260.000000;0.663335
9259.000000;0.663178
9258.000000;0.663203
9257.000000;0.663367
9256.000000;0.663647
9255.000000;0.663968
9254.000000;0.664125
9253.000000;0.663912
9252.000000;0.663325
9251.000000;0.662602
9250.000000;0.662078
9249.000000;0.661980
9248.000000;0.662263
9247.000000;0.662625
9246.000000;0.662754
9245.000000;0.662598
9244.000000;0.662319
9243.000000;0.662021
9242.000000;0.661703
9241.000000;0.661479
9240.000000;0.661601
9239.000000;0.662120
9238.000000;0.662691
9237.000000;0.662874
9236.000000;0.662577
9235.000000;0.662065
9234.000000;0.661638
9233.000000;0.661424
9232.000000;0.661419
9231.000000;0.661563
9230.000000;0.661741
9229.000000;0.661815
9228.000000;0.661709
9227.000000;0.661438
9226.000000;0.661103
9225.000000;0.660853
9224.000000;0.660789
9223.000000;0.660863
9222.000000;0.660931
9221.000000;0.660906
9220.000000;0.660798
9219.000000;0.660597
9218.000000;0.660253
9217.000000;0.659833
9216.000000;0.659548
9215.000000;0.659526
9214.000000;0.659631
9213.000000;0.659639
9212.000000;0.659506
9211.000000;0.659364
9210.000000;0.659292
9209.000000;0.659245
9208.000000;0.659190
9207.000000;0.659194
9206.000000;0.659325
9205.000000;0.659535
9204.000000;0.659676
9203.000000;0.659597
9202.000000;0.659233
9201.000000;0.658658
9200.000000;0.658075
9199.000000;0.657715
9198.000000;0.657705
9197.000000;0.657998
9196.000000;0.658393
9195.000000;0.658646
9194.000000;0.658614
9193.000000;0.658345
9192.000000;0.658030
9191.000000;0.657840
9190.000000;0.657796
9189.000000;0.657791
9188.000000;0.657715
9187.000000;0.657576
9186.000000;0.657488
9185.000000;0.657528
9184.000000;0.657585
9183.000000;0.657421
9182.000000;0.656931
9181.000000;0.656328
9180.000000;0.655985
9179.000000;0.656084
9178.000000;0.656457
9177.000000;0.656778
9176.000000;0.656848
9175.000000;0.656687
9174.000000;0.656418
9173.000000;0.656132
9172.000000;0.655870
9171.000000;0.655685
9170.000000;0.655648
9169.000000;0.655765
9168.000000;0.655923
9167.000000;0.656024
9166.000000;0.656115
9165.000000;0.656285
9164.000000;0.656439
9163.000000;0.656336
9162.000000;0.655912
9161.000000;0.655423
9160.000000;0.655159
9159.000000;0.655135
9158.000000;0.655195
9157.000000;0.655262
9156.000000;0.655323
9155.000000;0.655276
9154.000000;0.655003
9153.000000;0.654574
9152.000000;0.654191
9151.000000;0.653961
9150.000000;0.653860
9149.000000;0.653887
9148.000000;0.654063
9147.000000;0.654262
9146.000000;0.654254
9145.000000;0.653994
9144.000000;0.653728
9143.000000;0.653717
9142.000000;0.653941
9141.000000;0.654129
9140.000000;0.654009
9139.000000;0.653518
9138.000000;0.652860
9137.000000;0.652369
9136.000000;0.652260
9135.000000;0.652468
9134.000000;0.652776
9133.000000;0.653038
9132.000000;0.653211
9131.000000;0.653233
9130.000000;0.653049
9129.000000;0.652750
9128.000000;0.652544
9127.000000;0.652531
9126.000000;0.652608
9125.000000;0.652622
9124.000000;0.652521
9123.000000;0.652349
9122.000000;0.652199
9121.000000;0.652190
9120.000000;0.652370
9119.000000;0.652594
9118.000000;0.652611
9117.000000;0.652335
9116.000000;0.651981
9115.000000;0.651853
9114.000000;0.652051
9113.000000;0.652381
9112.000000;0.652530
9111.000000;0.652330
9110.000000;0.651888
9109.000000;0.651475
9108.000000;0.651257
9107.000000;0.651175
9106.000000;0.651082
9105.000000;0.650925
9104.000000;0.650749
9103.000000;0.650620
9102.000000;0.650627
9101.000000;0.650847
9100.000000;0.651193
9099.000000;0.651394
9098.000000;0.651254
9097.000000;0.650882
9096.000000;0.650533
9095.000000;0.650304
9094.000000;0.650120
9093.000000;0.649929
9092.000000;0.649742
9091.000000;0.649530
9090.000000;0.649250
9089.000000;0.648954
9088.000000;0.648727
9087.000000;0.648564
9086.000000;0.648429
9085.000000;0.648383
9084.000000;0.648480
9083.000000;0.648614
9082.000000;0.648662
9081.000000;0.648695
9080.000000;0.648853
9079.000000;0.649031
9078.000000;0.648944
9077.000000;0.648494
9076.000000;0.647861
9075.000000;0.647241
9074.000000;0.646739
9073.000000;0.646510
9072.000000;0.646706
9071.000000;0.647193
9070.000000;0.647553
9069.000000;0.647507
9068.000000;0.647199
9067.000000;0.646979
9066.000000;0.647044
9065.000000;0.647343
9064.000000;0.647664
9063.000000;0.647772
9062.000000;0.647588
9061.000000;0.647302
9060.000000;0.647166
9059.000000;0.647180
9058.000000;0.647128
9057.000000;0.646919
9056.000000;0.646686
9055.000000;0.646535
9054.000000;0.646426
9053.000000;0.646341
