Criado como novo conjunto de dados;"2706_e01_daniel.spp","72725.7 Secs"
cm-1;Abs
10000.000000;0.834326
9999.000000;0.834723
9998.000000;0.835107
9997.000000;0.835525
9996.000000;0.835690
9995.000000;0.835066
9994.000000;0.833751
9993.000000;0.832584
9992.000000;0.832357
9991.000000;0.833015
9990.000000;0.833806
9989.000000;0.834123
9988.000000;0.833939
9987.000000;0.833455
9986.000000;0.832756
9985.000000;0.832019
9984.000000;0.831743
9983.000000;0.832377
9982.000000;0.833679
9981.000000;0.834697
9980.000000;0.834556
9979.000000;0.833247
9978.000000;0.831582
9977.000000;0.830392
9976.000000;0.829855
9975.000000;0.829631
9974.000000;0.829524
9973.000000;0.829779
9972.000000;0.830634
9971.000000;0.831757
9970.000000;0.832438
9969.000000;0.832363
9968.000000;0.831967
9967.000000;0.831869
9966.000000;0.832131
9965.000000;0.832238
9964.000000;0.831752
9963.000000;0.830801
9962.000000;0.829862
9961.000000;0.829215
9960.000000;0.828748
9959.000000;0.828290
9958.000000;0.828011
9957.000000;0.828289
9956.000000;0.829160
9955.000000;0.830059
9954.000000;0.830319
9953.000000;0.829908
9952.000000;0.829456
9951.000000;0.829460
9950.000000;0.829686
9949.000000;0.829467
9948.000000;0.828519
9947.000000;0.827247
9946.000000;0.826294
9945.000000;0.825950
9944.000000;0.826024
9943.000000;0.826148
9942.000000;0.826156
9941.000000;0.826212
9940.000000;0.826594
9939.000000;0.827308
9938.000000;0.827964
9937.000000;0.828114
9936.000000;0.827694
9935.000000;0.827068
9934.000000;0.826645
9933.000000;0.826575
9932.000000;0.826764
9931.000000;0.827006
9930.000000;0.827045
9929.000000;0.826675
9928.000000;0.825945
9927.000000;0.825188
9926.000000;0.824749
9925.000000;0.824675
9924.000000;0.824725
9923.000000;0.824631
9922.000000;0.824332
9921.000000;0.824030
9920.000000;0.824050
9919.000000;0.824555
9918.000000;0.825296
9917.000000;0.825751
9916.000000;0.825621
9915.000000;0.825133
9914.000000;0.824778
9913.000000;0.824828
9912.000000;0.825215
9911.000000;0.825704
9910.000000;0.825958
9909.000000;0.825556
9908.000000;0.824305
9907.000000;0.822658
9906.000000;0.821554
9905.000000;0.821645
9904.000000;0.822718
9903.000000;0.823934
9902.000000;0.824574
9901.000000;0.824522
9900.000000;0.824148
9899.000000;0.823864
9898.000000;0.823766
9897.000000;0.823647
9896.000000;0.823350
9895.000000;0.823027
9894.000000;0.822912
9893.000000;0.822914
9892.000000;0.822706
9891.000000;0.822264
9890.000000;0.822015
9889.000000;0.822284
9888.000000;0.822782
9887.000000;0.822919
9886.000000;0.822513
9885.000000;0.821926
9884.000000;0.821562
9883.000000;0.821476
9882.000000;0.821481
9881.000000;0.821425
9880.000000;0.821249
9879.000000;0.820944
9878.000000;0.820541
9877.000000;0.820132
9876.000000;0.819848
9875.000000;0.819806
9874.000000;0.820040
9873.000000;0.820429
9872.000000;0.820744
9871.000000;0.820794
9870.000000;0.820528
9869.000000;0.820050
9868.000000;0.819637
9867.000000;0.819697
9866.000000;0.820417
9865.000000;0.821366
9864.000000;0.821716
9863.000000;0.821128
9862.000000;0.820214
9861.000000;0.819820
9860.000000;0.819987
9859.000000;0.819974
9858.000000;0.819268
9857.000000;0.818195
9856.000000;0.817448
9855.000000;0.817310
9854.000000;0.817531
9853.000000;0.817739
9852.000000;0.817760
9851.000000;0.817609
9850.000000;0.817402
9849.000000;0.817322
9848.000000;0.817561
9847.000000;0.818158
9846.000000;0.818852
9845.000000;0.819193
9844.000000;0.818978
9843.000000;0.818545
9842.000000;0.818383
9841.000000;0.818413
9840.000000;0.817979
9839.000000;0.816777
9838.000000;0.815445
9837.000000;0.814861
9836.000000;0.815070
9835.000000;0.815394
9834.000000;0.815469
9833.000000;0.815596
9832.000000;0.815972
9831.000000;0.816187
9830.000000;0.815802
9829.000000;0.815027
9828.000000;0.814418
9827.000000;0.814182
9826.000000;0.814134
9825.000000;0.814176
9824.000000;0.814449
9823.000000;0.815036
9822.000000;0.815805
9821.000000;0.816537
9820.000000;0.817000
9819.000000;0.816961
9818.000000;0.816334
9817.000000;0.815378
9816.000000;0.814593
9815.000000;0.814344
9814.000000;0.814572
9813.000000;0.814855
9812.000000;0.814759
9811.000000;0.814250
9810.000000;0.813778
9809.000000;0.813858
9808.000000;0.814542
9807.000000;0.815424
9806.000000;0.816084
9805.000000;0.816319
9804.000000;0.815960
9803.000000;0.814879
9802.000000;0.813360
9801.000000;0.812145
9800.000000;0.811787
9799.000000;0.812092
9798.000000;0.812441
9797.000000;0.812505
9796.000000;0.812397
9795.000000;0.812285
9794.000000;0.812234
9793.000000;0.812369
9792.000000;0.812797
9791.000000;0.813306
9790.000000;0.813437
9789.000000;0.813005
9788.000000;0.812308
9787.000000;0.811764
9786.000000;0.811529
9785.000000;0.811563
9784.000000;0.811822
9783.000000;0.812225
9782.000000;0.812563
9781.000000;0.812667
9780.000000;0.812605
9779.000000;0.812597
9778.000000;0.812738
9777.000000;0.812875
9776.000000;0.812736
9775.000000;0.812155
9774.000000;0.811206
9773.000000;0.810166
9772.000000;0.809348
9771.000000;0.808949
9770.000000;0.808997
9769.000000;0.809351
9768.000000;0.809694
9767.000000;0.809673
9766.000000;0.809229
9765.000000;0.808758
9764.000000;0.808785
9763.000000;0.809406
9762.000000;0.810172
9761.000000;0.810541
9760.000000;0.810347
9759.000000;0.809786
9758.000000;0.809133
9757.000000;0.808634
9756.000000;0.808541
9755.000000;0.809009
9754.000000;0.809886
9753.000000;0.810708
9752.000000;0.811019
9751.000000;0.810692
9750.000000;0.809944
9749.000000;0.809079
9748.000000;0.808284
9747.000000;0.807635
9746.000000;0.807205
9745.000000;0.807090
9744.000000;0.807296
9743.000000;0.807660
9742.000000;0.807911
9741.000000;0.807866
9740.000000;0.807574
9739.000000;0.807271
9738.000000;0.807161
9737.000000;0.807196
9736.000000;0.807094
9735.000000;0.806613
9734.000000;0.805850
9733.000000;0.805218
9732.000000;0.805088
9731.000000;0.805482
9730.000000;0.806128
9729.000000;0.806737
9728.000000;0.807168
9727.000000;0.807379
9726.000000;0.807330
9725.000000;0.807012
9724.000000;0.806480
9723.000000;0.805827
9722.000000;0.805154
9721.000000;0.804625
9720.000000;0.804492
9719.000000;0.804929
9718.000000;0.805773
9717.000000;0.806521
9716.000000;0.806701
9715.000000;0.806267
9714.000000;0.805578
9713.000000;0.805038
9712.000000;0.804830
9711.000000;0.804951
9710.000000;0.805331
9709.000000;0.805834
9708.000000;0.806259
9707.000000;0.806447
9706.000000;0.806331
9705.000000;0.805889
9704.000000;0.805146
9703.000000;0.804286
9702.000000;0.803607
9701.000000;0.803255
9700.000000;0.803092
9699.000000;0.802896
9698.000000;0.802612
9697.000000;0.802269
9696.000000;0.801866
9695.000000;0.801515
9694.000000;0.801567
9693.000000;0.802267
9692.000000;0.803325
9691.000000;0.804134
9690.000000;0.804435
9689.000000;0.804498
9688.000000;0.804593
9687.000000;0.804577
9686.000000;0.804153
9685.000000;0.803317
9684.000000;0.802354
9683.000000;0.801599
9682.000000;0.801320
9681.000000;0.801667
9680.000000;0.802512
9679.000000;0.803401
9678.000000;0.803847
9677.000000;0.803645
9676.000000;0.802897
9675.000000;0.801871
9674.000000;0.800911
9673.000000;0.800303
9672.000000;0.800062
9671.000000;0.799963
9670.000000;0.799893
9669.000000;0.800035
9668.000000;0.800550
9667.000000;0.801201
9666.000000;0.801518
9665.000000;0.801287
9664.000000;0.800708
9663.000000;0.800162
9662.000000;0.799947
9661.000000;0.800156
9660.000000;0.800606
9659.000000;0.800907
9658.000000;0.800788
9657.000000;0.800340
9656.000000;0.799878
9655.000000;0.799621
9654.000000;0.799612
9653.000000;0.799805
9652.000000;0.800025
9651.000000;0.799949
9650.000000;0.799370
9649.000000;0.798498
9648.000000;0.797799
9647.000000;0.797529
9646.000000;0.797546
9645.000000;0.797569
9644.000000;0.797455
9643.000000;0.797236
9642.000000;0.797041
9641.000000;0.797027
9640.000000;0.797237
9639.000000;0.797533
9638.000000;0.797756
9637.000000;0.797926
9636.000000;0.798148
9635.000000;0.798355
9634.000000;0.798347
9633.000000;0.798080
9632.000000;0.797735
9631.000000;0.797472
9630.000000;0.797299
9629.000000;0.797211
9628.000000;0.797234
9627.000000;0.797242
9626.000000;0.796964
9625.000000;0.796334
9624.000000;0.795705
9623.000000;0.795530
9622.000000;0.795893
9621.000000;0.796482
9620.000000;0.796941
9619.000000;0.797117
9618.000000;0.797029
9617.000000;0.796776
9616.000000;0.796523
9615.000000;0.796412
9614.000000;0.796419
9613.000000;0.796337
9612.000000;0.796006
9611.000000;0.795529
9610.000000;0.795197
9609.000000;0.795184
9608.000000;0.795353
9607.000000;0.795411
9606.000000;0.795245
9605.000000;0.795021
9604.000000;0.794953
9603.000000;0.795060
9602.000000;0.795217
9601.000000;0.795322
9600.000000;0.795312
9599.000000;0.795117
9598.000000;0.794745
9597.000000;0.794402
9596.000000;0.794337
9595.000000;0.794520
9594.000000;0.794596
9593.000000;0.794277
9592.000000;0.793694
9591.000000;0.793285
9590.000000;0.793369
9589.000000;0.793902
9588.000000;0.794573
9587.000000;0.795045
9586.000000;0.795115
9585.000000;0.794794
9584.000000;0.794303
9583.000000;0.793964
9582.000000;0.793972
9581.000000;0.794235
9580.000000;0.794455
9579.000000;0.794410
9578.000000;0.794138
9577.000000;0.793827
9576.000000;0.793598
9575.000000;0.793440
9574.000000;0.793309
9573.000000;0.793175
9572.000000;0.792998
9571.000000;0.792782
9570.000000;0.792641
9569.000000;0.792668
9568.000000;0.792726
9567.000000;0.792569
9566.000000;0.792242
9565.000000;0.792142
9564.000000;0.792518
9563.000000;0.793058
9562.000000;0.793178
9561.000000;0.792655
9560.000000;0.791766
9559.000000;0.790895
9558.000000;0.790236
9557.000000;0.789829
9556.000000;0.789635
9555.000000;0.789529
9554.000000;0.789419
9553.000000;0.789424
9552.000000;0.789722
9551.000000;0.790202
9550.000000;0.790481
9549.000000;0.790375
9548.000000;0.790146
9547.000000;0.790128
9546.000000;0.790272
9545.000000;0.790281
9544.000000;0.790070
9543.000000;0.789862
9542.000000;0.789836
9541.000000;0.789892
9540.000000;0.789817
9539.000000;0.789574
9538.000000;0.789335
9537.000000;0.789297
9536.000000;0.789502
9535.000000;0.789827
9534.000000;0.790082
9533.000000;0.790126
9532.000000;0.789912
9531.000000;0.789477
9530.000000;0.788949
9529.000000;0.788535
9528.000000;0.788385
9527.000000;0.788410
9526.000000;0.788301
9525.000000;0.787851
9524.000000;0.787245
9523.000000;0.786930
9522.000000;0.787139
9521.000000;0.787617
9520.000000;0.787853
9519.000000;0.787557
9518.000000;0.786875
9517.000000;0.786166
9516.000000;0.785670
9515.000000;0.785414
9514.000000;0.785328
9513.000000;0.785349
9512.000000;0.785409
9511.000000;0.785442
9510.000000;0.785471
9509.000000;0.785614
9508.000000;0.785950
9507.000000;0.786389
9506.000000;0.786728
9505.000000;0.786829
9504.000000;0.786707
9503.000000;0.786485
9502.000000;0.786290
9501.000000;0.786182
9500.000000;0.786122
9499.000000;0.786036
9498.000000;0.785911
9497.000000;0.785798
9496.000000;0.785704
9495.000000;0.785532
9494.000000;0.785186
9493.000000;0.784705
9492.000000;0.784245
9491.000000;0.783954
9490.000000;0.783897
9489.000000;0.784048
9488.000000;0.784286
9487.000000;0.784440
9486.000000;0.784413
9485.000000;0.784260
9484.000000;0.784077
9483.000000;0.783873
9482.000000;0.783618
9481.000000;0.783384
9480.000000;0.783322
9479.000000;0.783473
9478.000000;0.783658
9477.000000;0.783598
9476.000000;0.783167
9475.000000;0.782559
9474.000000;0.782173
9473.000000;0.782259
9472.000000;0.782649
9471.000000;0.782917
9470.000000;0.782846
9469.000000;0.782618
9468.000000;0.782490
9467.000000;0.782441
9466.000000;0.782292
9465.000000;0.782020
9464.000000;0.781771
9463.000000;0.781611
9462.000000;0.781482
9461.000000;0.781380
9460.000000;0.781384
9459.000000;0.781489
9458.000000;0.781578
9457.000000;0.781559
9456.000000;0.781398
9455.000000;0.781064
9454.000000;0.780631
9453.000000;0.780401
9452.000000;0.780691
9451.000000;0.781415
9450.000000;0.782087
9449.000000;0.782318
9448.000000;0.782142
9447.000000;0.781772
9446.000000;0.781255
9445.000000;0.780536
9444.000000;0.779737
9443.000000;0.779124
9442.000000;0.778854
9441.000000;0.778860
9440.000000;0.778963
9439.000000;0.779015
9438.000000;0.778979
9437.000000;0.778941
9436.000000;0.779020
9435.000000;0.779230
9434.000000;0.779480
9433.000000;0.779706
9432.000000;0.779907
9431.000000;0.780035
9430.000000;0.780003
9429.000000;0.779857
9428.000000;0.779786
9427.000000;0.779846
9426.000000;0.779826
9425.000000;0.779524
9424.000000;0.779039
9423.000000;0.778648
9422.000000;0.778495
9421.000000;0.778531
9420.000000;0.778683
9419.000000;0.778898
9418.000000;0.779079
9417.000000;0.779125
9416.000000;0.779034
9415.000000;0.778832
9414.000000;0.778485
9413.000000;0.777990
9412.000000;0.777515
9411.000000;0.777255
9410.000000;0.777204
9409.000000;0.777214
9408.000000;0.777239
9407.000000;0.777350
9406.000000;0.777496
9405.000000;0.777499
9404.000000;0.777322
9403.000000;0.777182
9402.000000;0.777265
9401.000000;0.777461
9400.000000;0.777475
9399.000000;0.777140
9398.000000;0.776559
9397.000000;0.776033
9396.000000;0.775899
9395.000000;0.776339
9394.000000;0.777179
9393.000000;0.777920
9392.000000;0.778108
9391.000000;0.777719
9390.000000;0.777136
9389.000000;0.776756
9388.000000;0.776666
9387.000000;0.776681
9386.000000;0.776617
9385.000000;0.776450
9384.000000;0.776230
9383.000000;0.775939
9382.000000;0.775506
9381.000000;0.774949
9380.000000;0.774416
9379.000000;0.774051
9378.000000;0.773894
9377.000000;0.773934
9376.000000;0.774165
9375.000000;0.774497
9374.000000;0.774702
9373.000000;0.774590
9372.000000;0.774235
9371.000000;0.773895
9370.000000;0.773722
9369.000000;0.773675
9368.000000;0.773705
9367.000000;0.773866
9366.000000;0.774166
9365.000000;0.774454
9364.000000;0.774580
9363.000000;0.774584
9362.000000;0.774582
9361.000000;0.774538
9360.000000;0.774295
9359.000000;0.773820
9358.000000;0.773295
9357.000000;0.772922
9356.000000;0.772749
9355.000000;0.772708
9354.000000;0.772754
9353.000000;0.772869
9352.000000;0.772984
9351.000000;0.772976
9350.000000;0.772775
9349.000000;0.772440
9348.000000;0.772128
9347.000000;0.771995
9346.000000;0.772097
9345.000000;0.772325
9344.000000;0.772447
9343.000000;0.772265
9342.000000;0.771788
9341.000000;0.771232
9340.000000;0.770827
9339.000000;0.770642
9338.000000;0.770619
9337.000000;0.770716
9336.000000;0.770929
9335.000000;0.771167
9334.000000;0.771253
9333.000000;0.771088
9332.000000;0.770771
9331.000000;0.770476
9330.000000;0.770280
9329.000000;0.770161
9328.000000;0.770101
9327.000000;0.770079
9326.000000;0.770004
9325.000000;0.769799
9324.000000;0.769541
9323.000000;0.769446
9322.000000;0.769647
9321.000000;0.770066
9320.000000;0.770495
9319.000000;0.770751
9318.000000;0.770736
9317.000000;0.770464
9316.000000;0.770069
9315.000000;0.769715
9314.000000;0.769427
9313.000000;0.769098
9312.000000;0.768703
9311.000000;0.768425
9310.000000;0.768458
9309.000000;0.768731
9308.000000;0.768955
9307.000000;0.768946
9306.000000;0.768789
9305.000000;0.768674
9304.000000;0.768655
9303.000000;0.768628
9302.000000;0.768505
9301.000000;0.768331
9300.000000;0.768221
9299.000000;0.768220
9298.000000;0.768221
9297.000000;0.768056
9296.000000;0.767674
9295.000000;0.767232
9294.000000;0.766964
9293.000000;0.766929
9292.000000;0.766932
9291.000000;0.766718
9290.000000;0.766263
9289.000000;0.765848
9288.000000;0.765801
9287.000000;0.766170
9286.000000;0.766652
9285.000000;0.766857
9284.000000;0.766653
9283.000000;0.766246
9282.000000;0.765954
9281.000000;0.765931
9280.000000;0.766106
9279.000000;0.766304
9278.000000;0.766371
9277.000000;0.766253
9276.000000;0.766013
9275.000000;0.765793
9274.000000;0.765693
9273.000000;0.765673
9272.000000;0.765591
9271.000000;0.765341
9270.000000;0.764930
9269.000000;0.764467
9268.000000;0.764122
9267.000000;0.764058
9266.000000;0.764322
9265.000000;0.764762
9264.000000;0.765109
9263.000000;0.765184
9262.000000;0.765025
9261.000000;0.764813
9260.000000;0.764730
9259.000000;0.764873
9258.000000;0.765201
9257.000000;0.765507
9256.000000;0.765515
9255.000000;0.765131
9254.000000;0.764575
9253.000000;0.764211
9252.000000;0.764207
9251.000000;0.764419
9250.000000;0.764584
9249.000000;0.764553
9248.000000;0.764336
9247.000000;0.763990
9246.000000;0.763567
9245.000000;0.763132
9244.000000;0.762776
9243.000000;0.762576
9242.000000;0.762562
9241.000000;0.762704
9240.000000;0.762903
9239.000000;0.763009
9238.000000;0.762916
9237.000000;0.762648
9236.000000;0.762339
9235.000000;0.762101
9234.000000;0.761931
9233.000000;0.761783
9232.000000;0.761676
9231.000000;0.761676
9230.000000;0.761763
9229.000000;0.761771
9228.000000;0.761545
9227.000000;0.761115
9226.000000;0.760693
9225.000000;0.760475
9224.000000;0.760494
9223.000000;0.760652
9222.000000;0.760839
9221.000000;0.760971
9220.000000;0.760979
9219.000000;0.760832
9218.000000;0.760582
9217.000000;0.760364
9216.000000;0.760310
9215.000000;0.760465
9214.000000;0.760746
9213.000000;0.760964
9212.000000;0.760945
9211.000000;0.760672
9210.000000;0.760308
9209.000000;0.760025
9208.000000;0.759819
9207.000000;0.759559
9206.000000;0.759218
9205.000000;0.758958
9204.000000;0.758954
9203.000000;0.759183
9202.000000;0.759455
9201.000000;0.759615
9200.000000;0.759628
9199.000000;0.759501
9198.000000;0.759230
9197.000000;0.758879
9196.000000;0.758611
9195.000000;0.758566
9194.000000;0.758710
9193.000000;0.758880
9192.000000;0.758955
9191.000000;0.758943
9190.000000;0.758889
9189.000000;0.758782
9188.000000;0.758585
9187.000000;0.758327
9186.000000;0.758084
9185.000000;0.757892
9184.000000;0.757734
9183.000000;0.757611
9182.000000;0.757572
9181.000000;0.757637
9180.000000;0.757744
9179.000000;0.757801
9178.000000;0.757759
9177.000000;0.757599
9176.000000;0.757320
9175.000000;0.756988
9174.000000;0.756757
9173.000000;0.756747
9172.000000;0.756890
9171.000000;0.756958
9170.000000;0.756763
9169.000000;0.756335
9168.000000;0.755894
9167.000000;0.755682
9166.000000;0.755794
9165.000000;0.756111
9164.000000;0.756384
9163.000000;0.756425
9162.000000;0.756238
9161.000000;0.755931
9160.000000;0.755540
9159.000000;0.755038
9158.000000;0.754510
9157.000000;0.754192
9156.000000;0.754236
9155.000000;0.754522
9154.000000;0.754786
9153.000000;0.754887
9152.000000;0.754862
9151.000000;0.754774
9150.000000;0.754627
9149.000000;0.754442
9148.000000;0.754286
9147.000000;0.754178
9146.000000;0.754043
9145.000000;0.753833
9144.000000;0.753645
9143.000000;0.753628
9142.000000;0.753784
9141.000000;0.753936
9140.000000;0.753895
9139.000000;0.753627
9138.000000;0.753243
9137.000000;0.752876
9136.000000;0.752609
9135.000000;0.752486
9134.000000;0.752526
9133.000000;0.752687
9132.000000;0.752846
9131.000000;0.752880
9130.000000;0.752772
9129.000000;0.752619
9128.000000;0.752534
9127.000000;0.752551
9126.000000;0.752642
9125.000000;0.752758
9124.000000;0.752851
9123.000000;0.752861
9122.000000;0.752752
9121.000000;0.752562
9120.000000;0.752388
9119.000000;0.752313
9118.000000;0.752353
9117.000000;0.752463
9116.000000;0.752593
9115.000000;0.752687
9114.000000;0.752671
9113.000000;0.752455
9112.000000;0.752002
9111.000000;0.751409
9110.000000;0.750901
9109.000000;0.750689
9108.000000;0.750820
9107.000000;0.751136
9106.000000;0.751386
9105.000000;0.751379
9104.000000;0.751075
9103.000000;0.750575
9102.000000;0.750062
9101.000000;0.749702
9100.000000;0.749552
9099.000000;0.749570
9098.000000;0.749700
9097.000000;0.749922
9096.000000;0.750204
9095.000000;0.750433
9094.000000;0.750455
9093.000000;0.750203
9092.000000;0.749783
9091.000000;0.749418
9090.000000;0.749288
9089.000000;0.749408
9088.000000;0.749650
9087.000000;0.749893
9086.000000;0.750109
9085.000000;0.750293
9084.000000;0.750331
9083.000000;0.750058
9082.000000;0.749468
9081.000000;0.748818
9080.000000;0.748437
9079.000000;0.748448
9078.000000;0.748700
9077.000000;0.748948
9076.000000;0.749055
9075.000000;0.749027
9074.000000;0.748939
9073.000000;0.748844
9072.000000;0.748739
9071.000000;0.748590
9070.000000;0.748365
9069.000000;0.748055
9068.000000;0.747686
9067.000000;0.747332
9066.000000;0.747105
9065.000000;0.747078
9064.000000;0.747203
9063.000000;0.747351
9062.000000;0.747431
9061.000000;0.747429
9060.000000;0.747330
9059.000000;0.747091
9058.000000;0.746738
9057.000000;0.746405
9056.000000;0.746197
9055.000000;0.746064
9054.000000;0.745886
9053.000000;0.745643
