Criado como novo conjunto de dados;"2706_e01_daniel.spp","33303.8 Secs"
cm-1;Abs
10000.000000;0.646413
9999.000000;0.645678
9998.000000;0.645552
9997.000000;0.645820
9996.000000;0.646210
9995.000000;0.646789
9994.000000;0.647346
9993.000000;0.647419
9992.000000;0.646757
9991.000000;0.645798
9990.000000;0.645164
9989.000000;0.645010
9988.000000;0.645052
9987.000000;0.645143
9986.000000;0.645435
9985.000000;0.645967
9984.000000;0.646389
9983.000000;0.646241
9982.000000;0.645434
9981.000000;0.644344
9980.000000;0.643469
9979.000000;0.643048
9978.000000;0.642974
9977.000000;0.642996
9976.000000;0.642961
9975.000000;0.642888
9974.000000;0.642927
9973.000000;0.643245
9972.000000;0.643829
9971.000000;0.644337
9970.000000;0.644310
9969.000000;0.643690
9968.000000;0.642977
9967.000000;0.642677
9966.000000;0.642723
9965.000000;0.642715
9964.000000;0.642604
9963.000000;0.642776
9962.000000;0.643428
9961.000000;0.644272
9960.000000;0.644941
9959.000000;0.645318
9958.000000;0.645320
9957.000000;0.644771
9956.000000;0.643782
9955.000000;0.642944
9954.000000;0.642745
9953.000000;0.643010
9952.000000;0.643233
9951.000000;0.643288
9950.000000;0.643435
9949.000000;0.643706
9948.000000;0.643704
9947.000000;0.643100
9946.000000;0.642068
9945.000000;0.641116
9944.000000;0.640648
9943.000000;0.640702
9942.000000;0.640994
9941.000000;0.641172
9940.000000;0.641113
9939.000000;0.640963
9938.000000;0.640862
9937.000000;0.640766
9936.000000;0.640640
9935.000000;0.640590
9934.000000;0.640592
9933.000000;0.640297
9932.000000;0.639464
9931.000000;0.638503
9930.000000;0.638171
9929.000000;0.638692
9928.000000;0.639512
9927.000000;0.640010
9926.000000;0.640109
9925.000000;0.640055
9924.000000;0.639917
9923.000000;0.639608
9922.000000;0.639178
9921.000000;0.638807
9920.000000;0.638551
9919.000000;0.638346
9918.000000;0.638216
9917.000000;0.638272
9916.000000;0.638490
9915.000000;0.638647
9914.000000;0.638551
9913.000000;0.638238
9912.000000;0.637940
9911.000000;0.637913
9910.000000;0.638276
9909.000000;0.638883
9908.000000;0.639325
9907.000000;0.639206
9906.000000;0.638537
9905.000000;0.637805
9904.000000;0.637536
9903.000000;0.637816
9902.000000;0.638274
9901.000000;0.638487
9900.000000;0.638313
9899.000000;0.637890
9898.000000;0.637454
9897.000000;0.637214
9896.000000;0.637270
9895.000000;0.637537
9894.000000;0.637807
9893.000000;0.637959
9892.000000;0.638056
9891.000000;0.638188
9890.000000;0.638319
9889.000000;0.638373
9888.000000;0.638370
9887.000000;0.638318
9886.000000;0.638066
9885.000000;0.637449
9884.000000;0.636577
9883.000000;0.635779
9882.000000;0.635242
9881.000000;0.634902
9880.000000;0.634674
9879.000000;0.634587
9878.000000;0.634596
9877.000000;0.634530
9876.000000;0.634365
9875.000000;0.634381
9874.000000;0.634809
9873.000000;0.635425
9872.000000;0.635702
9871.000000;0.635356
9870.000000;0.634603
9869.000000;0.633898
9868.000000;0.633563
9867.000000;0.633650
9866.000000;0.634007
9865.000000;0.634399
9864.000000;0.634637
9863.000000;0.634670
9862.000000;0.634557
9861.000000;0.634404
9860.000000;0.634333
9859.000000;0.634443
9858.000000;0.634718
9857.000000;0.634995
9856.000000;0.635113
9855.000000;0.635080
9854.000000;0.635026
9853.000000;0.635021
9852.000000;0.634979
9851.000000;0.634732
9850.000000;0.634173
9849.000000;0.633359
9848.000000;0.632545
9847.000000;0.632044
9846.000000;0.631999
9845.000000;0.632280
9844.000000;0.632634
9843.000000;0.632922
9842.000000;0.633125
9841.000000;0.633180
9840.000000;0.632950
9839.000000;0.632428
9838.000000;0.631881
9837.000000;0.631674
9836.000000;0.631911
9835.000000;0.632301
9834.000000;0.632430
9833.000000;0.632141
9832.000000;0.631612
9831.000000;0.631108
9830.000000;0.630757
9829.000000;0.630583
9828.000000;0.630610
9827.000000;0.630825
9826.000000;0.631120
9825.000000;0.631408
9824.000000;0.631716
9823.000000;0.632064
9822.000000;0.632306
9821.000000;0.632303
9820.000000;0.632195
9819.000000;0.632287
9818.000000;0.632605
9817.000000;0.632759
9816.000000;0.632389
9815.000000;0.631596
9814.000000;0.630823
9813.000000;0.630398
9812.000000;0.630325
9811.000000;0.630429
9810.000000;0.630560
9809.000000;0.630665
9808.000000;0.630764
9807.000000;0.630860
9806.000000;0.630871
9805.000000;0.630714
9804.000000;0.630450
9803.000000;0.630278
9802.000000;0.630307
9801.000000;0.630439
9800.000000;0.630536
9799.000000;0.630603
9798.000000;0.630712
9797.000000;0.630813
9796.000000;0.630750
9795.000000;0.630455
9794.000000;0.630023
9793.000000;0.629588
9792.000000;0.629203
9791.000000;0.628854
9790.000000;0.628560
9789.000000;0.628396
9788.000000;0.628401
9787.000000;0.628468
9786.000000;0.628395
9785.000000;0.628110
9784.000000;0.627796
9783.000000;0.627702
9782.000000;0.627846
9781.000000;0.628012
9780.000000;0.628007
9779.000000;0.627827
9778.000000;0.627568
9777.000000;0.627340
9776.000000;0.627272
9775.000000;0.627462
9774.000000;0.627836
9773.000000;0.628159
9772.000000;0.628255
9771.000000;0.628149
9770.000000;0.627962
9769.000000;0.627796
9768.000000;0.627734
9767.000000;0.627811
9766.000000;0.627915
9765.000000;0.627848
9764.000000;0.627562
9763.000000;0.627199
9762.000000;0.626857
9761.000000;0.626482
9760.000000;0.626108
9759.000000;0.626002
9758.000000;0.626360
9757.000000;0.626958
9756.000000;0.627326
9755.000000;0.627240
9754.000000;0.626867
9753.000000;0.626455
9752.000000;0.626115
9751.000000;0.625912
9750.000000;0.625973
9749.000000;0.626328
9748.000000;0.626732
9747.000000;0.626802
9746.000000;0.626381
9745.000000;0.625746
9744.000000;0.625402
9743.000000;0.625608
9742.000000;0.626118
9741.000000;0.626414
9740.000000;0.626213
9739.000000;0.625688
9738.000000;0.625199
9737.000000;0.624952
9736.000000;0.624941
9735.000000;0.625080
9734.000000;0.625247
9733.000000;0.625258
9732.000000;0.624952
9731.000000;0.624352
9730.000000;0.623688
9729.000000;0.623260
9728.000000;0.623245
9727.000000;0.623585
9726.000000;0.624000
9725.000000;0.624190
9724.000000;0.624101
9723.000000;0.623971
9722.000000;0.624061
9721.000000;0.624378
9720.000000;0.624691
9719.000000;0.624780
9718.000000;0.624632
9717.000000;0.624424
9716.000000;0.624358
9715.000000;0.624453
9714.000000;0.624455
9713.000000;0.624043
9712.000000;0.623210
9711.000000;0.622359
9710.000000;0.621944
9709.000000;0.622031
9708.000000;0.622305
9707.000000;0.622470
9706.000000;0.622508
9705.000000;0.622558
9704.000000;0.622650
9703.000000;0.622652
9702.000000;0.622455
9701.000000;0.622136
9700.000000;0.621904
9699.000000;0.621896
9698.000000;0.622039
9697.000000;0.622151
9696.000000;0.622150
9695.000000;0.622144
9694.000000;0.622284
9693.000000;0.622599
9692.000000;0.622970
9691.000000;0.623247
9690.000000;0.623334
9689.000000;0.623201
9688.000000;0.622876
9687.000000;0.622460
9686.000000;0.622122
9685.000000;0.622005
9684.000000;0.622060
9683.000000;0.622028
9682.000000;0.621661
9681.000000;0.620994
9680.000000;0.620319
9679.000000;0.619888
9678.000000;0.619756
9677.000000;0.619908
9676.000000;0.620345
9675.000000;0.620930
9674.000000;0.621312
9673.000000;0.621222
9672.000000;0.620776
9671.000000;0.620331
9670.000000;0.620100
9669.000000;0.620086
9668.000000;0.620291
9667.000000;0.620707
9666.000000;0.621110
9665.000000;0.621145
9664.000000;0.620741
9663.000000;0.620250
9662.000000;0.620064
9661.000000;0.620217
9660.000000;0.620436
9659.000000;0.620452
9658.000000;0.620196
9657.000000;0.619831
9656.000000;0.619634
9655.000000;0.619751
9654.000000;0.620008
9653.000000;0.620116
9652.000000;0.620058
9651.000000;0.620076
9650.000000;0.620221
9649.000000;0.620175
9648.000000;0.619670
9647.000000;0.618921
9646.000000;0.618438
9645.000000;0.618501
9644.000000;0.618948
9643.000000;0.619390
9642.000000;0.619508
9641.000000;0.619237
9640.000000;0.618792
9639.000000;0.618457
9638.000000;0.618269
9637.000000;0.618005
9636.000000;0.617542
9635.000000;0.617089
9634.000000;0.616932
9633.000000;0.617082
9632.000000;0.617313
9631.000000;0.617453
9630.000000;0.617448
9629.000000;0.617260
9628.000000;0.616917
9627.000000;0.616642
9626.000000;0.616693
9625.000000;0.617032
9624.000000;0.617310
9623.000000;0.617254
9622.000000;0.616977
9621.000000;0.616817
9620.000000;0.616948
9619.000000;0.617184
9618.000000;0.617186
9617.000000;0.616828
9616.000000;0.616351
9615.000000;0.616105
9614.000000;0.616180
9613.000000;0.616350
9612.000000;0.616390
9611.000000;0.616311
9610.000000;0.616223
9609.000000;0.616124
9608.000000;0.615935
9607.000000;0.615694
9606.000000;0.615545
9605.000000;0.615549
9604.000000;0.615623
9603.000000;0.615682
9602.000000;0.615769
9601.000000;0.615988
9600.000000;0.616326
9599.000000;0.616582
9598.000000;0.616526
9597.000000;0.616159
9596.000000;0.615768
9595.000000;0.615645
9594.000000;0.615785
9593.000000;0.615942
9592.000000;0.615950
9591.000000;0.615854
9590.000000;0.615723
9589.000000;0.615506
9588.000000;0.615165
9587.000000;0.614812
9586.000000;0.614611
9585.000000;0.614596
9584.000000;0.614661
9583.000000;0.614654
9582.000000;0.614471
9581.000000;0.614173
9580.000000;0.614011
9579.000000;0.614184
9578.000000;0.614510
9577.000000;0.614540
9576.000000;0.614128
9575.000000;0.613712
9574.000000;0.613831
9573.000000;0.614490
9572.000000;0.615181
9571.000000;0.615443
9570.000000;0.615209
9569.000000;0.614670
9568.000000;0.614055
9567.000000;0.613564
9566.000000;0.613304
9565.000000;0.613203
9564.000000;0.613104
9563.000000;0.612977
9562.000000;0.612926
9561.000000;0.612969
9560.000000;0.612949
9559.000000;0.612722
9558.000000;0.612357
9557.000000;0.612056
9556.000000;0.611955
9555.000000;0.612078
9554.000000;0.612406
9553.000000;0.612895
9552.000000;0.613409
9551.000000;0.613768
9550.000000;0.613897
9549.000000;0.613887
9548.000000;0.613834
9547.000000;0.613686
9546.000000;0.613339
9545.000000;0.612884
9544.000000;0.612600
9543.000000;0.612630
9542.000000;0.612780
9541.000000;0.612729
9540.000000;0.612390
9539.000000;0.611928
9538.000000;0.611490
9537.000000;0.611099
9536.000000;0.610802
9535.000000;0.610711
9534.000000;0.610835
9533.000000;0.611020
9532.000000;0.611135
9531.000000;0.611208
9530.000000;0.611297
9529.000000;0.611344
9528.000000;0.611258
9527.000000;0.611096
9526.000000;0.611033
9525.000000;0.611166
9524.000000;0.611389
9523.000000;0.611472
9522.000000;0.611270
9521.000000;0.610891
9520.000000;0.610612
9519.000000;0.610538
9518.000000;0.610436
9517.000000;0.610042
9516.000000;0.609490
9515.000000;0.609210
9514.000000;0.609408
9513.000000;0.609850
9512.000000;0.610211
9511.000000;0.610424
9510.000000;0.610542
9509.000000;0.610511
9508.000000;0.610292
9507.000000;0.610059
9506.000000;0.610028
9505.000000;0.610156
9504.000000;0.610198
9503.000000;0.610053
9502.000000;0.609873
9501.000000;0.609830
9500.000000;0.609909
9499.000000;0.609968
9498.000000;0.609905
9497.000000;0.609746
9496.000000;0.609613
9495.000000;0.609601
9494.000000;0.609651
9493.000000;0.609596
9492.000000;0.609360
9491.000000;0.609067
9490.000000;0.608892
9489.000000;0.608850
9488.000000;0.608808
9487.000000;0.608660
9486.000000;0.608447
9485.000000;0.608311
9484.000000;0.608367
9483.000000;0.608561
9482.000000;0.608656
9481.000000;0.608440
9480.000000;0.607971
9479.000000;0.607513
9478.000000;0.607226
9477.000000;0.607042
9476.000000;0.606898
9475.000000;0.606908
9474.000000;0.607183
9473.000000;0.607597
9472.000000;0.607894
9471.000000;0.607972
9470.000000;0.607937
9469.000000;0.607939
9468.000000;0.608060
9467.000000;0.608275
9466.000000;0.608421
9465.000000;0.608258
9464.000000;0.607710
9463.000000;0.607008
9462.000000;0.606497
9461.000000;0.606310
9460.000000;0.606342
9459.000000;0.606468
9458.000000;0.606652
9457.000000;0.606855
9456.000000;0.606969
9455.000000;0.606918
9454.000000;0.606750
9453.000000;0.606599
9452.000000;0.606554
9451.000000;0.606551
9450.000000;0.606399
9449.000000;0.605983
9448.000000;0.605470
9447.000000;0.605232
9446.000000;0.605487
9445.000000;0.606078
9444.000000;0.606653
9443.000000;0.606965
9442.000000;0.606962
9441.000000;0.606704
9440.000000;0.606333
9439.000000;0.606030
9438.000000;0.605864
9437.000000;0.605699
9436.000000;0.605386
9435.000000;0.605011
9434.000000;0.604823
9433.000000;0.604915
9432.000000;0.605111
9431.000000;0.605171
9430.000000;0.605021
9429.000000;0.604749
9428.000000;0.604477
9427.000000;0.604257
9426.000000;0.604044
9425.000000;0.603761
9424.000000;0.603421
9423.000000;0.603164
9422.000000;0.603115
9421.000000;0.603240
9420.000000;0.603378
9419.000000;0.603412
9418.000000;0.603351
9417.000000;0.603278
9416.000000;0.603265
9415.000000;0.603312
9414.000000;0.603354
9413.000000;0.603327
9412.000000;0.603258
9411.000000;0.603217
9410.000000;0.603194
9409.000000;0.603101
9408.000000;0.602935
9407.000000;0.602811
9406.000000;0.602768
9405.000000;0.602662
9404.000000;0.602388
9403.000000;0.602105
9402.000000;0.602078
9401.000000;0.602349
9400.000000;0.602706
9399.000000;0.602949
9398.000000;0.603045
9397.000000;0.603019
9396.000000;0.602869
9395.000000;0.602638
9394.000000;0.602438
9393.000000;0.602325
9392.000000;0.602226
9391.000000;0.602026
9390.000000;0.601707
9389.000000;0.601352
9388.000000;0.601074
9387.000000;0.600958
9386.000000;0.601029
9385.000000;0.601226
9384.000000;0.601447
9383.000000;0.601610
9382.000000;0.601664
9381.000000;0.601558
9380.000000;0.601290
9379.000000;0.600979
9378.000000;0.600815
9377.000000;0.600882
9376.000000;0.601080
9375.000000;0.601225
9374.000000;0.601190
9373.000000;0.600942
9372.000000;0.600548
9371.000000;0.600206
9370.000000;0.600188
9369.000000;0.600615
9368.000000;0.601261
9367.000000;0.601678
9366.000000;0.601600
9365.000000;0.601182
9364.000000;0.600803
9363.000000;0.600672
9362.000000;0.600685
9361.000000;0.600638
9360.000000;0.600442
9359.000000;0.600150
9358.000000;0.599871
9357.000000;0.599714
9356.000000;0.599728
9355.000000;0.599823
9354.000000;0.599818
9353.000000;0.599652
9352.000000;0.599455
9351.000000;0.599339
9350.000000;0.599237
9349.000000;0.599044
9348.000000;0.598840
9347.000000;0.598792
9346.000000;0.598887
9345.000000;0.598939
9344.000000;0.598865
9343.000000;0.598761
9342.000000;0.598694
9341.000000;0.598599
9340.000000;0.598453
9339.000000;0.598390
9338.000000;0.598535
9337.000000;0.598810
9336.000000;0.598993
9335.000000;0.598907
9334.000000;0.598540
9333.000000;0.598063
9332.000000;0.597757
9331.000000;0.597799
9330.000000;0.598059
9329.000000;0.598231
9328.000000;0.598197
9327.000000;0.598137
9326.000000;0.598213
9325.000000;0.598342
9324.000000;0.598366
9323.000000;0.598326
9322.000000;0.598375
9321.000000;0.598530
9320.000000;0.598650
9319.000000;0.598605
9318.000000;0.598371
9317.000000;0.597990
9316.000000;0.597582
9315.000000;0.597333
9314.000000;0.597358
9313.000000;0.597562
9312.000000;0.597726
9311.000000;0.597719
9310.000000;0.597572
9309.000000;0.597388
9308.000000;0.597269
9307.000000;0.597272
9306.000000;0.597337
9305.000000;0.597297
9304.000000;0.597052
9303.000000;0.596714
9302.000000;0.596493
9301.000000;0.596456
9300.000000;0.596485
9299.000000;0.596452
9298.000000;0.596350
9297.000000;0.596264
9296.000000;0.596261
9295.000000;0.596349
9294.000000;0.596470
9293.000000;0.596530
9292.000000;0.596458
9291.000000;0.596267
9290.000000;0.596025
9289.000000;0.595798
9288.000000;0.595626
9287.000000;0.595527
9286.000000;0.595492
9285.000000;0.595492
9284.000000;0.595497
9283.000000;0.595484
9282.000000;0.595452
9281.000000;0.595455
9280.000000;0.595586
9279.000000;0.595837
9278.000000;0.596003
9277.000000;0.595829
9276.000000;0.595315
9275.000000;0.594753
9274.000000;0.594435
9273.000000;0.594392
9272.000000;0.594473
9271.000000;0.594556
9270.000000;0.594602
9269.000000;0.594599
9268.000000;0.594557
9267.000000;0.594528
9266.000000;0.594538
9265.000000;0.594536
9264.000000;0.594450
9263.000000;0.594278
9262.000000;0.594068
9261.000000;0.593856
9260.000000;0.593665
9259.000000;0.593514
9258.000000;0.593413
9257.000000;0.593408
9256.000000;0.593607
9255.000000;0.594053
9254.000000;0.594517
9253.000000;0.594596
9252.000000;0.594119
9251.000000;0.593379
9250.000000;0.592832
9249.000000;0.592657
9248.000000;0.592706
9247.000000;0.592785
9246.000000;0.592828
9245.000000;0.592836
9244.000000;0.592819
9243.000000;0.592817
9242.000000;0.592865
9241.000000;0.592931
9240.000000;0.592954
9239.000000;0.592932
9238.000000;0.592910
9237.000000;0.592887
9236.000000;0.592809
9235.000000;0.592646
9234.000000;0.592401
9233.000000;0.592070
9232.000000;0.591689
9231.000000;0.591410
9230.000000;0.591428
9229.000000;0.591796
9228.000000;0.592340
9227.000000;0.592778
9226.000000;0.592905
9225.000000;0.592715
9224.000000;0.592388
9223.000000;0.592153
9222.000000;0.592102
9221.000000;0.592132
9220.000000;0.592084
9219.000000;0.591898
9218.000000;0.591614
9217.000000;0.591284
9216.000000;0.590960
9215.000000;0.590736
9214.000000;0.590711
9213.000000;0.590873
9212.000000;0.591080
9211.000000;0.591170
9210.000000;0.591087
9209.000000;0.590889
9208.000000;0.590670
9207.000000;0.590465
9206.000000;0.590268
9205.000000;0.590122
9204.000000;0.590169
9203.000000;0.590509
9202.000000;0.591010
9201.000000;0.591339
9200.000000;0.591232
9199.000000;0.590739
9198.000000;0.590164
9197.000000;0.589824
9196.000000;0.589829
9195.000000;0.590036
9194.000000;0.590169
9193.000000;0.590046
9192.000000;0.589708
9191.000000;0.589333
9190.000000;0.589033
9189.000000;0.588833
9188.000000;0.588786
9187.000000;0.588952
9186.000000;0.589247
9185.000000;0.589431
9184.000000;0.589357
9183.000000;0.589139
9182.000000;0.589020
9181.000000;0.589156
9180.000000;0.589554
9179.000000;0.590073
9178.000000;0.590423
9177.000000;0.590310
9176.000000;0.589752
9175.000000;0.589152
9174.000000;0.588915
9173.000000;0.589014
9172.000000;0.589041
9171.000000;0.588677
9170.000000;0.588011
9169.000000;0.587431
9168.000000;0.587294
9167.000000;0.587655
9166.000000;0.588237
9165.000000;0.588645
9164.000000;0.588681
9163.000000;0.588446
9162.000000;0.588128
9161.000000;0.587803
9160.000000;0.587505
9159.000000;0.587375
9158.000000;0.587555
9157.000000;0.587977
9156.000000;0.588385
9155.000000;0.588590
9154.000000;0.588605
9153.000000;0.588525
9152.000000;0.588381
9151.000000;0.588145
9150.000000;0.587818
9149.000000;0.587475
9148.000000;0.587250
9147.000000;0.587246
9146.000000;0.587404
9145.000000;0.587495
9144.000000;0.587309
9143.000000;0.586867
9142.000000;0.586397
9141.000000;0.586116
9140.000000;0.586077
9139.000000;0.586186
9138.000000;0.586300
9137.000000;0.586299
9136.000000;0.586161
9135.000000;0.585962
9134.000000;0.585788
9133.000000;0.585661
9132.000000;0.585576
9131.000000;0.585568
9130.000000;0.585671
9129.000000;0.585846
9128.000000;0.586001
9127.000000;0.586085
9126.000000;0.586100
9125.000000;0.586050
9124.000000;0.585917
9123.000000;0.585716
9122.000000;0.585494
9121.000000;0.585311
9120.000000;0.585209
9119.000000;0.585196
9118.000000;0.585225
9117.000000;0.585215
9116.000000;0.585137
9115.000000;0.585049
9114.000000;0.584993
9113.000000;0.584915
9112.000000;0.584744
9111.000000;0.584529
9110.000000;0.584405
9109.000000;0.584438
9108.000000;0.584557
9107.000000;0.584649
9106.000000;0.584654
9105.000000;0.584568
9104.000000;0.584406
9103.000000;0.584204
9102.000000;0.584036
9101.000000;0.583994
9100.000000;0.584129
9099.000000;0.584370
9098.000000;0.584533
9097.000000;0.584443
9096.000000;0.584108
9095.000000;0.583726
9094.000000;0.583503
9093.000000;0.583494
9092.000000;0.583625
9091.000000;0.583808
9090.000000;0.583989
9089.000000;0.584124
9088.000000;0.584179
9087.000000;0.584158
9086.000000;0.584089
9085.000000;0.583985
9084.000000;0.583842
9083.000000;0.583667
9082.000000;0.583482
9081.000000;0.583306
9080.000000;0.583132
9079.000000;0.582925
9078.000000;0.582648
9077.000000;0.582338
9076.000000;0.582109
9075.000000;0.582041
9074.000000;0.582076
9073.000000;0.582089
9072.000000;0.582038
9071.000000;0.581972
9070.000000;0.581910
9069.000000;0.581818
9068.000000;0.581715
9067.000000;0.581696
9066.000000;0.581793
9065.000000;0.581921
9064.000000;0.581995
9063.000000;0.582023
9062.000000;0.582059
9061.000000;0.582132
9060.000000;0.582265
9059.000000;0.582432
9058.000000;0.582481
9057.000000;0.582227
9056.000000;0.581723
9055.000000;0.581297
9054.000000;0.581200
9053.000000;0.581337
