Criado como novo conjunto de dados;"2706_e01_daniel.spp","19623.0 Secs"
cm-1;Abs
10000.000000;0.686785
9999.000000;0.686796
9998.000000;0.687023
9997.000000;0.687167
9996.000000;0.687130
9995.000000;0.686971
9994.000000;0.686693
9993.000000;0.686242
9992.000000;0.685721
9991.000000;0.685453
9990.000000;0.685691
9989.000000;0.686256
9988.000000;0.686625
9987.000000;0.686466
9986.000000;0.685937
9985.000000;0.685369
9984.000000;0.684938
9983.000000;0.684795
9982.000000;0.685222
9981.000000;0.686244
9980.000000;0.687251
9979.000000;0.687460
9978.000000;0.686813
9977.000000;0.686041
9976.000000;0.685791
9975.000000;0.686015
9974.000000;0.686249
9973.000000;0.686145
9972.000000;0.685647
9971.000000;0.684927
9970.000000;0.684321
9969.000000;0.684127
9968.000000;0.684314
9967.000000;0.684576
9966.000000;0.684694
9965.000000;0.684709
9964.000000;0.684732
9963.000000;0.684782
9962.000000;0.684795
9961.000000;0.684651
9960.000000;0.684225
9959.000000;0.683631
9958.000000;0.683322
9957.000000;0.683667
9956.000000;0.684447
9955.000000;0.685049
9954.000000;0.685118
9953.000000;0.684761
9952.000000;0.684169
9951.000000;0.683416
9950.000000;0.682605
9949.000000;0.681839
9948.000000;0.681029
9947.000000;0.680065
9946.000000;0.679216
9945.000000;0.678993
9944.000000;0.679549
9943.000000;0.680556
9942.000000;0.681680
9941.000000;0.682822
9940.000000;0.683826
9939.000000;0.684416
9938.000000;0.684567
9937.000000;0.684577
9936.000000;0.684546
9935.000000;0.684138
9934.000000;0.683033
9933.000000;0.681378
9932.000000;0.679659
9931.000000;0.678390
9930.000000;0.677976
9929.000000;0.678502
9928.000000;0.679569
9927.000000;0.680641
9926.000000;0.681631
9925.000000;0.682800
9924.000000;0.684027
9923.000000;0.684684
9922.000000;0.684439
9921.000000;0.683702
9920.000000;0.682979
9919.000000;0.682239
9918.000000;0.681238
9917.000000;0.680084
9916.000000;0.679077
9915.000000;0.678277
9914.000000;0.677634
9913.000000;0.677346
9912.000000;0.677662
9911.000000;0.678439
9910.000000;0.679229
9909.000000;0.679758
9908.000000;0.680081
9907.000000;0.680352
9906.000000;0.680661
9905.000000;0.681015
9904.000000;0.681264
9903.000000;0.681124
9902.000000;0.680456
9901.000000;0.679455
9900.000000;0.678449
9899.000000;0.677651
9898.000000;0.677187
9897.000000;0.677185
9896.000000;0.677634
9895.000000;0.678302
9894.000000;0.678944
9893.000000;0.679476
9892.000000;0.679837
9891.000000;0.679881
9890.000000;0.679610
9889.000000;0.679287
9888.000000;0.679117
9887.000000;0.678953
9886.000000;0.678577
9885.000000;0.678113
9884.000000;0.677912
9883.000000;0.678047
9882.000000;0.678172
9881.000000;0.677901
9880.000000;0.677209
9879.000000;0.676433
9878.000000;0.675938
9877.000000;0.675801
9876.000000;0.675793
9875.000000;0.675735
9874.000000;0.675813
9873.000000;0.676375
9872.000000;0.677408
9871.000000;0.678427
9870.000000;0.678970
9869.000000;0.679017
9868.000000;0.678846
9867.000000;0.678653
9866.000000;0.678468
9865.000000;0.678274
9864.000000;0.678034
9863.000000;0.677701
9862.000000;0.677317
9861.000000;0.677048
9860.000000;0.676999
9859.000000;0.677064
9858.000000;0.677023
9857.000000;0.676741
9856.000000;0.676257
9855.000000;0.675776
9854.000000;0.675576
9853.000000;0.675738
9852.000000;0.675957
9851.000000;0.675771
9850.000000;0.675066
9849.000000;0.674210
9848.000000;0.673671
9847.000000;0.673631
9846.000000;0.673947
9845.000000;0.674313
9844.000000;0.674433
9843.000000;0.674228
9842.000000;0.673928
9841.000000;0.673776
9840.000000;0.673705
9839.000000;0.673524
9838.000000;0.673386
9837.000000;0.673733
9836.000000;0.674728
9835.000000;0.676005
9834.000000;0.677065
9833.000000;0.677615
9832.000000;0.677440
9831.000000;0.676353
9830.000000;0.674542
9829.000000;0.672671
9828.000000;0.671351
9827.000000;0.670635
9826.000000;0.670263
9825.000000;0.670181
9824.000000;0.670556
9823.000000;0.671392
9822.000000;0.672430
9821.000000;0.673409
9820.000000;0.674216
9819.000000;0.674740
9818.000000;0.674798
9817.000000;0.674307
9816.000000;0.673471
9815.000000;0.672708
9814.000000;0.672340
9813.000000;0.672300
9812.000000;0.672234
9811.000000;0.671960
9810.000000;0.671721
9809.000000;0.671830
9808.000000;0.672156
9807.000000;0.672232
9806.000000;0.671872
9805.000000;0.671394
9804.000000;0.671180
9803.000000;0.671267
9802.000000;0.671499
9801.000000;0.671833
9800.000000;0.672300
9799.000000;0.672798
9798.000000;0.673083
9797.000000;0.672901
9796.000000;0.672131
9795.000000;0.670950
9794.000000;0.669886
9793.000000;0.669479
9792.000000;0.669785
9791.000000;0.670359
9790.000000;0.670800
9789.000000;0.671100
9788.000000;0.671395
9787.000000;0.671593
9786.000000;0.671497
9785.000000;0.671134
9784.000000;0.670745
9783.000000;0.670509
9782.000000;0.670431
9781.000000;0.670449
9780.000000;0.670499
9779.000000;0.670499
9778.000000;0.670373
9777.000000;0.670106
9776.000000;0.669753
9775.000000;0.669441
9774.000000;0.669329
9773.000000;0.669468
9772.000000;0.669719
9771.000000;0.669891
9770.000000;0.669946
9769.000000;0.669924
9768.000000;0.669717
9767.000000;0.669175
9766.000000;0.668469
9765.000000;0.668078
9764.000000;0.668283
9763.000000;0.668855
9762.000000;0.669367
9761.000000;0.669657
9760.000000;0.669819
9759.000000;0.669904
9758.000000;0.669840
9757.000000;0.669562
9756.000000;0.669040
9755.000000;0.668214
9754.000000;0.667070
9753.000000;0.665818
9752.000000;0.664846
9751.000000;0.664433
9750.000000;0.664541
9749.000000;0.664940
9748.000000;0.665507
9747.000000;0.666308
9746.000000;0.667335
9745.000000;0.668295
9744.000000;0.668827
9743.000000;0.668909
9742.000000;0.668858
9741.000000;0.668867
9740.000000;0.668790
9739.000000;0.668472
9738.000000;0.668029
9737.000000;0.667591
9736.000000;0.667027
9735.000000;0.666207
9734.000000;0.665361
9733.000000;0.664828
9732.000000;0.664559
9731.000000;0.664236
9730.000000;0.663845
9729.000000;0.663725
9728.000000;0.664039
9727.000000;0.664537
9726.000000;0.664953
9725.000000;0.665310
9724.000000;0.665680
9723.000000;0.665924
9722.000000;0.665878
9721.000000;0.665643
9720.000000;0.665505
9719.000000;0.665632
9718.000000;0.665921
9717.000000;0.666132
9716.000000;0.666101
9715.000000;0.665875
9714.000000;0.665573
9713.000000;0.665152
9712.000000;0.664465
9711.000000;0.663638
9710.000000;0.663105
9709.000000;0.663049
9708.000000;0.663060
9707.000000;0.662711
9706.000000;0.662268
9705.000000;0.662352
9704.000000;0.662988
9703.000000;0.663516
9702.000000;0.663511
9701.000000;0.663300
9700.000000;0.663385
9699.000000;0.663778
9698.000000;0.664165
9697.000000;0.664351
9696.000000;0.664286
9695.000000;0.663915
9694.000000;0.663325
9693.000000;0.662859
9692.000000;0.662816
9691.000000;0.663092
9690.000000;0.663301
9689.000000;0.663179
9688.000000;0.662775
9687.000000;0.662320
9686.000000;0.662048
9685.000000;0.662070
9684.000000;0.662351
9683.000000;0.662818
9682.000000;0.663433
9681.000000;0.664083
9680.000000;0.664493
9679.000000;0.664453
9678.000000;0.664086
9677.000000;0.663663
9676.000000;0.663202
9675.000000;0.662508
9674.000000;0.661609
9673.000000;0.660799
9672.000000;0.660214
9671.000000;0.659689
9670.000000;0.659174
9669.000000;0.658957
9668.000000;0.659253
9667.000000;0.659788
9666.000000;0.660054
9665.000000;0.659883
9664.000000;0.659585
9663.000000;0.659562
9662.000000;0.659940
9661.000000;0.660545
9660.000000;0.661155
9659.000000;0.661742
9658.000000;0.662432
9657.000000;0.663187
9656.000000;0.663693
9655.000000;0.663681
9654.000000;0.663267
9653.000000;0.662727
9652.000000;0.662055
9651.000000;0.661037
9650.000000;0.659723
9649.000000;0.658477
9648.000000;0.657585
9647.000000;0.657102
9646.000000;0.657115
9645.000000;0.657748
9644.000000;0.658803
9643.000000;0.659737
9642.000000;0.660221
9641.000000;0.660465
9640.000000;0.660832
9639.000000;0.661367
9638.000000;0.661851
9637.000000;0.662080
9636.000000;0.661922
9635.000000;0.661319
9634.000000;0.660455
9633.000000;0.659729
9632.000000;0.659356
9631.000000;0.659117
9630.000000;0.658688
9629.000000;0.658094
9628.000000;0.657693
9627.000000;0.657795
9626.000000;0.658422
9625.000000;0.659337
9624.000000;0.660173
9623.000000;0.660597
9622.000000;0.660467
9621.000000;0.659858
9620.000000;0.658954
9619.000000;0.657992
9618.000000;0.657231
9617.000000;0.656819
9616.000000;0.656702
9615.000000;0.656794
9614.000000;0.657174
9613.000000;0.657915
9612.000000;0.658783
9611.000000;0.659360
9610.000000;0.659473
9609.000000;0.659245
9608.000000;0.658735
9607.000000;0.657890
9606.000000;0.656927
9605.000000;0.656368
9604.000000;0.656477
9603.000000;0.656928
9602.000000;0.657242
9601.000000;0.657363
9600.000000;0.657592
9599.000000;0.658097
9598.000000;0.658692
9597.000000;0.659038
9596.000000;0.658907
9595.000000;0.658313
9594.000000;0.657490
9593.000000;0.656693
9592.000000;0.656022
9591.000000;0.655490
9590.000000;0.655173
9589.000000;0.655116
9588.000000;0.655144
9587.000000;0.655056
9586.000000;0.655000
9585.000000;0.655367
9584.000000;0.656221
9583.000000;0.657116
9582.000000;0.657590
9581.000000;0.657618
9580.000000;0.657448
9579.000000;0.657234
9578.000000;0.656988
9577.000000;0.656716
9576.000000;0.656410
9575.000000;0.656041
9574.000000;0.655657
9573.000000;0.655362
9572.000000;0.655136
9571.000000;0.654878
9570.000000;0.654657
9569.000000;0.654663
9568.000000;0.654861
9567.000000;0.654952
9566.000000;0.654814
9565.000000;0.654720
9564.000000;0.654911
9563.000000;0.655201
9562.000000;0.655213
9561.000000;0.654841
9560.000000;0.654274
9559.000000;0.653729
9558.000000;0.653369
9557.000000;0.653319
9556.000000;0.653563
9555.000000;0.653896
9554.000000;0.654120
9553.000000;0.654209
9552.000000;0.654165
9551.000000;0.653887
9550.000000;0.653340
9549.000000;0.652735
9548.000000;0.652336
9547.000000;0.652181
9546.000000;0.652126
9545.000000;0.652087
9544.000000;0.652096
9543.000000;0.652209
9542.000000;0.652440
9541.000000;0.652749
9540.000000;0.653035
9539.000000;0.653252
9538.000000;0.653563
9537.000000;0.654168
9536.000000;0.654915
9535.000000;0.655296
9534.000000;0.654992
9533.000000;0.654217
9532.000000;0.653356
9531.000000;0.652477
9530.000000;0.651476
9529.000000;0.650525
9528.000000;0.650032
9527.000000;0.650148
9526.000000;0.650600
9525.000000;0.651052
9524.000000;0.651441
9523.000000;0.651863
9522.000000;0.652313
9521.000000;0.652657
9520.000000;0.652817
9519.000000;0.652855
9518.000000;0.652860
9517.000000;0.652800
9516.000000;0.652543
9515.000000;0.652046
9514.000000;0.651426
9513.000000;0.650802
9512.000000;0.650170
9511.000000;0.649554
9510.000000;0.649171
9509.000000;0.649269
9508.000000;0.649800
9507.000000;0.650434
9506.000000;0.650896
9505.000000;0.651140
9504.000000;0.651205
9503.000000;0.651129
9502.000000;0.651035
9501.000000;0.651067
9500.000000;0.651158
9499.000000;0.651061
9498.000000;0.650724
9497.000000;0.650428
9496.000000;0.650445
9495.000000;0.650700
9494.000000;0.650913
9493.000000;0.650919
9492.000000;0.650716
9491.000000;0.650354
9490.000000;0.649909
9489.000000;0.649495
9488.000000;0.649140
9487.000000;0.648766
9486.000000;0.648345
9485.000000;0.647993
9484.000000;0.647774
9483.000000;0.647581
9482.000000;0.647346
9481.000000;0.647244
9480.000000;0.647497
9479.000000;0.648034
9478.000000;0.648514
9477.000000;0.648676
9476.000000;0.648564
9475.000000;0.648390
9474.000000;0.648290
9473.000000;0.648245
9472.000000;0.648162
9471.000000;0.648014
9470.000000;0.647880
9469.000000;0.647844
9468.000000;0.647910
9467.000000;0.648040
9466.000000;0.648246
9465.000000;0.648526
9464.000000;0.648758
9463.000000;0.648813
9462.000000;0.648767
9461.000000;0.648831
9460.000000;0.649040
9459.000000;0.649169
9458.000000;0.649050
9457.000000;0.648816
9456.000000;0.648711
9455.000000;0.648755
9454.000000;0.648725
9453.000000;0.648430
9452.000000;0.647895
9451.000000;0.647321
9450.000000;0.646907
9449.000000;0.646701
9448.000000;0.646617
9447.000000;0.646608
9446.000000;0.646757
9445.000000;0.647114
9444.000000;0.647499
9443.000000;0.647633
9442.000000;0.647469
9441.000000;0.647224
9440.000000;0.647050
9439.000000;0.646803
9438.000000;0.646259
9437.000000;0.645452
9436.000000;0.644715
9435.000000;0.644440
9434.000000;0.644815
9433.000000;0.645690
9432.000000;0.646642
9431.000000;0.647244
9430.000000;0.647348
9429.000000;0.647090
9428.000000;0.646674
9427.000000;0.646199
9426.000000;0.645681
9425.000000;0.645111
9424.000000;0.644510
9423.000000;0.644021
9422.000000;0.643896
9421.000000;0.644261
9420.000000;0.644905
9419.000000;0.645458
9418.000000;0.645764
9417.000000;0.645932
9416.000000;0.646009
9415.000000;0.645840
9414.000000;0.645342
9413.000000;0.644729
9412.000000;0.644313
9411.000000;0.644166
9410.000000;0.644103
9409.000000;0.643958
9408.000000;0.643785
9407.000000;0.643792
9406.000000;0.644111
9405.000000;0.644610
9404.000000;0.644955
9403.000000;0.644905
9402.000000;0.644520
9401.000000;0.644082
9400.000000;0.643832
9399.000000;0.643839
9398.000000;0.644020
9397.000000;0.644218
9396.000000;0.644334
9395.000000;0.644459
9394.000000;0.644758
9393.000000;0.645155
9392.000000;0.645272
9391.000000;0.644885
9390.000000;0.644247
9389.000000;0.643759
9388.000000;0.643477
9387.000000;0.643209
9386.000000;0.642976
9385.000000;0.643003
9384.000000;0.643282
9383.000000;0.643514
9382.000000;0.643537
9381.000000;0.643491
9380.000000;0.643467
9379.000000;0.643317
9378.000000;0.642955
9377.000000;0.642580
9376.000000;0.642406
9375.000000;0.642389
9374.000000;0.642355
9373.000000;0.642232
9372.000000;0.642023
9371.000000;0.641737
9370.000000;0.641487
9369.000000;0.641478
9368.000000;0.641740
9367.000000;0.642007
9366.000000;0.642010
9365.000000;0.641775
9364.000000;0.641529
9363.000000;0.641407
9362.000000;0.641380
9361.000000;0.641363
9360.000000;0.641241
9359.000000;0.640883
9358.000000;0.640270
9357.000000;0.639599
9356.000000;0.639184
9355.000000;0.639251
9354.000000;0.639822
9353.000000;0.640711
9352.000000;0.641618
9351.000000;0.642305
9350.000000;0.642728
9349.000000;0.642922
9348.000000;0.642823
9347.000000;0.642338
9346.000000;0.641582
9345.000000;0.640847
9344.000000;0.640294
9343.000000;0.639852
9342.000000;0.639457
9341.000000;0.639223
9340.000000;0.639269
9339.000000;0.639525
9338.000000;0.639817
9337.000000;0.640053
9336.000000;0.640244
9335.000000;0.640407
9334.000000;0.640520
9333.000000;0.640517
9332.000000;0.640320
9331.000000;0.639963
9330.000000;0.639654
9329.000000;0.639595
9328.000000;0.639745
9327.000000;0.639903
9326.000000;0.639989
9325.000000;0.640074
9324.000000;0.640120
9323.000000;0.639912
9322.000000;0.639354
9321.000000;0.638677
9320.000000;0.638240
9319.000000;0.638218
9318.000000;0.638535
9317.000000;0.638981
9316.000000;0.639331
9315.000000;0.639459
9314.000000;0.639389
9313.000000;0.639205
9312.000000;0.638922
9311.000000;0.638550
9310.000000;0.638226
9309.000000;0.638092
9308.000000;0.638082
9307.000000;0.638021
9306.000000;0.637941
9305.000000;0.638055
9304.000000;0.638390
9303.000000;0.638667
9302.000000;0.638645
9301.000000;0.638377
9300.000000;0.638024
9299.000000;0.637619
9298.000000;0.637161
9297.000000;0.636767
9296.000000;0.636563
9295.000000;0.636525
9294.000000;0.636562
9293.000000;0.636677
9292.000000;0.636927
9291.000000;0.637294
9290.000000;0.637697
9289.000000;0.638063
9288.000000;0.638298
9287.000000;0.638283
9286.000000;0.637981
9285.000000;0.637498
9284.000000;0.637010
9283.000000;0.636651
9282.000000;0.636479
9281.000000;0.636454
9280.000000;0.636443
9279.000000;0.636354
9278.000000;0.636270
9277.000000;0.636323
9276.000000;0.636446
9275.000000;0.636405
9274.000000;0.636104
9273.000000;0.635682
9272.000000;0.635309
9271.000000;0.635051
9270.000000;0.634967
9269.000000;0.635129
9268.000000;0.635447
9267.000000;0.635678
9266.000000;0.635723
9265.000000;0.635757
9264.000000;0.635947
9263.000000;0.636206
9262.000000;0.636332
9261.000000;0.636281
9260.000000;0.636126
9259.000000;0.635885
9258.000000;0.635530
9257.000000;0.635086
9256.000000;0.634616
9255.000000;0.634151
9254.000000;0.633740
9253.000000;0.633503
9252.000000;0.633523
9251.000000;0.633745
9250.000000;0.634036
9249.000000;0.634313
9248.000000;0.634545
9247.000000;0.634724
9246.000000;0.634911
9245.000000;0.635202
9244.000000;0.635567
9243.000000;0.635792
9242.000000;0.635679
9241.000000;0.635262
9240.000000;0.634766
9239.000000;0.634379
9238.000000;0.634130
9237.000000;0.633955
9236.000000;0.633811
9235.000000;0.633740
9234.000000;0.633815
9233.000000;0.634011
9232.000000;0.634150
9231.000000;0.634074
9230.000000;0.633825
9229.000000;0.633551
9228.000000;0.633268
9227.000000;0.632880
9226.000000;0.632442
9225.000000;0.632184
9224.000000;0.632207
9223.000000;0.632302
9222.000000;0.632219
9221.000000;0.631986
9220.000000;0.631853
9219.000000;0.631995
9218.000000;0.632364
9217.000000;0.632794
9216.000000;0.633153
9215.000000;0.633390
9214.000000;0.633498
9213.000000;0.633454
9212.000000;0.633221
9211.000000;0.632835
9210.000000;0.632437
9209.000000;0.632140
9208.000000;0.631908
9207.000000;0.631688
9206.000000;0.631591
9205.000000;0.631760
9204.000000;0.632057
9203.000000;0.632108
9202.000000;0.631748
9201.000000;0.631254
9200.000000;0.630999
9199.000000;0.631027
9198.000000;0.631091
9197.000000;0.631030
9196.000000;0.630934
9195.000000;0.630965
9194.000000;0.631152
9193.000000;0.631387
9192.000000;0.631546
9191.000000;0.631605
9190.000000;0.631638
9189.000000;0.631701
9188.000000;0.631715
9187.000000;0.631523
9186.000000;0.631096
9185.000000;0.630631
9184.000000;0.630424
9183.000000;0.630640
9182.000000;0.631203
9181.000000;0.631860
9180.000000;0.632332
9179.000000;0.632463
9178.000000;0.632270
9177.000000;0.631878
9176.000000;0.631434
9175.000000;0.631082
9174.000000;0.630908
9173.000000;0.630856
9172.000000;0.630751
9171.000000;0.630492
9170.000000;0.630161
9169.000000;0.629906
9168.000000;0.629789
9167.000000;0.629821
9166.000000;0.630016
9165.000000;0.630272
9164.000000;0.630318
9163.000000;0.629962
9162.000000;0.629351
9161.000000;0.628820
9160.000000;0.628521
9159.000000;0.628406
9158.000000;0.628511
9157.000000;0.628985
9156.000000;0.629777
9155.000000;0.630533
9154.000000;0.630906
9153.000000;0.630831
9152.000000;0.630419
9151.000000;0.629743
9150.000000;0.628866
9149.000000;0.627946
9148.000000;0.627169
9147.000000;0.626629
9146.000000;0.626376
9145.000000;0.626526
9144.000000;0.627183
9143.000000;0.628223
9142.000000;0.629244
9141.000000;0.629828
9140.000000;0.629876
9139.000000;0.629650
9138.000000;0.629452
9137.000000;0.629298
9136.000000;0.628994
9135.000000;0.628488
9134.000000;0.627980
9133.000000;0.627634
9132.000000;0.627373
9131.000000;0.627072
9130.000000;0.626786
9129.000000;0.626618
9128.000000;0.626492
9127.000000;0.626281
9126.000000;0.626076
9125.000000;0.626111
9124.000000;0.626441
9123.000000;0.626906
9122.000000;0.627371
9121.000000;0.627834
9120.000000;0.628273
9119.000000;0.628595
9118.000000;0.628740
9117.000000;0.628690
9116.000000;0.628397
9115.000000;0.627870
9114.000000;0.627321
9113.000000;0.627035
9112.000000;0.627066
9111.000000;0.627202
9110.000000;0.627217
9109.000000;0.627038
9108.000000;0.626691
9107.000000;0.626274
9106.000000;0.625957
9105.000000;0.625836
9104.000000;0.625799
9103.000000;0.625722
9102.000000;0.625717
9101.000000;0.625962
9100.000000;0.626315
9099.000000;0.626404
9098.000000;0.626133
9097.000000;0.625822
9096.000000;0.625734
9095.000000;0.625735
9094.000000;0.625573
9093.000000;0.625263
9092.000000;0.625007
9091.000000;0.624895
9090.000000;0.624839
9089.000000;0.624720
9088.000000;0.624482
9087.000000;0.624186
9086.000000;0.624032
9085.000000;0.624213
9084.000000;0.624678
9083.000000;0.625148
9082.000000;0.625427
9081.000000;0.625562
9080.000000;0.625606
9079.000000;0.625446
9078.000000;0.625004
9077.000000;0.624447
9076.000000;0.624024
9075.000000;0.623738
9074.000000;0.623390
9073.000000;0.622907
9072.000000;0.622491
9071.000000;0.622407
9070.000000;0.622697
9069.000000;0.623130
9068.000000;0.623426
9067.000000;0.623531
9066.000000;0.623665
9065.000000;0.624026
9064.000000;0.624510
9063.000000;0.624786
9062.000000;0.624653
9061.000000;0.624225
9060.000000;0.623763
9059.000000;0.623454
9058.000000;0.623354
9057.000000;0.623423
9056.000000;0.623536
9055.000000;0.623550
9054.000000;0.623410
9053.000000;0.623148
