Criado como novo conjunto de dados;"2706_e01_daniel.spp","34563.6 Secs"
cm-1;Abs
10000.000000;0.679312
9999.000000;0.679300
9998.000000;0.679066
9997.000000;0.678561
9996.000000;0.677995
9995.000000;0.677660
9994.000000;0.677640
9993.000000;0.677737
9992.000000;0.677647
9991.000000;0.677212
9990.000000;0.676508
9989.000000;0.675753
9988.000000;0.675121
9987.000000;0.674675
9986.000000;0.674423
9985.000000;0.674327
9984.000000;0.674251
9983.000000;0.674039
9982.000000;0.673742
9981.000000;0.673628
9980.000000;0.673835
9979.000000;0.674107
9978.000000;0.674079
9977.000000;0.673744
9976.000000;0.673442
9975.000000;0.673429
9974.000000;0.673692
9973.000000;0.674155
9972.000000;0.674794
9971.000000;0.675446
9970.000000;0.675798
9969.000000;0.675717
9968.000000;0.675445
9967.000000;0.675291
9966.000000;0.675244
9965.000000;0.675049
9964.000000;0.674562
9963.000000;0.673908
9962.000000;0.673342
9961.000000;0.673097
9960.000000;0.673290
9959.000000;0.673818
9958.000000;0.674362
9957.000000;0.674623
9956.000000;0.674575
9955.000000;0.674383
9954.000000;0.674088
9953.000000;0.673570
9952.000000;0.672848
9951.000000;0.672296
9950.000000;0.672332
9949.000000;0.672896
9948.000000;0.673367
9947.000000;0.673149
9946.000000;0.672318
9945.000000;0.671580
9944.000000;0.671561
9943.000000;0.672201
9942.000000;0.672869
9941.000000;0.672980
9940.000000;0.672448
9939.000000;0.671639
9938.000000;0.671034
9937.000000;0.670911
9936.000000;0.671218
9935.000000;0.671670
9934.000000;0.671979
9933.000000;0.672048
9932.000000;0.671961
9931.000000;0.671834
9930.000000;0.671683
9929.000000;0.671432
9928.000000;0.671055
9927.000000;0.670717
9926.000000;0.670722
9925.000000;0.671205
9924.000000;0.671906
9923.000000;0.672386
9922.000000;0.672481
9921.000000;0.672391
9920.000000;0.672301
9919.000000;0.672141
9918.000000;0.671814
9917.000000;0.671446
9916.000000;0.671221
9915.000000;0.671079
9914.000000;0.670785
9913.000000;0.670221
9912.000000;0.669512
9911.000000;0.668936
9910.000000;0.668814
9909.000000;0.669294
9908.000000;0.670069
9907.000000;0.670476
9906.000000;0.670148
9905.000000;0.669480
9904.000000;0.669159
9903.000000;0.669306
9902.000000;0.669359
9901.000000;0.668821
9900.000000;0.667848
9899.000000;0.667043
9898.000000;0.666849
9897.000000;0.667233
9896.000000;0.667791
9895.000000;0.668060
9894.000000;0.667829
9893.000000;0.667249
9892.000000;0.666630
9891.000000;0.666197
9890.000000;0.666069
9889.000000;0.666339
9888.000000;0.666985
9887.000000;0.667746
9886.000000;0.668238
9885.000000;0.668197
9884.000000;0.667585
9883.000000;0.666624
9882.000000;0.665832
9881.000000;0.665773
9880.000000;0.666494
9879.000000;0.667311
9878.000000;0.667492
9877.000000;0.667095
9876.000000;0.666808
9875.000000;0.666995
9874.000000;0.667277
9873.000000;0.667112
9872.000000;0.666445
9871.000000;0.665662
9870.000000;0.665176
9869.000000;0.665208
9868.000000;0.665731
9867.000000;0.666467
9866.000000;0.667065
9865.000000;0.667397
9864.000000;0.667545
9863.000000;0.667517
9862.000000;0.667196
9861.000000;0.666630
9860.000000;0.666127
9859.000000;0.665905
9858.000000;0.665826
9857.000000;0.665599
9856.000000;0.665125
9855.000000;0.664572
9854.000000;0.664207
9853.000000;0.664209
9852.000000;0.664496
9851.000000;0.664727
9850.000000;0.664627
9849.000000;0.664315
9848.000000;0.664137
9847.000000;0.664208
9846.000000;0.664384
9845.000000;0.664641
9844.000000;0.665132
9843.000000;0.665771
9842.000000;0.666130
9841.000000;0.665954
9840.000000;0.665501
9839.000000;0.665152
9838.000000;0.664937
9837.000000;0.664692
9836.000000;0.664429
9835.000000;0.664260
9834.000000;0.664107
9833.000000;0.663799
9832.000000;0.663401
9831.000000;0.663187
9830.000000;0.663313
9829.000000;0.663678
9828.000000;0.664062
9827.000000;0.664250
9826.000000;0.664112
9825.000000;0.663742
9824.000000;0.663442
9823.000000;0.663396
9822.000000;0.663437
9821.000000;0.663300
9820.000000;0.663014
9819.000000;0.662814
9818.000000;0.662743
9817.000000;0.662603
9816.000000;0.662324
9815.000000;0.662108
9814.000000;0.662090
9813.000000;0.662057
9812.000000;0.661695
9811.000000;0.661053
9810.000000;0.660589
9809.000000;0.660692
9808.000000;0.661252
9807.000000;0.661772
9806.000000;0.661888
9805.000000;0.661671
9804.000000;0.661403
9803.000000;0.661192
9802.000000;0.660945
9801.000000;0.660653
9800.000000;0.660461
9799.000000;0.660449
9798.000000;0.660549
9797.000000;0.660727
9796.000000;0.661027
9795.000000;0.661309
9794.000000;0.661194
9793.000000;0.660496
9792.000000;0.659605
9791.000000;0.659156
9790.000000;0.659376
9789.000000;0.659900
9788.000000;0.660227
9787.000000;0.660156
9786.000000;0.659826
9785.000000;0.659501
9784.000000;0.659396
9783.000000;0.659540
9782.000000;0.659728
9781.000000;0.659672
9780.000000;0.659265
9779.000000;0.658669
9778.000000;0.658147
9777.000000;0.657887
9776.000000;0.657933
9775.000000;0.658162
9774.000000;0.658319
9773.000000;0.658216
9772.000000;0.657963
9771.000000;0.657903
9770.000000;0.658247
9769.000000;0.658836
9768.000000;0.659314
9767.000000;0.659471
9766.000000;0.659332
9765.000000;0.659016
9764.000000;0.658634
9763.000000;0.658311
9762.000000;0.658150
9761.000000;0.658137
9760.000000;0.658164
9759.000000;0.658169
9758.000000;0.658174
9757.000000;0.658150
9756.000000;0.657981
9755.000000;0.657642
9754.000000;0.657316
9753.000000;0.657210
9752.000000;0.657274
9751.000000;0.657263
9750.000000;0.657063
9749.000000;0.656835
9748.000000;0.656781
9747.000000;0.656884
9746.000000;0.656949
9745.000000;0.656833
9744.000000;0.656585
9743.000000;0.656396
9742.000000;0.656459
9741.000000;0.656786
9740.000000;0.657123
9739.000000;0.657115
9738.000000;0.656619
9737.000000;0.655822
9736.000000;0.655046
9735.000000;0.654521
9734.000000;0.654347
9733.000000;0.654531
9732.000000;0.654952
9731.000000;0.655364
9730.000000;0.655556
9729.000000;0.655504
9728.000000;0.655351
9727.000000;0.655292
9726.000000;0.655479
9725.000000;0.655895
9724.000000;0.656267
9723.000000;0.656246
9722.000000;0.655787
9721.000000;0.655228
9720.000000;0.654889
9719.000000;0.654745
9718.000000;0.654612
9717.000000;0.654492
9716.000000;0.654533
9715.000000;0.654727
9714.000000;0.654894
9713.000000;0.654933
9712.000000;0.654932
9711.000000;0.655015
9710.000000;0.655215
9709.000000;0.655446
9708.000000;0.655507
9707.000000;0.655157
9706.000000;0.654374
9705.000000;0.653488
9704.000000;0.652919
9703.000000;0.652821
9702.000000;0.653084
9701.000000;0.653542
9700.000000;0.653984
9699.000000;0.654093
9698.000000;0.653714
9697.000000;0.653153
9696.000000;0.652917
9695.000000;0.653114
9694.000000;0.653365
9693.000000;0.653375
9692.000000;0.653284
9691.000000;0.653327
9690.000000;0.653415
9689.000000;0.653278
9688.000000;0.652896
9687.000000;0.652547
9686.000000;0.652468
9685.000000;0.652605
9684.000000;0.652713
9683.000000;0.652606
9682.000000;0.652308
9681.000000;0.652003
9680.000000;0.651812
9679.000000;0.651674
9678.000000;0.651481
9677.000000;0.651285
9676.000000;0.651229
9675.000000;0.651310
9674.000000;0.651375
9673.000000;0.651344
9672.000000;0.651270
9671.000000;0.651141
9670.000000;0.650843
9669.000000;0.650405
9668.000000;0.650120
9667.000000;0.650243
9666.000000;0.650662
9665.000000;0.650978
9664.000000;0.650896
9663.000000;0.650479
9662.000000;0.650085
9661.000000;0.650081
9660.000000;0.650514
9659.000000;0.650999
9658.000000;0.651026
9657.000000;0.650464
9656.000000;0.649690
9655.000000;0.649167
9654.000000;0.649007
9653.000000;0.649036
9652.000000;0.649119
9651.000000;0.649280
9650.000000;0.649508
9649.000000;0.649642
9648.000000;0.649514
9647.000000;0.649157
9646.000000;0.648805
9645.000000;0.648675
9644.000000;0.648746
9643.000000;0.648803
9642.000000;0.648712
9641.000000;0.648585
9640.000000;0.648619
9639.000000;0.648823
9638.000000;0.649029
9637.000000;0.649122
9636.000000;0.649128
9635.000000;0.649093
9634.000000;0.649011
9633.000000;0.648891
9632.000000;0.648747
9631.000000;0.648510
9630.000000;0.648086
9629.000000;0.647552
9628.000000;0.647160
9627.000000;0.647081
9626.000000;0.647228
9625.000000;0.647429
9624.000000;0.647621
9623.000000;0.647806
9622.000000;0.647920
9621.000000;0.647872
9620.000000;0.647659
9619.000000;0.647345
9618.000000;0.646983
9617.000000;0.646627
9616.000000;0.646389
9615.000000;0.646376
9614.000000;0.646597
9613.000000;0.646958
9612.000000;0.647314
9611.000000;0.647508
9610.000000;0.647420
9609.000000;0.647086
9608.000000;0.646721
9607.000000;0.646569
9606.000000;0.646704
9605.000000;0.646974
9604.000000;0.647113
9603.000000;0.646920
9602.000000;0.646443
9601.000000;0.646005
9600.000000;0.645940
9599.000000;0.646236
9598.000000;0.646513
9597.000000;0.646451
9596.000000;0.646163
9595.000000;0.646035
9594.000000;0.646251
9593.000000;0.646602
9592.000000;0.646789
9591.000000;0.646784
9590.000000;0.646782
9589.000000;0.646860
9588.000000;0.646814
9587.000000;0.646401
9586.000000;0.645727
9585.000000;0.645252
9584.000000;0.645337
9583.000000;0.645850
9582.000000;0.646282
9581.000000;0.646268
9580.000000;0.645910
9579.000000;0.645575
9578.000000;0.645480
9577.000000;0.645532
9576.000000;0.645552
9575.000000;0.645539
9574.000000;0.645669
9573.000000;0.646017
9572.000000;0.646363
9571.000000;0.646360
9570.000000;0.645907
9569.000000;0.645283
9568.000000;0.644871
9567.000000;0.644786
9566.000000;0.644846
9565.000000;0.644824
9564.000000;0.644648
9563.000000;0.644384
9562.000000;0.644163
9561.000000;0.644099
9560.000000;0.644182
9559.000000;0.644233
9558.000000;0.644065
9557.000000;0.643725
9556.000000;0.643487
9555.000000;0.643556
9554.000000;0.643822
9553.000000;0.643952
9552.000000;0.643704
9551.000000;0.643149
9550.000000;0.642604
9549.000000;0.642370
9548.000000;0.642507
9547.000000;0.642866
9546.000000;0.643286
9545.000000;0.643691
9544.000000;0.643990
9543.000000;0.644032
9542.000000;0.643760
9541.000000;0.643312
9540.000000;0.642850
9539.000000;0.642361
9538.000000;0.641780
9537.000000;0.641236
9536.000000;0.640988
9535.000000;0.641078
9534.000000;0.641227
9533.000000;0.641144
9532.000000;0.640825
9531.000000;0.640500
9530.000000;0.640367
9529.000000;0.640457
9528.000000;0.640664
9527.000000;0.640867
9526.000000;0.641053
9525.000000;0.641330
9524.000000;0.641763
9523.000000;0.642195
9522.000000;0.642341
9521.000000;0.642073
9520.000000;0.641543
9519.000000;0.640997
9518.000000;0.640574
9517.000000;0.640310
9516.000000;0.640223
9515.000000;0.640291
9514.000000;0.640418
9513.000000;0.640509
9512.000000;0.640562
9511.000000;0.640640
9510.000000;0.640787
9509.000000;0.640982
9508.000000;0.641136
9507.000000;0.641112
9506.000000;0.640811
9505.000000;0.640287
9504.000000;0.639738
9503.000000;0.639340
9502.000000;0.639127
9501.000000;0.639040
9500.000000;0.639048
9499.000000;0.639163
9498.000000;0.639373
9497.000000;0.639611
9496.000000;0.639793
9495.000000;0.639857
9494.000000;0.639776
9493.000000;0.639529
9492.000000;0.639104
9491.000000;0.638561
9490.000000;0.638093
9489.000000;0.637938
9488.000000;0.638159
9487.000000;0.638541
9486.000000;0.638777
9485.000000;0.638757
9484.000000;0.638611
9483.000000;0.638464
9482.000000;0.638271
9481.000000;0.637933
9480.000000;0.637506
9479.000000;0.637212
9478.000000;0.637238
9477.000000;0.637566
9476.000000;0.638018
9475.000000;0.638441
9474.000000;0.638813
9473.000000;0.639151
9472.000000;0.639395
9471.000000;0.639469
9470.000000;0.639415
9469.000000;0.639361
9468.000000;0.639308
9467.000000;0.639098
9466.000000;0.638646
9465.000000;0.638109
9464.000000;0.637711
9463.000000;0.637485
9462.000000;0.637295
9461.000000;0.637067
9460.000000;0.636866
9459.000000;0.636790
9458.000000;0.636885
9457.000000;0.637126
9456.000000;0.637395
9455.000000;0.637492
9454.000000;0.637295
9453.000000;0.636891
9452.000000;0.636483
9451.000000;0.636184
9450.000000;0.635984
9449.000000;0.635870
9448.000000;0.635866
9447.000000;0.635950
9446.000000;0.636040
9445.000000;0.636066
9444.000000;0.636010
9443.000000;0.635903
9442.000000;0.635858
9441.000000;0.636039
9440.000000;0.636469
9439.000000;0.636907
9438.000000;0.637026
9437.000000;0.636746
9436.000000;0.636304
9435.000000;0.636020
9434.000000;0.636044
9433.000000;0.636285
9432.000000;0.636459
9431.000000;0.636286
9430.000000;0.635772
9429.000000;0.635249
9428.000000;0.635021
9427.000000;0.635001
9426.000000;0.634864
9425.000000;0.634497
9424.000000;0.634115
9423.000000;0.633938
9422.000000;0.633979
9421.000000;0.634183
9420.000000;0.634529
9419.000000;0.634902
9418.000000;0.635055
9417.000000;0.634849
9416.000000;0.634432
9415.000000;0.634044
9414.000000;0.633778
9413.000000;0.633611
9412.000000;0.633559
9411.000000;0.633621
9410.000000;0.633661
9409.000000;0.633510
9408.000000;0.633196
9407.000000;0.632953
9406.000000;0.632964
9405.000000;0.633165
9404.000000;0.633335
9403.000000;0.633317
9402.000000;0.633137
9401.000000;0.632937
9400.000000;0.632829
9399.000000;0.632806
9398.000000;0.632793
9397.000000;0.632777
9396.000000;0.632845
9395.000000;0.633077
9394.000000;0.633408
9393.000000;0.633602
9392.000000;0.633432
9391.000000;0.632938
9390.000000;0.632487
9389.000000;0.632473
9388.000000;0.632894
9387.000000;0.633312
9386.000000;0.633296
9385.000000;0.632845
9384.000000;0.632281
9383.000000;0.631837
9382.000000;0.631507
9381.000000;0.631253
9380.000000;0.631165
9379.000000;0.631330
9378.000000;0.631664
9377.000000;0.631968
9376.000000;0.632103
9375.000000;0.632062
9374.000000;0.631901
9373.000000;0.631647
9372.000000;0.631292
9371.000000;0.630864
9370.000000;0.630512
9369.000000;0.630414
9368.000000;0.630565
9367.000000;0.630733
9366.000000;0.630721
9365.000000;0.630618
9364.000000;0.630670
9363.000000;0.630944
9362.000000;0.631253
9361.000000;0.631405
9360.000000;0.631378
9359.000000;0.631222
9358.000000;0.630945
9357.000000;0.630553
9356.000000;0.630143
9355.000000;0.629854
9354.000000;0.629772
9353.000000;0.629891
9352.000000;0.630125
9351.000000;0.630334
9350.000000;0.630396
9349.000000;0.630287
9348.000000;0.630071
9347.000000;0.629822
9346.000000;0.629606
9345.000000;0.629492
9344.000000;0.629507
9343.000000;0.629581
9342.000000;0.629606
9341.000000;0.629557
9340.000000;0.629487
9339.000000;0.629422
9338.000000;0.629322
9337.000000;0.629160
9336.000000;0.628969
9335.000000;0.628819
9334.000000;0.628794
9333.000000;0.628936
9332.000000;0.629147
9331.000000;0.629217
9330.000000;0.629039
9329.000000;0.628751
9328.000000;0.628555
9327.000000;0.628445
9326.000000;0.628261
9325.000000;0.627981
9324.000000;0.627775
9323.000000;0.627751
9322.000000;0.627804
9321.000000;0.627779
9320.000000;0.627666
9319.000000;0.627578
9318.000000;0.627616
9317.000000;0.627804
9316.000000;0.628046
9315.000000;0.628141
9314.000000;0.627946
9313.000000;0.627553
9312.000000;0.627212
9311.000000;0.627045
9310.000000;0.626951
9309.000000;0.626829
9308.000000;0.626764
9307.000000;0.626891
9306.000000;0.627146
9305.000000;0.627264
9304.000000;0.627042
9303.000000;0.626553
9302.000000;0.626106
9301.000000;0.625980
9300.000000;0.626154
9299.000000;0.626337
9298.000000;0.626285
9297.000000;0.626060
9296.000000;0.625891
9295.000000;0.625876
9294.000000;0.625926
9293.000000;0.625955
9292.000000;0.625964
9291.000000;0.625953
9290.000000;0.625900
9289.000000;0.625871
9288.000000;0.625980
9287.000000;0.626193
9286.000000;0.626306
9285.000000;0.626187
9284.000000;0.625932
9283.000000;0.625716
9282.000000;0.625612
9281.000000;0.625590
9280.000000;0.625576
9279.000000;0.625464
9278.000000;0.625173
9277.000000;0.624801
9276.000000;0.624587
9275.000000;0.624649
9274.000000;0.624843
9273.000000;0.624985
9272.000000;0.625072
9271.000000;0.625189
9270.000000;0.625268
9269.000000;0.625130
9268.000000;0.624756
9267.000000;0.624380
9266.000000;0.624259
9265.000000;0.624421
9264.000000;0.624655
9263.000000;0.624710
9262.000000;0.624512
9261.000000;0.624201
9260.000000;0.623994
9259.000000;0.623988
9258.000000;0.624120
9257.000000;0.624284
9256.000000;0.624444
9255.000000;0.624601
9254.000000;0.624716
9253.000000;0.624719
9252.000000;0.624585
9251.000000;0.624372
9250.000000;0.624167
9249.000000;0.623986
9248.000000;0.623740
9247.000000;0.623335
9246.000000;0.622823
9245.000000;0.622414
9244.000000;0.622293
9243.000000;0.622453
9242.000000;0.622738
9241.000000;0.623011
9240.000000;0.623217
9239.000000;0.623345
9238.000000;0.623420
9237.000000;0.623498
9236.000000;0.623571
9235.000000;0.623510
9234.000000;0.623205
9233.000000;0.622725
9232.000000;0.622259
9231.000000;0.621907
9230.000000;0.621654
9229.000000;0.621519
9228.000000;0.621556
9227.000000;0.621715
9226.000000;0.621835
9225.000000;0.621840
9224.000000;0.621804
9223.000000;0.621776
9222.000000;0.621675
9221.000000;0.621434
9220.000000;0.621154
9219.000000;0.621009
9218.000000;0.621069
9217.000000;0.621289
9216.000000;0.621589
9215.000000;0.621879
9214.000000;0.622057
9213.000000;0.622064
9212.000000;0.621932
9211.000000;0.621721
9210.000000;0.621450
9209.000000;0.621120
9208.000000;0.620777
9207.000000;0.620517
9206.000000;0.620444
9205.000000;0.620599
9204.000000;0.620878
9203.000000;0.621032
9202.000000;0.620858
9201.000000;0.620409
9200.000000;0.619948
9199.000000;0.619691
9198.000000;0.619662
9197.000000;0.619784
9196.000000;0.619965
9195.000000;0.620095
9194.000000;0.620073
9193.000000;0.619942
9192.000000;0.619870
9191.000000;0.619938
9190.000000;0.620018
9189.000000;0.619951
9188.000000;0.619744
9187.000000;0.619526
9186.000000;0.619390
9185.000000;0.619359
9184.000000;0.619443
9183.000000;0.619608
9182.000000;0.619753
9181.000000;0.619799
9180.000000;0.619787
9179.000000;0.619806
9178.000000;0.619845
9177.000000;0.619818
9176.000000;0.619692
9175.000000;0.619524
9174.000000;0.619363
9173.000000;0.619185
9172.000000;0.618944
9171.000000;0.618636
9170.000000;0.618296
9169.000000;0.618001
9168.000000;0.617853
9167.000000;0.617930
9166.000000;0.618185
9165.000000;0.618434
9164.000000;0.618483
9163.000000;0.618297
9162.000000;0.618036
9161.000000;0.617905
9160.000000;0.617957
9159.000000;0.618068
9158.000000;0.618090
9157.000000;0.617956
9156.000000;0.617656
9155.000000;0.617212
9154.000000;0.616739
9153.000000;0.616456
9152.000000;0.616510
9151.000000;0.616817
9150.000000;0.617141
9149.000000;0.617314
9148.000000;0.617301
9147.000000;0.617130
9146.000000;0.616875
9145.000000;0.616680
9144.000000;0.616629
9143.000000;0.616604
9142.000000;0.616418
9141.000000;0.616093
9140.000000;0.615855
9139.000000;0.615831
9138.000000;0.615916
9137.000000;0.615993
9136.000000;0.616128
9135.000000;0.616401
9134.000000;0.616696
9133.000000;0.616781
9132.000000;0.616557
9131.000000;0.616124
9130.000000;0.615665
9129.000000;0.615340
9128.000000;0.615233
9127.000000;0.615290
9126.000000;0.615359
9125.000000;0.615367
9124.000000;0.615407
9123.000000;0.615572
9122.000000;0.615776
9121.000000;0.615837
9120.000000;0.615703
9119.000000;0.615501
9118.000000;0.615382
9117.000000;0.615422
9116.000000;0.615614
9115.000000;0.615844
9114.000000;0.615895
9113.000000;0.615605
9112.000000;0.615078
9111.000000;0.614648
9110.000000;0.614580
9109.000000;0.614844
9108.000000;0.615194
9107.000000;0.615415
9106.000000;0.615458
9105.000000;0.615377
9104.000000;0.615207
9103.000000;0.614942
9102.000000;0.614611
9101.000000;0.614326
9100.000000;0.614193
9099.000000;0.614187
9098.000000;0.614174
9097.000000;0.614060
9096.000000;0.613892
9095.000000;0.613782
9094.000000;0.613793
9093.000000;0.613898
9092.000000;0.614005
9091.000000;0.613995
9090.000000;0.613789
9089.000000;0.613436
9088.000000;0.613107
9087.000000;0.612947
9086.000000;0.612958
9085.000000;0.613053
9084.000000;0.613185
9083.000000;0.613356
9082.000000;0.613545
9081.000000;0.613688
9080.000000;0.613754
9079.000000;0.613762
9078.000000;0.613723
9077.000000;0.613585
9076.000000;0.613291
9075.000000;0.612887
9074.000000;0.612542
9073.000000;0.612428
9072.000000;0.612552
9071.000000;0.612730
9070.000000;0.612750
9069.000000;0.612549
9068.000000;0.612220
9067.000000;0.611884
9066.000000;0.611631
9065.000000;0.611546
9064.000000;0.611668
9063.000000;0.611879
9062.000000;0.611956
9061.000000;0.611786
9060.000000;0.611501
9059.000000;0.611310
9058.000000;0.611267
9057.000000;0.611261
9056.000000;0.611202
9055.000000;0.611131
9054.000000;0.611137
9053.000000;0.611230
