Criado como novo conjunto de dados;"2706_e01_daniel.spp","90906.6 Secs"
cm-1;Abs
10000.000000;0.656527
9999.000000;0.656345
9998.000000;0.656163
9997.000000;0.655981
9996.000000;0.655799
9995.000000;0.655617
9994.000000;0.655435
9993.000000;0.655254
9992.000000;0.655071
9991.000000;0.654892
9990.000000;0.654707
9989.000000;0.654517
9988.000000;0.654116
9987.000000;0.653404
9986.000000;0.652685
9985.000000;0.652267
9984.000000;0.652168
9983.000000;0.652173
9982.000000;0.652132
9981.000000;0.652118
9980.000000;0.652324
9979.000000;0.652788
9978.000000;0.653257
9977.000000;0.653395
9976.000000;0.653144
9975.000000;0.652758
9974.000000;0.652506
9973.000000;0.652457
9972.000000;0.652571
9971.000000;0.652810
9970.000000;0.653059
9969.000000;0.653109
9968.000000;0.652841
9967.000000;0.652356
9966.000000;0.651845
9965.000000;0.651413
9964.000000;0.651112
9963.000000;0.651034
9962.000000;0.651244
9961.000000;0.651640
9960.000000;0.651999
9959.000000;0.652147
9958.000000;0.652084
9957.000000;0.651960
9956.000000;0.651903
9955.000000;0.651845
9954.000000;0.651567
9953.000000;0.650989
9952.000000;0.650325
9951.000000;0.649844
9950.000000;0.649575
9949.000000;0.649445
9948.000000;0.649561
9947.000000;0.650075
9946.000000;0.650756
9945.000000;0.651049
9944.000000;0.650682
9943.000000;0.649969
9942.000000;0.649377
9941.000000;0.649072
9940.000000;0.649021
9939.000000;0.649249
9938.000000;0.649712
9937.000000;0.650094
9936.000000;0.650058
9935.000000;0.649647
9934.000000;0.649229
9933.000000;0.649064
9932.000000;0.649107
9931.000000;0.649170
9930.000000;0.649088
9929.000000;0.648742
9928.000000;0.648132
9927.000000;0.647483
9926.000000;0.647143
9925.000000;0.647305
9924.000000;0.647890
9923.000000;0.648676
9922.000000;0.649430
9921.000000;0.649917
9920.000000;0.649926
9919.000000;0.649424
9918.000000;0.648651
9917.000000;0.647986
9916.000000;0.647684
9915.000000;0.647735
9914.000000;0.647941
9913.000000;0.648108
9912.000000;0.648159
9911.000000;0.648140
9910.000000;0.648164
9909.000000;0.648326
9908.000000;0.648547
9907.000000;0.648541
9906.000000;0.648092
9905.000000;0.647417
9904.000000;0.647046
9903.000000;0.647192
9902.000000;0.647430
9901.000000;0.647221
9900.000000;0.646566
9899.000000;0.645866
9898.000000;0.645272
9897.000000;0.644584
9896.000000;0.643806
9895.000000;0.643346
9894.000000;0.643496
9893.000000;0.644005
9892.000000;0.644406
9891.000000;0.644550
9890.000000;0.644604
9889.000000;0.644691
9888.000000;0.644769
9887.000000;0.644781
9886.000000;0.644731
9885.000000;0.644661
9884.000000;0.644657
9883.000000;0.644799
9882.000000;0.645012
9881.000000;0.645068
9880.000000;0.644871
9879.000000;0.644598
9878.000000;0.644461
9877.000000;0.644423
9876.000000;0.644296
9875.000000;0.644019
9874.000000;0.643696
9873.000000;0.643437
9872.000000;0.643301
9871.000000;0.643338
9870.000000;0.643531
9869.000000;0.643718
9868.000000;0.643702
9867.000000;0.643421
9866.000000;0.642980
9865.000000;0.642553
9864.000000;0.642308
9863.000000;0.642352
9862.000000;0.642633
9861.000000;0.642953
9860.000000;0.643170
9859.000000;0.643314
9858.000000;0.643457
9857.000000;0.643546
9856.000000;0.643451
9855.000000;0.643123
9854.000000;0.642606
9853.000000;0.641979
9852.000000;0.641364
9851.000000;0.640964
9850.000000;0.640933
9849.000000;0.641198
9848.000000;0.641470
9847.000000;0.641463
9846.000000;0.641136
9845.000000;0.640758
9844.000000;0.640702
9843.000000;0.641071
9842.000000;0.641541
9841.000000;0.641664
9840.000000;0.641355
9839.000000;0.640946
9838.000000;0.640744
9837.000000;0.640719
9836.000000;0.640658
9835.000000;0.640476
9834.000000;0.640248
9833.000000;0.640084
9832.000000;0.640082
9831.000000;0.640291
9830.000000;0.640580
9829.000000;0.640666
9828.000000;0.640383
9827.000000;0.639894
9826.000000;0.639526
9825.000000;0.639457
9824.000000;0.639617
9823.000000;0.639795
9822.000000;0.639791
9821.000000;0.639579
9820.000000;0.639391
9819.000000;0.639508
9818.000000;0.639889
9817.000000;0.640168
9816.000000;0.640102
9815.000000;0.639855
9814.000000;0.639683
9813.000000;0.639530
9812.000000;0.639194
9811.000000;0.638755
9810.000000;0.638571
9809.000000;0.638833
9808.000000;0.639344
9807.000000;0.639765
9806.000000;0.639899
9805.000000;0.639707
9804.000000;0.639230
9803.000000;0.638592
9802.000000;0.637991
9801.000000;0.637584
9800.000000;0.637398
9799.000000;0.637348
9798.000000;0.637300
9797.000000;0.637155
9796.000000;0.636932
9795.000000;0.636760
9794.000000;0.636720
9793.000000;0.636716
9792.000000;0.636574
9791.000000;0.636267
9790.000000;0.635967
9789.000000;0.635873
9788.000000;0.636005
9787.000000;0.636162
9786.000000;0.636099
9785.000000;0.635776
9784.000000;0.635436
9783.000000;0.635383
9782.000000;0.635688
9781.000000;0.636163
9780.000000;0.636583
9779.000000;0.636816
9778.000000;0.636769
9777.000000;0.636424
9776.000000;0.635975
9775.000000;0.635737
9774.000000;0.635783
9773.000000;0.635794
9772.000000;0.635426
9771.000000;0.634725
9770.000000;0.634067
9769.000000;0.633741
9768.000000;0.633723
9767.000000;0.633772
9766.000000;0.633666
9765.000000;0.633406
9764.000000;0.633256
9763.000000;0.633515
9762.000000;0.634168
9761.000000;0.634812
9760.000000;0.634991
9759.000000;0.634534
9758.000000;0.633594
9757.000000;0.632516
9756.000000;0.631753
9755.000000;0.631672
9754.000000;0.632257
9753.000000;0.633063
9752.000000;0.633620
9751.000000;0.633795
9750.000000;0.633716
9749.000000;0.633519
9748.000000;0.633321
9747.000000;0.633239
9746.000000;0.633249
9745.000000;0.633157
9744.000000;0.632903
9743.000000;0.632735
9742.000000;0.632872
9741.000000;0.633142
9740.000000;0.633189
9739.000000;0.632954
9738.000000;0.632668
9737.000000;0.632481
9736.000000;0.632383
9735.000000;0.632422
9734.000000;0.632672
9733.000000;0.632964
9732.000000;0.632937
9731.000000;0.632442
9730.000000;0.631699
9729.000000;0.631034
9728.000000;0.630654
9727.000000;0.630677
9726.000000;0.631104
9725.000000;0.631667
9724.000000;0.631922
9723.000000;0.631635
9722.000000;0.630985
9721.000000;0.630359
9720.000000;0.630067
9719.000000;0.630213
9718.000000;0.630661
9717.000000;0.631077
9716.000000;0.631188
9715.000000;0.631041
9714.000000;0.630859
9713.000000;0.630703
9712.000000;0.630489
9711.000000;0.630292
9710.000000;0.630333
9709.000000;0.630575
9708.000000;0.630651
9707.000000;0.630343
9706.000000;0.629907
9705.000000;0.629745
9704.000000;0.629910
9703.000000;0.630119
9702.000000;0.630122
9701.000000;0.629891
9700.000000;0.629544
9699.000000;0.629234
9698.000000;0.629057
9697.000000;0.628976
9696.000000;0.628868
9695.000000;0.628709
9694.000000;0.628624
9693.000000;0.628690
9692.000000;0.628824
9691.000000;0.628911
9690.000000;0.628921
9689.000000;0.628854
9688.000000;0.628686
9687.000000;0.628459
9686.000000;0.628288
9685.000000;0.628209
9684.000000;0.628152
9683.000000;0.628142
9682.000000;0.628322
9681.000000;0.628670
9680.000000;0.628881
9679.000000;0.628724
9678.000000;0.628345
9677.000000;0.628019
9676.000000;0.627741
9675.000000;0.627302
9674.000000;0.626695
9673.000000;0.626202
9672.000000;0.626076
9671.000000;0.626317
9670.000000;0.626755
9669.000000;0.627194
9668.000000;0.627484
9667.000000;0.627592
9666.000000;0.627600
9665.000000;0.627555
9664.000000;0.627377
9663.000000;0.627028
9662.000000;0.626694
9661.000000;0.626614
9660.000000;0.626751
9659.000000;0.626852
9658.000000;0.626814
9657.000000;0.626795
9656.000000;0.626925
9655.000000;0.627088
9654.000000;0.627107
9653.000000;0.626992
9652.000000;0.626922
9651.000000;0.627008
9650.000000;0.627146
9649.000000;0.627075
9648.000000;0.626611
9647.000000;0.625899
9646.000000;0.625378
9645.000000;0.625344
9644.000000;0.625577
9643.000000;0.625558
9642.000000;0.625074
9641.000000;0.624407
9640.000000;0.623922
9639.000000;0.623704
9638.000000;0.623704
9637.000000;0.623955
9636.000000;0.624440
9635.000000;0.624898
9634.000000;0.625029
9633.000000;0.624848
9632.000000;0.624630
9631.000000;0.624528
9630.000000;0.624444
9629.000000;0.624273
9628.000000;0.624062
9627.000000;0.623906
9626.000000;0.623846
9625.000000;0.623912
9624.000000;0.624137
9623.000000;0.624442
9622.000000;0.624610
9621.000000;0.624470
9620.000000;0.624040
9619.000000;0.623475
9618.000000;0.622942
9617.000000;0.622593
9616.000000;0.622532
9615.000000;0.622723
9614.000000;0.622972
9613.000000;0.623101
9612.000000;0.623098
9611.000000;0.623032
9610.000000;0.622891
9609.000000;0.622597
9608.000000;0.622169
9607.000000;0.621773
9606.000000;0.621579
9605.000000;0.621620
9604.000000;0.621771
9603.000000;0.621855
9602.000000;0.621779
9601.000000;0.621611
9600.000000;0.621498
9599.000000;0.621490
9598.000000;0.621490
9597.000000;0.621433
9596.000000;0.621443
9595.000000;0.621661
9594.000000;0.621950
9593.000000;0.621919
9592.000000;0.621352
9591.000000;0.620526
9590.000000;0.619993
9589.000000;0.620052
9588.000000;0.620503
9587.000000;0.620916
9586.000000;0.621083
9585.000000;0.621133
9584.000000;0.621251
9583.000000;0.621384
9582.000000;0.621311
9581.000000;0.620961
9580.000000;0.620542
9579.000000;0.620294
9578.000000;0.620234
9577.000000;0.620217
9576.000000;0.620194
9575.000000;0.620254
9574.000000;0.620431
9573.000000;0.620589
9572.000000;0.620560
9571.000000;0.620312
9570.000000;0.619944
9569.000000;0.619580
9568.000000;0.619331
9567.000000;0.619288
9566.000000;0.619454
9565.000000;0.619704
9564.000000;0.619860
9563.000000;0.619848
9562.000000;0.619752
9561.000000;0.619706
9560.000000;0.619737
9559.000000;0.619708
9558.000000;0.619455
9557.000000;0.618991
9556.000000;0.618563
9555.000000;0.618428
9554.000000;0.618574
9553.000000;0.618721
9552.000000;0.618588
9551.000000;0.618135
9550.000000;0.617556
9549.000000;0.617125
9548.000000;0.617056
9547.000000;0.617393
9546.000000;0.617942
9545.000000;0.618350
9544.000000;0.618363
9543.000000;0.618024
9542.000000;0.617591
9541.000000;0.617282
9540.000000;0.617135
9539.000000;0.617085
9538.000000;0.617100
9537.000000;0.617205
9536.000000;0.617407
9535.000000;0.617628
9534.000000;0.617761
9533.000000;0.617760
9532.000000;0.617640
9531.000000;0.617396
9530.000000;0.616988
9529.000000;0.616488
9528.000000;0.616156
9527.000000;0.616232
9526.000000;0.616660
9525.000000;0.617122
9524.000000;0.617356
9523.000000;0.617325
9522.000000;0.617093
9521.000000;0.616695
9520.000000;0.616194
9519.000000;0.615718
9518.000000;0.615342
9517.000000;0.615038
9516.000000;0.614808
9515.000000;0.614754
9514.000000;0.614901
9513.000000;0.615061
9512.000000;0.615029
9511.000000;0.614824
9510.000000;0.614620
9509.000000;0.614496
9508.000000;0.614414
9507.000000;0.614378
9506.000000;0.614455
9505.000000;0.614648
9504.000000;0.614896
9503.000000;0.615163
9502.000000;0.615424
9501.000000;0.615580
9500.000000;0.615537
9499.000000;0.615350
9498.000000;0.615160
9497.000000;0.614992
9496.000000;0.614774
9495.000000;0.614522
9494.000000;0.614339
9493.000000;0.614196
9492.000000;0.613940
9491.000000;0.613578
9490.000000;0.613382
9489.000000;0.613572
9488.000000;0.613992
9487.000000;0.614252
9486.000000;0.614133
9485.000000;0.613769
9484.000000;0.613473
9483.000000;0.613440
9482.000000;0.613609
9481.000000;0.613747
9480.000000;0.613690
9479.000000;0.613488
9478.000000;0.613271
9477.000000;0.613041
9476.000000;0.612718
9475.000000;0.612370
9474.000000;0.612205
9473.000000;0.612261
9472.000000;0.612283
9471.000000;0.612010
9470.000000;0.611500
9469.000000;0.611035
9468.000000;0.610839
9467.000000;0.610978
9466.000000;0.611424
9465.000000;0.612027
9464.000000;0.612451
9463.000000;0.612357
9462.000000;0.611724
9461.000000;0.610935
9460.000000;0.610474
9459.000000;0.610547
9458.000000;0.610949
9457.000000;0.611264
9456.000000;0.611227
9455.000000;0.610940
9454.000000;0.610725
9453.000000;0.610756
9452.000000;0.610916
9451.000000;0.611017
9450.000000;0.611021
9449.000000;0.610968
9448.000000;0.610838
9447.000000;0.610627
9446.000000;0.610466
9445.000000;0.610490
9444.000000;0.610641
9443.000000;0.610745
9442.000000;0.610765
9441.000000;0.610783
9440.000000;0.610775
9439.000000;0.610584
9438.000000;0.610176
9437.000000;0.609751
9436.000000;0.609508
9435.000000;0.609430
9434.000000;0.609375
9433.000000;0.609269
9432.000000;0.609131
9431.000000;0.608996
9430.000000;0.608901
9429.000000;0.608905
9428.000000;0.609015
9427.000000;0.609130
9426.000000;0.609110
9425.000000;0.608898
9424.000000;0.608555
9423.000000;0.608199
9422.000000;0.607952
9421.000000;0.607907
9420.000000;0.608084
9419.000000;0.608409
9418.000000;0.608744
9417.000000;0.608938
9416.000000;0.608893
9415.000000;0.608649
9414.000000;0.608391
9413.000000;0.608290
9412.000000;0.608305
9411.000000;0.608225
9410.000000;0.607936
9409.000000;0.607579
9408.000000;0.607385
9407.000000;0.607414
9406.000000;0.607518
9405.000000;0.607536
9404.000000;0.607443
9403.000000;0.607328
9402.000000;0.607293
9401.000000;0.607375
9400.000000;0.607538
9399.000000;0.607707
9398.000000;0.607797
9397.000000;0.607734
9396.000000;0.607484
9395.000000;0.607109
9394.000000;0.606767
9393.000000;0.606595
9392.000000;0.606596
9391.000000;0.606674
9390.000000;0.606766
9389.000000;0.606853
9388.000000;0.606865
9387.000000;0.606689
9386.000000;0.606336
9385.000000;0.605987
9384.000000;0.605804
9383.000000;0.605767
9382.000000;0.605740
9381.000000;0.605648
9380.000000;0.605492
9379.000000;0.605280
9378.000000;0.605044
9377.000000;0.604879
9376.000000;0.604841
9375.000000;0.604840
9374.000000;0.604739
9373.000000;0.604563
9372.000000;0.604498
9371.000000;0.604642
9370.000000;0.604877
9369.000000;0.605053
9368.000000;0.605210
9367.000000;0.605493
9366.000000;0.605884
9365.000000;0.606124
9364.000000;0.605975
9363.000000;0.605501
9362.000000;0.605032
9361.000000;0.604827
9360.000000;0.604823
9359.000000;0.604743
9358.000000;0.604421
9357.000000;0.603982
9356.000000;0.603688
9355.000000;0.603675
9354.000000;0.603859
9353.000000;0.604054
9352.000000;0.604147
9351.000000;0.604149
9350.000000;0.604116
9349.000000;0.604056
9348.000000;0.603925
9347.000000;0.603742
9346.000000;0.603632
9345.000000;0.603706
9344.000000;0.603872
9343.000000;0.603890
9342.000000;0.603652
9341.000000;0.603328
9340.000000;0.603177
9339.000000;0.603242
9338.000000;0.603331
9337.000000;0.603264
9336.000000;0.603065
9335.000000;0.602912
9334.000000;0.602938
9333.000000;0.603109
9332.000000;0.603239
9331.000000;0.603147
9330.000000;0.602834
9329.000000;0.602504
9328.000000;0.602363
9327.000000;0.602427
9326.000000;0.602558
9325.000000;0.602660
9324.000000;0.602748
9323.000000;0.602830
9322.000000;0.602807
9321.000000;0.602591
9320.000000;0.602268
9319.000000;0.602072
9318.000000;0.602158
9317.000000;0.602430
9316.000000;0.602607
9315.000000;0.602497
9314.000000;0.602183
9313.000000;0.601924
9312.000000;0.601886
9311.000000;0.601992
9310.000000;0.602057
9309.000000;0.601992
9308.000000;0.601861
9307.000000;0.601758
9306.000000;0.601708
9305.000000;0.601653
9304.000000;0.601506
9303.000000;0.601227
9302.000000;0.600896
9301.000000;0.600675
9300.000000;0.600653
9299.000000;0.600736
9298.000000;0.600745
9297.000000;0.600604
9296.000000;0.600401
9295.000000;0.600265
9294.000000;0.600232
9293.000000;0.600223
9292.000000;0.600116
9291.000000;0.599862
9290.000000;0.599563
9289.000000;0.599406
9288.000000;0.599456
9287.000000;0.599539
9286.000000;0.599435
9285.000000;0.599168
9284.000000;0.599014
9283.000000;0.599168
9282.000000;0.599501
9281.000000;0.599710
9280.000000;0.599633
9279.000000;0.599372
9278.000000;0.599131
9277.000000;0.599029
9276.000000;0.599052
9275.000000;0.599117
9274.000000;0.599122
9273.000000;0.598998
9272.000000;0.598760
9271.000000;0.598520
9270.000000;0.598407
9269.000000;0.598441
9268.000000;0.598493
9267.000000;0.598397
9266.000000;0.598124
9265.000000;0.597815
9264.000000;0.597645
9263.000000;0.597664
9262.000000;0.597785
9261.000000;0.597882
9260.000000;0.597872
9259.000000;0.597768
9258.000000;0.597676
9257.000000;0.597706
9256.000000;0.597834
9255.000000;0.597889
9254.000000;0.597743
9253.000000;0.597485
9252.000000;0.597317
9251.000000;0.597309
9250.000000;0.597336
9249.000000;0.597255
9248.000000;0.597069
9247.000000;0.596864
9246.000000;0.596691
9245.000000;0.596537
9244.000000;0.596396
9243.000000;0.596296
9242.000000;0.596269
9241.000000;0.596334
9240.000000;0.596473
9239.000000;0.596625
9238.000000;0.596700
9237.000000;0.596639
9236.000000;0.596478
9235.000000;0.596330
9234.000000;0.596291
9233.000000;0.596331
9232.000000;0.596309
9231.000000;0.596128
9230.000000;0.595877
9229.000000;0.595742
9228.000000;0.595784
9227.000000;0.595888
9226.000000;0.595964
9225.000000;0.596081
9224.000000;0.596314
9223.000000;0.596541
9222.000000;0.596527
9221.000000;0.596197
9220.000000;0.595690
9219.000000;0.595166
9218.000000;0.594681
9217.000000;0.594254
9216.000000;0.593971
9215.000000;0.593946
9214.000000;0.594225
9213.000000;0.594711
9212.000000;0.595177
9211.000000;0.595374
9210.000000;0.595216
9209.000000;0.594842
9208.000000;0.594447
9207.000000;0.594107
9206.000000;0.593850
9205.000000;0.593792
9204.000000;0.594022
9203.000000;0.594362
9202.000000;0.594454
9201.000000;0.594167
9200.000000;0.593767
9199.000000;0.593610
9198.000000;0.593782
9197.000000;0.594092
9196.000000;0.594310
9195.000000;0.594302
9194.000000;0.594037
9193.000000;0.593587
9192.000000;0.593110
9191.000000;0.592738
9190.000000;0.592501
9189.000000;0.592392
9188.000000;0.592427
9187.000000;0.592607
9186.000000;0.592854
9185.000000;0.593062
9184.000000;0.593159
9183.000000;0.593108
9182.000000;0.592901
9181.000000;0.592610
9180.000000;0.592371
9179.000000;0.592271
9178.000000;0.592280
9177.000000;0.592320
9176.000000;0.592334
9175.000000;0.592273
9174.000000;0.592115
9173.000000;0.591945
9172.000000;0.591910
9171.000000;0.592024
9170.000000;0.592114
9169.000000;0.592042
9168.000000;0.591884
9167.000000;0.591794
9166.000000;0.591775
9165.000000;0.591697
9164.000000;0.591513
9163.000000;0.591324
9162.000000;0.591223
9161.000000;0.591184
9160.000000;0.591124
9159.000000;0.591002
9158.000000;0.590848
9157.000000;0.590730
9156.000000;0.590705
9155.000000;0.590764
9154.000000;0.590857
9153.000000;0.590950
9152.000000;0.591015
9151.000000;0.590969
9150.000000;0.590729
9149.000000;0.590372
9148.000000;0.590122
9147.000000;0.590123
9146.000000;0.590278
9145.000000;0.590416
9144.000000;0.590505
9143.000000;0.590600
9142.000000;0.590656
9141.000000;0.590549
9140.000000;0.590239
9139.000000;0.589824
9138.000000;0.589434
9137.000000;0.589168
9136.000000;0.589085
9135.000000;0.589167
9134.000000;0.589281
9133.000000;0.589299
9132.000000;0.589243
9131.000000;0.589241
9130.000000;0.589344
9129.000000;0.589458
9128.000000;0.589479
9127.000000;0.589396
9126.000000;0.589278
9125.000000;0.589185
9124.000000;0.589104
9123.000000;0.588943
9122.000000;0.588640
9121.000000;0.588319
9120.000000;0.588239
9119.000000;0.588491
9118.000000;0.588835
9117.000000;0.588938
9116.000000;0.588728
9115.000000;0.588393
9114.000000;0.588107
9113.000000;0.587928
9112.000000;0.587902
9111.000000;0.588074
9110.000000;0.588350
9109.000000;0.588511
9108.000000;0.588428
9107.000000;0.588160
9106.000000;0.587831
9105.000000;0.587538
9104.000000;0.587372
9103.000000;0.587380
9102.000000;0.587459
9101.000000;0.587431
9100.000000;0.587270
9099.000000;0.587128
9098.000000;0.587068
9097.000000;0.586951
9096.000000;0.586668
9095.000000;0.586353
9094.000000;0.586217
9093.000000;0.586286
9092.000000;0.586423
9091.000000;0.586528
9090.000000;0.586577
9089.000000;0.586538
9088.000000;0.586397
9087.000000;0.586248
9086.000000;0.586231
9085.000000;0.586353
9084.000000;0.586492
9083.000000;0.586554
9082.000000;0.586538
9081.000000;0.586455
9080.000000;0.586285
9079.000000;0.586044
9078.000000;0.585806
9077.000000;0.585631
9076.000000;0.585520
9075.000000;0.585463
9074.000000;0.585465
9073.000000;0.585495
9072.000000;0.585484
9071.000000;0.585400
9070.000000;0.585298
9069.000000;0.585222
9068.000000;0.585130
9067.000000;0.584940
9066.000000;0.584669
9065.000000;0.584465
9064.000000;0.584476
9063.000000;0.584701
9062.000000;0.584960
9061.000000;0.585045
9060.000000;0.584897
9059.000000;0.584645
9058.000000;0.584459
9057.000000;0.584392
9056.000000;0.584384
9055.000000;0.584373
9054.000000;0.584340
9053.000000;0.584265
