Criado como novo conjunto de dados;"2706_e01_daniel.spp","107467.4 Secs"
cm-1;Abs
10000.000000;0.865927
9999.000000;0.865256
9998.000000;0.864914
9997.000000;0.864610
9996.000000;0.864254
9995.000000;0.863960
9994.000000;0.863681
9993.000000;0.863227
9992.000000;0.862705
9991.000000;0.862569
9990.000000;0.863018
9989.000000;0.863555
9988.000000;0.863445
9987.000000;0.862593
9986.000000;0.861704
9985.000000;0.861521
9984.000000;0.862067
9983.000000;0.862724
9982.000000;0.862951
9981.000000;0.862759
9980.000000;0.862517
9979.000000;0.862489
9978.000000;0.862680
9977.000000;0.863004
9976.000000;0.863387
9975.000000;0.863671
9974.000000;0.863655
9973.000000;0.863359
9972.000000;0.863092
9971.000000;0.863098
9970.000000;0.863254
9969.000000;0.863280
9968.000000;0.863118
9967.000000;0.862890
9966.000000;0.862596
9965.000000;0.862144
9964.000000;0.861647
9963.000000;0.861410
9962.000000;0.861567
9961.000000;0.861927
9960.000000;0.862241
9959.000000;0.862380
9958.000000;0.862237
9957.000000;0.861775
9956.000000;0.861281
9955.000000;0.861227
9954.000000;0.861647
9953.000000;0.861937
9952.000000;0.861561
9951.000000;0.860787
9950.000000;0.860378
9949.000000;0.860648
9948.000000;0.861143
9947.000000;0.861221
9946.000000;0.860681
9945.000000;0.859816
9944.000000;0.859078
9943.000000;0.858774
9942.000000;0.858937
9941.000000;0.859402
9940.000000;0.860034
9939.000000;0.860842
9938.000000;0.861758
9937.000000;0.862427
9936.000000;0.862446
9935.000000;0.861804
9934.000000;0.860888
9933.000000;0.860056
9932.000000;0.859389
9931.000000;0.858881
9930.000000;0.858595
9929.000000;0.858540
9928.000000;0.858553
9927.000000;0.858487
9926.000000;0.858386
9925.000000;0.858343
9924.000000;0.858275
9923.000000;0.858012
9922.000000;0.857591
9921.000000;0.857297
9920.000000;0.857396
9919.000000;0.857916
9918.000000;0.858665
9917.000000;0.859360
9916.000000;0.859722
9915.000000;0.859592
9914.000000;0.859043
9913.000000;0.858351
9912.000000;0.857795
9911.000000;0.857484
9910.000000;0.857382
9909.000000;0.857431
9908.000000;0.857573
9907.000000;0.857699
9906.000000;0.857675
9905.000000;0.857476
9904.000000;0.857226
9903.000000;0.857082
9902.000000;0.857115
9901.000000;0.857325
9900.000000;0.857679
9899.000000;0.858061
9898.000000;0.858242
9897.000000;0.857991
9896.000000;0.857270
9895.000000;0.856308
9894.000000;0.855494
9893.000000;0.855158
9892.000000;0.855342
9891.000000;0.855716
9890.000000;0.855825
9889.000000;0.855540
9888.000000;0.855173
9887.000000;0.855052
9886.000000;0.855133
9885.000000;0.855175
9884.000000;0.855152
9883.000000;0.855229
9882.000000;0.855378
9881.000000;0.855310
9880.000000;0.854880
9879.000000;0.854348
9878.000000;0.854127
9877.000000;0.854402
9876.000000;0.855037
9875.000000;0.855696
9874.000000;0.856002
9873.000000;0.855772
9872.000000;0.855189
9871.000000;0.854647
9870.000000;0.854363
9869.000000;0.854246
9868.000000;0.854162
9867.000000;0.854156
9866.000000;0.854308
9865.000000;0.854553
9864.000000;0.854714
9863.000000;0.854635
9862.000000;0.854238
9861.000000;0.853634
9860.000000;0.853208
9859.000000;0.853365
9858.000000;0.854047
9857.000000;0.854722
9856.000000;0.854977
9855.000000;0.854951
9854.000000;0.855018
9853.000000;0.855241
9852.000000;0.855362
9851.000000;0.855171
9850.000000;0.854629
9849.000000;0.853783
9848.000000;0.852782
9847.000000;0.851932
9846.000000;0.851479
9845.000000;0.851397
9844.000000;0.851539
9843.000000;0.851878
9842.000000;0.852405
9841.000000;0.852902
9840.000000;0.853087
9839.000000;0.852973
9838.000000;0.852834
9837.000000;0.852835
9836.000000;0.852919
9835.000000;0.853043
9834.000000;0.853259
9833.000000;0.853503
9832.000000;0.853534
9831.000000;0.853186
9830.000000;0.852564
9829.000000;0.851916
9828.000000;0.851424
9827.000000;0.851150
9826.000000;0.851063
9825.000000;0.851071
9824.000000;0.851090
9823.000000;0.851074
9822.000000;0.850967
9821.000000;0.850725
9820.000000;0.850486
9819.000000;0.850570
9818.000000;0.851086
9817.000000;0.851664
9816.000000;0.851811
9815.000000;0.851502
9814.000000;0.851144
9813.000000;0.850990
9812.000000;0.850890
9811.000000;0.850677
9810.000000;0.850462
9809.000000;0.850392
9808.000000;0.850398
9807.000000;0.850367
9806.000000;0.850367
9805.000000;0.850499
9804.000000;0.850635
9803.000000;0.850489
9802.000000;0.849899
9801.000000;0.848997
9800.000000;0.848191
9799.000000;0.848004
9798.000000;0.848677
9797.000000;0.849812
9796.000000;0.850594
9795.000000;0.850612
9794.000000;0.850301
9793.000000;0.850346
9792.000000;0.850770
9791.000000;0.850901
9790.000000;0.850208
9789.000000;0.848920
9788.000000;0.847742
9787.000000;0.847188
9786.000000;0.847299
9785.000000;0.847818
9784.000000;0.848427
9783.000000;0.848851
9782.000000;0.848941
9781.000000;0.848780
9780.000000;0.848649
9779.000000;0.848761
9778.000000;0.848994
9777.000000;0.849011
9776.000000;0.848742
9775.000000;0.848577
9774.000000;0.848883
9773.000000;0.849395
9772.000000;0.849432
9771.000000;0.848791
9770.000000;0.848106
9769.000000;0.848077
9768.000000;0.848581
9767.000000;0.848870
9766.000000;0.848552
9765.000000;0.848026
9764.000000;0.847878
9763.000000;0.848180
9762.000000;0.848526
9761.000000;0.848571
9760.000000;0.848307
9759.000000;0.847901
9758.000000;0.847477
9757.000000;0.847097
9756.000000;0.846801
9755.000000;0.846599
9754.000000;0.846469
9753.000000;0.846400
9752.000000;0.846418
9751.000000;0.846511
9750.000000;0.846552
9749.000000;0.846355
9748.000000;0.845909
9747.000000;0.845501
9746.000000;0.845506
9745.000000;0.845987
9744.000000;0.846559
9743.000000;0.846728
9742.000000;0.846355
9741.000000;0.845748
9740.000000;0.845348
9739.000000;0.845394
9738.000000;0.845807
9737.000000;0.846241
9736.000000;0.846255
9735.000000;0.845641
9734.000000;0.844705
9733.000000;0.844111
9732.000000;0.844278
9731.000000;0.844953
9730.000000;0.845476
9729.000000;0.845465
9728.000000;0.845146
9727.000000;0.845028
9726.000000;0.845371
9725.000000;0.846024
9724.000000;0.846631
9723.000000;0.846880
9722.000000;0.846615
9721.000000;0.845885
9720.000000;0.844940
9719.000000;0.844093
9718.000000;0.843518
9717.000000;0.843203
9716.000000;0.843080
9715.000000;0.843129
9714.000000;0.843329
9713.000000;0.843567
9712.000000;0.843684
9711.000000;0.843618
9710.000000;0.843458
9709.000000;0.843354
9708.000000;0.843425
9707.000000;0.843686
9706.000000;0.844002
9705.000000;0.844094
9704.000000;0.843700
9703.000000;0.842841
9702.000000;0.841878
9701.000000;0.841244
9700.000000;0.841124
9699.000000;0.841433
9698.000000;0.842047
9697.000000;0.842941
9696.000000;0.844026
9695.000000;0.844994
9694.000000;0.845454
9693.000000;0.845267
9692.000000;0.844655
9691.000000;0.843975
9690.000000;0.843447
9689.000000;0.843101
9688.000000;0.842870
9687.000000;0.842659
9686.000000;0.842397
9685.000000;0.842112
9684.000000;0.841926
9683.000000;0.841915
9682.000000;0.841986
9681.000000;0.841979
9680.000000;0.841862
9679.000000;0.841750
9678.000000;0.841717
9677.000000;0.841681
9676.000000;0.841528
9675.000000;0.841282
9674.000000;0.841103
9673.000000;0.841140
9672.000000;0.841387
9671.000000;0.841669
9670.000000;0.841776
9669.000000;0.841657
9668.000000;0.841455
9667.000000;0.841305
9666.000000;0.841155
9665.000000;0.840892
9664.000000;0.840617
9663.000000;0.840607
9662.000000;0.840945
9661.000000;0.841321
9660.000000;0.841332
9659.000000;0.840920
9658.000000;0.840384
9657.000000;0.840053
9656.000000;0.840027
9655.000000;0.840198
9654.000000;0.840391
9653.000000;0.840477
9652.000000;0.840449
9651.000000;0.840380
9650.000000;0.840279
9649.000000;0.840038
9648.000000;0.839610
9647.000000;0.839177
9646.000000;0.839011
9645.000000;0.839163
9644.000000;0.839423
9643.000000;0.839583
9642.000000;0.839631
9641.000000;0.839645
9640.000000;0.839619
9639.000000;0.839494
9638.000000;0.839284
9637.000000;0.839089
9636.000000;0.838984
9635.000000;0.838945
9634.000000;0.838879
9633.000000;0.838717
9632.000000;0.838502
9631.000000;0.838377
9630.000000;0.838444
9629.000000;0.838631
9628.000000;0.838729
9627.000000;0.838596
9626.000000;0.838291
9625.000000;0.838003
9624.000000;0.837867
9623.000000;0.837863
9622.000000;0.837837
9621.000000;0.837626
9620.000000;0.837221
9619.000000;0.836817
9618.000000;0.836635
9617.000000;0.836669
9616.000000;0.836692
9615.000000;0.836553
9614.000000;0.836380
9613.000000;0.836401
9612.000000;0.836630
9611.000000;0.836834
9610.000000;0.836816
9609.000000;0.836598
9608.000000;0.836356
9607.000000;0.836252
9606.000000;0.836384
9605.000000;0.836753
9604.000000;0.837178
9603.000000;0.837329
9602.000000;0.836978
9601.000000;0.836251
9600.000000;0.835538
9599.000000;0.835139
9598.000000;0.835061
9597.000000;0.835157
9596.000000;0.835344
9595.000000;0.835600
9594.000000;0.835813
9593.000000;0.835790
9592.000000;0.835440
9591.000000;0.834916
9590.000000;0.834509
9589.000000;0.834423
9588.000000;0.834633
9587.000000;0.834946
9586.000000;0.835182
9585.000000;0.835332
9584.000000;0.835505
9583.000000;0.835739
9582.000000;0.835914
9581.000000;0.835931
9580.000000;0.835899
9579.000000;0.836026
9578.000000;0.836303
9577.000000;0.836452
9576.000000;0.836251
9575.000000;0.835826
9574.000000;0.835536
9573.000000;0.835595
9572.000000;0.835874
9571.000000;0.836019
9570.000000;0.835730
9569.000000;0.835007
9568.000000;0.834215
9567.000000;0.833851
9566.000000;0.834132
9565.000000;0.834801
9564.000000;0.835358
9563.000000;0.835463
9562.000000;0.835112
9561.000000;0.834509
9560.000000;0.833902
9559.000000;0.833507
9558.000000;0.833439
9557.000000;0.833659
9556.000000;0.834029
9555.000000;0.834416
9554.000000;0.834673
9553.000000;0.834588
9552.000000;0.834011
9551.000000;0.833101
9550.000000;0.832338
9549.000000;0.832145
9548.000000;0.832501
9547.000000;0.832956
9546.000000;0.833057
9545.000000;0.832733
9544.000000;0.832287
9543.000000;0.832063
9542.000000;0.832139
9541.000000;0.832357
9540.000000;0.832562
9539.000000;0.832724
9538.000000;0.832839
9537.000000;0.832846
9536.000000;0.832736
9535.000000;0.832644
9534.000000;0.832667
9533.000000;0.832663
9532.000000;0.832417
9531.000000;0.831994
9530.000000;0.831709
9529.000000;0.831711
9528.000000;0.831776
9527.000000;0.831611
9526.000000;0.831218
9525.000000;0.830820
9524.000000;0.830588
9523.000000;0.830587
9522.000000;0.830857
9521.000000;0.831311
9520.000000;0.831629
9519.000000;0.831530
9518.000000;0.831148
9517.000000;0.830916
9516.000000;0.831016
9515.000000;0.831151
9514.000000;0.830968
9513.000000;0.830509
9512.000000;0.830096
9511.000000;0.829909
9510.000000;0.829883
9509.000000;0.829914
9508.000000;0.829981
9507.000000;0.830047
9506.000000;0.830015
9505.000000;0.829835
9504.000000;0.829560
9503.000000;0.829290
9502.000000;0.829113
9501.000000;0.829117
9500.000000;0.829344
9499.000000;0.829704
9498.000000;0.829996
9497.000000;0.830067
9496.000000;0.829915
9495.000000;0.829671
9494.000000;0.829511
9493.000000;0.829563
9492.000000;0.829759
9491.000000;0.829822
9490.000000;0.829526
9489.000000;0.829009
9488.000000;0.828668
9487.000000;0.828683
9486.000000;0.828805
9485.000000;0.828702
9484.000000;0.828356
9483.000000;0.828002
9482.000000;0.827776
9481.000000;0.827644
9480.000000;0.827579
9479.000000;0.827627
9478.000000;0.827767
9477.000000;0.827900
9476.000000;0.828028
9475.000000;0.828278
9474.000000;0.828702
9473.000000;0.829136
9472.000000;0.829360
9471.000000;0.829304
9470.000000;0.829055
9469.000000;0.828746
9468.000000;0.828489
9467.000000;0.828336
9466.000000;0.828251
9465.000000;0.828156
9464.000000;0.828052
9463.000000;0.828033
9462.000000;0.828128
9461.000000;0.828211
9460.000000;0.828133
9459.000000;0.827868
9458.000000;0.827496
9457.000000;0.827093
9456.000000;0.826715
9455.000000;0.826439
9454.000000;0.826327
9453.000000;0.826363
9452.000000;0.826465
9451.000000;0.826549
9450.000000;0.826566
9449.000000;0.826501
9448.000000;0.826420
9447.000000;0.826458
9446.000000;0.826692
9445.000000;0.827003
9444.000000;0.827137
9443.000000;0.826945
9442.000000;0.826539
9441.000000;0.826190
9440.000000;0.826099
9439.000000;0.826266
9438.000000;0.826566
9437.000000;0.826882
9436.000000;0.827120
9435.000000;0.827130
9434.000000;0.826748
9433.000000;0.825998
9432.000000;0.825209
9431.000000;0.824794
9430.000000;0.824895
9429.000000;0.825321
9428.000000;0.825796
9427.000000;0.826168
9426.000000;0.826359
9425.000000;0.826262
9424.000000;0.825792
9423.000000;0.825024
9422.000000;0.824196
9421.000000;0.823591
9420.000000;0.823385
9419.000000;0.823528
9418.000000;0.823754
9417.000000;0.823807
9416.000000;0.823709
9415.000000;0.823720
9414.000000;0.823992
9413.000000;0.824333
9412.000000;0.824387
9411.000000;0.823992
9410.000000;0.823327
9409.000000;0.822753
9408.000000;0.822567
9407.000000;0.822804
9406.000000;0.823199
9405.000000;0.823394
9404.000000;0.823285
9403.000000;0.823106
9402.000000;0.823102
9401.000000;0.823201
9400.000000;0.823105
9399.000000;0.822658
9398.000000;0.822040
9397.000000;0.821613
9396.000000;0.821646
9395.000000;0.822138
9394.000000;0.822790
9393.000000;0.823188
9392.000000;0.823128
9391.000000;0.822768
9390.000000;0.822456
9389.000000;0.822432
9388.000000;0.822709
9387.000000;0.823103
9386.000000;0.823287
9385.000000;0.822963
9384.000000;0.822156
9383.000000;0.821306
9382.000000;0.820885
9381.000000;0.820962
9380.000000;0.821250
9379.000000;0.821535
9378.000000;0.821865
9377.000000;0.822295
9376.000000;0.822656
9375.000000;0.822689
9374.000000;0.822318
9373.000000;0.821724
9372.000000;0.821215
9371.000000;0.821042
9370.000000;0.821259
9369.000000;0.821690
9368.000000;0.822063
9367.000000;0.822192
9366.000000;0.822030
9365.000000;0.821641
9364.000000;0.821194
9363.000000;0.820932
9362.000000;0.820962
9361.000000;0.821104
9360.000000;0.821075
9359.000000;0.820815
9358.000000;0.820518
9357.000000;0.820354
9356.000000;0.820324
9355.000000;0.820381
9354.000000;0.820492
9353.000000;0.820541
9352.000000;0.820369
9351.000000;0.820011
9350.000000;0.819712
9349.000000;0.819634
9348.000000;0.819663
9347.000000;0.819599
9346.000000;0.819395
9345.000000;0.819136
9344.000000;0.818915
9343.000000;0.818827
9342.000000;0.818948
9341.000000;0.819213
9340.000000;0.819437
9339.000000;0.819582
9338.000000;0.819804
9337.000000;0.820104
9336.000000;0.820154
9335.000000;0.819715
9334.000000;0.819101
9333.000000;0.818896
9332.000000;0.819234
9331.000000;0.819663
9330.000000;0.819762
9329.000000;0.819603
9328.000000;0.819481
9327.000000;0.819449
9326.000000;0.819328
9325.000000;0.819060
9324.000000;0.818828
9323.000000;0.818817
9322.000000;0.818981
9321.000000;0.819109
9320.000000;0.819055
9319.000000;0.818866
9318.000000;0.818676
9317.000000;0.818527
9316.000000;0.818346
9315.000000;0.818127
9314.000000;0.818029
9313.000000;0.818188
9312.000000;0.818499
9311.000000;0.818703
9310.000000;0.818698
9309.000000;0.818620
9308.000000;0.818583
9307.000000;0.818493
9306.000000;0.818202
9305.000000;0.817747
9304.000000;0.817326
9303.000000;0.817063
9302.000000;0.816916
9301.000000;0.816816
9300.000000;0.816799
9299.000000;0.816938
9298.000000;0.817169
9297.000000;0.817279
9296.000000;0.817122
9295.000000;0.816818
9294.000000;0.816627
9293.000000;0.816630
9292.000000;0.816629
9291.000000;0.816442
9290.000000;0.816193
9289.000000;0.816169
9288.000000;0.816443
9287.000000;0.816791
9286.000000;0.816987
9285.000000;0.817013
9284.000000;0.816957
9283.000000;0.816833
9282.000000;0.816613
9281.000000;0.816337
9280.000000;0.816112
9279.000000;0.816035
9278.000000;0.816167
9277.000000;0.816485
9276.000000;0.816821
9275.000000;0.816933
9274.000000;0.816727
9273.000000;0.816345
9272.000000;0.815982
9271.000000;0.815690
9270.000000;0.815455
9269.000000;0.815338
9268.000000;0.815422
9267.000000;0.815629
9266.000000;0.815754
9265.000000;0.815660
9264.000000;0.815376
9263.000000;0.814995
9262.000000;0.814605
9261.000000;0.814327
9260.000000;0.814280
9259.000000;0.814446
9258.000000;0.814646
9257.000000;0.814718
9256.000000;0.814670
9255.000000;0.814609
9254.000000;0.814558
9253.000000;0.814421
9252.000000;0.814142
9251.000000;0.813818
9250.000000;0.813645
9249.000000;0.813733
9248.000000;0.813994
9247.000000;0.814220
9246.000000;0.814257
9245.000000;0.814093
9244.000000;0.813793
9243.000000;0.813418
9242.000000;0.813059
9241.000000;0.812871
9240.000000;0.812970
9239.000000;0.813273
9238.000000;0.813544
9237.000000;0.813615
9236.000000;0.813534
9235.000000;0.813431
9234.000000;0.813309
9233.000000;0.813033
9232.000000;0.812543
9231.000000;0.812025
9230.000000;0.811802
9229.000000;0.812012
9228.000000;0.812406
9227.000000;0.812560
9226.000000;0.812333
9225.000000;0.812046
9224.000000;0.812104
9223.000000;0.812504
9222.000000;0.812834
9221.000000;0.812755
9220.000000;0.812322
9219.000000;0.811801
9218.000000;0.811333
9217.000000;0.810919
9216.000000;0.810605
9215.000000;0.810539
9214.000000;0.810813
9213.000000;0.811354
9212.000000;0.811936
9211.000000;0.812258
9210.000000;0.812099
9209.000000;0.811512
9208.000000;0.810848
9207.000000;0.810464
9206.000000;0.810417
9205.000000;0.810511
9204.000000;0.810623
9203.000000;0.810818
9202.000000;0.811137
9201.000000;0.811418
9200.000000;0.811460
9199.000000;0.811275
9198.000000;0.811088
9197.000000;0.811069
9196.000000;0.811141
9195.000000;0.811065
9194.000000;0.810721
9193.000000;0.810280
9192.000000;0.810093
9191.000000;0.810331
9190.000000;0.810769
9189.000000;0.810986
9188.000000;0.810787
9187.000000;0.810355
9186.000000;0.809979
9185.000000;0.809765
9184.000000;0.809664
9183.000000;0.809649
9182.000000;0.809741
9181.000000;0.809894
9180.000000;0.810015
9179.000000;0.810097
9178.000000;0.810202
9177.000000;0.810305
9176.000000;0.810234
9175.000000;0.809869
9174.000000;0.809330
9173.000000;0.808904
9172.000000;0.808766
9171.000000;0.808825
9170.000000;0.808847
9169.000000;0.808734
9168.000000;0.808624
9167.000000;0.808698
9166.000000;0.808917
9165.000000;0.809024
9164.000000;0.808847
9163.000000;0.808512
9162.000000;0.808281
9161.000000;0.808243
9160.000000;0.808256
9159.000000;0.808181
9158.000000;0.808046
9157.000000;0.807952
9156.000000;0.807927
9155.000000;0.807950
9154.000000;0.808030
9153.000000;0.808167
9152.000000;0.808278
9151.000000;0.808237
9150.000000;0.808010
9149.000000;0.807676
9148.000000;0.807330
9147.000000;0.807020
9146.000000;0.806788
9145.000000;0.806724
9144.000000;0.806901
9143.000000;0.807280
9142.000000;0.807682
9141.000000;0.807868
9140.000000;0.807696
9139.000000;0.807242
9138.000000;0.806796
9137.000000;0.806656
9136.000000;0.806875
9135.000000;0.807210
9134.000000;0.807339
9133.000000;0.807153
9132.000000;0.806818
9131.000000;0.806583
9130.000000;0.806556
9129.000000;0.806648
9128.000000;0.806690
9127.000000;0.806584
9126.000000;0.806370
9125.000000;0.806173
9124.000000;0.806071
9123.000000;0.805996
9122.000000;0.805812
9121.000000;0.805511
9120.000000;0.805290
9119.000000;0.805353
9118.000000;0.805661
9117.000000;0.805949
9116.000000;0.805998
9115.000000;0.805817
9114.000000;0.805562
9113.000000;0.805354
9112.000000;0.805249
9111.000000;0.805270
9110.000000;0.805378
9109.000000;0.805443
9108.000000;0.805356
9107.000000;0.805173
9106.000000;0.805061
9105.000000;0.805101
9104.000000;0.805202
9103.000000;0.805230
9102.000000;0.805153
9101.000000;0.805031
9100.000000;0.804955
9099.000000;0.805006
9098.000000;0.805205
9097.000000;0.805433
9096.000000;0.805469
9095.000000;0.805185
9094.000000;0.804685
9093.000000;0.804209
9092.000000;0.803917
9091.000000;0.803813
9090.000000;0.803829
9089.000000;0.803896
9088.000000;0.803950
9087.000000;0.803948
9086.000000;0.803905
9085.000000;0.803880
9084.000000;0.803901
9083.000000;0.803928
9082.000000;0.803913
9081.000000;0.803831
9080.000000;0.803658
9079.000000;0.803360
9078.000000;0.802974
9077.000000;0.802633
9076.000000;0.802448
9075.000000;0.802377
9074.000000;0.802279
9073.000000;0.802141
9072.000000;0.802160
9071.000000;0.802505
9070.000000;0.803037
9069.000000;0.803383
9068.000000;0.803325
9067.000000;0.803032
9066.000000;0.802811
9065.000000;0.802723
9064.000000;0.802554
9063.000000;0.802164
9062.000000;0.801698
9061.000000;0.801409
9060.000000;0.801374
9059.000000;0.801461
9058.000000;0.801539
9057.000000;0.801608
9056.000000;0.801744
9055.000000;0.801990
9054.000000;0.802303
9053.000000;0.802562
