Criado como novo conjunto de dados;"2706_e01_daniel.spp","54184.9 Secs"
cm-1;Abs
10000.000000;0.652715
9999.000000;0.651892
9998.000000;0.651579
9997.000000;0.651519
9996.000000;0.651502
9995.000000;0.651474
9994.000000;0.651421
9993.000000;0.651388
9992.000000;0.651504
9991.000000;0.651805
9990.000000;0.652120
9989.000000;0.652285
9988.000000;0.652354
9987.000000;0.652431
9986.000000;0.652391
9985.000000;0.651971
9984.000000;0.651147
9983.000000;0.650284
9982.000000;0.649880
9981.000000;0.650166
9980.000000;0.650899
9979.000000;0.651525
9978.000000;0.651610
9977.000000;0.651182
9976.000000;0.650621
9975.000000;0.650248
9974.000000;0.650109
9973.000000;0.650076
9972.000000;0.650019
9971.000000;0.649877
9970.000000;0.649744
9969.000000;0.649850
9968.000000;0.650289
9967.000000;0.650791
9966.000000;0.650962
9965.000000;0.650756
9964.000000;0.650486
9963.000000;0.650374
9962.000000;0.650343
9961.000000;0.650278
9960.000000;0.650155
9959.000000;0.649832
9958.000000;0.649088
9957.000000;0.648064
9956.000000;0.647347
9955.000000;0.647353
9954.000000;0.647805
9953.000000;0.648089
9952.000000;0.647973
9951.000000;0.647726
9950.000000;0.647650
9949.000000;0.647722
9948.000000;0.647691
9947.000000;0.647331
9946.000000;0.646660
9945.000000;0.646033
9944.000000;0.645908
9943.000000;0.646369
9942.000000;0.646973
9941.000000;0.647217
9940.000000;0.647091
9939.000000;0.646995
9938.000000;0.647166
9937.000000;0.647415
9936.000000;0.647422
9935.000000;0.647123
9934.000000;0.646723
9933.000000;0.646415
9932.000000;0.646189
9931.000000;0.645913
9930.000000;0.645547
9929.000000;0.645224
9928.000000;0.645092
9927.000000;0.645154
9926.000000;0.645338
9925.000000;0.645658
9924.000000;0.646165
9923.000000;0.646756
9922.000000;0.647148
9921.000000;0.647106
9920.000000;0.646618
9919.000000;0.645871
9918.000000;0.645170
9917.000000;0.644805
9916.000000;0.644834
9915.000000;0.644975
9914.000000;0.644895
9913.000000;0.644626
9912.000000;0.644510
9911.000000;0.644702
9910.000000;0.644910
9909.000000;0.644716
9908.000000;0.643993
9907.000000;0.642939
9906.000000;0.641897
9905.000000;0.641229
9904.000000;0.641195
9903.000000;0.641764
9902.000000;0.642568
9901.000000;0.643139
9900.000000;0.643200
9899.000000;0.642772
9898.000000;0.642154
9897.000000;0.641774
9896.000000;0.641892
9895.000000;0.642350
9894.000000;0.642743
9893.000000;0.642861
9892.000000;0.642841
9891.000000;0.642886
9890.000000;0.643020
9889.000000;0.643180
9888.000000;0.643302
9887.000000;0.643211
9886.000000;0.642643
9885.000000;0.641598
9884.000000;0.640538
9883.000000;0.640026
9882.000000;0.640175
9881.000000;0.640583
9880.000000;0.640792
9879.000000;0.640723
9878.000000;0.640638
9877.000000;0.640734
9876.000000;0.640857
9875.000000;0.640685
9874.000000;0.640189
9873.000000;0.639752
9872.000000;0.639716
9871.000000;0.639945
9870.000000;0.640052
9869.000000;0.639969
9868.000000;0.640001
9867.000000;0.640323
9866.000000;0.640722
9865.000000;0.640955
9864.000000;0.641076
9863.000000;0.641241
9862.000000;0.641380
9861.000000;0.641282
9860.000000;0.640868
9859.000000;0.640234
9858.000000;0.639503
9857.000000;0.638804
9856.000000;0.638319
9855.000000;0.638197
9854.000000;0.638409
9853.000000;0.638805
9852.000000;0.639248
9851.000000;0.639643
9850.000000;0.639854
9849.000000;0.639729
9848.000000;0.639243
9847.000000;0.638589
9846.000000;0.638138
9845.000000;0.638211
9844.000000;0.638797
9843.000000;0.639444
9842.000000;0.639537
9841.000000;0.638812
9840.000000;0.637625
9839.000000;0.636715
9838.000000;0.636668
9837.000000;0.637480
9836.000000;0.638547
9835.000000;0.639140
9834.000000;0.638981
9833.000000;0.638338
9832.000000;0.637567
9831.000000;0.636757
9830.000000;0.635930
9829.000000;0.635361
9828.000000;0.635382
9827.000000;0.635915
9826.000000;0.636473
9825.000000;0.636664
9824.000000;0.636511
9823.000000;0.636273
9822.000000;0.636160
9821.000000;0.636239
9820.000000;0.636403
9819.000000;0.636393
9818.000000;0.636055
9817.000000;0.635607
9816.000000;0.635458
9815.000000;0.635710
9814.000000;0.636027
9813.000000;0.636079
9812.000000;0.635909
9811.000000;0.635761
9810.000000;0.635749
9809.000000;0.635842
9808.000000;0.636011
9807.000000;0.636220
9806.000000;0.636345
9805.000000;0.636248
9804.000000;0.635919
9803.000000;0.635468
9802.000000;0.635029
9801.000000;0.634705
9800.000000;0.634547
9799.000000;0.634510
9798.000000;0.634453
9797.000000;0.634245
9796.000000;0.633893
9795.000000;0.633573
9794.000000;0.633517
9793.000000;0.633788
9792.000000;0.634142
9791.000000;0.634213
9790.000000;0.633901
9789.000000;0.633477
9788.000000;0.633214
9787.000000;0.633089
9786.000000;0.632967
9785.000000;0.632910
9784.000000;0.633050
9783.000000;0.633282
9782.000000;0.633347
9781.000000;0.633176
9780.000000;0.632876
9779.000000;0.632464
9778.000000;0.631916
9777.000000;0.631462
9776.000000;0.631459
9775.000000;0.631871
9774.000000;0.632194
9773.000000;0.632052
9772.000000;0.631653
9771.000000;0.631485
9770.000000;0.631744
9769.000000;0.632223
9768.000000;0.632611
9767.000000;0.632723
9766.000000;0.632541
9765.000000;0.632192
9764.000000;0.631863
9763.000000;0.631668
9762.000000;0.631596
9761.000000;0.631592
9760.000000;0.631620
9759.000000;0.631639
9758.000000;0.631625
9757.000000;0.631592
9756.000000;0.631536
9755.000000;0.631380
9754.000000;0.631100
9753.000000;0.630845
9752.000000;0.630781
9751.000000;0.630845
9750.000000;0.630823
9749.000000;0.630644
9748.000000;0.630423
9747.000000;0.630228
9746.000000;0.630009
9745.000000;0.629793
9744.000000;0.629750
9743.000000;0.629979
9742.000000;0.630359
9741.000000;0.630672
9740.000000;0.630753
9739.000000;0.630506
9738.000000;0.629936
9737.000000;0.629201
9736.000000;0.628548
9735.000000;0.628145
9734.000000;0.628048
9733.000000;0.628268
9732.000000;0.628730
9731.000000;0.629227
9730.000000;0.629565
9729.000000;0.629734
9728.000000;0.629808
9727.000000;0.629753
9726.000000;0.629508
9725.000000;0.629169
9724.000000;0.628873
9723.000000;0.628546
9722.000000;0.628023
9721.000000;0.627394
9720.000000;0.626979
9719.000000;0.626917
9718.000000;0.627017
9717.000000;0.627041
9716.000000;0.626930
9715.000000;0.626758
9714.000000;0.626656
9713.000000;0.626773
9712.000000;0.627115
9711.000000;0.627437
9710.000000;0.627510
9709.000000;0.627453
9708.000000;0.627527
9707.000000;0.627664
9706.000000;0.627536
9705.000000;0.627082
9704.000000;0.626590
9703.000000;0.626202
9702.000000;0.625735
9701.000000;0.625155
9700.000000;0.624826
9699.000000;0.625051
9698.000000;0.625612
9697.000000;0.626036
9696.000000;0.626101
9695.000000;0.625896
9694.000000;0.625571
9693.000000;0.625265
9692.000000;0.625141
9691.000000;0.625275
9690.000000;0.625555
9689.000000;0.625809
9688.000000;0.625942
9687.000000;0.625893
9686.000000;0.625604
9685.000000;0.625134
9684.000000;0.624653
9683.000000;0.624245
9682.000000;0.623865
9681.000000;0.623544
9680.000000;0.623413
9679.000000;0.623446
9678.000000;0.623412
9677.000000;0.623209
9676.000000;0.623036
9675.000000;0.623081
9674.000000;0.623249
9673.000000;0.623370
9672.000000;0.623483
9671.000000;0.623678
9670.000000;0.623828
9669.000000;0.623707
9668.000000;0.623319
9667.000000;0.622921
9666.000000;0.622745
9665.000000;0.622828
9664.000000;0.623037
9663.000000;0.623159
9662.000000;0.623048
9661.000000;0.622794
9660.000000;0.622633
9659.000000;0.622638
9658.000000;0.622632
9657.000000;0.622500
9656.000000;0.622389
9655.000000;0.622445
9654.000000;0.622518
9653.000000;0.622353
9652.000000;0.622005
9651.000000;0.621796
9650.000000;0.621903
9649.000000;0.622160
9648.000000;0.622310
9647.000000;0.622278
9646.000000;0.622163
9645.000000;0.622070
9644.000000;0.622013
9643.000000;0.621952
9642.000000;0.621888
9641.000000;0.621908
9640.000000;0.622087
9639.000000;0.622334
9638.000000;0.622412
9637.000000;0.622178
9636.000000;0.621753
9635.000000;0.621407
9634.000000;0.621300
9633.000000;0.621349
9632.000000;0.621316
9631.000000;0.621017
9630.000000;0.620514
9629.000000;0.620094
9628.000000;0.620000
9627.000000;0.620186
9626.000000;0.620387
9625.000000;0.620428
9624.000000;0.620332
9623.000000;0.620176
9622.000000;0.619981
9621.000000;0.619790
9620.000000;0.619720
9619.000000;0.619834
9618.000000;0.620031
9617.000000;0.620112
9616.000000;0.619951
9615.000000;0.619598
9614.000000;0.619267
9613.000000;0.619189
9612.000000;0.619389
9611.000000;0.619638
9610.000000;0.619695
9609.000000;0.619546
9608.000000;0.619297
9607.000000;0.618965
9606.000000;0.618553
9605.000000;0.618236
9604.000000;0.618218
9603.000000;0.618410
9602.000000;0.618507
9601.000000;0.618438
9600.000000;0.618449
9599.000000;0.618675
9598.000000;0.618888
9597.000000;0.618822
9596.000000;0.618537
9595.000000;0.618288
9594.000000;0.618185
9593.000000;0.618164
9592.000000;0.618190
9591.000000;0.618310
9590.000000;0.618522
9589.000000;0.618705
9588.000000;0.618670
9587.000000;0.618279
9586.000000;0.617599
9585.000000;0.616931
9584.000000;0.616572
9583.000000;0.616526
9582.000000;0.616559
9581.000000;0.616544
9580.000000;0.616580
9579.000000;0.616749
9578.000000;0.616944
9577.000000;0.617049
9576.000000;0.617114
9575.000000;0.617224
9574.000000;0.617343
9573.000000;0.617388
9572.000000;0.617365
9571.000000;0.617311
9570.000000;0.617221
9569.000000;0.617141
9568.000000;0.617197
9567.000000;0.617403
9566.000000;0.617534
9565.000000;0.617324
9564.000000;0.616778
9563.000000;0.616163
9562.000000;0.615748
9561.000000;0.615611
9560.000000;0.615651
9559.000000;0.615675
9558.000000;0.615527
9557.000000;0.615198
9556.000000;0.614824
9555.000000;0.614549
9554.000000;0.614419
9553.000000;0.614423
9552.000000;0.614558
9551.000000;0.614802
9550.000000;0.615083
9549.000000;0.615290
9548.000000;0.615318
9547.000000;0.615111
9546.000000;0.614739
9545.000000;0.614401
9544.000000;0.614271
9543.000000;0.614329
9542.000000;0.614397
9541.000000;0.614344
9540.000000;0.614168
9539.000000;0.613940
9538.000000;0.613764
9537.000000;0.613763
9536.000000;0.613951
9535.000000;0.614163
9534.000000;0.614202
9533.000000;0.614028
9532.000000;0.613723
9531.000000;0.613336
9530.000000;0.612931
9529.000000;0.612664
9528.000000;0.612623
9527.000000;0.612660
9526.000000;0.612621
9525.000000;0.612678
9524.000000;0.613100
9523.000000;0.613725
9522.000000;0.614004
9521.000000;0.613675
9520.000000;0.613094
9519.000000;0.612732
9518.000000;0.612636
9517.000000;0.612566
9516.000000;0.612397
9515.000000;0.612162
9514.000000;0.611864
9513.000000;0.611506
9512.000000;0.611219
9511.000000;0.611129
9510.000000;0.611196
9509.000000;0.611302
9508.000000;0.611437
9507.000000;0.611641
9506.000000;0.611865
9505.000000;0.612017
9504.000000;0.612083
9503.000000;0.612074
9502.000000;0.611937
9501.000000;0.611644
9500.000000;0.611295
9499.000000;0.611012
9498.000000;0.610784
9497.000000;0.610534
9496.000000;0.610280
9495.000000;0.610122
9494.000000;0.610079
9493.000000;0.610054
9492.000000;0.609943
9491.000000;0.609738
9490.000000;0.609586
9489.000000;0.609743
9488.000000;0.610339
9487.000000;0.611124
9486.000000;0.611566
9485.000000;0.611326
9484.000000;0.610570
9483.000000;0.609746
9482.000000;0.609150
9481.000000;0.608823
9480.000000;0.608719
9479.000000;0.608789
9478.000000;0.608927
9477.000000;0.608999
9476.000000;0.608960
9475.000000;0.608875
9474.000000;0.608821
9473.000000;0.608819
9472.000000;0.608848
9471.000000;0.608851
9470.000000;0.608790
9469.000000;0.608725
9468.000000;0.608807
9467.000000;0.609104
9466.000000;0.609459
9465.000000;0.609576
9464.000000;0.609280
9463.000000;0.608695
9462.000000;0.608161
9461.000000;0.607966
9460.000000;0.608096
9459.000000;0.608270
9458.000000;0.608273
9457.000000;0.608192
9456.000000;0.608249
9455.000000;0.608453
9454.000000;0.608590
9453.000000;0.608541
9452.000000;0.608407
9451.000000;0.608265
9450.000000;0.608006
9449.000000;0.607543
9448.000000;0.607036
9447.000000;0.606750
9446.000000;0.606752
9445.000000;0.606883
9444.000000;0.606985
9443.000000;0.607043
9442.000000;0.607126
9441.000000;0.607267
9440.000000;0.607402
9439.000000;0.607406
9438.000000;0.607200
9437.000000;0.606830
9436.000000;0.606406
9435.000000;0.605976
9434.000000;0.605544
9433.000000;0.605215
9432.000000;0.605169
9431.000000;0.605440
9430.000000;0.605803
9429.000000;0.605972
9428.000000;0.605855
9427.000000;0.605571
9426.000000;0.605287
9425.000000;0.605104
9424.000000;0.605033
9423.000000;0.605019
9422.000000;0.605012
9421.000000;0.605022
9420.000000;0.605056
9419.000000;0.605030
9418.000000;0.604849
9417.000000;0.604605
9416.000000;0.604520
9415.000000;0.604647
9414.000000;0.604753
9413.000000;0.604608
9412.000000;0.604301
9411.000000;0.604139
9410.000000;0.604279
9409.000000;0.604572
9408.000000;0.604755
9407.000000;0.604708
9406.000000;0.604496
9405.000000;0.604236
9404.000000;0.603968
9403.000000;0.603673
9402.000000;0.603403
9401.000000;0.603290
9400.000000;0.603375
9399.000000;0.603479
9398.000000;0.603365
9397.000000;0.603018
9396.000000;0.602637
9395.000000;0.602370
9394.000000;0.602189
9393.000000;0.602053
9392.000000;0.602052
9391.000000;0.602303
9390.000000;0.602793
9389.000000;0.603355
9388.000000;0.603759
9387.000000;0.603831
9386.000000;0.603577
9385.000000;0.603219
9384.000000;0.602997
9383.000000;0.602925
9382.000000;0.602836
9381.000000;0.602667
9380.000000;0.602534
9379.000000;0.602507
9378.000000;0.602466
9377.000000;0.602298
9376.000000;0.602073
9375.000000;0.601920
9374.000000;0.601809
9373.000000;0.601586
9372.000000;0.601164
9371.000000;0.600608
9370.000000;0.600088
9369.000000;0.599806
9368.000000;0.599870
9367.000000;0.600159
9366.000000;0.600385
9365.000000;0.600354
9364.000000;0.600128
9363.000000;0.599894
9362.000000;0.599769
9361.000000;0.599786
9360.000000;0.599953
9359.000000;0.600199
9358.000000;0.600342
9357.000000;0.600249
9356.000000;0.599996
9355.000000;0.599784
9354.000000;0.599720
9353.000000;0.599767
9352.000000;0.599859
9351.000000;0.599958
9350.000000;0.600005
9349.000000;0.599910
9348.000000;0.599642
9347.000000;0.599321
9346.000000;0.599187
9345.000000;0.599424
9344.000000;0.599961
9343.000000;0.600450
9342.000000;0.600537
9341.000000;0.600181
9340.000000;0.599671
9339.000000;0.599311
9338.000000;0.599163
9337.000000;0.599111
9336.000000;0.599069
9335.000000;0.599030
9334.000000;0.598990
9333.000000;0.598908
9332.000000;0.598738
9331.000000;0.598465
9330.000000;0.598126
9329.000000;0.597804
9328.000000;0.597566
9327.000000;0.597388
9326.000000;0.597199
9325.000000;0.597035
9324.000000;0.597056
9323.000000;0.597367
9322.000000;0.597868
9321.000000;0.598330
9320.000000;0.598579
9319.000000;0.598576
9318.000000;0.598361
9317.000000;0.598000
9316.000000;0.597585
9315.000000;0.597224
9314.000000;0.597022
9313.000000;0.597037
9312.000000;0.597248
9311.000000;0.597555
9310.000000;0.597840
9309.000000;0.598013
9308.000000;0.598012
9307.000000;0.597809
9306.000000;0.597470
9305.000000;0.597151
9304.000000;0.596933
9303.000000;0.596710
9302.000000;0.596325
9301.000000;0.595819
9300.000000;0.595408
9299.000000;0.595230
9298.000000;0.595222
9297.000000;0.595258
9296.000000;0.595305
9295.000000;0.595381
9294.000000;0.595476
9293.000000;0.595557
9292.000000;0.595583
9291.000000;0.595482
9290.000000;0.595187
9289.000000;0.594751
9288.000000;0.594334
9287.000000;0.594062
9286.000000;0.593962
9285.000000;0.594062
9284.000000;0.594424
9283.000000;0.595008
9282.000000;0.595581
9281.000000;0.595866
9280.000000;0.595748
9279.000000;0.595333
9278.000000;0.594847
9277.000000;0.594508
9276.000000;0.594421
9275.000000;0.594508
9274.000000;0.594583
9273.000000;0.594522
9272.000000;0.594339
9271.000000;0.594096
9270.000000;0.593841
9269.000000;0.593633
9268.000000;0.593547
9267.000000;0.593591
9266.000000;0.593688
9265.000000;0.593773
9264.000000;0.593840
9263.000000;0.593844
9262.000000;0.593669
9261.000000;0.593289
9260.000000;0.592880
9259.000000;0.592681
9258.000000;0.592750
9257.000000;0.592913
9256.000000;0.592947
9255.000000;0.592759
9254.000000;0.592409
9253.000000;0.592043
9252.000000;0.591812
9251.000000;0.591807
9250.000000;0.592017
9249.000000;0.592309
9248.000000;0.592474
9247.000000;0.592361
9246.000000;0.592018
9245.000000;0.591673
9244.000000;0.591514
9243.000000;0.591496
9242.000000;0.591454
9241.000000;0.591359
9240.000000;0.591369
9239.000000;0.591612
9238.000000;0.592014
9237.000000;0.592375
9236.000000;0.592526
9235.000000;0.592405
9234.000000;0.592050
9233.000000;0.591595
9232.000000;0.591193
9231.000000;0.590910
9230.000000;0.590703
9229.000000;0.590506
9228.000000;0.590277
9227.000000;0.589998
9226.000000;0.589704
9225.000000;0.589517
9224.000000;0.589548
9223.000000;0.589733
9222.000000;0.589858
9221.000000;0.589826
9220.000000;0.589785
9219.000000;0.589905
9218.000000;0.590116
9217.000000;0.590176
9216.000000;0.589985
9215.000000;0.589715
9214.000000;0.589592
9213.000000;0.589637
9212.000000;0.589655
9211.000000;0.589476
9210.000000;0.589144
9209.000000;0.588847
9208.000000;0.588696
9207.000000;0.588622
9206.000000;0.588507
9205.000000;0.588358
9204.000000;0.588267
9203.000000;0.588267
9202.000000;0.588277
9201.000000;0.588217
9200.000000;0.588094
9199.000000;0.587991
9198.000000;0.588004
9197.000000;0.588180
9196.000000;0.588455
9195.000000;0.588670
9194.000000;0.588698
9193.000000;0.588558
9192.000000;0.588366
9191.000000;0.588188
9190.000000;0.588010
9189.000000;0.587824
9188.000000;0.587665
9187.000000;0.587564
9186.000000;0.587535
9185.000000;0.587606
9184.000000;0.587784
9183.000000;0.587987
9182.000000;0.588076
9181.000000;0.587992
9180.000000;0.587801
9179.000000;0.587598
9178.000000;0.587443
9177.000000;0.587365
9176.000000;0.587377
9175.000000;0.587461
9174.000000;0.587600
9173.000000;0.587801
9172.000000;0.588014
9171.000000;0.588069
9170.000000;0.587808
9169.000000;0.587284
9168.000000;0.586743
9167.000000;0.586382
9166.000000;0.586193
9165.000000;0.586062
9164.000000;0.585910
9163.000000;0.585724
9162.000000;0.585536
9161.000000;0.585422
9160.000000;0.585452
9159.000000;0.585608
9158.000000;0.585805
9157.000000;0.585991
9156.000000;0.586166
9155.000000;0.586272
9154.000000;0.586170
9153.000000;0.585809
9152.000000;0.585330
9151.000000;0.584963
9150.000000;0.584836
9149.000000;0.584934
9148.000000;0.585166
9147.000000;0.585410
9146.000000;0.585516
9145.000000;0.585386
9144.000000;0.585069
9143.000000;0.584759
9142.000000;0.584636
9141.000000;0.584666
9140.000000;0.584602
9139.000000;0.584226
9138.000000;0.583610
9137.000000;0.583084
9136.000000;0.582908
9135.000000;0.583050
9134.000000;0.583312
9133.000000;0.583565
9132.000000;0.583777
9131.000000;0.583895
9130.000000;0.583864
9129.000000;0.583753
9128.000000;0.583721
9127.000000;0.583819
9126.000000;0.583928
9125.000000;0.583917
9124.000000;0.583779
9123.000000;0.583604
9122.000000;0.583492
9121.000000;0.583481
9120.000000;0.583510
9119.000000;0.583425
9118.000000;0.583134
9117.000000;0.582739
9116.000000;0.582437
9115.000000;0.582290
9114.000000;0.582185
9113.000000;0.582040
9112.000000;0.581921
9111.000000;0.581927
9110.000000;0.582063
9109.000000;0.582254
9108.000000;0.582400
9107.000000;0.582386
9106.000000;0.582150
9105.000000;0.581795
9104.000000;0.581553
9103.000000;0.581553
9102.000000;0.581667
9101.000000;0.581642
9100.000000;0.581352
9099.000000;0.580898
9098.000000;0.580521
9097.000000;0.580433
9096.000000;0.580674
9095.000000;0.581087
9094.000000;0.581462
9093.000000;0.581697
9092.000000;0.581798
9091.000000;0.581748
9090.000000;0.581505
9089.000000;0.581132
9088.000000;0.580814
9087.000000;0.580668
9086.000000;0.580622
9085.000000;0.580547
9084.000000;0.580428
9083.000000;0.580330
9082.000000;0.580262
9081.000000;0.580167
9080.000000;0.580017
9079.000000;0.579844
9078.000000;0.579685
9077.000000;0.579551
9076.000000;0.579438
9075.000000;0.579337
9074.000000;0.579248
9073.000000;0.579197
9072.000000;0.579212
9071.000000;0.579246
9070.000000;0.579187
9069.000000;0.578983
9068.000000;0.578707
9067.000000;0.578490
9066.000000;0.578391
9065.000000;0.578381
9064.000000;0.578416
9063.000000;0.578476
9062.000000;0.578556
9061.000000;0.578651
9060.000000;0.578757
9059.000000;0.578839
9058.000000;0.578838
9057.000000;0.578727
9056.000000;0.578569
9055.000000;0.578472
9054.000000;0.578477
9053.000000;0.578510
