Criado como novo conjunto de dados;"2706_e01_daniel.spp","45184.1 Secs"
cm-1;Abs
10000.000000;1.094568
9999.000000;1.093447
9998.000000;1.092457
9997.000000;1.091640
9996.000000;1.091186
9995.000000;1.091473
9994.000000;1.092508
9993.000000;1.093712
9992.000000;1.094514
9991.000000;1.094902
9990.000000;1.095183
9989.000000;1.095519
9988.000000;1.095865
9987.000000;1.096113
9986.000000;1.096084
9985.000000;1.095618
9984.000000;1.094859
9983.000000;1.094255
9982.000000;1.094103
9981.000000;1.094309
9980.000000;1.094622
9979.000000;1.094799
9978.000000;1.094493
9977.000000;1.093431
9976.000000;1.091908
9975.000000;1.090732
9974.000000;1.090383
9973.000000;1.090499
9972.000000;1.090442
9971.000000;1.090096
9970.000000;1.089770
9969.000000;1.089583
9968.000000;1.089426
9967.000000;1.089418
9966.000000;1.089916
9965.000000;1.090963
9964.000000;1.091993
9963.000000;1.092213
9962.000000;1.091247
9961.000000;1.089463
9960.000000;1.087771
9959.000000;1.087024
9958.000000;1.087460
9957.000000;1.088671
9956.000000;1.090060
9955.000000;1.091179
9954.000000;1.091631
9953.000000;1.091043
9952.000000;1.089502
9951.000000;1.087859
9950.000000;1.087183
9949.000000;1.087782
9948.000000;1.088932
9947.000000;1.089613
9946.000000;1.089418
9945.000000;1.088756
9944.000000;1.088301
9943.000000;1.088317
9942.000000;1.088498
9941.000000;1.088378
9940.000000;1.087849
9939.000000;1.087219
9938.000000;1.086851
9937.000000;1.086891
9936.000000;1.087312
9935.000000;1.087955
9934.000000;1.088466
9933.000000;1.088429
9932.000000;1.087778
9931.000000;1.086928
9930.000000;1.086389
9929.000000;1.086346
9928.000000;1.086681
9927.000000;1.087178
9926.000000;1.087544
9925.000000;1.087497
9924.000000;1.087074
9923.000000;1.086685
9922.000000;1.086630
9921.000000;1.086728
9920.000000;1.086696
9919.000000;1.086640
9918.000000;1.086752
9917.000000;1.086683
9916.000000;1.085804
9915.000000;1.084202
9914.000000;1.082917
9913.000000;1.082919
9912.000000;1.084151
9911.000000;1.085750
9910.000000;1.086909
9909.000000;1.087327
9908.000000;1.087109
9907.000000;1.086644
9906.000000;1.086434
9905.000000;1.086671
9904.000000;1.086959
9903.000000;1.086706
9902.000000;1.085799
9901.000000;1.084678
9900.000000;1.083765
9899.000000;1.083080
9898.000000;1.082413
9897.000000;1.081672
9896.000000;1.080990
9895.000000;1.080633
9894.000000;1.080823
9893.000000;1.081514
9892.000000;1.082350
9891.000000;1.082994
9890.000000;1.083496
9889.000000;1.084142
9888.000000;1.084881
9887.000000;1.085169
9886.000000;1.084588
9885.000000;1.083438
9884.000000;1.082489
9883.000000;1.082196
9882.000000;1.082327
9881.000000;1.082353
9880.000000;1.082089
9879.000000;1.081869
9878.000000;1.082106
9877.000000;1.082755
9876.000000;1.083297
9875.000000;1.083320
9874.000000;1.083012
9873.000000;1.082898
9872.000000;1.083159
9871.000000;1.083446
9870.000000;1.083400
9869.000000;1.083087
9868.000000;1.082760
9867.000000;1.082462
9866.000000;1.082119
9865.000000;1.081856
9864.000000;1.081938
9863.000000;1.082380
9862.000000;1.082804
9861.000000;1.082737
9860.000000;1.081980
9859.000000;1.080777
9858.000000;1.079690
9857.000000;1.079181
9856.000000;1.079162
9855.000000;1.079058
9854.000000;1.078469
9853.000000;1.077705
9852.000000;1.077482
9851.000000;1.078187
9850.000000;1.079575
9849.000000;1.081061
9848.000000;1.082086
9847.000000;1.082318
9846.000000;1.081802
9845.000000;1.080930
9844.000000;1.080086
9843.000000;1.079339
9842.000000;1.078633
9841.000000;1.078127
9840.000000;1.078062
9839.000000;1.078344
9838.000000;1.078594
9837.000000;1.078603
9836.000000;1.078444
9835.000000;1.078131
9834.000000;1.077528
9833.000000;1.076671
9832.000000;1.075843
9831.000000;1.075208
9830.000000;1.074658
9829.000000;1.074191
9828.000000;1.074134
9827.000000;1.074723
9826.000000;1.075685
9825.000000;1.076510
9824.000000;1.077016
9823.000000;1.077430
9822.000000;1.077974
9821.000000;1.078575
9820.000000;1.079002
9819.000000;1.079127
9818.000000;1.079017
9817.000000;1.078792
9816.000000;1.078436
9815.000000;1.077743
9814.000000;1.076543
9813.000000;1.074961
9812.000000;1.073412
9811.000000;1.072404
9810.000000;1.072337
9809.000000;1.073336
9808.000000;1.075048
9807.000000;1.076668
9806.000000;1.077463
9805.000000;1.077341
9804.000000;1.076751
9803.000000;1.076078
9802.000000;1.075388
9801.000000;1.074698
9800.000000;1.074147
9799.000000;1.073814
9798.000000;1.073643
9797.000000;1.073656
9796.000000;1.073982
9795.000000;1.074539
9794.000000;1.074928
9793.000000;1.074814
9792.000000;1.074261
9791.000000;1.073568
9790.000000;1.072922
9789.000000;1.072330
9788.000000;1.071743
9787.000000;1.071169
9786.000000;1.070786
9785.000000;1.070942
9784.000000;1.071833
9783.000000;1.073129
9782.000000;1.074138
9781.000000;1.074472
9780.000000;1.074344
9779.000000;1.074169
9778.000000;1.074145
9777.000000;1.074285
9776.000000;1.074552
9775.000000;1.074790
9774.000000;1.074765
9773.000000;1.074446
9772.000000;1.074082
9771.000000;1.073857
9770.000000;1.073684
9769.000000;1.073414
9768.000000;1.073022
9767.000000;1.072493
9766.000000;1.071830
9765.000000;1.071308
9764.000000;1.071379
9763.000000;1.072082
9762.000000;1.072822
9761.000000;1.073010
9760.000000;1.072680
9759.000000;1.072215
9758.000000;1.071736
9757.000000;1.071107
9756.000000;1.070388
9755.000000;1.069920
9754.000000;1.069969
9753.000000;1.070499
9752.000000;1.071229
9751.000000;1.071786
9750.000000;1.071916
9749.000000;1.071698
9748.000000;1.071429
9747.000000;1.071178
9746.000000;1.070670
9745.000000;1.069773
9744.000000;1.068861
9743.000000;1.068445
9742.000000;1.068633
9741.000000;1.069151
9740.000000;1.069724
9739.000000;1.070166
9738.000000;1.070282
9737.000000;1.070024
9736.000000;1.069660
9735.000000;1.069535
9734.000000;1.069703
9733.000000;1.069949
9732.000000;1.070052
9731.000000;1.069853
9730.000000;1.069273
9729.000000;1.068531
9728.000000;1.068139
9727.000000;1.068350
9726.000000;1.068736
9725.000000;1.068649
9724.000000;1.067988
9723.000000;1.067209
9722.000000;1.066656
9721.000000;1.066304
9720.000000;1.066137
9719.000000;1.066365
9718.000000;1.067111
9717.000000;1.068150
9716.000000;1.069098
9715.000000;1.069710
9714.000000;1.069929
9713.000000;1.069811
9712.000000;1.069500
9711.000000;1.069158
9710.000000;1.068850
9709.000000;1.068508
9708.000000;1.067963
9707.000000;1.067017
9706.000000;1.065642
9705.000000;1.064204
9704.000000;1.063290
9703.000000;1.063147
9702.000000;1.063422
9701.000000;1.063650
9700.000000;1.063813
9699.000000;1.064162
9698.000000;1.064627
9697.000000;1.064832
9696.000000;1.064685
9695.000000;1.064598
9694.000000;1.064987
9693.000000;1.065758
9692.000000;1.066403
9691.000000;1.066485
9690.000000;1.065967
9689.000000;1.065171
9688.000000;1.064470
9687.000000;1.063999
9686.000000;1.063701
9685.000000;1.063615
9684.000000;1.063913
9683.000000;1.064540
9682.000000;1.065044
9681.000000;1.064983
9680.000000;1.064391
9679.000000;1.063638
9678.000000;1.062976
9677.000000;1.062497
9676.000000;1.062330
9675.000000;1.062518
9674.000000;1.062777
9673.000000;1.062760
9672.000000;1.062570
9671.000000;1.062661
9670.000000;1.063159
9669.000000;1.063614
9668.000000;1.063582
9667.000000;1.063196
9666.000000;1.062986
9665.000000;1.063249
9664.000000;1.063780
9663.000000;1.064114
9662.000000;1.063979
9661.000000;1.063546
9660.000000;1.063270
9659.000000;1.063396
9658.000000;1.063652
9657.000000;1.063523
9656.000000;1.062812
9655.000000;1.061806
9654.000000;1.060944
9653.000000;1.060471
9652.000000;1.060405
9651.000000;1.060606
9650.000000;1.060820
9649.000000;1.060795
9648.000000;1.060477
9647.000000;1.060069
9646.000000;1.059911
9645.000000;1.060250
9644.000000;1.061015
9643.000000;1.061705
9642.000000;1.061688
9641.000000;1.060820
9640.000000;1.059702
9639.000000;1.059093
9638.000000;1.059153
9637.000000;1.059456
9636.000000;1.059628
9635.000000;1.059673
9634.000000;1.059701
9633.000000;1.059674
9632.000000;1.059563
9631.000000;1.059512
9630.000000;1.059675
9629.000000;1.060000
9628.000000;1.060274
9627.000000;1.060273
9626.000000;1.059867
9625.000000;1.059142
9624.000000;1.058487
9623.000000;1.058334
9622.000000;1.058711
9621.000000;1.059166
9620.000000;1.059267
9619.000000;1.059030
9618.000000;1.058787
9617.000000;1.058751
9616.000000;1.058869
9615.000000;1.058985
9614.000000;1.058980
9613.000000;1.058787
9612.000000;1.058427
9611.000000;1.058057
9610.000000;1.057879
9609.000000;1.057940
9608.000000;1.058070
9607.000000;1.058019
9606.000000;1.057662
9605.000000;1.057044
9604.000000;1.056305
9603.000000;1.055623
9602.000000;1.055241
9601.000000;1.055435
9600.000000;1.056304
9599.000000;1.057542
9598.000000;1.058506
9597.000000;1.058663
9596.000000;1.058021
9595.000000;1.057093
9594.000000;1.056408
9593.000000;1.056071
9592.000000;1.055834
9591.000000;1.055561
9590.000000;1.055494
9589.000000;1.055935
9588.000000;1.056708
9587.000000;1.057158
9586.000000;1.056797
9585.000000;1.055834
9584.000000;1.054881
9583.000000;1.054315
9582.000000;1.054139
9581.000000;1.054312
9580.000000;1.054862
9579.000000;1.055658
9578.000000;1.056414
9577.000000;1.056998
9576.000000;1.057466
9575.000000;1.057734
9574.000000;1.057513
9573.000000;1.056756
9572.000000;1.055858
9571.000000;1.055207
9570.000000;1.054755
9569.000000;1.054276
9568.000000;1.053825
9567.000000;1.053643
9566.000000;1.053721
9565.000000;1.053778
9564.000000;1.053640
9563.000000;1.053412
9562.000000;1.053256
9561.000000;1.053187
9560.000000;1.053109
9559.000000;1.052985
9558.000000;1.052938
9557.000000;1.053180
9556.000000;1.053746
9555.000000;1.054299
9554.000000;1.054373
9553.000000;1.053912
9552.000000;1.053397
9551.000000;1.053304
9550.000000;1.053598
9549.000000;1.053899
9548.000000;1.053981
9547.000000;1.053930
9546.000000;1.053913
9545.000000;1.053951
9544.000000;1.053895
9543.000000;1.053505
9542.000000;1.052692
9541.000000;1.051760
9540.000000;1.051235
9539.000000;1.051314
9538.000000;1.051676
9537.000000;1.051943
9536.000000;1.052125
9535.000000;1.052407
9534.000000;1.052693
9533.000000;1.052650
9532.000000;1.052133
9531.000000;1.051320
9530.000000;1.050522
9529.000000;1.050061
9528.000000;1.050215
9527.000000;1.051005
9526.000000;1.052068
9525.000000;1.052906
9524.000000;1.053250
9523.000000;1.053076
9522.000000;1.052463
9521.000000;1.051650
9520.000000;1.051043
9519.000000;1.050857
9518.000000;1.050821
9517.000000;1.050525
9516.000000;1.050001
9515.000000;1.049672
9514.000000;1.049773
9513.000000;1.050101
9512.000000;1.050314
9511.000000;1.050205
9510.000000;1.049700
9509.000000;1.048870
9508.000000;1.048005
9507.000000;1.047479
9506.000000;1.047478
9505.000000;1.047924
9504.000000;1.048587
9503.000000;1.049147
9502.000000;1.049322
9501.000000;1.049147
9500.000000;1.049040
9499.000000;1.049326
9498.000000;1.049800
9497.000000;1.049999
9496.000000;1.049827
9495.000000;1.049600
9494.000000;1.049521
9493.000000;1.049433
9492.000000;1.049129
9491.000000;1.048615
9490.000000;1.048028
9489.000000;1.047542
9488.000000;1.047366
9487.000000;1.047586
9486.000000;1.048009
9485.000000;1.048347
9484.000000;1.048547
9483.000000;1.048699
9482.000000;1.048701
9481.000000;1.048359
9480.000000;1.047801
9479.000000;1.047422
9478.000000;1.047331
9477.000000;1.047223
9476.000000;1.046917
9475.000000;1.046661
9474.000000;1.046674
9473.000000;1.046731
9472.000000;1.046522
9471.000000;1.046212
9470.000000;1.046318
9469.000000;1.047046
9468.000000;1.047982
9467.000000;1.048481
9466.000000;1.048269
9465.000000;1.047653
9464.000000;1.047193
9463.000000;1.047174
9462.000000;1.047379
9461.000000;1.047373
9460.000000;1.046929
9459.000000;1.046130
9458.000000;1.045215
9457.000000;1.044481
9456.000000;1.044234
9455.000000;1.044554
9454.000000;1.045093
9453.000000;1.045302
9452.000000;1.044912
9451.000000;1.044059
9450.000000;1.043020
9449.000000;1.042070
9448.000000;1.041557
9447.000000;1.041793
9446.000000;1.042704
9445.000000;1.043799
9444.000000;1.044584
9443.000000;1.044895
9442.000000;1.044815
9441.000000;1.044527
9440.000000;1.044312
9439.000000;1.044418
9438.000000;1.044761
9437.000000;1.044941
9436.000000;1.044681
9435.000000;1.044128
9434.000000;1.043606
9433.000000;1.043259
9432.000000;1.043008
9431.000000;1.042692
9430.000000;1.042130
9429.000000;1.041245
9428.000000;1.040285
9427.000000;1.039781
9426.000000;1.040097
9425.000000;1.041048
9424.000000;1.042057
9423.000000;1.042599
9422.000000;1.042471
9421.000000;1.041843
9420.000000;1.041178
9419.000000;1.040944
9418.000000;1.041193
9417.000000;1.041513
9416.000000;1.041534
9415.000000;1.041379
9414.000000;1.041437
9413.000000;1.041784
9412.000000;1.042085
9411.000000;1.042069
9410.000000;1.041873
9409.000000;1.041791
9408.000000;1.041827
9407.000000;1.041657
9406.000000;1.041041
9405.000000;1.040169
9404.000000;1.039554
9403.000000;1.039592
9402.000000;1.040243
9401.000000;1.041080
9400.000000;1.041583
9399.000000;1.041450
9398.000000;1.040785
9397.000000;1.040071
9396.000000;1.039816
9395.000000;1.040083
9394.000000;1.040415
9393.000000;1.040352
9392.000000;1.039902
9391.000000;1.039397
9390.000000;1.039006
9389.000000;1.038682
9388.000000;1.038492
9387.000000;1.038653
9386.000000;1.039158
9385.000000;1.039638
9384.000000;1.039721
9383.000000;1.039363
9382.000000;1.038737
9381.000000;1.038017
9380.000000;1.037434
9379.000000;1.037317
9378.000000;1.037797
9377.000000;1.038527
9376.000000;1.038914
9375.000000;1.038665
9374.000000;1.038023
9373.000000;1.037481
9372.000000;1.037344
9371.000000;1.037549
9370.000000;1.037813
9369.000000;1.037938
9368.000000;1.037945
9367.000000;1.037919
9366.000000;1.037784
9365.000000;1.037396
9364.000000;1.036860
9363.000000;1.036522
9362.000000;1.036568
9361.000000;1.036784
9360.000000;1.036831
9359.000000;1.036639
9358.000000;1.036390
9357.000000;1.036228
9356.000000;1.036177
9355.000000;1.036271
9354.000000;1.036531
9353.000000;1.036839
9352.000000;1.036995
9351.000000;1.036954
9350.000000;1.036891
9349.000000;1.036956
9348.000000;1.037067
9347.000000;1.037010
9346.000000;1.036663
9345.000000;1.036063
9344.000000;1.035323
9343.000000;1.034606
9342.000000;1.034161
9341.000000;1.034231
9340.000000;1.034816
9339.000000;1.035559
9338.000000;1.035991
9337.000000;1.035941
9336.000000;1.035616
9335.000000;1.035277
9334.000000;1.034948
9333.000000;1.034536
9332.000000;1.034107
9331.000000;1.033867
9330.000000;1.033909
9329.000000;1.034157
9328.000000;1.034531
9327.000000;1.035011
9326.000000;1.035471
9325.000000;1.035645
9324.000000;1.035354
9323.000000;1.034713
9322.000000;1.034001
9321.000000;1.033438
9320.000000;1.033106
9319.000000;1.033006
9318.000000;1.033045
9317.000000;1.033054
9316.000000;1.032926
9315.000000;1.032738
9314.000000;1.032636
9313.000000;1.032637
9312.000000;1.032596
9311.000000;1.032390
9310.000000;1.032061
9309.000000;1.031774
9308.000000;1.031668
9307.000000;1.031769
9306.000000;1.032016
9305.000000;1.032324
9304.000000;1.032629
9303.000000;1.032857
9302.000000;1.032899
9301.000000;1.032670
9300.000000;1.032221
9299.000000;1.031736
9298.000000;1.031391
9297.000000;1.031249
9296.000000;1.031321
9295.000000;1.031628
9294.000000;1.032101
9293.000000;1.032463
9292.000000;1.032364
9291.000000;1.031766
9290.000000;1.031103
9289.000000;1.030921
9288.000000;1.031317
9287.000000;1.031819
9286.000000;1.031857
9285.000000;1.031305
9284.000000;1.030490
9283.000000;1.029758
9282.000000;1.029218
9281.000000;1.028874
9280.000000;1.028801
9279.000000;1.029055
9278.000000;1.029486
9277.000000;1.029793
9276.000000;1.029758
9275.000000;1.029377
9274.000000;1.028802
9273.000000;1.028242
9272.000000;1.027888
9271.000000;1.027806
9270.000000;1.027866
9269.000000;1.027842
9268.000000;1.027658
9267.000000;1.027517
9266.000000;1.027739
9265.000000;1.028424
9264.000000;1.029258
9263.000000;1.029713
9262.000000;1.029524
9261.000000;1.028962
9260.000000;1.028550
9259.000000;1.028516
9258.000000;1.028633
9257.000000;1.028607
9256.000000;1.028446
9255.000000;1.028359
9254.000000;1.028416
9253.000000;1.028449
9252.000000;1.028246
9251.000000;1.027734
9250.000000;1.027011
9249.000000;1.026309
9248.000000;1.025891
9247.000000;1.025862
9246.000000;1.026060
9245.000000;1.026197
9244.000000;1.026121
9243.000000;1.025923
9242.000000;1.025829
9241.000000;1.025996
9240.000000;1.026365
9239.000000;1.026644
9238.000000;1.026547
9237.000000;1.026122
9236.000000;1.025760
9235.000000;1.025786
9234.000000;1.026113
9233.000000;1.026397
9232.000000;1.026422
9231.000000;1.026229
9230.000000;1.025969
9229.000000;1.025813
9228.000000;1.025920
9227.000000;1.026304
9226.000000;1.026727
9225.000000;1.026907
9224.000000;1.026786
9223.000000;1.026451
9222.000000;1.025871
9221.000000;1.025007
9220.000000;1.024165
9219.000000;1.023885
9218.000000;1.024321
9217.000000;1.024982
9216.000000;1.025277
9215.000000;1.025182
9214.000000;1.025110
9213.000000;1.025211
9212.000000;1.025121
9211.000000;1.024457
9210.000000;1.023365
9209.000000;1.022434
9208.000000;1.022110
9207.000000;1.022324
9206.000000;1.022677
9205.000000;1.022876
9204.000000;1.022910
9203.000000;1.022857
9202.000000;1.022698
9201.000000;1.022429
9200.000000;1.022226
9199.000000;1.022294
9198.000000;1.022561
9197.000000;1.022686
9196.000000;1.022467
9195.000000;1.022113
9194.000000;1.021998
9193.000000;1.022207
9192.000000;1.022430
9191.000000;1.022291
9190.000000;1.021709
9189.000000;1.020958
9188.000000;1.020440
9187.000000;1.020410
9186.000000;1.020833
9185.000000;1.021428
9184.000000;1.021865
9183.000000;1.021943
9182.000000;1.021683
9181.000000;1.021281
9180.000000;1.020999
9179.000000;1.021017
9178.000000;1.021338
9177.000000;1.021817
9176.000000;1.022316
9175.000000;1.022793
9174.000000;1.023219
9173.000000;1.023438
9172.000000;1.023202
9171.000000;1.022414
9170.000000;1.021332
9169.000000;1.020443
9168.000000;1.020097
9167.000000;1.020272
9166.000000;1.020656
9165.000000;1.020904
9164.000000;1.020786
9163.000000;1.020249
9162.000000;1.019479
9161.000000;1.018877
9160.000000;1.018793
9159.000000;1.019232
9158.000000;1.019876
9157.000000;1.020385
9156.000000;1.020585
9155.000000;1.020425
9154.000000;1.019954
9153.000000;1.019414
9152.000000;1.019180
9151.000000;1.019440
9150.000000;1.020012
9149.000000;1.020570
9148.000000;1.020938
9147.000000;1.021067
9146.000000;1.020862
9145.000000;1.020260
9144.000000;1.019434
9143.000000;1.018729
9142.000000;1.018360
9141.000000;1.018305
9140.000000;1.018458
9139.000000;1.018748
9138.000000;1.019065
9137.000000;1.019225
9136.000000;1.019091
9135.000000;1.018690
9134.000000;1.018187
9133.000000;1.017802
9132.000000;1.017690
9131.000000;1.017820
9130.000000;1.017947
9129.000000;1.017834
9128.000000;1.017531
9127.000000;1.017347
9126.000000;1.017497
9125.000000;1.017836
9124.000000;1.017983
9123.000000;1.017673
9122.000000;1.016986
9121.000000;1.016253
9120.000000;1.015778
9119.000000;1.015613
9118.000000;1.015591
9117.000000;1.015589
9116.000000;1.015682
9115.000000;1.015974
9114.000000;1.016330
9113.000000;1.016413
9112.000000;1.016042
9111.000000;1.015390
9110.000000;1.014803
9109.000000;1.014497
9108.000000;1.014489
9107.000000;1.014693
9106.000000;1.014955
9105.000000;1.015044
9104.000000;1.014788
9103.000000;1.014289
9102.000000;1.013913
9101.000000;1.013955
9100.000000;1.014335
9099.000000;1.014708
9098.000000;1.014854
9097.000000;1.014864
9096.000000;1.014936
9095.000000;1.015110
9094.000000;1.015295
9093.000000;1.015440
9092.000000;1.015551
9091.000000;1.015575
9090.000000;1.015403
9089.000000;1.015000
9088.000000;1.014471
9087.000000;1.013974
9086.000000;1.013675
9085.000000;1.013695
9084.000000;1.013966
9083.000000;1.014161
9082.000000;1.013983
9081.000000;1.013544
9080.000000;1.013278
9079.000000;1.013413
9078.000000;1.013707
9077.000000;1.013811
9076.000000;1.013679
9075.000000;1.013486
9074.000000;1.013285
9073.000000;1.012971
9072.000000;1.012498
9071.000000;1.011954
9070.000000;1.011482
9069.000000;1.011246
9068.000000;1.011386
9067.000000;1.011862
9066.000000;1.012408
9065.000000;1.012816
9064.000000;1.013172
9063.000000;1.013652
9062.000000;1.014130
9061.000000;1.014229
9060.000000;1.013766
9059.000000;1.012953
9058.000000;1.012151
9057.000000;1.011574
9056.000000;1.011244
9055.000000;1.011051
9054.000000;1.010819
9053.000000;1.010460
