Criado como novo conjunto de dados;"2706_e01_daniel.spp","3602.1 Secs"
cm-1;Abs
10000.000000;0.547491
9999.000000;0.547548
9998.000000;0.547445
9997.000000;0.547141
9996.000000;0.546840
9995.000000;0.546739
9994.000000;0.546800
9993.000000;0.546840
9992.000000;0.546795
9991.000000;0.546719
9990.000000;0.546600
9989.000000;0.546351
9988.000000;0.546010
9987.000000;0.545744
9986.000000;0.545612
9985.000000;0.545515
9984.000000;0.545414
9983.000000;0.545437
9982.000000;0.545646
9981.000000;0.545881
9980.000000;0.545970
9979.000000;0.545995
9978.000000;0.546167
9977.000000;0.546471
9976.000000;0.546623
9975.000000;0.546412
9974.000000;0.545993
9973.000000;0.545740
9972.000000;0.545835
9971.000000;0.546063
9970.000000;0.546065
9969.000000;0.545759
9968.000000;0.545424
9967.000000;0.545342
9966.000000;0.545491
9965.000000;0.545668
9964.000000;0.545785
9963.000000;0.545870
9962.000000;0.545849
9961.000000;0.545575
9960.000000;0.545128
9959.000000;0.544869
9958.000000;0.545071
9957.000000;0.545618
9956.000000;0.546150
9955.000000;0.546433
9954.000000;0.546469
9953.000000;0.546361
9952.000000;0.546172
9951.000000;0.545921
9950.000000;0.545618
9949.000000;0.545282
9948.000000;0.544966
9947.000000;0.544735
9946.000000;0.544635
9945.000000;0.544685
9944.000000;0.544865
9943.000000;0.545080
9942.000000;0.545160
9941.000000;0.545007
9940.000000;0.544756
9939.000000;0.544677
9938.000000;0.544902
9937.000000;0.545313
9936.000000;0.545683
9935.000000;0.545853
9934.000000;0.545773
9933.000000;0.545517
9932.000000;0.545274
9931.000000;0.545209
9930.000000;0.545269
9929.000000;0.545249
9928.000000;0.545079
9927.000000;0.544910
9926.000000;0.544871
9925.000000;0.544903
9924.000000;0.544924
9923.000000;0.544994
9922.000000;0.545160
9921.000000;0.545271
9920.000000;0.545113
9919.000000;0.544701
9918.000000;0.544266
9917.000000;0.543978
9916.000000;0.543836
9915.000000;0.543825
9914.000000;0.544022
9913.000000;0.544466
9912.000000;0.545027
9911.000000;0.545472
9910.000000;0.545636
9909.000000;0.545499
9908.000000;0.545165
9907.000000;0.544809
9906.000000;0.544613
9905.000000;0.544683
9904.000000;0.544975
9903.000000;0.545266
9902.000000;0.545279
9901.000000;0.544890
9900.000000;0.544281
9899.000000;0.543813
9898.000000;0.543723
9897.000000;0.543934
9896.000000;0.544187
9895.000000;0.544295
9894.000000;0.544246
9893.000000;0.544122
9892.000000;0.543988
9891.000000;0.543869
9890.000000;0.543765
9889.000000;0.543675
9888.000000;0.543624
9887.000000;0.543631
9886.000000;0.543671
9885.000000;0.543676
9884.000000;0.543603
9883.000000;0.543475
9882.000000;0.543334
9881.000000;0.543198
9880.000000;0.543079
9879.000000;0.542981
9878.000000;0.542850
9877.000000;0.542602
9876.000000;0.542268
9875.000000;0.542071
9874.000000;0.542223
9873.000000;0.542683
9872.000000;0.543189
9871.000000;0.543523
9870.000000;0.543672
9869.000000;0.543723
9868.000000;0.543729
9867.000000;0.543737
9866.000000;0.543825
9865.000000;0.544032
9864.000000;0.544281
9863.000000;0.544453
9862.000000;0.544506
9861.000000;0.544465
9860.000000;0.544342
9859.000000;0.544159
9858.000000;0.544018
9857.000000;0.544037
9856.000000;0.544175
9855.000000;0.544219
9854.000000;0.544002
9853.000000;0.543568
9852.000000;0.543102
9851.000000;0.542751
9850.000000;0.542581
9849.000000;0.542609
9848.000000;0.542796
9847.000000;0.543010
9846.000000;0.543108
9845.000000;0.543059
9844.000000;0.542931
9843.000000;0.542793
9842.000000;0.542702
9841.000000;0.542748
9840.000000;0.542983
9839.000000;0.543310
9838.000000;0.543523
9837.000000;0.543491
9836.000000;0.543251
9835.000000;0.542945
9834.000000;0.542747
9833.000000;0.542812
9832.000000;0.543143
9831.000000;0.543494
9830.000000;0.543553
9829.000000;0.543292
9828.000000;0.543016
9827.000000;0.542992
9826.000000;0.543162
9825.000000;0.543308
9824.000000;0.543369
9823.000000;0.543438
9822.000000;0.543551
9821.000000;0.543619
9820.000000;0.543577
9819.000000;0.543448
9818.000000;0.543278
9817.000000;0.543102
9816.000000;0.542955
9815.000000;0.542862
9814.000000;0.542815
9813.000000;0.542807
9812.000000;0.542867
9811.000000;0.543010
9810.000000;0.543192
9809.000000;0.543360
9808.000000;0.543474
9807.000000;0.543446
9806.000000;0.543156
9805.000000;0.542647
9804.000000;0.542216
9803.000000;0.542140
9802.000000;0.542359
9801.000000;0.542570
9800.000000;0.542598
9799.000000;0.542543
9798.000000;0.542552
9797.000000;0.542608
9796.000000;0.542593
9795.000000;0.542463
9794.000000;0.542310
9793.000000;0.542289
9792.000000;0.542477
9791.000000;0.542756
9790.000000;0.542883
9789.000000;0.542741
9788.000000;0.542479
9787.000000;0.542321
9786.000000;0.542303
9785.000000;0.542310
9784.000000;0.542323
9783.000000;0.542455
9782.000000;0.542748
9781.000000;0.543070
9780.000000;0.543257
9779.000000;0.543230
9778.000000;0.542978
9777.000000;0.542566
9776.000000;0.542197
9775.000000;0.542124
9774.000000;0.542387
9773.000000;0.542725
9772.000000;0.542811
9771.000000;0.542538
9770.000000;0.542065
9769.000000;0.541652
9768.000000;0.541474
9767.000000;0.541501
9766.000000;0.541543
9765.000000;0.541484
9764.000000;0.541461
9763.000000;0.541692
9762.000000;0.542131
9761.000000;0.542442
9760.000000;0.542389
9759.000000;0.542106
9758.000000;0.541887
9757.000000;0.541828
9756.000000;0.541805
9755.000000;0.541714
9754.000000;0.541577
9753.000000;0.541437
9752.000000;0.541267
9751.000000;0.541031
9750.000000;0.540765
9749.000000;0.540557
9748.000000;0.540476
9747.000000;0.540524
9746.000000;0.540649
9745.000000;0.540810
9744.000000;0.541005
9743.000000;0.541220
9742.000000;0.541386
9741.000000;0.541434
9740.000000;0.541414
9739.000000;0.541455
9738.000000;0.541617
9737.000000;0.541829
9736.000000;0.542015
9735.000000;0.542191
9734.000000;0.542403
9733.000000;0.542606
9732.000000;0.542690
9731.000000;0.542599
9730.000000;0.542401
9729.000000;0.542217
9728.000000;0.542103
9727.000000;0.541980
9726.000000;0.541721
9725.000000;0.541335
9724.000000;0.541045
9723.000000;0.541090
9722.000000;0.541465
9721.000000;0.541910
9720.000000;0.542172
9719.000000;0.542218
9718.000000;0.542175
9717.000000;0.542156
9716.000000;0.542181
9715.000000;0.542196
9714.000000;0.542103
9713.000000;0.541835
9712.000000;0.541430
9711.000000;0.541027
9710.000000;0.540763
9709.000000;0.540694
9708.000000;0.540802
9707.000000;0.541004
9706.000000;0.541157
9705.000000;0.541127
9704.000000;0.540902
9703.000000;0.540586
9702.000000;0.540284
9701.000000;0.540068
9700.000000;0.540038
9699.000000;0.540304
9698.000000;0.540826
9697.000000;0.541363
9696.000000;0.541668
9695.000000;0.541697
9694.000000;0.541586
9693.000000;0.541471
9692.000000;0.541402
9691.000000;0.541358
9690.000000;0.541277
9689.000000;0.541091
9688.000000;0.540810
9687.000000;0.540558
9686.000000;0.540482
9685.000000;0.540625
9684.000000;0.540908
9683.000000;0.541194
9682.000000;0.541361
9681.000000;0.541360
9680.000000;0.541267
9679.000000;0.541212
9678.000000;0.541218
9677.000000;0.541163
9676.000000;0.540966
9675.000000;0.540754
9674.000000;0.540740
9673.000000;0.540954
9672.000000;0.541200
9671.000000;0.541289
9670.000000;0.541229
9669.000000;0.541151
9668.000000;0.541135
9667.000000;0.541182
9666.000000;0.541281
9665.000000;0.541397
9664.000000;0.541423
9663.000000;0.541251
9662.000000;0.540932
9661.000000;0.540688
9660.000000;0.540702
9659.000000;0.540928
9658.000000;0.541161
9657.000000;0.541273
9656.000000;0.541286
9655.000000;0.541243
9654.000000;0.541126
9653.000000;0.540954
9652.000000;0.540861
9651.000000;0.540944
9650.000000;0.541072
9649.000000;0.540972
9648.000000;0.540543
9647.000000;0.540019
9646.000000;0.539768
9645.000000;0.539970
9644.000000;0.540469
9643.000000;0.540918
9642.000000;0.541036
9641.000000;0.540784
9640.000000;0.540349
9639.000000;0.539993
9638.000000;0.539887
9637.000000;0.540033
9636.000000;0.540269
9635.000000;0.540361
9634.000000;0.540191
9633.000000;0.539900
9632.000000;0.539798
9631.000000;0.540038
9630.000000;0.540455
9629.000000;0.540757
9628.000000;0.540838
9627.000000;0.540806
9626.000000;0.540795
9625.000000;0.540852
9624.000000;0.540999
9623.000000;0.541235
9622.000000;0.541451
9621.000000;0.541488
9620.000000;0.541317
9619.000000;0.541099
9618.000000;0.540995
9617.000000;0.540991
9616.000000;0.540967
9615.000000;0.540880
9614.000000;0.540816
9613.000000;0.540869
9612.000000;0.541018
9611.000000;0.541129
9610.000000;0.541079
9609.000000;0.540862
9608.000000;0.540566
9607.000000;0.540278
9606.000000;0.540057
9605.000000;0.539999
9604.000000;0.540196
9603.000000;0.540567
9602.000000;0.540839
9601.000000;0.540841
9600.000000;0.540732
9599.000000;0.540784
9598.000000;0.541001
9597.000000;0.541152
9596.000000;0.541146
9595.000000;0.541130
9594.000000;0.541167
9593.000000;0.541086
9592.000000;0.540794
9591.000000;0.540522
9590.000000;0.540536
9589.000000;0.540737
9588.000000;0.540781
9587.000000;0.540563
9586.000000;0.540368
9585.000000;0.540493
9584.000000;0.540880
9583.000000;0.541211
9582.000000;0.541260
9581.000000;0.541097
9580.000000;0.540977
9579.000000;0.541074
9578.000000;0.541316
9577.000000;0.541484
9576.000000;0.541480
9575.000000;0.541425
9574.000000;0.541462
9573.000000;0.541525
9572.000000;0.541418
9571.000000;0.541100
9570.000000;0.540783
9569.000000;0.540705
9568.000000;0.540897
9567.000000;0.541195
9566.000000;0.541405
9565.000000;0.541394
9564.000000;0.541117
9563.000000;0.540660
9562.000000;0.540244
9561.000000;0.540093
9560.000000;0.540251
9559.000000;0.540536
9558.000000;0.540711
9557.000000;0.540689
9556.000000;0.540560
9555.000000;0.540475
9554.000000;0.540510
9553.000000;0.540622
9552.000000;0.540679
9551.000000;0.540556
9550.000000;0.540263
9549.000000;0.540003
9548.000000;0.540025
9547.000000;0.540378
9546.000000;0.540836
9545.000000;0.541118
9544.000000;0.541137
9543.000000;0.541010
9542.000000;0.540869
9541.000000;0.540747
9540.000000;0.540626
9539.000000;0.540498
9538.000000;0.540373
9537.000000;0.540282
9536.000000;0.540297
9535.000000;0.540475
9534.000000;0.540752
9533.000000;0.540947
9532.000000;0.540904
9531.000000;0.540612
9530.000000;0.540193
9529.000000;0.539813
9528.000000;0.539605
9527.000000;0.539600
9526.000000;0.539693
9525.000000;0.539721
9524.000000;0.539615
9523.000000;0.539471
9522.000000;0.539439
9521.000000;0.539589
9520.000000;0.539861
9519.000000;0.540119
9518.000000;0.540245
9517.000000;0.540224
9516.000000;0.540162
9515.000000;0.540172
9514.000000;0.540241
9513.000000;0.540267
9512.000000;0.540215
9511.000000;0.540180
9510.000000;0.540238
9509.000000;0.540311
9508.000000;0.540264
9507.000000;0.540081
9506.000000;0.539894
9505.000000;0.539832
9504.000000;0.539921
9503.000000;0.540112
9502.000000;0.540361
9501.000000;0.540634
9500.000000;0.540879
9499.000000;0.540999
9498.000000;0.540912
9497.000000;0.540649
9496.000000;0.540379
9495.000000;0.540301
9494.000000;0.540448
9493.000000;0.540628
9492.000000;0.540608
9491.000000;0.540356
9490.000000;0.540065
9489.000000;0.539933
9488.000000;0.539963
9487.000000;0.540015
9486.000000;0.540008
9485.000000;0.540009
9484.000000;0.540090
9483.000000;0.540192
9482.000000;0.540211
9481.000000;0.540192
9480.000000;0.540300
9479.000000;0.540563
9478.000000;0.540761
9477.000000;0.540657
9476.000000;0.540276
9475.000000;0.539875
9474.000000;0.539654
9473.000000;0.539617
9472.000000;0.539675
9471.000000;0.539773
9470.000000;0.539875
9469.000000;0.539939
9468.000000;0.539940
9467.000000;0.539876
9466.000000;0.539737
9465.000000;0.539531
9464.000000;0.539366
9463.000000;0.539413
9462.000000;0.539731
9461.000000;0.540184
9460.000000;0.540571
9459.000000;0.540802
9458.000000;0.540898
9457.000000;0.540884
9456.000000;0.540740
9455.000000;0.540453
9454.000000;0.540083
9453.000000;0.539773
9452.000000;0.539685
9451.000000;0.539870
9450.000000;0.540180
9449.000000;0.540377
9448.000000;0.540367
9447.000000;0.540303
9446.000000;0.540391
9445.000000;0.540655
9444.000000;0.540930
9443.000000;0.541067
9442.000000;0.541081
9441.000000;0.541096
9440.000000;0.541177
9439.000000;0.541241
9438.000000;0.541129
9437.000000;0.540791
9436.000000;0.540369
9435.000000;0.540076
9434.000000;0.539995
9433.000000;0.540031
9432.000000;0.540074
9431.000000;0.540109
9430.000000;0.540163
9429.000000;0.540210
9428.000000;0.540203
9427.000000;0.540162
9426.000000;0.540165
9425.000000;0.540258
9424.000000;0.540417
9423.000000;0.540569
9422.000000;0.540633
9421.000000;0.540571
9420.000000;0.540435
9419.000000;0.540346
9418.000000;0.540385
9417.000000;0.540495
9416.000000;0.540531
9415.000000;0.540389
9414.000000;0.540096
9413.000000;0.539807
9412.000000;0.539710
9411.000000;0.539872
9410.000000;0.540148
9409.000000;0.540304
9408.000000;0.540274
9407.000000;0.540250
9406.000000;0.540439
9405.000000;0.540785
9404.000000;0.541012
9403.000000;0.540917
9402.000000;0.540555
9401.000000;0.540132
9400.000000;0.539809
9399.000000;0.539648
9398.000000;0.539639
9397.000000;0.539735
9396.000000;0.539880
9395.000000;0.540047
9394.000000;0.540229
9393.000000;0.540378
9392.000000;0.540410
9391.000000;0.540308
9390.000000;0.540182
9389.000000;0.540178
9388.000000;0.540319
9387.000000;0.540486
9386.000000;0.540552
9385.000000;0.540499
9384.000000;0.540388
9383.000000;0.540243
9382.000000;0.540024
9381.000000;0.539702
9380.000000;0.539347
9379.000000;0.539117
9378.000000;0.539133
9377.000000;0.539387
9376.000000;0.539732
9375.000000;0.539981
9374.000000;0.540026
9373.000000;0.539908
9372.000000;0.539774
9371.000000;0.539774
9370.000000;0.539956
9369.000000;0.540256
9368.000000;0.540545
9367.000000;0.540699
9366.000000;0.540641
9365.000000;0.540398
9364.000000;0.540104
9363.000000;0.539927
9362.000000;0.539943
9361.000000;0.540085
9360.000000;0.540220
9359.000000;0.540269
9358.000000;0.540224
9357.000000;0.540112
9356.000000;0.539978
9355.000000;0.539909
9354.000000;0.539998
9353.000000;0.540247
9352.000000;0.540538
9351.000000;0.540717
9350.000000;0.540708
9349.000000;0.540542
9348.000000;0.540306
9347.000000;0.540088
9346.000000;0.539952
9345.000000;0.539911
9344.000000;0.539932
9343.000000;0.539989
9342.000000;0.540092
9341.000000;0.540240
9340.000000;0.540350
9339.000000;0.540342
9338.000000;0.540281
9337.000000;0.540338
9336.000000;0.540559
9335.000000;0.540743
9334.000000;0.540659
9333.000000;0.540331
9332.000000;0.540011
9331.000000;0.539881
9330.000000;0.539900
9329.000000;0.539964
9328.000000;0.540075
9327.000000;0.540273
9326.000000;0.540467
9325.000000;0.540488
9324.000000;0.540293
9323.000000;0.540034
9322.000000;0.539885
9321.000000;0.539864
9320.000000;0.539850
9319.000000;0.539735
9318.000000;0.539541
9317.000000;0.539391
9316.000000;0.539380
9315.000000;0.539493
9314.000000;0.539643
9313.000000;0.539773
9312.000000;0.539894
9311.000000;0.540021
9310.000000;0.540126
9309.000000;0.540174
9308.000000;0.540184
9307.000000;0.540212
9306.000000;0.540269
9305.000000;0.540296
9304.000000;0.540224
9303.000000;0.540059
9302.000000;0.539908
9301.000000;0.539922
9300.000000;0.540171
9299.000000;0.540559
9298.000000;0.540863
9297.000000;0.540902
9296.000000;0.540669
9295.000000;0.540306
9294.000000;0.539995
9293.000000;0.539866
9292.000000;0.539956
9291.000000;0.540185
9290.000000;0.540386
9289.000000;0.540413
9288.000000;0.540252
9287.000000;0.540011
9286.000000;0.539814
9285.000000;0.539696
9284.000000;0.539610
9283.000000;0.539524
9282.000000;0.539492
9281.000000;0.539623
9280.000000;0.539956
9279.000000;0.540367
9278.000000;0.540641
9277.000000;0.540638
9276.000000;0.540389
9275.000000;0.540021
9274.000000;0.539660
9273.000000;0.539406
9272.000000;0.539326
9271.000000;0.539401
9270.000000;0.539499
9269.000000;0.539467
9268.000000;0.539265
9267.000000;0.539004
9266.000000;0.538862
9265.000000;0.538940
9264.000000;0.539185
9263.000000;0.539428
9262.000000;0.539530
9261.000000;0.539509
9260.000000;0.539504
9259.000000;0.539591
9258.000000;0.539698
9257.000000;0.539717
9256.000000;0.539654
9255.000000;0.539609
9254.000000;0.539649
9253.000000;0.539731
9252.000000;0.539772
9251.000000;0.539727
9250.000000;0.539642
9249.000000;0.539611
9248.000000;0.539691
9247.000000;0.539821
9246.000000;0.539863
9245.000000;0.539749
9244.000000;0.539556
9243.000000;0.539402
9242.000000;0.539337
9241.000000;0.539349
9240.000000;0.539444
9239.000000;0.539633
9238.000000;0.539854
9237.000000;0.539993
9236.000000;0.539970
9235.000000;0.539806
9234.000000;0.539594
9233.000000;0.539443
9232.000000;0.539413
9231.000000;0.539475
9230.000000;0.539533
9229.000000;0.539527
9228.000000;0.539482
9227.000000;0.539463
9226.000000;0.539516
9225.000000;0.539677
9224.000000;0.539964
9223.000000;0.540281
9222.000000;0.540414
9221.000000;0.540228
9220.000000;0.539845
9219.000000;0.539558
9218.000000;0.539540
9217.000000;0.539718
9216.000000;0.539915
9215.000000;0.540028
9214.000000;0.540064
9213.000000;0.540084
9212.000000;0.540148
9211.000000;0.540264
9210.000000;0.540357
9209.000000;0.540321
9208.000000;0.540130
9207.000000;0.539876
9206.000000;0.539690
9205.000000;0.539656
9204.000000;0.539772
9203.000000;0.539970
9202.000000;0.540151
9201.000000;0.540232
9200.000000;0.540194
9199.000000;0.540088
9198.000000;0.539985
9197.000000;0.539930
9196.000000;0.539900
9195.000000;0.539801
9194.000000;0.539553
9193.000000;0.539213
9192.000000;0.538960
9191.000000;0.538915
9190.000000;0.539017
9189.000000;0.539127
9188.000000;0.539215
9187.000000;0.539338
9186.000000;0.539488
9185.000000;0.539576
9184.000000;0.539566
9183.000000;0.539539
9182.000000;0.539577
9181.000000;0.539681
9180.000000;0.539813
9179.000000;0.539939
9178.000000;0.540005
9177.000000;0.539957
9176.000000;0.539847
9175.000000;0.539831
9174.000000;0.539991
9173.000000;0.540210
9172.000000;0.540297
9171.000000;0.540196
9170.000000;0.539997
9169.000000;0.539788
9168.000000;0.539594
9167.000000;0.539454
9166.000000;0.539448
9165.000000;0.539571
9164.000000;0.539683
9163.000000;0.539644
9162.000000;0.539496
9161.000000;0.539413
9160.000000;0.539471
9159.000000;0.539550
9158.000000;0.539510
9157.000000;0.539384
9156.000000;0.539337
9155.000000;0.539434
9154.000000;0.539565
9153.000000;0.539577
9152.000000;0.539431
9151.000000;0.539199
9150.000000;0.538957
9149.000000;0.538732
9148.000000;0.538523
9147.000000;0.538351
9146.000000;0.538288
9145.000000;0.538420
9144.000000;0.538743
9143.000000;0.539100
9142.000000;0.539306
9141.000000;0.539338
9140.000000;0.539350
9139.000000;0.539473
9138.000000;0.539682
9137.000000;0.539862
9136.000000;0.539951
9135.000000;0.539946
9134.000000;0.539857
9133.000000;0.539727
9132.000000;0.539653
9131.000000;0.539706
9130.000000;0.539838
9129.000000;0.539936
9128.000000;0.539927
9127.000000;0.539804
9126.000000;0.539588
9125.000000;0.539335
9124.000000;0.539122
9123.000000;0.538988
9122.000000;0.538912
9121.000000;0.538888
9120.000000;0.538956
9119.000000;0.539092
9118.000000;0.539153
9117.000000;0.539033
9116.000000;0.538855
9115.000000;0.538875
9114.000000;0.539197
9113.000000;0.539657
9112.000000;0.539983
9111.000000;0.540004
9110.000000;0.539719
9109.000000;0.539280
9108.000000;0.538903
9107.000000;0.538727
9106.000000;0.538721
9105.000000;0.538760
9104.000000;0.538788
9103.000000;0.538844
9102.000000;0.538954
9101.000000;0.539086
9100.000000;0.539203
9099.000000;0.539307
9098.000000;0.539406
9097.000000;0.539486
9096.000000;0.539528
9095.000000;0.539509
9094.000000;0.539404
9093.000000;0.539243
9092.000000;0.539136
9091.000000;0.539177
9090.000000;0.539336
9089.000000;0.539505
9088.000000;0.539633
9087.000000;0.539753
9086.000000;0.539890
9085.000000;0.540015
9084.000000;0.540080
9083.000000;0.540051
9082.000000;0.539919
9081.000000;0.539739
9080.000000;0.539624
9079.000000;0.539631
9078.000000;0.539679
9077.000000;0.539652
9076.000000;0.539555
9075.000000;0.539481
9074.000000;0.539462
9073.000000;0.539437
9072.000000;0.539366
9071.000000;0.539262
9070.000000;0.539133
9069.000000;0.539000
9068.000000;0.538947
9067.000000;0.539042
9066.000000;0.539200
9065.000000;0.539245
9064.000000;0.539134
9063.000000;0.538999
9062.000000;0.538969
9061.000000;0.539058
9060.000000;0.539233
9059.000000;0.539461
9058.000000;0.539653
9057.000000;0.539686
9056.000000;0.539572
9055.000000;0.539480
9054.000000;0.539532
9053.000000;0.539676
