Criado como novo conjunto de dados;"2706_e01_daniel.spp","99007.3 Secs"
cm-1;Abs
10000.000000;0.863480
9999.000000;0.862902
9998.000000;0.862671
9997.000000;0.862386
9996.000000;0.861968
9995.000000;0.861929
9994.000000;0.862550
9993.000000;0.863639
9992.000000;0.864691
9991.000000;0.865332
9990.000000;0.865348
9989.000000;0.864706
9988.000000;0.863674
9987.000000;0.862762
9986.000000;0.862294
9985.000000;0.862113
9984.000000;0.861870
9983.000000;0.861538
9982.000000;0.861409
9981.000000;0.861654
9980.000000;0.862141
9979.000000;0.862685
9978.000000;0.863205
9977.000000;0.863523
9976.000000;0.863320
9975.000000;0.862522
9974.000000;0.861556
9973.000000;0.860985
9972.000000;0.860961
9971.000000;0.861229
9970.000000;0.861520
9969.000000;0.861668
9968.000000;0.861462
9967.000000;0.860768
9966.000000;0.859908
9965.000000;0.859525
9964.000000;0.859835
9963.000000;0.860264
9962.000000;0.860125
9961.000000;0.859523
9960.000000;0.859226
9959.000000;0.859692
9958.000000;0.860534
9957.000000;0.861010
9956.000000;0.860814
9955.000000;0.860239
9954.000000;0.859769
9953.000000;0.859680
9952.000000;0.859938
9951.000000;0.860288
9950.000000;0.860465
9949.000000;0.860409
9948.000000;0.860225
9947.000000;0.859953
9946.000000;0.859499
9945.000000;0.858889
9944.000000;0.858395
9943.000000;0.858238
9942.000000;0.858275
9941.000000;0.858190
9940.000000;0.857950
9939.000000;0.857845
9938.000000;0.858060
9937.000000;0.858412
9936.000000;0.858586
9935.000000;0.858444
9934.000000;0.858036
9933.000000;0.857471
9932.000000;0.856920
9931.000000;0.856590
9930.000000;0.856518
9929.000000;0.856467
9928.000000;0.856198
9927.000000;0.855858
9926.000000;0.855932
9925.000000;0.856717
9924.000000;0.857932
9923.000000;0.858912
9922.000000;0.859157
9921.000000;0.858668
9920.000000;0.857847
9919.000000;0.857178
9918.000000;0.856946
9917.000000;0.857115
9916.000000;0.857351
9915.000000;0.857275
9914.000000;0.856806
9913.000000;0.856285
9912.000000;0.856167
9911.000000;0.856554
9910.000000;0.857103
9909.000000;0.857382
9908.000000;0.857237
9907.000000;0.856806
9906.000000;0.856296
9905.000000;0.855853
9904.000000;0.855525
9903.000000;0.855217
9902.000000;0.854735
9901.000000;0.854022
9900.000000;0.853319
9899.000000;0.852984
9898.000000;0.853184
9897.000000;0.853814
9896.000000;0.854627
9895.000000;0.855309
9894.000000;0.855537
9893.000000;0.855214
9892.000000;0.854645
9891.000000;0.854268
9890.000000;0.854202
9889.000000;0.854234
9888.000000;0.854211
9887.000000;0.854189
9886.000000;0.854154
9885.000000;0.853922
9884.000000;0.853505
9883.000000;0.853292
9882.000000;0.853569
9881.000000;0.854019
9880.000000;0.854009
9879.000000;0.853358
9878.000000;0.852587
9877.000000;0.852344
9876.000000;0.852755
9875.000000;0.853408
9874.000000;0.853842
9873.000000;0.853965
9872.000000;0.854016
9871.000000;0.854206
9870.000000;0.854451
9869.000000;0.854505
9868.000000;0.854282
9867.000000;0.853944
9866.000000;0.853701
9865.000000;0.853635
9864.000000;0.853712
9863.000000;0.853819
9862.000000;0.853762
9861.000000;0.853424
9860.000000;0.852969
9859.000000;0.852725
9858.000000;0.852779
9857.000000;0.852908
9856.000000;0.852969
9855.000000;0.853102
9854.000000;0.853366
9853.000000;0.853448
9852.000000;0.853056
9851.000000;0.852427
9850.000000;0.852094
9849.000000;0.852182
9848.000000;0.852252
9847.000000;0.851861
9846.000000;0.851034
9845.000000;0.850135
9844.000000;0.849515
9843.000000;0.849360
9842.000000;0.849659
9841.000000;0.850201
9840.000000;0.850679
9839.000000;0.850888
9838.000000;0.850821
9837.000000;0.850611
9836.000000;0.850459
9835.000000;0.850571
9834.000000;0.850987
9833.000000;0.851471
9832.000000;0.851685
9831.000000;0.851489
9830.000000;0.850980
9829.000000;0.850327
9828.000000;0.849710
9827.000000;0.849368
9826.000000;0.849475
9825.000000;0.849927
9824.000000;0.850423
9823.000000;0.850762
9822.000000;0.850938
9821.000000;0.850954
9820.000000;0.850771
9819.000000;0.850434
9818.000000;0.850041
9817.000000;0.849584
9816.000000;0.849033
9815.000000;0.848634
9814.000000;0.848780
9813.000000;0.849469
9812.000000;0.850124
9811.000000;0.850181
9810.000000;0.849674
9809.000000;0.849015
9808.000000;0.848422
9807.000000;0.847856
9806.000000;0.847418
9805.000000;0.847415
9804.000000;0.847919
9803.000000;0.848519
9802.000000;0.848674
9801.000000;0.848226
9800.000000;0.847470
9799.000000;0.846816
9798.000000;0.846529
9797.000000;0.846671
9796.000000;0.847116
9795.000000;0.847577
9794.000000;0.847758
9793.000000;0.847587
9792.000000;0.847260
9791.000000;0.846998
9790.000000;0.846831
9789.000000;0.846671
9788.000000;0.846547
9787.000000;0.846596
9786.000000;0.846823
9785.000000;0.847041
9784.000000;0.847127
9783.000000;0.847172
9782.000000;0.847276
9781.000000;0.847316
9780.000000;0.847093
9779.000000;0.846648
9778.000000;0.846245
9777.000000;0.846059
9776.000000;0.846026
9775.000000;0.845992
9774.000000;0.845890
9773.000000;0.845764
9772.000000;0.845713
9771.000000;0.845811
9770.000000;0.845999
9769.000000;0.846071
9768.000000;0.845874
9767.000000;0.845471
9766.000000;0.845023
9765.000000;0.844639
9764.000000;0.844469
9763.000000;0.844768
9762.000000;0.845563
9761.000000;0.846354
9760.000000;0.846496
9759.000000;0.845944
9758.000000;0.845298
9757.000000;0.845027
9756.000000;0.845001
9755.000000;0.844896
9754.000000;0.844717
9753.000000;0.844639
9752.000000;0.844600
9751.000000;0.844391
9750.000000;0.844014
9749.000000;0.843695
9748.000000;0.843568
9747.000000;0.843586
9746.000000;0.843652
9745.000000;0.843655
9744.000000;0.843459
9743.000000;0.843090
9742.000000;0.842862
9741.000000;0.843071
9740.000000;0.843594
9739.000000;0.844015
9738.000000;0.844130
9737.000000;0.844086
9736.000000;0.844009
9735.000000;0.843778
9734.000000;0.843312
9733.000000;0.842860
9732.000000;0.842787
9731.000000;0.843163
9730.000000;0.843677
9729.000000;0.843949
9728.000000;0.843855
9727.000000;0.843571
9726.000000;0.843363
9725.000000;0.843332
9724.000000;0.843338
9723.000000;0.843177
9722.000000;0.842806
9721.000000;0.842381
9720.000000;0.842096
9719.000000;0.842024
9718.000000;0.842071
9717.000000;0.842030
9716.000000;0.841747
9715.000000;0.841292
9714.000000;0.840954
9713.000000;0.840938
9712.000000;0.841136
9711.000000;0.841311
9710.000000;0.841469
9709.000000;0.841842
9708.000000;0.842460
9707.000000;0.842947
9706.000000;0.842889
9705.000000;0.842269
9704.000000;0.841387
9703.000000;0.840466
9702.000000;0.839557
9701.000000;0.838797
9700.000000;0.838482
9699.000000;0.838751
9698.000000;0.839341
9697.000000;0.839800
9696.000000;0.839935
9695.000000;0.839908
9694.000000;0.839932
9693.000000;0.840010
9692.000000;0.840064
9691.000000;0.840169
9690.000000;0.840503
9689.000000;0.841043
9688.000000;0.841476
9687.000000;0.841459
9686.000000;0.840933
9685.000000;0.840136
9684.000000;0.839378
9683.000000;0.838834
9682.000000;0.838522
9681.000000;0.838391
9680.000000;0.838404
9679.000000;0.838565
9678.000000;0.838852
9677.000000;0.839148
9676.000000;0.839277
9675.000000;0.839125
9674.000000;0.838708
9673.000000;0.838121
9672.000000;0.837496
9671.000000;0.837039
9670.000000;0.836989
9669.000000;0.837429
9668.000000;0.838133
9667.000000;0.838698
9666.000000;0.838867
9665.000000;0.838705
9664.000000;0.838485
9663.000000;0.838447
9662.000000;0.838641
9661.000000;0.838899
9660.000000;0.838956
9659.000000;0.838666
9658.000000;0.838162
9657.000000;0.837774
9656.000000;0.837752
9655.000000;0.838060
9654.000000;0.838430
9653.000000;0.838596
9652.000000;0.838496
9651.000000;0.838286
9650.000000;0.838160
9649.000000;0.838130
9648.000000;0.838015
9647.000000;0.837672
9646.000000;0.837195
9645.000000;0.836820
9644.000000;0.836636
9643.000000;0.836479
9642.000000;0.836176
9641.000000;0.835811
9640.000000;0.835672
9639.000000;0.835940
9638.000000;0.836486
9637.000000;0.836967
9636.000000;0.837100
9635.000000;0.836869
9634.000000;0.836498
9633.000000;0.836243
9632.000000;0.836177
9631.000000;0.836175
9630.000000;0.836100
9629.000000;0.835938
9628.000000;0.835752
9627.000000;0.835569
9626.000000;0.835415
9625.000000;0.835443
9624.000000;0.835860
9623.000000;0.836644
9622.000000;0.837402
9621.000000;0.837631
9620.000000;0.837172
9619.000000;0.836338
9618.000000;0.835587
9617.000000;0.835121
9616.000000;0.834810
9615.000000;0.834435
9614.000000;0.833942
9613.000000;0.833500
9612.000000;0.833347
9611.000000;0.833574
9610.000000;0.834018
9609.000000;0.834373
9608.000000;0.834443
9607.000000;0.834285
9606.000000;0.834116
9605.000000;0.834103
9604.000000;0.834245
9603.000000;0.834404
9602.000000;0.834419
9601.000000;0.834206
9600.000000;0.833816
9599.000000;0.833403
9598.000000;0.833131
9597.000000;0.833092
9596.000000;0.833292
9595.000000;0.833648
9594.000000;0.833986
9593.000000;0.834136
9592.000000;0.834075
9591.000000;0.833947
9590.000000;0.833860
9589.000000;0.833743
9588.000000;0.833461
9587.000000;0.833028
9586.000000;0.832602
9585.000000;0.832313
9584.000000;0.832184
9583.000000;0.832220
9582.000000;0.832435
9581.000000;0.832746
9580.000000;0.832972
9579.000000;0.833016
9578.000000;0.832994
9577.000000;0.833066
9576.000000;0.833215
9575.000000;0.833269
9574.000000;0.833146
9573.000000;0.832942
9572.000000;0.832762
9571.000000;0.832548
9570.000000;0.832190
9569.000000;0.831758
9568.000000;0.831513
9567.000000;0.831628
9566.000000;0.831951
9565.000000;0.832151
9564.000000;0.832041
9563.000000;0.831720
9562.000000;0.831390
9561.000000;0.831160
9560.000000;0.831021
9559.000000;0.830903
9558.000000;0.830714
9557.000000;0.830449
9556.000000;0.830324
9555.000000;0.830671
9554.000000;0.831544
9553.000000;0.832511
9552.000000;0.833005
9551.000000;0.832887
9550.000000;0.832502
9549.000000;0.832185
9548.000000;0.831910
9547.000000;0.831461
9546.000000;0.830798
9545.000000;0.830146
9544.000000;0.829787
9543.000000;0.829835
9542.000000;0.830144
9541.000000;0.830409
9540.000000;0.830416
9539.000000;0.830222
9538.000000;0.830032
9537.000000;0.829903
9536.000000;0.829703
9535.000000;0.829380
9534.000000;0.829093
9533.000000;0.828976
9532.000000;0.828913
9531.000000;0.828716
9530.000000;0.828430
9529.000000;0.828283
9528.000000;0.828332
9527.000000;0.828360
9526.000000;0.828183
9525.000000;0.827937
9524.000000;0.827914
9523.000000;0.828180
9522.000000;0.828469
9521.000000;0.828501
9520.000000;0.828308
9519.000000;0.828157
9518.000000;0.828179
9517.000000;0.828231
9516.000000;0.828145
9515.000000;0.827998
9514.000000;0.827971
9513.000000;0.828018
9512.000000;0.827887
9511.000000;0.827508
9510.000000;0.827173
9509.000000;0.827200
9508.000000;0.827529
9507.000000;0.827808
9506.000000;0.827803
9505.000000;0.827586
9504.000000;0.827314
9503.000000;0.827017
9502.000000;0.826667
9501.000000;0.826358
9500.000000;0.826274
9499.000000;0.826473
9498.000000;0.826785
9497.000000;0.826961
9496.000000;0.826881
9495.000000;0.826612
9494.000000;0.826282
9493.000000;0.825970
9492.000000;0.825712
9491.000000;0.825539
9490.000000;0.825459
9489.000000;0.825446
9488.000000;0.825490
9487.000000;0.825632
9486.000000;0.825905
9485.000000;0.826259
9484.000000;0.826582
9483.000000;0.826793
9482.000000;0.826860
9481.000000;0.826767
9480.000000;0.826516
9479.000000;0.826159
9478.000000;0.825763
9477.000000;0.825363
9476.000000;0.825008
9475.000000;0.824797
9474.000000;0.824768
9473.000000;0.824760
9472.000000;0.824528
9471.000000;0.824027
9470.000000;0.823493
9469.000000;0.823235
9468.000000;0.823401
9467.000000;0.823914
9466.000000;0.824527
9465.000000;0.824923
9464.000000;0.824938
9463.000000;0.824719
9462.000000;0.824574
9461.000000;0.824602
9460.000000;0.824603
9459.000000;0.824405
9458.000000;0.824127
9457.000000;0.824005
9456.000000;0.824091
9455.000000;0.824240
9454.000000;0.824334
9453.000000;0.824376
9452.000000;0.824378
9451.000000;0.824296
9450.000000;0.824086
9449.000000;0.823777
9448.000000;0.823485
9447.000000;0.823371
9446.000000;0.823498
9445.000000;0.823701
9444.000000;0.823693
9443.000000;0.823400
9442.000000;0.823108
9441.000000;0.823166
9440.000000;0.823596
9439.000000;0.824103
9438.000000;0.824411
9437.000000;0.824445
9436.000000;0.824210
9435.000000;0.823680
9434.000000;0.822902
9433.000000;0.822107
9432.000000;0.821619
9431.000000;0.821622
9430.000000;0.822021
9429.000000;0.822497
9428.000000;0.822733
9427.000000;0.822642
9426.000000;0.822384
9425.000000;0.822163
9424.000000;0.822021
9423.000000;0.821871
9422.000000;0.821693
9421.000000;0.821609
9420.000000;0.821771
9419.000000;0.822187
9418.000000;0.822662
9417.000000;0.822895
9416.000000;0.822698
9415.000000;0.822188
9414.000000;0.821725
9413.000000;0.821602
9412.000000;0.821775
9411.000000;0.821926
9410.000000;0.821765
9409.000000;0.821241
9408.000000;0.820525
9407.000000;0.819852
9406.000000;0.819411
9405.000000;0.819299
9404.000000;0.819516
9403.000000;0.819975
9402.000000;0.820496
9401.000000;0.820853
9400.000000;0.820906
9399.000000;0.820691
9398.000000;0.820361
9397.000000;0.820042
9396.000000;0.819808
9395.000000;0.819763
9394.000000;0.819993
9393.000000;0.820417
9392.000000;0.820801
9391.000000;0.820980
9390.000000;0.820957
9389.000000;0.820747
9388.000000;0.820302
9387.000000;0.819696
9386.000000;0.819229
9385.000000;0.819160
9384.000000;0.819400
9383.000000;0.819622
9382.000000;0.819629
9381.000000;0.819482
9380.000000;0.819323
9379.000000;0.819206
9378.000000;0.819107
9377.000000;0.818967
9376.000000;0.818718
9375.000000;0.818375
9374.000000;0.818070
9373.000000;0.817931
9372.000000;0.817960
9371.000000;0.818110
9370.000000;0.818375
9369.000000;0.818695
9368.000000;0.818853
9367.000000;0.818692
9366.000000;0.818365
9365.000000;0.818185
9364.000000;0.818217
9363.000000;0.818240
9362.000000;0.818105
9361.000000;0.817900
9360.000000;0.817727
9359.000000;0.817571
9358.000000;0.817476
9357.000000;0.817624
9356.000000;0.818050
9355.000000;0.818478
9354.000000;0.818616
9353.000000;0.818529
9352.000000;0.818510
9351.000000;0.818652
9350.000000;0.818734
9349.000000;0.818525
9348.000000;0.818049
9347.000000;0.817533
9346.000000;0.817191
9345.000000;0.817091
9344.000000;0.817137
9343.000000;0.817127
9342.000000;0.816904
9341.000000;0.816485
9340.000000;0.816065
9339.000000;0.815864
9338.000000;0.815977
9337.000000;0.816327
9336.000000;0.816725
9335.000000;0.816998
9334.000000;0.817094
9333.000000;0.817068
9332.000000;0.816997
9331.000000;0.816939
9330.000000;0.816944
9329.000000;0.817050
9328.000000;0.817209
9327.000000;0.817288
9326.000000;0.817158
9325.000000;0.816789
9324.000000;0.816271
9323.000000;0.815783
9322.000000;0.815528
9321.000000;0.815607
9320.000000;0.815928
9319.000000;0.816282
9318.000000;0.816524
9317.000000;0.816595
9316.000000;0.816411
9315.000000;0.815864
9314.000000;0.815051
9313.000000;0.814351
9312.000000;0.814141
9311.000000;0.814444
9310.000000;0.814934
9309.000000;0.815280
9308.000000;0.815399
9307.000000;0.815409
9306.000000;0.815435
9305.000000;0.815484
9304.000000;0.815478
9303.000000;0.815363
9302.000000;0.815194
9301.000000;0.815047
9300.000000;0.814855
9299.000000;0.814432
9298.000000;0.813740
9297.000000;0.813050
9296.000000;0.812715
9295.000000;0.812787
9294.000000;0.812982
9293.000000;0.813032
9292.000000;0.812951
9291.000000;0.812900
9290.000000;0.812916
9289.000000;0.812926
9288.000000;0.812949
9287.000000;0.813129
9286.000000;0.813494
9285.000000;0.813802
9284.000000;0.813758
9283.000000;0.813351
9282.000000;0.812876
9281.000000;0.812597
9280.000000;0.812509
9279.000000;0.812473
9278.000000;0.812470
9277.000000;0.812578
9276.000000;0.812752
9275.000000;0.812806
9274.000000;0.812670
9273.000000;0.812489
9272.000000;0.812395
9271.000000;0.812296
9270.000000;0.812024
9269.000000;0.811614
9268.000000;0.811264
9267.000000;0.811072
9266.000000;0.810959
9265.000000;0.810859
9264.000000;0.810842
9263.000000;0.810967
9262.000000;0.811154
9261.000000;0.811285
9260.000000;0.811333
9259.000000;0.811302
9258.000000;0.811134
9257.000000;0.810803
9256.000000;0.810490
9255.000000;0.810471
9254.000000;0.810806
9253.000000;0.811206
9252.000000;0.811296
9251.000000;0.810955
9250.000000;0.810373
9249.000000;0.809833
9248.000000;0.809511
9247.000000;0.809429
9246.000000;0.809514
9245.000000;0.809676
9244.000000;0.809849
9243.000000;0.809980
9242.000000;0.809982
9241.000000;0.809785
9240.000000;0.809481
9239.000000;0.809352
9238.000000;0.809627
9237.000000;0.810213
9236.000000;0.810738
9235.000000;0.810887
9234.000000;0.810632
9233.000000;0.810143
9232.000000;0.809596
9231.000000;0.809132
9230.000000;0.808881
9229.000000;0.808903
9228.000000;0.809114
9227.000000;0.809348
9226.000000;0.809495
9225.000000;0.809537
9224.000000;0.809499
9223.000000;0.809413
9222.000000;0.809317
9221.000000;0.809225
9220.000000;0.809099
9219.000000;0.808905
9218.000000;0.808680
9217.000000;0.808519
9216.000000;0.808484
9215.000000;0.808563
9214.000000;0.808693
9213.000000;0.808789
9212.000000;0.808783
9211.000000;0.808691
9210.000000;0.808591
9209.000000;0.808501
9208.000000;0.808330
9207.000000;0.808015
9206.000000;0.807680
9205.000000;0.807533
9204.000000;0.807628
9203.000000;0.807797
9202.000000;0.807849
9201.000000;0.807735
9200.000000;0.807507
9199.000000;0.807235
9198.000000;0.806987
9197.000000;0.806835
9196.000000;0.806788
9195.000000;0.806779
9194.000000;0.806765
9193.000000;0.806803
9192.000000;0.806989
9191.000000;0.807319
9190.000000;0.807641
9189.000000;0.807751
9188.000000;0.807556
9187.000000;0.807186
9186.000000;0.806926
9185.000000;0.806994
9184.000000;0.807338
9183.000000;0.807691
9182.000000;0.807796
9181.000000;0.807596
9180.000000;0.807228
9179.000000;0.806914
9178.000000;0.806813
9177.000000;0.806892
9176.000000;0.806947
9175.000000;0.806815
9174.000000;0.806557
9173.000000;0.806354
9172.000000;0.806241
9171.000000;0.806074
9170.000000;0.805779
9169.000000;0.805502
9168.000000;0.805443
9167.000000;0.805638
9166.000000;0.805959
9165.000000;0.806235
9164.000000;0.806314
9163.000000;0.806112
9162.000000;0.805700
9161.000000;0.805290
9160.000000;0.805034
9159.000000;0.804893
9158.000000;0.804752
9157.000000;0.804608
9156.000000;0.804554
9155.000000;0.804618
9154.000000;0.804717
9153.000000;0.804743
9152.000000;0.804647
9151.000000;0.804474
9150.000000;0.804369
9149.000000;0.804486
9148.000000;0.804817
9147.000000;0.805150
9146.000000;0.805281
9145.000000;0.805221
9144.000000;0.805082
9143.000000;0.804863
9142.000000;0.804491
9141.000000;0.804045
9140.000000;0.803766
9139.000000;0.803787
9138.000000;0.803985
9137.000000;0.804138
9136.000000;0.804145
9135.000000;0.804020
9134.000000;0.803796
9133.000000;0.803518
9132.000000;0.803248
9131.000000;0.803021
9130.000000;0.802807
9129.000000;0.802575
9128.000000;0.802343
9127.000000;0.802144
9126.000000;0.802005
9125.000000;0.801982
9124.000000;0.802169
9123.000000;0.802571
9122.000000;0.803048
9121.000000;0.803409
9120.000000;0.803557
9119.000000;0.803479
9118.000000;0.803179
9117.000000;0.802708
9116.000000;0.802226
9115.000000;0.801917
9114.000000;0.801814
9113.000000;0.801802
9112.000000;0.801802
9111.000000;0.801861
9110.000000;0.802021
9109.000000;0.802175
9108.000000;0.802167
9107.000000;0.802019
9106.000000;0.801968
9105.000000;0.802201
9104.000000;0.802619
9103.000000;0.802907
9102.000000;0.802862
9101.000000;0.802579
9100.000000;0.802293
9099.000000;0.802094
9098.000000;0.801872
9097.000000;0.801507
9096.000000;0.801053
9095.000000;0.800685
9094.000000;0.800514
9093.000000;0.800511
9092.000000;0.800580
9091.000000;0.800668
9090.000000;0.800807
9089.000000;0.801043
9088.000000;0.801336
9087.000000;0.801536
9086.000000;0.801506
9085.000000;0.801265
9084.000000;0.800980
9083.000000;0.800811
9082.000000;0.800783
9081.000000;0.800827
9080.000000;0.800873
9079.000000;0.800863
9078.000000;0.800743
9077.000000;0.800525
9076.000000;0.800328
9075.000000;0.800281
9074.000000;0.800363
9073.000000;0.800428
9072.000000;0.800365
9071.000000;0.800191
9070.000000;0.799974
9069.000000;0.799762
9068.000000;0.799600
9067.000000;0.799555
9066.000000;0.799665
9065.000000;0.799890
9064.000000;0.800148
9063.000000;0.800361
9062.000000;0.800451
9061.000000;0.800374
9060.000000;0.800189
9059.000000;0.800056
9058.000000;0.800082
9057.000000;0.800210
9056.000000;0.800281
9055.000000;0.800183
9054.000000;0.799903
9053.000000;0.799490
