Criado como novo conjunto de dados;"2706_e01_daniel.spp","93067.0 Secs"
cm-1;Abs
10000.000000;0.852207
9999.000000;0.852167
9998.000000;0.852217
9997.000000;0.852389
9996.000000;0.852618
9995.000000;0.852808
9994.000000;0.852906
9993.000000;0.852899
9992.000000;0.852741
9991.000000;0.852396
9990.000000;0.851958
9989.000000;0.851620
9988.000000;0.851503
9987.000000;0.851537
9986.000000;0.851541
9985.000000;0.851397
9984.000000;0.851164
9983.000000;0.851033
9982.000000;0.851142
9981.000000;0.851399
9980.000000;0.851522
9979.000000;0.851324
9978.000000;0.850927
9977.000000;0.850582
9976.000000;0.850319
9975.000000;0.849955
9974.000000;0.849457
9973.000000;0.849102
9972.000000;0.849158
9971.000000;0.849516
9970.000000;0.849799
9969.000000;0.849794
9968.000000;0.849634
9967.000000;0.849594
9966.000000;0.849801
9965.000000;0.850156
9964.000000;0.850406
9963.000000;0.850304
9962.000000;0.849796
9961.000000;0.849116
9960.000000;0.848645
9959.000000;0.848599
9958.000000;0.848874
9957.000000;0.849202
9956.000000;0.849455
9955.000000;0.849701
9954.000000;0.849992
9953.000000;0.850191
9952.000000;0.850128
9951.000000;0.849873
9950.000000;0.849698
9949.000000;0.849734
9948.000000;0.849783
9947.000000;0.849582
9946.000000;0.849149
9945.000000;0.848747
9944.000000;0.848566
9943.000000;0.848593
9942.000000;0.848749
9941.000000;0.848991
9940.000000;0.849255
9939.000000;0.849422
9938.000000;0.849385
9937.000000;0.849087
9936.000000;0.848512
9935.000000;0.847798
9934.000000;0.847309
9933.000000;0.847362
9932.000000;0.847820
9931.000000;0.848108
9930.000000;0.847788
9929.000000;0.846981
9928.000000;0.846137
9927.000000;0.845561
9926.000000;0.845343
9925.000000;0.845552
9924.000000;0.846188
9923.000000;0.846959
9922.000000;0.847389
9921.000000;0.847297
9920.000000;0.846990
9919.000000;0.846854
9918.000000;0.846864
9917.000000;0.846671
9916.000000;0.846137
9915.000000;0.845580
9914.000000;0.845390
9913.000000;0.845557
9912.000000;0.845738
9911.000000;0.845730
9910.000000;0.845646
9909.000000;0.845567
9908.000000;0.845306
9907.000000;0.844728
9906.000000;0.844132
9905.000000;0.843988
9904.000000;0.844325
9903.000000;0.844698
9902.000000;0.844824
9901.000000;0.844902
9900.000000;0.845137
9899.000000;0.845255
9898.000000;0.844837
9897.000000;0.843996
9896.000000;0.843369
9895.000000;0.843401
9894.000000;0.843884
9893.000000;0.844226
9892.000000;0.844027
9891.000000;0.843353
9890.000000;0.842612
9889.000000;0.842250
9888.000000;0.842445
9887.000000;0.842986
9886.000000;0.843449
9885.000000;0.843546
9884.000000;0.843309
9883.000000;0.842950
9882.000000;0.842577
9881.000000;0.842077
9880.000000;0.841318
9879.000000;0.840467
9878.000000;0.840038
9877.000000;0.840474
9876.000000;0.841648
9875.000000;0.842878
9874.000000;0.843518
9873.000000;0.843429
9872.000000;0.842865
9871.000000;0.842108
9870.000000;0.841359
9869.000000;0.840801
9868.000000;0.840513
9867.000000;0.840380
9866.000000;0.840258
9865.000000;0.840202
9864.000000;0.840360
9863.000000;0.840694
9862.000000;0.841007
9861.000000;0.841243
9860.000000;0.841552
9859.000000;0.842013
9858.000000;0.842450
9857.000000;0.842598
9856.000000;0.842368
9855.000000;0.841879
9854.000000;0.841297
9853.000000;0.840708
9852.000000;0.840122
9851.000000;0.839630
9850.000000;0.839491
9849.000000;0.839913
9848.000000;0.840661
9847.000000;0.841064
9846.000000;0.840660
9845.000000;0.839756
9844.000000;0.839142
9843.000000;0.839239
9842.000000;0.839752
9841.000000;0.840123
9840.000000;0.840115
9839.000000;0.839906
9838.000000;0.839832
9837.000000;0.840096
9836.000000;0.840573
9835.000000;0.840843
9834.000000;0.840568
9833.000000;0.839874
9832.000000;0.839169
9831.000000;0.838627
9830.000000;0.838090
9829.000000;0.837531
9828.000000;0.837265
9827.000000;0.837533
9826.000000;0.838121
9825.000000;0.838630
9824.000000;0.838929
9823.000000;0.839128
9822.000000;0.839251
9821.000000;0.839200
9820.000000;0.838962
9819.000000;0.838620
9818.000000;0.838195
9817.000000;0.837680
9816.000000;0.837201
9815.000000;0.836949
9814.000000;0.836948
9813.000000;0.837060
9812.000000;0.837218
9811.000000;0.837496
9810.000000;0.837913
9809.000000;0.838299
9808.000000;0.838429
9807.000000;0.838244
9806.000000;0.837881
9805.000000;0.837531
9804.000000;0.837264
9803.000000;0.836969
9802.000000;0.836489
9801.000000;0.835825
9800.000000;0.835166
9799.000000;0.834712
9798.000000;0.834539
9797.000000;0.834660
9796.000000;0.835057
9795.000000;0.835562
9794.000000;0.835822
9793.000000;0.835565
9792.000000;0.834886
9791.000000;0.834176
9790.000000;0.833790
9789.000000;0.833828
9788.000000;0.834151
9787.000000;0.834501
9786.000000;0.834671
9785.000000;0.834702
9784.000000;0.834866
9783.000000;0.835359
9782.000000;0.836010
9781.000000;0.836385
9780.000000;0.836152
9779.000000;0.835340
9778.000000;0.834352
9777.000000;0.833770
9776.000000;0.833956
9775.000000;0.834668
9774.000000;0.835164
9773.000000;0.834931
9772.000000;0.834237
9771.000000;0.833759
9770.000000;0.833783
9769.000000;0.834040
9768.000000;0.834254
9767.000000;0.834448
9766.000000;0.834617
9765.000000;0.834484
9764.000000;0.833843
9763.000000;0.832918
9762.000000;0.832115
9761.000000;0.831574
9760.000000;0.831207
9759.000000;0.831048
9758.000000;0.831273
9757.000000;0.831847
9756.000000;0.832410
9755.000000;0.832633
9754.000000;0.832583
9753.000000;0.832636
9752.000000;0.833033
9751.000000;0.833578
9750.000000;0.833791
9749.000000;0.833420
9748.000000;0.832769
9747.000000;0.832401
9746.000000;0.832480
9745.000000;0.832571
9744.000000;0.832195
9743.000000;0.831449
9742.000000;0.830886
9741.000000;0.830861
9740.000000;0.831221
9739.000000;0.831610
9738.000000;0.831834
9737.000000;0.831872
9736.000000;0.831753
9735.000000;0.831563
9734.000000;0.831454
9733.000000;0.831490
9732.000000;0.831547
9731.000000;0.831493
9730.000000;0.831425
9729.000000;0.831571
9728.000000;0.831975
9727.000000;0.832406
9726.000000;0.832581
9725.000000;0.832403
9724.000000;0.831950
9723.000000;0.831372
9722.000000;0.830877
9721.000000;0.830704
9720.000000;0.830973
9719.000000;0.831533
9718.000000;0.832040
9717.000000;0.832228
9716.000000;0.832047
9715.000000;0.831556
9714.000000;0.830831
9713.000000;0.830057
9712.000000;0.829581
9711.000000;0.829665
9710.000000;0.830148
9709.000000;0.830491
9708.000000;0.830296
9707.000000;0.829710
9706.000000;0.829216
9705.000000;0.829076
9704.000000;0.829109
9703.000000;0.829006
9702.000000;0.828719
9701.000000;0.828483
9700.000000;0.828526
9699.000000;0.828835
9698.000000;0.829189
9697.000000;0.829344
9696.000000;0.829229
9695.000000;0.828984
9694.000000;0.828808
9693.000000;0.828764
9692.000000;0.828774
9691.000000;0.828800
9690.000000;0.828916
9689.000000;0.829139
9688.000000;0.829277
9687.000000;0.829069
9686.000000;0.828476
9685.000000;0.827744
9684.000000;0.827193
9683.000000;0.826985
9682.000000;0.827081
9681.000000;0.827284
9680.000000;0.827362
9679.000000;0.827229
9678.000000;0.827055
9677.000000;0.827099
9676.000000;0.827413
9675.000000;0.827800
9674.000000;0.828084
9673.000000;0.828282
9672.000000;0.828443
9671.000000;0.828453
9670.000000;0.828165
9669.000000;0.827636
9668.000000;0.827082
9667.000000;0.826617
9666.000000;0.826181
9665.000000;0.825739
9664.000000;0.825392
9663.000000;0.825234
9662.000000;0.825201
9661.000000;0.825169
9660.000000;0.825135
9659.000000;0.825199
9658.000000;0.825381
9657.000000;0.825544
9656.000000;0.825531
9655.000000;0.825341
9654.000000;0.825143
9653.000000;0.825119
9652.000000;0.825297
9651.000000;0.825541
9650.000000;0.825671
9649.000000;0.825584
9648.000000;0.825299
9647.000000;0.824943
9646.000000;0.824710
9645.000000;0.824738
9644.000000;0.824935
9643.000000;0.824999
9642.000000;0.824704
9641.000000;0.824162
9640.000000;0.823710
9639.000000;0.823553
9638.000000;0.823613
9637.000000;0.823734
9636.000000;0.823893
9635.000000;0.824136
9634.000000;0.824419
9633.000000;0.824585
9632.000000;0.824510
9631.000000;0.824203
9630.000000;0.823813
9629.000000;0.823554
9628.000000;0.823571
9627.000000;0.823825
9626.000000;0.824141
9625.000000;0.824405
9624.000000;0.824632
9623.000000;0.824817
9622.000000;0.824798
9621.000000;0.824430
9620.000000;0.823832
9619.000000;0.823317
9618.000000;0.823044
9617.000000;0.822866
9616.000000;0.822574
9615.000000;0.822204
9614.000000;0.821987
9613.000000;0.822060
9612.000000;0.822301
9611.000000;0.822454
9610.000000;0.822338
9609.000000;0.821942
9608.000000;0.821421
9607.000000;0.821043
9606.000000;0.821065
9605.000000;0.821522
9604.000000;0.822117
9603.000000;0.822398
9602.000000;0.822128
9601.000000;0.821514
9600.000000;0.821032
9599.000000;0.821026
9598.000000;0.821444
9597.000000;0.821946
9596.000000;0.822237
9595.000000;0.822313
9594.000000;0.822396
9593.000000;0.822628
9592.000000;0.822860
9591.000000;0.822801
9590.000000;0.822375
9589.000000;0.821816
9588.000000;0.821357
9587.000000;0.820945
9586.000000;0.820426
9585.000000;0.819943
9584.000000;0.819927
9583.000000;0.820578
9582.000000;0.821518
9581.000000;0.822084
9580.000000;0.821952
9579.000000;0.821337
9578.000000;0.820645
9577.000000;0.820104
9576.000000;0.819789
9575.000000;0.819821
9574.000000;0.820323
9573.000000;0.821143
9572.000000;0.821793
9571.000000;0.821814
9570.000000;0.821236
9569.000000;0.820588
9568.000000;0.820398
9567.000000;0.820689
9566.000000;0.821006
9565.000000;0.820898
9564.000000;0.820332
9563.000000;0.819681
9562.000000;0.819359
9561.000000;0.819499
9560.000000;0.819873
9559.000000;0.820095
9558.000000;0.819951
9557.000000;0.819572
9556.000000;0.819276
9555.000000;0.819226
9554.000000;0.819284
9553.000000;0.819206
9552.000000;0.818889
9551.000000;0.818427
9550.000000;0.817994
9549.000000;0.817761
9548.000000;0.817860
9547.000000;0.818290
9546.000000;0.818837
9545.000000;0.819174
9544.000000;0.819088
9543.000000;0.818633
9542.000000;0.818090
9541.000000;0.817783
9540.000000;0.817881
9539.000000;0.818272
9538.000000;0.818618
9537.000000;0.818620
9536.000000;0.818257
9535.000000;0.817754
9534.000000;0.817343
9533.000000;0.817100
9532.000000;0.817009
9531.000000;0.817052
9530.000000;0.817193
9529.000000;0.817335
9528.000000;0.817411
9527.000000;0.817469
9526.000000;0.817592
9525.000000;0.817724
9524.000000;0.817676
9523.000000;0.817362
9522.000000;0.816957
9521.000000;0.816732
9520.000000;0.816721
9519.000000;0.816662
9518.000000;0.816305
9517.000000;0.815743
9516.000000;0.815351
9515.000000;0.815402
9514.000000;0.815779
9513.000000;0.816086
9512.000000;0.815999
9511.000000;0.815538
9510.000000;0.815023
9509.000000;0.814778
9508.000000;0.814845
9507.000000;0.814993
9506.000000;0.815009
9505.000000;0.814952
9504.000000;0.815023
9503.000000;0.815251
9502.000000;0.815434
9501.000000;0.815426
9500.000000;0.815327
9499.000000;0.815302
9498.000000;0.815343
9497.000000;0.815343
9496.000000;0.815318
9495.000000;0.815384
9494.000000;0.815507
9493.000000;0.815475
9492.000000;0.815185
9491.000000;0.814834
9490.000000;0.814714
9489.000000;0.814884
9488.000000;0.815105
9487.000000;0.815081
9486.000000;0.814727
9485.000000;0.814220
9484.000000;0.813805
9483.000000;0.813567
9482.000000;0.813390
9481.000000;0.813155
9480.000000;0.812917
9479.000000;0.812829
9478.000000;0.812911
9477.000000;0.813036
9476.000000;0.813137
9475.000000;0.813307
9474.000000;0.813620
9473.000000;0.813981
9472.000000;0.814210
9471.000000;0.814216
9470.000000;0.813991
9469.000000;0.813558
9468.000000;0.813060
9467.000000;0.812775
9466.000000;0.812875
9465.000000;0.813162
9464.000000;0.813228
9463.000000;0.812906
9462.000000;0.812408
9461.000000;0.812000
9460.000000;0.811728
9459.000000;0.811558
9458.000000;0.811591
9457.000000;0.811954
9456.000000;0.812524
9455.000000;0.812979
9454.000000;0.813124
9453.000000;0.813054
9452.000000;0.812982
9451.000000;0.813009
9450.000000;0.813087
9449.000000;0.813101
9448.000000;0.812942
9447.000000;0.812595
9446.000000;0.812203
9445.000000;0.811970
9444.000000;0.811953
9443.000000;0.811997
9442.000000;0.811939
9441.000000;0.811813
9440.000000;0.811808
9439.000000;0.812046
9438.000000;0.812439
9437.000000;0.812749
9436.000000;0.812725
9435.000000;0.812256
9434.000000;0.811452
9433.000000;0.810616
9432.000000;0.810059
9431.000000;0.809930
9430.000000;0.810211
9429.000000;0.810760
9428.000000;0.811318
9427.000000;0.811536
9426.000000;0.811219
9425.000000;0.810573
9424.000000;0.810082
9423.000000;0.810040
9422.000000;0.810300
9421.000000;0.810552
9420.000000;0.810729
9419.000000;0.810980
9418.000000;0.811275
9417.000000;0.811277
9416.000000;0.810713
9415.000000;0.809748
9414.000000;0.808844
9413.000000;0.808327
9412.000000;0.808200
9411.000000;0.808334
9410.000000;0.808665
9409.000000;0.809149
9408.000000;0.809643
9407.000000;0.809940
9406.000000;0.809906
9405.000000;0.809569
9404.000000;0.809120
9403.000000;0.808846
9402.000000;0.808966
9401.000000;0.809435
9400.000000;0.809902
9399.000000;0.809980
9398.000000;0.809591
9397.000000;0.809021
9396.000000;0.808625
9395.000000;0.808512
9394.000000;0.808524
9393.000000;0.808467
9392.000000;0.808325
9391.000000;0.808247
9390.000000;0.808344
9389.000000;0.808539
9388.000000;0.808625
9387.000000;0.808486
9386.000000;0.808186
9385.000000;0.807844
9384.000000;0.807492
9383.000000;0.807128
9382.000000;0.806856
9381.000000;0.806829
9380.000000;0.807046
9379.000000;0.807310
9378.000000;0.807462
9377.000000;0.807563
9376.000000;0.807767
9375.000000;0.808069
9374.000000;0.808268
9373.000000;0.808202
9372.000000;0.807938
9371.000000;0.807691
9370.000000;0.807576
9369.000000;0.807491
9368.000000;0.807270
9367.000000;0.806931
9366.000000;0.806689
9365.000000;0.806694
9364.000000;0.806819
9363.000000;0.806798
9362.000000;0.806553
9361.000000;0.806270
9360.000000;0.806145
9359.000000;0.806149
9358.000000;0.806111
9357.000000;0.805945
9356.000000;0.805721
9355.000000;0.805573
9354.000000;0.805582
9353.000000;0.805734
9352.000000;0.805960
9351.000000;0.806204
9350.000000;0.806429
9349.000000;0.806539
9348.000000;0.806343
9347.000000;0.805747
9346.000000;0.804959
9345.000000;0.804372
9344.000000;0.804189
9343.000000;0.804253
9342.000000;0.804315
9341.000000;0.804298
9340.000000;0.804253
9339.000000;0.804211
9338.000000;0.804241
9337.000000;0.804490
9336.000000;0.804970
9335.000000;0.805388
9334.000000;0.805405
9333.000000;0.805035
9332.000000;0.804576
9331.000000;0.804201
9330.000000;0.803837
9329.000000;0.803459
9328.000000;0.803217
9327.000000;0.803186
9326.000000;0.803228
9325.000000;0.803240
9324.000000;0.803363
9323.000000;0.803737
9322.000000;0.804186
9321.000000;0.804365
9320.000000;0.804178
9319.000000;0.803892
9318.000000;0.803804
9317.000000;0.803935
9316.000000;0.804060
9315.000000;0.803939
9314.000000;0.803519
9313.000000;0.802993
9312.000000;0.802675
9311.000000;0.802734
9310.000000;0.803015
9309.000000;0.803183
9308.000000;0.803079
9307.000000;0.802868
9306.000000;0.802804
9305.000000;0.802925
9304.000000;0.803041
9303.000000;0.802996
9302.000000;0.802835
9301.000000;0.802702
9300.000000;0.802653
9299.000000;0.802624
9298.000000;0.802547
9297.000000;0.802418
9296.000000;0.802278
9295.000000;0.802161
9294.000000;0.802092
9293.000000;0.802057
9292.000000;0.801969
9291.000000;0.801727
9290.000000;0.801337
9289.000000;0.800924
9288.000000;0.800627
9287.000000;0.800532
9286.000000;0.800700
9285.000000;0.801118
9284.000000;0.801591
9283.000000;0.801807
9282.000000;0.801658
9281.000000;0.801403
9280.000000;0.801376
9279.000000;0.801610
9278.000000;0.801868
9277.000000;0.801992
9276.000000;0.802021
9275.000000;0.802022
9274.000000;0.801990
9273.000000;0.801937
9272.000000;0.801876
9271.000000;0.801688
9270.000000;0.801225
9269.000000;0.800609
9268.000000;0.800213
9267.000000;0.800219
9266.000000;0.800359
9265.000000;0.800280
9264.000000;0.800025
9263.000000;0.799916
9262.000000;0.800050
9261.000000;0.800140
9260.000000;0.799906
9259.000000;0.799432
9258.000000;0.799046
9257.000000;0.798949
9256.000000;0.799065
9255.000000;0.799199
9254.000000;0.799235
9253.000000;0.799196
9252.000000;0.799170
9251.000000;0.799222
9250.000000;0.799348
9249.000000;0.799493
9248.000000;0.799597
9247.000000;0.799654
9246.000000;0.799728
9245.000000;0.799887
9244.000000;0.800074
9243.000000;0.800102
9242.000000;0.799831
9241.000000;0.799365
9240.000000;0.798977
9239.000000;0.798843
9238.000000;0.798881
9237.000000;0.798867
9236.000000;0.798646
9235.000000;0.798238
9234.000000;0.797793
9233.000000;0.797463
9232.000000;0.797291
9231.000000;0.797235
9230.000000;0.797308
9229.000000;0.797612
9228.000000;0.798127
9227.000000;0.798556
9226.000000;0.798569
9225.000000;0.798189
9224.000000;0.797765
9223.000000;0.797523
9222.000000;0.797362
9221.000000;0.797146
9220.000000;0.796977
9219.000000;0.797008
9218.000000;0.797142
9217.000000;0.797130
9216.000000;0.796911
9215.000000;0.796695
9214.000000;0.796704
9213.000000;0.796970
9212.000000;0.797320
9211.000000;0.797481
9210.000000;0.797253
9209.000000;0.796707
9208.000000;0.796177
9207.000000;0.795953
9206.000000;0.796002
9205.000000;0.796092
9204.000000;0.796111
9203.000000;0.796126
9202.000000;0.796178
9201.000000;0.796215
9200.000000;0.796232
9199.000000;0.796320
9198.000000;0.796496
9197.000000;0.796615
9196.000000;0.796518
9195.000000;0.796215
9194.000000;0.795865
9193.000000;0.795647
9192.000000;0.795653
9191.000000;0.795824
9190.000000;0.795986
9189.000000;0.796003
9188.000000;0.795924
9187.000000;0.795891
9186.000000;0.795915
9185.000000;0.795849
9184.000000;0.795607
9183.000000;0.795282
9182.000000;0.794999
9181.000000;0.794772
9180.000000;0.794579
9179.000000;0.794478
9178.000000;0.794527
9177.000000;0.794649
9176.000000;0.794701
9175.000000;0.794676
9174.000000;0.794700
9173.000000;0.794810
9172.000000;0.794850
9171.000000;0.794680
9170.000000;0.794420
9169.000000;0.794360
9168.000000;0.794611
9167.000000;0.794933
9166.000000;0.794995
9165.000000;0.794726
9164.000000;0.794317
9163.000000;0.793948
9162.000000;0.793642
9161.000000;0.793391
9160.000000;0.793266
9159.000000;0.793310
9158.000000;0.793434
9157.000000;0.793498
9156.000000;0.793434
9155.000000;0.793224
9154.000000;0.792864
9153.000000;0.792446
9152.000000;0.792187
9151.000000;0.792216
9150.000000;0.792378
9149.000000;0.792417
9148.000000;0.792337
9147.000000;0.792405
9146.000000;0.792755
9145.000000;0.793168
9144.000000;0.793330
9143.000000;0.793179
9142.000000;0.792906
9141.000000;0.792679
9140.000000;0.792506
9139.000000;0.792361
9138.000000;0.792311
9137.000000;0.792483
9136.000000;0.792915
9135.000000;0.793443
9134.000000;0.793789
9133.000000;0.793774
9132.000000;0.793466
9131.000000;0.793053
9130.000000;0.792643
9129.000000;0.792260
9128.000000;0.792029
9127.000000;0.792169
9126.000000;0.792716
9125.000000;0.793347
9124.000000;0.793629
9123.000000;0.793424
9122.000000;0.792975
9121.000000;0.792614
9120.000000;0.792464
9119.000000;0.792404
9118.000000;0.792230
9117.000000;0.791850
9116.000000;0.791385
9115.000000;0.791106
9114.000000;0.791192
9113.000000;0.791524
9112.000000;0.791777
9111.000000;0.791756
9110.000000;0.791586
9109.000000;0.791510
9108.000000;0.791565
9107.000000;0.791531
9106.000000;0.791216
9105.000000;0.790697
9104.000000;0.790236
9103.000000;0.790004
9102.000000;0.789948
9101.000000;0.789913
9100.000000;0.789814
9099.000000;0.789679
9098.000000;0.789587
9097.000000;0.789605
9096.000000;0.789742
9095.000000;0.789926
9094.000000;0.790029
9093.000000;0.789960
9092.000000;0.789756
9091.000000;0.789561
9090.000000;0.789511
9089.000000;0.789638
9088.000000;0.789870
9087.000000;0.790112
9086.000000;0.790314
9085.000000;0.790455
9084.000000;0.790475
9083.000000;0.790272
9082.000000;0.789832
9081.000000;0.789337
9080.000000;0.789061
9079.000000;0.789096
9078.000000;0.789253
9077.000000;0.789261
9076.000000;0.789044
9075.000000;0.788756
9074.000000;0.788594
9073.000000;0.788617
9072.000000;0.788712
9071.000000;0.788674
9070.000000;0.788363
9069.000000;0.787853
9068.000000;0.787420
9067.000000;0.787330
9066.000000;0.787620
9065.000000;0.788102
9064.000000;0.788552
9063.000000;0.788845
9062.000000;0.788947
9061.000000;0.788870
9060.000000;0.788647
9059.000000;0.788321
9058.000000;0.787942
9057.000000;0.787604
9056.000000;0.787434
9055.000000;0.787474
9054.000000;0.787605
9053.000000;0.787654
