Criado como novo conjunto de dados;"2706_e01_daniel.spp","26823.4 Secs"
cm-1;Abs
10000.000000;0.803977
9999.000000;0.803365
9998.000000;0.802755
9997.000000;0.802140
9996.000000;0.801606
9995.000000;0.801372
9994.000000;0.801300
9993.000000;0.801054
9992.000000;0.800651
9991.000000;0.800460
9990.000000;0.800716
9989.000000;0.801199
9988.000000;0.801546
9987.000000;0.801672
9986.000000;0.801725
9985.000000;0.801764
9984.000000;0.801710
9983.000000;0.801553
9982.000000;0.801407
9981.000000;0.801350
9980.000000;0.801351
9979.000000;0.801320
9978.000000;0.801133
9977.000000;0.800657
9976.000000;0.799888
9975.000000;0.799090
9974.000000;0.798664
9973.000000;0.798824
9972.000000;0.799402
9971.000000;0.799964
9970.000000;0.800149
9969.000000;0.799957
9968.000000;0.799683
9967.000000;0.799508
9966.000000;0.799252
9965.000000;0.798702
9964.000000;0.798094
9963.000000;0.797960
9962.000000;0.798482
9961.000000;0.799262
9960.000000;0.799800
9959.000000;0.799903
9958.000000;0.799573
9957.000000;0.798861
9956.000000;0.798084
9955.000000;0.797809
9954.000000;0.798260
9953.000000;0.798966
9952.000000;0.799307
9951.000000;0.799233
9950.000000;0.799088
9949.000000;0.798926
9948.000000;0.798486
9947.000000;0.797810
9946.000000;0.797406
9945.000000;0.797632
9944.000000;0.798213
9943.000000;0.798524
9942.000000;0.798215
9941.000000;0.797465
9940.000000;0.796742
9939.000000;0.796372
9938.000000;0.796284
9937.000000;0.796142
9936.000000;0.795774
9935.000000;0.795366
9934.000000;0.795169
9933.000000;0.795181
9932.000000;0.795291
9931.000000;0.795565
9930.000000;0.796098
9929.000000;0.796669
9928.000000;0.796881
9927.000000;0.796670
9926.000000;0.796407
9925.000000;0.796412
9924.000000;0.796592
9923.000000;0.796663
9922.000000;0.796530
9921.000000;0.796318
9920.000000;0.796152
9919.000000;0.796074
9918.000000;0.796102
9917.000000;0.796206
9916.000000;0.796238
9915.000000;0.795999
9914.000000;0.795469
9913.000000;0.794916
9912.000000;0.794681
9911.000000;0.794830
9910.000000;0.795046
9909.000000;0.794927
9908.000000;0.794345
9907.000000;0.793497
9906.000000;0.792706
9905.000000;0.792278
9904.000000;0.792414
9903.000000;0.793029
9902.000000;0.793639
9901.000000;0.793703
9900.000000;0.793169
9899.000000;0.792527
9898.000000;0.792257
9897.000000;0.792416
9896.000000;0.792768
9895.000000;0.793051
9894.000000;0.793025
9893.000000;0.792555
9892.000000;0.791853
9891.000000;0.791426
9890.000000;0.791566
9889.000000;0.792011
9888.000000;0.792284
9887.000000;0.792219
9886.000000;0.791950
9885.000000;0.791588
9884.000000;0.791171
9883.000000;0.790810
9882.000000;0.790613
9881.000000;0.790557
9880.000000;0.790616
9879.000000;0.790902
9878.000000;0.791423
9877.000000;0.791825
9876.000000;0.791680
9875.000000;0.791025
9874.000000;0.790329
9873.000000;0.789958
9872.000000;0.789895
9871.000000;0.789986
9870.000000;0.790191
9869.000000;0.790521
9868.000000;0.790921
9867.000000;0.791324
9866.000000;0.791713
9865.000000;0.792054
9864.000000;0.792230
9863.000000;0.792067
9862.000000;0.791439
9861.000000;0.790449
9860.000000;0.789507
9859.000000;0.789077
9858.000000;0.789211
9857.000000;0.789457
9856.000000;0.789370
9855.000000;0.788989
9854.000000;0.788670
9853.000000;0.788620
9852.000000;0.788801
9851.000000;0.789081
9850.000000;0.789265
9849.000000;0.789122
9848.000000;0.788643
9847.000000;0.788186
9846.000000;0.788086
9845.000000;0.788219
9844.000000;0.788226
9843.000000;0.788058
9842.000000;0.787985
9841.000000;0.788105
9840.000000;0.788214
9839.000000;0.788186
9838.000000;0.788129
9837.000000;0.788089
9836.000000;0.787930
9835.000000;0.787654
9834.000000;0.787548
9833.000000;0.787795
9832.000000;0.788147
9831.000000;0.788203
9830.000000;0.787889
9829.000000;0.787484
9828.000000;0.787249
9827.000000;0.787183
9826.000000;0.787132
9825.000000;0.787032
9824.000000;0.786995
9823.000000;0.787157
9822.000000;0.787439
9821.000000;0.787548
9820.000000;0.787298
9819.000000;0.786835
9818.000000;0.786422
9817.000000;0.786100
9816.000000;0.785732
9815.000000;0.785323
9814.000000;0.785088
9813.000000;0.785154
9812.000000;0.785415
9811.000000;0.785688
9810.000000;0.785865
9809.000000;0.785896
9808.000000;0.785814
9807.000000;0.785797
9806.000000;0.786030
9805.000000;0.786432
9804.000000;0.786684
9803.000000;0.786604
9802.000000;0.786326
9801.000000;0.786068
9800.000000;0.785884
9799.000000;0.785719
9798.000000;0.785537
9797.000000;0.785304
9796.000000;0.784983
9795.000000;0.784635
9794.000000;0.784385
9793.000000;0.784216
9792.000000;0.783966
9791.000000;0.783588
9790.000000;0.783251
9789.000000;0.783081
9788.000000;0.782974
9787.000000;0.782835
9786.000000;0.782836
9785.000000;0.783208
9784.000000;0.783856
9783.000000;0.784376
9782.000000;0.784481
9781.000000;0.784243
9780.000000;0.783930
9779.000000;0.783722
9778.000000;0.783592
9777.000000;0.783370
9776.000000;0.782909
9775.000000;0.782279
9774.000000;0.781773
9773.000000;0.781629
9772.000000;0.781773
9771.000000;0.781912
9770.000000;0.781900
9769.000000;0.781872
9768.000000;0.781991
9767.000000;0.782174
9766.000000;0.782193
9765.000000;0.781980
9764.000000;0.781724
9763.000000;0.781650
9762.000000;0.781765
9761.000000;0.781849
9760.000000;0.781663
9759.000000;0.781135
9758.000000;0.780410
9757.000000;0.779750
9756.000000;0.779345
9755.000000;0.779166
9754.000000;0.779033
9753.000000;0.778883
9752.000000;0.778910
9751.000000;0.779334
9750.000000;0.780037
9749.000000;0.780583
9748.000000;0.780655
9747.000000;0.780366
9746.000000;0.780021
9745.000000;0.779732
9744.000000;0.779406
9743.000000;0.779032
9742.000000;0.778764
9741.000000;0.778702
9740.000000;0.778792
9739.000000;0.778973
9738.000000;0.779290
9737.000000;0.779743
9736.000000;0.780168
9735.000000;0.780375
9734.000000;0.780340
9733.000000;0.780161
9732.000000;0.779888
9731.000000;0.779536
9730.000000;0.779185
9729.000000;0.778951
9728.000000;0.778855
9727.000000;0.778819
9726.000000;0.778794
9725.000000;0.778786
9724.000000;0.778756
9723.000000;0.778621
9722.000000;0.778425
9721.000000;0.778370
9720.000000;0.778567
9719.000000;0.778820
9718.000000;0.778798
9717.000000;0.778399
9716.000000;0.777842
9715.000000;0.777372
9714.000000;0.776996
9713.000000;0.776570
9712.000000;0.776085
9711.000000;0.775770
9710.000000;0.775891
9709.000000;0.776481
9708.000000;0.777219
9707.000000;0.777614
9706.000000;0.777394
9705.000000;0.776772
9704.000000;0.776262
9703.000000;0.776175
9702.000000;0.776350
9701.000000;0.776433
9700.000000;0.776331
9699.000000;0.776242
9698.000000;0.776281
9697.000000;0.776275
9696.000000;0.776006
9695.000000;0.775523
9694.000000;0.775098
9693.000000;0.774906
9692.000000;0.774889
9691.000000;0.774905
9690.000000;0.774920
9689.000000;0.774965
9688.000000;0.774996
9687.000000;0.774901
9686.000000;0.774687
9685.000000;0.774552
9684.000000;0.774656
9683.000000;0.774895
9682.000000;0.775018
9681.000000;0.774980
9680.000000;0.775007
9679.000000;0.775270
9678.000000;0.775631
9677.000000;0.775837
9676.000000;0.775829
9675.000000;0.775699
9674.000000;0.775462
9673.000000;0.775052
9672.000000;0.774526
9671.000000;0.774061
9670.000000;0.773741
9669.000000;0.773522
9668.000000;0.773402
9667.000000;0.773451
9666.000000;0.773611
9665.000000;0.773664
9664.000000;0.773484
9663.000000;0.773199
9662.000000;0.773021
9661.000000;0.773004
9660.000000;0.773077
9659.000000;0.773224
9658.000000;0.773496
9657.000000;0.773887
9656.000000;0.774264
9655.000000;0.774418
9654.000000;0.774184
9653.000000;0.773604
9652.000000;0.772995
9651.000000;0.772752
9650.000000;0.772989
9649.000000;0.773404
9648.000000;0.773552
9647.000000;0.773228
9646.000000;0.772578
9645.000000;0.771903
9644.000000;0.771437
9643.000000;0.771251
9642.000000;0.771298
9641.000000;0.771497
9640.000000;0.771778
9639.000000;0.772060
9638.000000;0.772217
9637.000000;0.772145
9636.000000;0.771872
9635.000000;0.771541
9634.000000;0.771292
9633.000000;0.771186
9632.000000;0.771219
9631.000000;0.771337
9630.000000;0.771411
9629.000000;0.771289
9628.000000;0.770927
9627.000000;0.770444
9626.000000;0.770071
9625.000000;0.770026
9624.000000;0.770400
9623.000000;0.771037
9622.000000;0.771577
9621.000000;0.771720
9620.000000;0.771486
9619.000000;0.771133
9618.000000;0.770838
9617.000000;0.770570
9616.000000;0.770273
9615.000000;0.770045
9614.000000;0.770037
9613.000000;0.770266
9612.000000;0.770563
9611.000000;0.770692
9610.000000;0.770505
9609.000000;0.770039
9608.000000;0.769475
9607.000000;0.768972
9606.000000;0.768581
9605.000000;0.768338
9604.000000;0.768311
9603.000000;0.768460
9602.000000;0.768538
9601.000000;0.768347
9600.000000;0.768055
9599.000000;0.768023
9598.000000;0.768316
9597.000000;0.768605
9596.000000;0.768608
9595.000000;0.768405
9594.000000;0.768230
9593.000000;0.768176
9592.000000;0.768251
9591.000000;0.768528
9590.000000;0.769008
9589.000000;0.769438
9588.000000;0.769496
9587.000000;0.769169
9586.000000;0.768770
9585.000000;0.768589
9584.000000;0.768627
9583.000000;0.768663
9582.000000;0.768506
9581.000000;0.768180
9580.000000;0.767905
9579.000000;0.767881
9578.000000;0.768073
9577.000000;0.768256
9576.000000;0.768299
9575.000000;0.768313
9574.000000;0.768439
9573.000000;0.768568
9572.000000;0.768400
9571.000000;0.767806
9570.000000;0.767047
9569.000000;0.766585
9568.000000;0.766662
9567.000000;0.767063
9566.000000;0.767315
9565.000000;0.767147
9564.000000;0.766735
9563.000000;0.766436
9562.000000;0.766360
9561.000000;0.766325
9560.000000;0.766183
9559.000000;0.766024
9558.000000;0.765981
9557.000000;0.766006
9556.000000;0.765944
9555.000000;0.765750
9554.000000;0.765505
9553.000000;0.765306
9552.000000;0.765227
9551.000000;0.765342
9550.000000;0.765668
9549.000000;0.766095
9548.000000;0.766416
9547.000000;0.766465
9546.000000;0.766202
9545.000000;0.765742
9544.000000;0.765304
9543.000000;0.765076
9542.000000;0.765068
9541.000000;0.765108
9540.000000;0.765012
9539.000000;0.764729
9538.000000;0.764345
9537.000000;0.764025
9536.000000;0.763930
9535.000000;0.764080
9534.000000;0.764256
9533.000000;0.764155
9532.000000;0.763726
9531.000000;0.763257
9530.000000;0.763079
9529.000000;0.763224
9528.000000;0.763433
9527.000000;0.763447
9526.000000;0.763245
9525.000000;0.763011
9524.000000;0.762916
9523.000000;0.762933
9522.000000;0.762880
9521.000000;0.762685
9520.000000;0.762522
9519.000000;0.762586
9518.000000;0.762789
9517.000000;0.762831
9516.000000;0.762585
9515.000000;0.762237
9514.000000;0.762004
9513.000000;0.761879
9512.000000;0.761744
9511.000000;0.761585
9510.000000;0.761489
9509.000000;0.761514
9508.000000;0.761668
9507.000000;0.761940
9506.000000;0.762249
9505.000000;0.762431
9504.000000;0.762389
9503.000000;0.762206
9502.000000;0.762053
9501.000000;0.762027
9500.000000;0.762146
9499.000000;0.762415
9498.000000;0.762810
9497.000000;0.763220
9496.000000;0.763482
9495.000000;0.763473
9494.000000;0.763137
9493.000000;0.762496
9492.000000;0.761682
9491.000000;0.760943
9490.000000;0.760527
9489.000000;0.760532
9488.000000;0.760841
9487.000000;0.761183
9486.000000;0.761306
9485.000000;0.761175
9484.000000;0.760990
9483.000000;0.760930
9482.000000;0.760904
9481.000000;0.760671
9480.000000;0.760209
9479.000000;0.759799
9478.000000;0.759683
9477.000000;0.759777
9476.000000;0.759825
9475.000000;0.759723
9474.000000;0.759594
9473.000000;0.759580
9472.000000;0.759683
9471.000000;0.759778
9470.000000;0.759761
9469.000000;0.759651
9468.000000;0.759560
9467.000000;0.759546
9466.000000;0.759541
9465.000000;0.759477
9464.000000;0.759424
9463.000000;0.759483
9462.000000;0.759580
9461.000000;0.759527
9460.000000;0.759285
9459.000000;0.758999
9458.000000;0.758760
9457.000000;0.758508
9456.000000;0.758218
9455.000000;0.757996
9454.000000;0.757883
9453.000000;0.757739
9452.000000;0.757465
9451.000000;0.757220
9450.000000;0.757245
9449.000000;0.757530
9448.000000;0.757812
9447.000000;0.757871
9446.000000;0.757724
9445.000000;0.757527
9444.000000;0.757406
9443.000000;0.757389
9442.000000;0.757462
9441.000000;0.757623
9440.000000;0.757881
9439.000000;0.758166
9438.000000;0.758303
9437.000000;0.758161
9436.000000;0.757819
9435.000000;0.757479
9434.000000;0.757215
9433.000000;0.756920
9432.000000;0.756525
9431.000000;0.756122
9430.000000;0.755840
9429.000000;0.755724
9428.000000;0.755785
9427.000000;0.756028
9426.000000;0.756351
9425.000000;0.756543
9424.000000;0.756482
9423.000000;0.756260
9422.000000;0.756051
9421.000000;0.755941
9420.000000;0.755937
9419.000000;0.755991
9418.000000;0.755956
9417.000000;0.755710
9416.000000;0.755395
9415.000000;0.755366
9414.000000;0.755757
9413.000000;0.756242
9412.000000;0.756388
9411.000000;0.756118
9410.000000;0.755658
9409.000000;0.755199
9408.000000;0.754826
9407.000000;0.754670
9406.000000;0.754811
9405.000000;0.755047
9404.000000;0.755030
9403.000000;0.754699
9402.000000;0.754365
9401.000000;0.754292
9400.000000;0.754378
9399.000000;0.754377
9398.000000;0.754276
9397.000000;0.754295
9396.000000;0.754575
9395.000000;0.755004
9394.000000;0.755329
9393.000000;0.755343
9392.000000;0.754979
9391.000000;0.754348
9390.000000;0.753741
9389.000000;0.753475
9388.000000;0.753638
9387.000000;0.753989
9386.000000;0.754185
9385.000000;0.754117
9384.000000;0.753941
9383.000000;0.753802
9382.000000;0.753654
9381.000000;0.753417
9380.000000;0.753156
9379.000000;0.752980
9378.000000;0.752850
9377.000000;0.752652
9376.000000;0.752431
9375.000000;0.752357
9374.000000;0.752463
9373.000000;0.752581
9372.000000;0.752577
9371.000000;0.752506
9370.000000;0.752494
9369.000000;0.752583
9368.000000;0.752756
9367.000000;0.752961
9366.000000;0.753056
9365.000000;0.752893
9364.000000;0.752526
9363.000000;0.752223
9362.000000;0.752161
9361.000000;0.752216
9360.000000;0.752153
9359.000000;0.751948
9358.000000;0.751776
9357.000000;0.751750
9356.000000;0.751782
9355.000000;0.751694
9354.000000;0.751395
9353.000000;0.750971
9352.000000;0.750624
9351.000000;0.750510
9350.000000;0.750611
9349.000000;0.750787
9348.000000;0.750939
9347.000000;0.751036
9346.000000;0.751024
9345.000000;0.750829
9344.000000;0.750486
9343.000000;0.750136
9342.000000;0.749867
9341.000000;0.749685
9340.000000;0.749645
9339.000000;0.749849
9338.000000;0.750242
9337.000000;0.750594
9336.000000;0.750767
9335.000000;0.750854
9334.000000;0.750959
9333.000000;0.750988
9332.000000;0.750808
9331.000000;0.750466
9330.000000;0.750096
9329.000000;0.749723
9328.000000;0.749320
9327.000000;0.748970
9326.000000;0.748796
9325.000000;0.748800
9324.000000;0.748886
9323.000000;0.749018
9322.000000;0.749206
9321.000000;0.749402
9320.000000;0.749542
9319.000000;0.749660
9318.000000;0.749810
9317.000000;0.749916
9316.000000;0.749846
9315.000000;0.749582
9314.000000;0.749223
9313.000000;0.748814
9312.000000;0.748347
9311.000000;0.747905
9310.000000;0.747680
9309.000000;0.747791
9308.000000;0.748176
9307.000000;0.748674
9306.000000;0.749129
9305.000000;0.749408
9304.000000;0.749419
9303.000000;0.749177
9302.000000;0.748783
9301.000000;0.748343
9300.000000;0.747928
9299.000000;0.747593
9298.000000;0.747388
9297.000000;0.747316
9296.000000;0.747343
9295.000000;0.747421
9294.000000;0.747485
9293.000000;0.747479
9292.000000;0.747419
9291.000000;0.747408
9290.000000;0.747525
9289.000000;0.747713
9288.000000;0.747839
9287.000000;0.747826
9286.000000;0.747701
9285.000000;0.747546
9284.000000;0.747436
9283.000000;0.747376
9282.000000;0.747262
9281.000000;0.746948
9280.000000;0.746439
9279.000000;0.745961
9278.000000;0.745773
9277.000000;0.745926
9276.000000;0.746251
9275.000000;0.746543
9274.000000;0.746698
9273.000000;0.746699
9272.000000;0.746554
9271.000000;0.746293
9270.000000;0.745989
9269.000000;0.745757
9268.000000;0.745688
9267.000000;0.745748
9266.000000;0.745788
9265.000000;0.745722
9264.000000;0.745658
9263.000000;0.745717
9262.000000;0.745785
9261.000000;0.745610
9260.000000;0.745204
9259.000000;0.744915
9258.000000;0.744993
9257.000000;0.745249
9256.000000;0.745308
9255.000000;0.745056
9254.000000;0.744658
9253.000000;0.744249
9252.000000;0.743831
9251.000000;0.743453
9250.000000;0.743252
9249.000000;0.743291
9248.000000;0.743489
9247.000000;0.743745
9246.000000;0.744006
9245.000000;0.744201
9244.000000;0.744251
9243.000000;0.744191
9242.000000;0.744167
9241.000000;0.744269
9240.000000;0.744446
9239.000000;0.744602
9238.000000;0.744680
9237.000000;0.744614
9236.000000;0.744329
9235.000000;0.743868
9234.000000;0.743438
9233.000000;0.743235
9232.000000;0.743268
9231.000000;0.743410
9230.000000;0.743562
9229.000000;0.743699
9228.000000;0.743768
9227.000000;0.743666
9226.000000;0.743365
9225.000000;0.743002
9224.000000;0.742780
9223.000000;0.742757
9222.000000;0.742761
9221.000000;0.742548
9220.000000;0.742051
9219.000000;0.741463
9218.000000;0.741090
9217.000000;0.741117
9216.000000;0.741494
9215.000000;0.741985
9214.000000;0.742322
9213.000000;0.742376
9212.000000;0.742227
9211.000000;0.742075
9210.000000;0.742076
9209.000000;0.742240
9208.000000;0.742463
9207.000000;0.742609
9206.000000;0.742565
9205.000000;0.742287
9204.000000;0.741850
9203.000000;0.741424
9202.000000;0.741176
9201.000000;0.741141
9200.000000;0.741186
9199.000000;0.741103
9198.000000;0.740798
9197.000000;0.740397
9196.000000;0.740136
9195.000000;0.740108
9194.000000;0.740196
9193.000000;0.740258
9192.000000;0.740304
9191.000000;0.740401
9190.000000;0.740507
9189.000000;0.740510
9188.000000;0.740409
9187.000000;0.740301
9186.000000;0.740235
9185.000000;0.740203
9184.000000;0.740252
9183.000000;0.740425
9182.000000;0.740571
9181.000000;0.740418
9180.000000;0.739936
9179.000000;0.739465
9178.000000;0.739365
9177.000000;0.739656
9176.000000;0.740071
9175.000000;0.740367
9174.000000;0.740453
9173.000000;0.740316
9172.000000;0.740004
9171.000000;0.739658
9170.000000;0.739436
9169.000000;0.739366
9168.000000;0.739328
9167.000000;0.739192
9166.000000;0.738927
9165.000000;0.738610
9164.000000;0.738361
9163.000000;0.738259
9162.000000;0.738282
9161.000000;0.738354
9160.000000;0.738411
9159.000000;0.738417
9158.000000;0.738329
9157.000000;0.738155
9156.000000;0.738042
9155.000000;0.738164
9154.000000;0.738487
9153.000000;0.738756
9152.000000;0.738755
9151.000000;0.738513
9150.000000;0.738192
9149.000000;0.737903
9148.000000;0.737694
9147.000000;0.737605
9146.000000;0.737617
9145.000000;0.737617
9144.000000;0.737518
9143.000000;0.737367
9142.000000;0.737273
9141.000000;0.737266
9140.000000;0.737287
9139.000000;0.737251
9138.000000;0.737081
9137.000000;0.736762
9136.000000;0.736424
9135.000000;0.736278
9134.000000;0.736376
9133.000000;0.736533
9132.000000;0.736558
9131.000000;0.736482
9130.000000;0.736448
9129.000000;0.736474
9128.000000;0.736465
9127.000000;0.736368
9126.000000;0.736193
9125.000000;0.735926
9124.000000;0.735582
9123.000000;0.735304
9122.000000;0.735258
9121.000000;0.735436
9120.000000;0.735662
9119.000000;0.735803
9118.000000;0.735845
9117.000000;0.735789
9116.000000;0.735607
9115.000000;0.735343
9114.000000;0.735137
9113.000000;0.735091
9112.000000;0.735180
9111.000000;0.735318
9110.000000;0.735436
9109.000000;0.735470
9108.000000;0.735345
9107.000000;0.735040
9106.000000;0.734645
9105.000000;0.734310
9104.000000;0.734142
9103.000000;0.734136
9102.000000;0.734193
9101.000000;0.734220
9100.000000;0.734214
9099.000000;0.734254
9098.000000;0.734375
9097.000000;0.734512
9096.000000;0.734568
9095.000000;0.734525
9094.000000;0.734439
9093.000000;0.734363
9092.000000;0.734321
9091.000000;0.734309
9090.000000;0.734274
9089.000000;0.734122
9088.000000;0.733812
9087.000000;0.733431
9086.000000;0.733133
9085.000000;0.733010
9084.000000;0.733012
9083.000000;0.732999
9082.000000;0.732859
9081.000000;0.732615
9080.000000;0.732438
9079.000000;0.732483
9078.000000;0.732719
9077.000000;0.732981
9076.000000;0.733170
9075.000000;0.733318
9074.000000;0.733429
9073.000000;0.733395
9072.000000;0.733145
9071.000000;0.732784
9070.000000;0.732477
9069.000000;0.732302
9068.000000;0.732265
9067.000000;0.732376
9066.000000;0.732582
9065.000000;0.732731
9064.000000;0.732726
9063.000000;0.732645
9062.000000;0.732601
9061.000000;0.732558
9060.000000;0.732419
9059.000000;0.732216
9058.000000;0.732039
9057.000000;0.731843
9056.000000;0.731525
9055.000000;0.731176
9054.000000;0.731021
9053.000000;0.731075
