Criado como novo conjunto de dados;"2706_e01_daniel.spp","12602.9 Secs"
cm-1;Abs
10000.000000;0.770606
9999.000000;0.770127
9998.000000;0.769648
9997.000000;0.769170
9996.000000;0.768692
9995.000000;0.768215
9994.000000;0.767738
9993.000000;0.767263
9992.000000;0.766782
9991.000000;0.766596
9990.000000;0.766908
9989.000000;0.767399
9988.000000;0.767596
9987.000000;0.767385
9986.000000;0.766988
9985.000000;0.766555
9984.000000;0.766064
9983.000000;0.765560
9982.000000;0.765226
9981.000000;0.765162
9980.000000;0.765265
9979.000000;0.765370
9978.000000;0.765374
9977.000000;0.765228
9976.000000;0.764928
9975.000000;0.764561
9974.000000;0.764301
9973.000000;0.764298
9972.000000;0.764551
9971.000000;0.764837
9970.000000;0.764818
9969.000000;0.764356
9968.000000;0.763717
9967.000000;0.763310
9966.000000;0.763209
9965.000000;0.763132
9964.000000;0.762948
9963.000000;0.762922
9962.000000;0.763323
9961.000000;0.763978
9960.000000;0.764472
9959.000000;0.764646
9958.000000;0.764685
9957.000000;0.764811
9956.000000;0.765041
9955.000000;0.765216
9954.000000;0.765140
9953.000000;0.764745
9952.000000;0.764223
9951.000000;0.763909
9950.000000;0.763952
9949.000000;0.764198
9948.000000;0.764444
9947.000000;0.764651
9946.000000;0.764780
9945.000000;0.764657
9944.000000;0.764201
9943.000000;0.763637
9942.000000;0.763252
9941.000000;0.763030
9940.000000;0.762746
9939.000000;0.762348
9938.000000;0.762063
9937.000000;0.762103
9936.000000;0.762405
9935.000000;0.762688
9934.000000;0.762709
9933.000000;0.762502
9932.000000;0.762372
9931.000000;0.762558
9930.000000;0.762876
9929.000000;0.762860
9928.000000;0.762337
9927.000000;0.761706
9926.000000;0.761507
9925.000000;0.761850
9924.000000;0.762372
9923.000000;0.762646
9922.000000;0.762478
9921.000000;0.761926
9920.000000;0.761242
9919.000000;0.760761
9918.000000;0.760695
9917.000000;0.760973
9916.000000;0.761298
9915.000000;0.761335
9914.000000;0.760910
9913.000000;0.760192
9912.000000;0.759699
9911.000000;0.759897
9910.000000;0.760681
9909.000000;0.761396
9908.000000;0.761492
9907.000000;0.761041
9906.000000;0.760520
9905.000000;0.760237
9904.000000;0.760131
9903.000000;0.759984
9902.000000;0.759651
9901.000000;0.759157
9900.000000;0.758686
9899.000000;0.758448
9898.000000;0.758478
9897.000000;0.758637
9896.000000;0.758845
9895.000000;0.759186
9894.000000;0.759723
9893.000000;0.760324
9892.000000;0.760735
9891.000000;0.760746
9890.000000;0.760254
9889.000000;0.759388
9888.000000;0.758597
9887.000000;0.758374
9886.000000;0.758717
9885.000000;0.759051
9884.000000;0.758852
9883.000000;0.758205
9882.000000;0.757589
9881.000000;0.757269
9880.000000;0.757119
9879.000000;0.756923
9878.000000;0.756627
9877.000000;0.756325
9876.000000;0.756164
9875.000000;0.756243
9874.000000;0.756502
9873.000000;0.756740
9872.000000;0.756827
9871.000000;0.756835
9870.000000;0.756855
9869.000000;0.756810
9868.000000;0.756561
9867.000000;0.756160
9866.000000;0.755842
9865.000000;0.755788
9864.000000;0.755934
9863.000000;0.756032
9862.000000;0.755896
9861.000000;0.755629
9860.000000;0.755583
9859.000000;0.755964
9858.000000;0.756519
9857.000000;0.756750
9856.000000;0.756465
9855.000000;0.755948
9854.000000;0.755564
9853.000000;0.755418
9852.000000;0.755423
9851.000000;0.755465
9850.000000;0.755403
9849.000000;0.755128
9848.000000;0.754769
9847.000000;0.754640
9846.000000;0.754827
9845.000000;0.755020
9844.000000;0.754936
9843.000000;0.754744
9842.000000;0.754828
9841.000000;0.755239
9840.000000;0.755620
9839.000000;0.755653
9838.000000;0.755359
9837.000000;0.754959
9836.000000;0.754598
9835.000000;0.754294
9834.000000;0.754062
9833.000000;0.754004
9832.000000;0.754227
9831.000000;0.754641
9830.000000;0.754902
9829.000000;0.754694
9828.000000;0.754086
9827.000000;0.753500
9826.000000;0.753303
9825.000000;0.753512
9824.000000;0.753886
9823.000000;0.754150
9822.000000;0.754110
9821.000000;0.753733
9820.000000;0.753212
9819.000000;0.752814
9818.000000;0.752610
9817.000000;0.752460
9816.000000;0.752291
9815.000000;0.752194
9814.000000;0.752192
9813.000000;0.752105
9812.000000;0.751798
9811.000000;0.751436
9810.000000;0.751322
9809.000000;0.751558
9808.000000;0.751975
9807.000000;0.752329
9806.000000;0.752468
9805.000000;0.752354
9804.000000;0.752005
9803.000000;0.751461
9802.000000;0.750836
9801.000000;0.750372
9800.000000;0.750301
9799.000000;0.750559
9798.000000;0.750784
9797.000000;0.750768
9796.000000;0.750786
9795.000000;0.751206
9794.000000;0.751873
9793.000000;0.752201
9792.000000;0.751877
9791.000000;0.751180
9790.000000;0.750557
9789.000000;0.750224
9788.000000;0.750219
9787.000000;0.750490
9786.000000;0.750793
9785.000000;0.750822
9784.000000;0.750586
9783.000000;0.750401
9782.000000;0.750388
9781.000000;0.750304
9780.000000;0.750019
9779.000000;0.749819
9778.000000;0.749973
9777.000000;0.750273
9776.000000;0.750343
9775.000000;0.750185
9774.000000;0.750085
9773.000000;0.750112
9772.000000;0.750055
9771.000000;0.749819
9770.000000;0.749581
9769.000000;0.749523
9768.000000;0.749602
9767.000000;0.749609
9766.000000;0.749367
9765.000000;0.748879
9764.000000;0.748369
9763.000000;0.748106
9762.000000;0.748132
9761.000000;0.748222
9760.000000;0.748152
9759.000000;0.747897
9758.000000;0.747531
9757.000000;0.747121
9756.000000;0.746835
9755.000000;0.746943
9754.000000;0.747558
9753.000000;0.748452
9752.000000;0.749256
9751.000000;0.749721
9750.000000;0.749720
9749.000000;0.749218
9748.000000;0.748415
9747.000000;0.747736
9746.000000;0.747459
9745.000000;0.747466
9744.000000;0.747488
9743.000000;0.747455
9742.000000;0.747447
9741.000000;0.747468
9740.000000;0.747511
9739.000000;0.747682
9738.000000;0.748027
9737.000000;0.748292
9736.000000;0.748102
9735.000000;0.747408
9734.000000;0.746554
9733.000000;0.745938
9732.000000;0.745714
9731.000000;0.745805
9730.000000;0.746048
9729.000000;0.746320
9728.000000;0.746617
9727.000000;0.746973
9726.000000;0.747263
9725.000000;0.747228
9724.000000;0.746808
9723.000000;0.746310
9722.000000;0.746090
9721.000000;0.746149
9720.000000;0.746196
9719.000000;0.746022
9718.000000;0.745639
9717.000000;0.745138
9716.000000;0.744610
9715.000000;0.744184
9714.000000;0.743964
9713.000000;0.743935
9712.000000;0.744050
9711.000000;0.744326
9710.000000;0.744717
9709.000000;0.744964
9708.000000;0.744797
9707.000000;0.744268
9706.000000;0.743723
9705.000000;0.743414
9704.000000;0.743305
9703.000000;0.743268
9702.000000;0.743252
9701.000000;0.743222
9700.000000;0.743111
9699.000000;0.742960
9698.000000;0.742956
9697.000000;0.743226
9696.000000;0.743650
9695.000000;0.744001
9694.000000;0.744197
9693.000000;0.744318
9692.000000;0.744410
9691.000000;0.744418
9690.000000;0.744333
9689.000000;0.744261
9688.000000;0.744277
9687.000000;0.744289
9686.000000;0.744162
9685.000000;0.743924
9684.000000;0.743713
9683.000000;0.743586
9682.000000;0.743496
9681.000000;0.743466
9680.000000;0.743564
9679.000000;0.743653
9678.000000;0.743358
9677.000000;0.742501
9676.000000;0.741459
9675.000000;0.740867
9674.000000;0.741001
9673.000000;0.741590
9672.000000;0.742180
9671.000000;0.742522
9670.000000;0.742620
9669.000000;0.742608
9668.000000;0.742628
9667.000000;0.742687
9666.000000;0.742604
9665.000000;0.742201
9664.000000;0.741563
9663.000000;0.741006
9662.000000;0.740775
9661.000000;0.740880
9660.000000;0.741183
9659.000000;0.741510
9658.000000;0.741687
9657.000000;0.741627
9656.000000;0.741446
9655.000000;0.741341
9654.000000;0.741373
9653.000000;0.741470
9652.000000;0.741624
9651.000000;0.741874
9650.000000;0.742112
9649.000000;0.742112
9648.000000;0.741831
9647.000000;0.741488
9646.000000;0.741282
9645.000000;0.741197
9644.000000;0.741150
9643.000000;0.741150
9642.000000;0.741187
9641.000000;0.741131
9640.000000;0.740858
9639.000000;0.740403
9638.000000;0.739900
9637.000000;0.739473
9636.000000;0.739238
9635.000000;0.739286
9634.000000;0.739570
9633.000000;0.739897
9632.000000;0.740121
9631.000000;0.740244
9630.000000;0.740273
9629.000000;0.740120
9628.000000;0.739745
9627.000000;0.739302
9626.000000;0.739028
9625.000000;0.739014
9624.000000;0.739173
9623.000000;0.739348
9622.000000;0.739423
9621.000000;0.739381
9620.000000;0.739325
9619.000000;0.739378
9618.000000;0.739495
9617.000000;0.739467
9616.000000;0.739161
9615.000000;0.738716
9614.000000;0.738409
9613.000000;0.738382
9612.000000;0.738521
9611.000000;0.738588
9610.000000;0.738437
9609.000000;0.738134
9608.000000;0.737861
9607.000000;0.737707
9606.000000;0.737596
9605.000000;0.737443
9604.000000;0.737309
9603.000000;0.737309
9602.000000;0.737456
9601.000000;0.737691
9600.000000;0.737983
9599.000000;0.738276
9598.000000;0.738420
9597.000000;0.738344
9596.000000;0.738228
9595.000000;0.738295
9594.000000;0.738459
9593.000000;0.738402
9592.000000;0.738028
9591.000000;0.737623
9590.000000;0.737479
9589.000000;0.737576
9588.000000;0.737694
9587.000000;0.737699
9586.000000;0.737568
9585.000000;0.737277
9584.000000;0.736817
9583.000000;0.736284
9582.000000;0.735883
9581.000000;0.735831
9580.000000;0.736201
9579.000000;0.736785
9578.000000;0.737150
9577.000000;0.736990
9576.000000;0.736452
9575.000000;0.736004
9574.000000;0.735984
9573.000000;0.736348
9572.000000;0.736805
9571.000000;0.737042
9570.000000;0.736854
9569.000000;0.736285
9568.000000;0.735681
9567.000000;0.735450
9566.000000;0.735683
9565.000000;0.736109
9564.000000;0.736407
9563.000000;0.736408
9562.000000;0.736037
9561.000000;0.735305
9560.000000;0.734457
9559.000000;0.733939
9558.000000;0.734061
9557.000000;0.734752
9556.000000;0.735674
9555.000000;0.736481
9554.000000;0.736947
9553.000000;0.736989
9552.000000;0.736679
9551.000000;0.736190
9550.000000;0.735696
9549.000000;0.735342
9548.000000;0.735237
9547.000000;0.735346
9546.000000;0.735452
9545.000000;0.735370
9544.000000;0.735191
9543.000000;0.735143
9542.000000;0.735236
9541.000000;0.735220
9540.000000;0.734898
9539.000000;0.734307
9538.000000;0.733603
9537.000000;0.732964
9536.000000;0.732597
9535.000000;0.732636
9534.000000;0.732960
9533.000000;0.733300
9532.000000;0.733544
9531.000000;0.733777
9530.000000;0.734023
9529.000000;0.734145
9528.000000;0.734056
9527.000000;0.733824
9526.000000;0.733518
9525.000000;0.733153
9524.000000;0.732819
9523.000000;0.732667
9522.000000;0.732672
9521.000000;0.732609
9520.000000;0.732347
9519.000000;0.732001
9518.000000;0.731720
9517.000000;0.731490
9516.000000;0.731248
9515.000000;0.731026
9514.000000;0.730880
9513.000000;0.730803
9512.000000;0.730788
9511.000000;0.730843
9510.000000;0.730919
9509.000000;0.730945
9508.000000;0.730961
9507.000000;0.731071
9506.000000;0.731219
9505.000000;0.731206
9504.000000;0.730985
9503.000000;0.730766
9502.000000;0.730764
9501.000000;0.730983
9500.000000;0.731301
9499.000000;0.731596
9498.000000;0.731729
9497.000000;0.731579
9496.000000;0.731166
9495.000000;0.730613
9494.000000;0.729974
9493.000000;0.729285
9492.000000;0.728775
9491.000000;0.728769
9490.000000;0.729297
9489.000000;0.730015
9488.000000;0.730600
9487.000000;0.731008
9486.000000;0.731266
9485.000000;0.731290
9484.000000;0.731058
9483.000000;0.730732
9482.000000;0.730440
9481.000000;0.730140
9480.000000;0.729853
9479.000000;0.729794
9478.000000;0.730042
9477.000000;0.730282
9476.000000;0.730137
9475.000000;0.729681
9474.000000;0.729341
9473.000000;0.729367
9472.000000;0.729604
9471.000000;0.729763
9470.000000;0.729716
9469.000000;0.729504
9468.000000;0.729199
9467.000000;0.728848
9466.000000;0.728492
9465.000000;0.728226
9464.000000;0.728179
9463.000000;0.728365
9462.000000;0.728572
9461.000000;0.728570
9460.000000;0.728410
9459.000000;0.728365
9458.000000;0.728511
9457.000000;0.728601
9456.000000;0.728443
9455.000000;0.728204
9454.000000;0.728151
9453.000000;0.728253
9452.000000;0.728253
9451.000000;0.728030
9450.000000;0.727700
9449.000000;0.727400
9448.000000;0.727182
9447.000000;0.727102
9446.000000;0.727234
9445.000000;0.727557
9444.000000;0.727934
9443.000000;0.728239
9442.000000;0.728446
9441.000000;0.728574
9440.000000;0.728593
9439.000000;0.728427
9438.000000;0.728057
9437.000000;0.727616
9436.000000;0.727327
9435.000000;0.727292
9434.000000;0.727355
9433.000000;0.727272
9432.000000;0.726974
9431.000000;0.726589
9430.000000;0.726226
9429.000000;0.725911
9428.000000;0.725726
9427.000000;0.725796
9426.000000;0.726076
9425.000000;0.726297
9424.000000;0.726245
9423.000000;0.725997
9422.000000;0.725807
9421.000000;0.725856
9420.000000;0.726159
9419.000000;0.726609
9418.000000;0.727012
9417.000000;0.727163
9416.000000;0.726984
9415.000000;0.726570
9414.000000;0.726069
9413.000000;0.725593
9412.000000;0.725247
9411.000000;0.725128
9410.000000;0.725211
9409.000000;0.725338
9408.000000;0.725388
9407.000000;0.725385
9406.000000;0.725391
9405.000000;0.725379
9404.000000;0.725292
9403.000000;0.725172
9402.000000;0.725145
9401.000000;0.725288
9400.000000;0.725527
9399.000000;0.725667
9398.000000;0.725538
9397.000000;0.725201
9396.000000;0.724953
9395.000000;0.725047
9394.000000;0.725403
9393.000000;0.725695
9392.000000;0.725720
9391.000000;0.725575
9390.000000;0.725465
9389.000000;0.725456
9388.000000;0.725411
9387.000000;0.725108
9386.000000;0.724431
9385.000000;0.723561
9384.000000;0.722932
9383.000000;0.722858
9382.000000;0.723205
9381.000000;0.723557
9380.000000;0.723672
9379.000000;0.723638
9378.000000;0.723613
9377.000000;0.723628
9376.000000;0.723667
9375.000000;0.723747
9374.000000;0.723849
9373.000000;0.723913
9372.000000;0.723917
9371.000000;0.723851
9370.000000;0.723615
9369.000000;0.723138
9368.000000;0.722602
9367.000000;0.722335
9366.000000;0.722445
9365.000000;0.722708
9364.000000;0.722889
9363.000000;0.722966
9362.000000;0.722983
9361.000000;0.722885
9360.000000;0.722619
9359.000000;0.722260
9358.000000;0.721935
9357.000000;0.721725
9356.000000;0.721678
9355.000000;0.721779
9354.000000;0.721852
9353.000000;0.721696
9352.000000;0.721384
9351.000000;0.721266
9350.000000;0.721560
9349.000000;0.722109
9348.000000;0.722588
9347.000000;0.722812
9346.000000;0.722736
9345.000000;0.722361
9344.000000;0.721774
9343.000000;0.721172
9342.000000;0.720709
9341.000000;0.720400
9340.000000;0.720235
9339.000000;0.720251
9338.000000;0.720410
9337.000000;0.720547
9336.000000;0.720551
9335.000000;0.720507
9334.000000;0.720552
9333.000000;0.720691
9332.000000;0.720821
9331.000000;0.720834
9330.000000;0.720641
9329.000000;0.720236
9328.000000;0.719799
9327.000000;0.719602
9326.000000;0.719718
9325.000000;0.719934
9324.000000;0.720011
9323.000000;0.719916
9322.000000;0.719751
9321.000000;0.719598
9320.000000;0.719549
9319.000000;0.719719
9318.000000;0.720085
9317.000000;0.720407
9316.000000;0.720447
9315.000000;0.720211
9314.000000;0.719916
9313.000000;0.719789
9312.000000;0.719943
9311.000000;0.720286
9310.000000;0.720495
9309.000000;0.720236
9308.000000;0.719547
9307.000000;0.718870
9306.000000;0.718595
9305.000000;0.718678
9304.000000;0.718826
9303.000000;0.718904
9302.000000;0.718994
9301.000000;0.719150
9300.000000;0.719300
9299.000000;0.719364
9298.000000;0.719298
9297.000000;0.719038
9296.000000;0.718536
9295.000000;0.717908
9294.000000;0.717421
9293.000000;0.717287
9292.000000;0.717480
9291.000000;0.717765
9290.000000;0.717913
9289.000000;0.717892
9288.000000;0.717859
9287.000000;0.717959
9286.000000;0.718181
9285.000000;0.718423
9284.000000;0.718613
9283.000000;0.718684
9282.000000;0.718528
9281.000000;0.718117
9280.000000;0.717640
9279.000000;0.717340
9278.000000;0.717229
9277.000000;0.717120
9276.000000;0.716936
9275.000000;0.716811
9274.000000;0.716853
9273.000000;0.716998
9272.000000;0.717138
9271.000000;0.717225
9270.000000;0.717210
9269.000000;0.717039
9268.000000;0.716787
9267.000000;0.716609
9266.000000;0.716521
9265.000000;0.716398
9264.000000;0.716255
9263.000000;0.716293
9262.000000;0.716574
9261.000000;0.716853
9260.000000;0.716897
9259.000000;0.716782
9258.000000;0.716701
9257.000000;0.716639
9256.000000;0.716437
9255.000000;0.716073
9254.000000;0.715691
9253.000000;0.715433
9252.000000;0.715397
9251.000000;0.715650
9250.000000;0.716100
9249.000000;0.716426
9248.000000;0.716332
9247.000000;0.715901
9246.000000;0.715529
9245.000000;0.715508
9244.000000;0.715781
9243.000000;0.716096
9242.000000;0.716261
9241.000000;0.716237
9240.000000;0.716080
9239.000000;0.715853
9238.000000;0.715576
9237.000000;0.715238
9236.000000;0.714872
9235.000000;0.714596
9234.000000;0.714524
9233.000000;0.714640
9232.000000;0.714809
9231.000000;0.714919
9230.000000;0.715000
9229.000000;0.715159
9228.000000;0.715399
9227.000000;0.715540
9226.000000;0.715391
9225.000000;0.715006
9224.000000;0.714665
9223.000000;0.714528
9222.000000;0.714433
9221.000000;0.714175
9220.000000;0.713845
9219.000000;0.713701
9218.000000;0.713774
9217.000000;0.713844
9216.000000;0.713799
9215.000000;0.713794
9214.000000;0.713977
9213.000000;0.714268
9212.000000;0.714474
9211.000000;0.714459
9210.000000;0.714129
9209.000000;0.713453
9208.000000;0.712612
9207.000000;0.711977
9206.000000;0.711796
9205.000000;0.711982
9204.000000;0.712268
9203.000000;0.712477
9202.000000;0.712562
9201.000000;0.712537
9200.000000;0.712474
9199.000000;0.712484
9198.000000;0.712586
9197.000000;0.712683
9196.000000;0.712708
9195.000000;0.712714
9194.000000;0.712745
9193.000000;0.712742
9192.000000;0.712657
9191.000000;0.712538
9190.000000;0.712424
9189.000000;0.712267
9188.000000;0.712062
9187.000000;0.711918
9186.000000;0.711919
9185.000000;0.711986
9184.000000;0.712001
9183.000000;0.711969
9182.000000;0.711961
9181.000000;0.711979
9180.000000;0.711970
9179.000000;0.711895
9178.000000;0.711715
9177.000000;0.711376
9176.000000;0.710917
9175.000000;0.710515
9174.000000;0.710341
9173.000000;0.710417
9172.000000;0.710647
9171.000000;0.710908
9170.000000;0.711056
9169.000000;0.710996
9168.000000;0.710845
9167.000000;0.710870
9166.000000;0.711156
9165.000000;0.711411
9164.000000;0.711273
9163.000000;0.710747
9162.000000;0.710194
9161.000000;0.709933
9160.000000;0.709970
9159.000000;0.710101
9158.000000;0.710147
9157.000000;0.710096
9156.000000;0.710075
9155.000000;0.710203
9154.000000;0.710416
9153.000000;0.710500
9152.000000;0.710332
9151.000000;0.710029
9150.000000;0.709786
9149.000000;0.709629
9148.000000;0.709443
9147.000000;0.709198
9146.000000;0.709018
9145.000000;0.709008
9144.000000;0.709122
9143.000000;0.709232
9142.000000;0.709260
9141.000000;0.709214
9140.000000;0.709109
9139.000000;0.708931
9138.000000;0.708680
9137.000000;0.708443
9136.000000;0.708363
9135.000000;0.708495
9134.000000;0.708702
9133.000000;0.708750
9132.000000;0.708541
9131.000000;0.708201
9130.000000;0.707974
9129.000000;0.708024
9128.000000;0.708326
9127.000000;0.708657
9126.000000;0.708752
9125.000000;0.708527
9124.000000;0.708163
9123.000000;0.707886
9122.000000;0.707733
9121.000000;0.707615
9120.000000;0.707549
9119.000000;0.707644
9118.000000;0.707863
9117.000000;0.708002
9116.000000;0.707984
9115.000000;0.707987
9114.000000;0.708155
9113.000000;0.708335
9112.000000;0.708247
9111.000000;0.707850
9110.000000;0.707385
9109.000000;0.707086
9108.000000;0.706986
9107.000000;0.706973
9106.000000;0.706943
9105.000000;0.706865
9104.000000;0.706750
9103.000000;0.706629
9102.000000;0.706537
9101.000000;0.706529
9100.000000;0.706646
9099.000000;0.706845
9098.000000;0.706976
9097.000000;0.706908
9096.000000;0.706672
9095.000000;0.706419
9094.000000;0.706243
9093.000000;0.706140
9092.000000;0.706115
9091.000000;0.706223
9090.000000;0.706444
9089.000000;0.706642
9088.000000;0.706688
9087.000000;0.706567
9086.000000;0.706318
9085.000000;0.705977
9084.000000;0.705626
9083.000000;0.705424
9082.000000;0.705481
9081.000000;0.705723
9080.000000;0.705953
9079.000000;0.706040
9078.000000;0.705991
9077.000000;0.705872
9076.000000;0.705720
9075.000000;0.705546
9074.000000;0.705411
9073.000000;0.705426
9072.000000;0.705618
9071.000000;0.705824
9070.000000;0.705789
9069.000000;0.705428
9068.000000;0.704923
9067.000000;0.704510
9066.000000;0.704266
9065.000000;0.704164
9064.000000;0.704225
9063.000000;0.704465
9062.000000;0.704755
9061.000000;0.704910
9060.000000;0.704918
9059.000000;0.704928
9058.000000;0.705000
9057.000000;0.705017
9056.000000;0.704863
9055.000000;0.704557
9054.000000;0.704199
9053.000000;0.703905
