Criado como novo conjunto de dados;"2706_e01_daniel.spp","45544.1 Secs"
cm-1;Abs
10000.000000;1.089358
9999.000000;1.088415
9998.000000;1.086883
9997.000000;1.085277
9996.000000;1.084312
9995.000000;1.084249
9994.000000;1.084674
9993.000000;1.084973
9992.000000;1.084843
9991.000000;1.084296
9990.000000;1.083498
9989.000000;1.082809
9988.000000;1.082665
9987.000000;1.083129
9986.000000;1.083721
9985.000000;1.083924
9984.000000;1.083686
9983.000000;1.083248
9982.000000;1.082776
9981.000000;1.082461
9980.000000;1.082676
9979.000000;1.083584
9978.000000;1.084737
9977.000000;1.085462
9976.000000;1.085562
9975.000000;1.085306
9974.000000;1.084871
9973.000000;1.084285
9972.000000;1.083814
9971.000000;1.083825
9970.000000;1.084134
9969.000000;1.084017
9968.000000;1.083131
9967.000000;1.082080
9966.000000;1.081784
9965.000000;1.082541
9964.000000;1.083932
9963.000000;1.085336
9962.000000;1.086246
9961.000000;1.086331
9960.000000;1.085578
9959.000000;1.084372
9958.000000;1.083207
9957.000000;1.082386
9956.000000;1.082057
9955.000000;1.082299
9954.000000;1.082854
9953.000000;1.082973
9952.000000;1.082041
9951.000000;1.080417
9950.000000;1.079242
9949.000000;1.079248
9948.000000;1.080021
9947.000000;1.080557
9946.000000;1.080310
9945.000000;1.079493
9944.000000;1.078570
9943.000000;1.077809
9942.000000;1.077350
9941.000000;1.077347
9940.000000;1.077888
9939.000000;1.078875
9938.000000;1.080063
9937.000000;1.081174
9936.000000;1.081964
9935.000000;1.082305
9934.000000;1.082278
9933.000000;1.082060
9932.000000;1.081653
9931.000000;1.080872
9930.000000;1.079710
9929.000000;1.078567
9928.000000;1.077891
9927.000000;1.077699
9926.000000;1.077692
9925.000000;1.077830
9924.000000;1.078467
9923.000000;1.079757
9922.000000;1.081175
9921.000000;1.081950
9920.000000;1.081924
9919.000000;1.081672
9918.000000;1.081714
9917.000000;1.081903
9916.000000;1.081732
9915.000000;1.081044
9914.000000;1.080218
9913.000000;1.079690
9912.000000;1.079486
9911.000000;1.079282
9910.000000;1.078789
9909.000000;1.078010
9908.000000;1.077229
9907.000000;1.076860
9906.000000;1.077240
9905.000000;1.078356
9904.000000;1.079646
9903.000000;1.080196
9902.000000;1.079406
9901.000000;1.077592
9900.000000;1.075826
9899.000000;1.075061
9898.000000;1.075382
9897.000000;1.076106
9896.000000;1.076541
9895.000000;1.076526
9894.000000;1.076215
9893.000000;1.075575
9892.000000;1.074390
9891.000000;1.072779
9890.000000;1.071451
9889.000000;1.071194
9888.000000;1.072143
9887.000000;1.073689
9886.000000;1.075122
9885.000000;1.076191
9884.000000;1.076967
9883.000000;1.077397
9882.000000;1.077263
9881.000000;1.076564
9880.000000;1.075686
9879.000000;1.075076
9878.000000;1.074869
9877.000000;1.074903
9876.000000;1.074988
9875.000000;1.075045
9874.000000;1.075043
9873.000000;1.074928
9872.000000;1.074640
9871.000000;1.074133
9870.000000;1.073371
9869.000000;1.072404
9868.000000;1.071510
9867.000000;1.071149
9866.000000;1.071613
9865.000000;1.072588
9864.000000;1.073166
9863.000000;1.072562
9862.000000;1.070938
9861.000000;1.069405
9860.000000;1.069034
9859.000000;1.069906
9858.000000;1.071139
9857.000000;1.071767
9856.000000;1.071527
9855.000000;1.070919
9854.000000;1.070652
9853.000000;1.071048
9852.000000;1.071839
9851.000000;1.072504
9850.000000;1.072848
9849.000000;1.073174
9848.000000;1.073779
9847.000000;1.074433
9846.000000;1.074588
9845.000000;1.074027
9844.000000;1.073009
9843.000000;1.071809
9842.000000;1.070503
9841.000000;1.069268
9840.000000;1.068475
9839.000000;1.068242
9838.000000;1.068182
9837.000000;1.067909
9836.000000;1.067614
9835.000000;1.067821
9834.000000;1.068633
9833.000000;1.069505
9832.000000;1.069798
9831.000000;1.069375
9830.000000;1.068676
9829.000000;1.068346
9828.000000;1.068762
9827.000000;1.069713
9826.000000;1.070544
9825.000000;1.070738
9824.000000;1.070360
9823.000000;1.069820
9822.000000;1.069314
9821.000000;1.068747
9820.000000;1.068161
9819.000000;1.067911
9818.000000;1.068257
9817.000000;1.068935
9816.000000;1.069313
9815.000000;1.068965
9814.000000;1.068034
9813.000000;1.067096
9812.000000;1.066719
9811.000000;1.067090
9810.000000;1.067939
9809.000000;1.068744
9808.000000;1.069058
9807.000000;1.068716
9806.000000;1.067906
9805.000000;1.067089
9804.000000;1.066737
9803.000000;1.066968
9802.000000;1.067475
9801.000000;1.067908
9800.000000;1.068227
9799.000000;1.068579
9798.000000;1.068924
9797.000000;1.069003
9796.000000;1.068695
9795.000000;1.068212
9794.000000;1.067888
9793.000000;1.067837
9792.000000;1.067839
9791.000000;1.067500
9790.000000;1.066591
9789.000000;1.065362
9788.000000;1.064457
9787.000000;1.064332
9786.000000;1.064766
9785.000000;1.065156
9784.000000;1.065268
9783.000000;1.065486
9782.000000;1.066207
9781.000000;1.067197
9780.000000;1.067706
9779.000000;1.067155
9778.000000;1.065669
9777.000000;1.064006
9776.000000;1.063006
9775.000000;1.063006
9774.000000;1.063678
9773.000000;1.064440
9772.000000;1.064980
9771.000000;1.065293
9770.000000;1.065325
9769.000000;1.064883
9768.000000;1.063965
9767.000000;1.062941
9766.000000;1.062228
9765.000000;1.061952
9764.000000;1.062052
9763.000000;1.062474
9762.000000;1.063099
9761.000000;1.063617
9760.000000;1.063740
9759.000000;1.063557
9758.000000;1.063502
9757.000000;1.063888
9756.000000;1.064548
9755.000000;1.064952
9754.000000;1.064672
9753.000000;1.063784
9752.000000;1.062810
9751.000000;1.062195
9750.000000;1.061855
9749.000000;1.061384
9748.000000;1.060657
9747.000000;1.060008
9746.000000;1.059781
9745.000000;1.060008
9744.000000;1.060625
9743.000000;1.061654
9742.000000;1.062914
9741.000000;1.063811
9740.000000;1.063797
9739.000000;1.062949
9738.000000;1.061800
9737.000000;1.060729
9736.000000;1.059812
9735.000000;1.059162
9734.000000;1.059026
9733.000000;1.059469
9732.000000;1.060224
9731.000000;1.060890
9730.000000;1.061103
9729.000000;1.060622
9728.000000;1.059583
9727.000000;1.058667
9726.000000;1.058597
9725.000000;1.059315
9724.000000;1.059952
9723.000000;1.059782
9722.000000;1.058995
9721.000000;1.058376
9720.000000;1.058453
9719.000000;1.059132
9718.000000;1.059910
9717.000000;1.060219
9716.000000;1.059782
9715.000000;1.058916
9714.000000;1.058366
9713.000000;1.058595
9712.000000;1.059285
9711.000000;1.059719
9710.000000;1.059556
9709.000000;1.059057
9708.000000;1.058638
9707.000000;1.058478
9706.000000;1.058532
9705.000000;1.058662
9704.000000;1.058651
9703.000000;1.058289
9702.000000;1.057576
9701.000000;1.056789
9700.000000;1.056284
9699.000000;1.056254
9698.000000;1.056639
9697.000000;1.057187
9696.000000;1.057598
9695.000000;1.057689
9694.000000;1.057454
9693.000000;1.056990
9692.000000;1.056414
9691.000000;1.055891
9690.000000;1.055647
9689.000000;1.055816
9688.000000;1.056258
9687.000000;1.056618
9686.000000;1.056573
9685.000000;1.056015
9684.000000;1.055079
9683.000000;1.054098
9682.000000;1.053474
9681.000000;1.053421
9680.000000;1.053791
9679.000000;1.054207
9678.000000;1.054414
9677.000000;1.054455
9676.000000;1.054514
9675.000000;1.054672
9674.000000;1.054835
9673.000000;1.054852
9672.000000;1.054696
9671.000000;1.054529
9670.000000;1.054590
9669.000000;1.054966
9668.000000;1.055487
9667.000000;1.055849
9666.000000;1.055833
9665.000000;1.055433
9664.000000;1.054884
9663.000000;1.054587
9662.000000;1.054852
9661.000000;1.055551
9660.000000;1.056120
9659.000000;1.056074
9658.000000;1.055499
9657.000000;1.054897
9656.000000;1.054594
9655.000000;1.054471
9654.000000;1.054274
9653.000000;1.053968
9652.000000;1.053648
9651.000000;1.053286
9650.000000;1.052797
9649.000000;1.052318
9648.000000;1.052203
9647.000000;1.052635
9646.000000;1.053318
9645.000000;1.053691
9644.000000;1.053435
9643.000000;1.052719
9642.000000;1.051936
9641.000000;1.051353
9640.000000;1.051058
9639.000000;1.051098
9638.000000;1.051409
9637.000000;1.051684
9636.000000;1.051572
9635.000000;1.051133
9634.000000;1.050866
9633.000000;1.051147
9632.000000;1.051737
9631.000000;1.052022
9630.000000;1.051668
9629.000000;1.050892
9628.000000;1.050171
9627.000000;1.049843
9626.000000;1.049940
9625.000000;1.050212
9624.000000;1.050315
9623.000000;1.050110
9622.000000;1.049797
9621.000000;1.049649
9620.000000;1.049661
9619.000000;1.049592
9618.000000;1.049347
9617.000000;1.049157
9616.000000;1.049313
9615.000000;1.049822
9614.000000;1.050358
9613.000000;1.050530
9612.000000;1.050212
9611.000000;1.049674
9610.000000;1.049313
9609.000000;1.049208
9608.000000;1.049037
9607.000000;1.048562
9606.000000;1.048040
9605.000000;1.047898
9604.000000;1.048122
9603.000000;1.048285
9602.000000;1.048177
9601.000000;1.048058
9600.000000;1.048178
9599.000000;1.048400
9598.000000;1.048500
9597.000000;1.048570
9596.000000;1.048838
9595.000000;1.049277
9594.000000;1.049645
9593.000000;1.049773
9592.000000;1.049592
9591.000000;1.049017
9590.000000;1.048135
9589.000000;1.047372
9588.000000;1.047104
9587.000000;1.047102
9586.000000;1.046726
9585.000000;1.045776
9584.000000;1.044831
9583.000000;1.044575
9582.000000;1.045051
9581.000000;1.045783
9580.000000;1.046373
9579.000000;1.046712
9578.000000;1.046786
9577.000000;1.046614
9576.000000;1.046370
9575.000000;1.046274
9574.000000;1.046334
9573.000000;1.046401
9572.000000;1.046492
9571.000000;1.046798
9570.000000;1.047296
9569.000000;1.047599
9568.000000;1.047413
9567.000000;1.046989
9566.000000;1.046886
9565.000000;1.047334
9564.000000;1.048007
9563.000000;1.048369
9562.000000;1.048087
9561.000000;1.047192
9560.000000;1.046067
9559.000000;1.045304
9558.000000;1.045326
9557.000000;1.045978
9556.000000;1.046555
9555.000000;1.046359
9554.000000;1.045276
9553.000000;1.043856
9552.000000;1.042882
9551.000000;1.042828
9550.000000;1.043568
9549.000000;1.044500
9548.000000;1.045024
9547.000000;1.044980
9546.000000;1.044598
9545.000000;1.044125
9544.000000;1.043657
9543.000000;1.043289
9542.000000;1.043182
9541.000000;1.043369
9540.000000;1.043655
9539.000000;1.043833
9538.000000;1.043874
9537.000000;1.043801
9536.000000;1.043528
9535.000000;1.042968
9534.000000;1.042213
9533.000000;1.041472
9532.000000;1.040931
9531.000000;1.040756
9530.000000;1.041068
9529.000000;1.041761
9528.000000;1.042443
9527.000000;1.042762
9526.000000;1.042697
9525.000000;1.042399
9524.000000;1.041905
9523.000000;1.041274
9522.000000;1.040838
9521.000000;1.040970
9520.000000;1.041560
9519.000000;1.042030
9518.000000;1.041936
9517.000000;1.041346
9516.000000;1.040593
9515.000000;1.039911
9514.000000;1.039445
9513.000000;1.039357
9512.000000;1.039683
9511.000000;1.040185
9510.000000;1.040522
9509.000000;1.040567
9508.000000;1.040476
9507.000000;1.040504
9506.000000;1.040764
9505.000000;1.041128
9504.000000;1.041333
9503.000000;1.041226
9502.000000;1.040908
9501.000000;1.040571
9500.000000;1.040257
9499.000000;1.039917
9498.000000;1.039642
9497.000000;1.039643
9496.000000;1.039918
9495.000000;1.040144
9494.000000;1.039981
9493.000000;1.039394
9492.000000;1.038645
9491.000000;1.038095
9490.000000;1.038061
9489.000000;1.038671
9488.000000;1.039727
9487.000000;1.040771
9486.000000;1.041361
9485.000000;1.041273
9484.000000;1.040532
9483.000000;1.039433
9482.000000;1.038482
9481.000000;1.038066
9480.000000;1.038104
9479.000000;1.038215
9478.000000;1.038279
9477.000000;1.038514
9476.000000;1.038910
9475.000000;1.038945
9474.000000;1.038187
9473.000000;1.036971
9472.000000;1.036114
9471.000000;1.036026
9470.000000;1.036373
9469.000000;1.036584
9468.000000;1.036424
9467.000000;1.036085
9466.000000;1.035931
9465.000000;1.036191
9464.000000;1.036746
9463.000000;1.037178
9462.000000;1.037153
9461.000000;1.036782
9460.000000;1.036465
9459.000000;1.036421
9458.000000;1.036528
9457.000000;1.036604
9456.000000;1.036657
9455.000000;1.036812
9454.000000;1.037131
9453.000000;1.037538
9452.000000;1.037837
9451.000000;1.037772
9450.000000;1.037253
9449.000000;1.036573
9448.000000;1.036254
9447.000000;1.036572
9446.000000;1.037285
9445.000000;1.037884
9444.000000;1.038059
9443.000000;1.037870
9442.000000;1.037559
9441.000000;1.037307
9440.000000;1.037132
9439.000000;1.036920
9438.000000;1.036525
9437.000000;1.035873
9436.000000;1.035012
9435.000000;1.034092
9434.000000;1.033327
9433.000000;1.032935
9432.000000;1.033038
9431.000000;1.033557
9430.000000;1.034244
9429.000000;1.034835
9428.000000;1.035168
9427.000000;1.035174
9426.000000;1.034854
9425.000000;1.034312
9424.000000;1.033755
9423.000000;1.033381
9422.000000;1.033221
9421.000000;1.033121
9420.000000;1.032930
9419.000000;1.032691
9418.000000;1.032618
9417.000000;1.032857
9416.000000;1.033271
9415.000000;1.033469
9414.000000;1.033099
9413.000000;1.032176
9412.000000;1.031155
9411.000000;1.030634
9410.000000;1.030893
9409.000000;1.031673
9408.000000;1.032397
9407.000000;1.032618
9406.000000;1.032259
9405.000000;1.031490
9404.000000;1.030570
9403.000000;1.029863
9402.000000;1.029807
9401.000000;1.030610
9400.000000;1.031949
9399.000000;1.033128
9398.000000;1.033638
9397.000000;1.033526
9396.000000;1.033205
9395.000000;1.033006
9394.000000;1.032912
9393.000000;1.032638
9392.000000;1.031947
9391.000000;1.030945
9390.000000;1.030096
9389.000000;1.029834
9388.000000;1.030152
9387.000000;1.030628
9386.000000;1.030857
9385.000000;1.030752
9384.000000;1.030437
9383.000000;1.030039
9382.000000;1.029668
9381.000000;1.029445
9380.000000;1.029420
9379.000000;1.029510
9378.000000;1.029626
9377.000000;1.029771
9376.000000;1.029910
9375.000000;1.029880
9374.000000;1.029548
9373.000000;1.029050
9372.000000;1.028713
9371.000000;1.028768
9370.000000;1.029182
9369.000000;1.029725
9368.000000;1.030126
9367.000000;1.030219
9366.000000;1.030025
9365.000000;1.029685
9364.000000;1.029261
9363.000000;1.028688
9362.000000;1.027968
9361.000000;1.027333
9360.000000;1.027079
9359.000000;1.027238
9358.000000;1.027532
9357.000000;1.027640
9356.000000;1.027452
9355.000000;1.027081
9354.000000;1.026697
9353.000000;1.026408
9352.000000;1.026267
9351.000000;1.026336
9350.000000;1.026692
9349.000000;1.027300
9348.000000;1.027946
9347.000000;1.028412
9346.000000;1.028696
9345.000000;1.028922
9344.000000;1.029033
9343.000000;1.028793
9342.000000;1.028140
9341.000000;1.027331
9340.000000;1.026618
9339.000000;1.025989
9338.000000;1.025403
9337.000000;1.025059
9336.000000;1.025162
9335.000000;1.025551
9334.000000;1.025840
9333.000000;1.025867
9332.000000;1.025746
9331.000000;1.025541
9330.000000;1.025195
9329.000000;1.024751
9328.000000;1.024372
9327.000000;1.024089
9326.000000;1.023797
9325.000000;1.023563
9324.000000;1.023627
9323.000000;1.024044
9322.000000;1.024562
9321.000000;1.024985
9320.000000;1.025365
9319.000000;1.025701
9318.000000;1.025739
9317.000000;1.025349
9316.000000;1.024883
9315.000000;1.024834
9314.000000;1.025238
9313.000000;1.025658
9312.000000;1.025678
9311.000000;1.025221
9310.000000;1.024470
9309.000000;1.023737
9308.000000;1.023372
9307.000000;1.023495
9306.000000;1.023794
9305.000000;1.023790
9304.000000;1.023384
9303.000000;1.022939
9302.000000;1.022760
9301.000000;1.022735
9300.000000;1.022605
9299.000000;1.022382
9298.000000;1.022308
9297.000000;1.022498
9296.000000;1.022787
9295.000000;1.022929
9294.000000;1.022789
9293.000000;1.022383
9292.000000;1.021849
9291.000000;1.021408
9290.000000;1.021253
9289.000000;1.021415
9288.000000;1.021744
9287.000000;1.022041
9286.000000;1.022193
9285.000000;1.022217
9284.000000;1.022211
9283.000000;1.022246
9282.000000;1.022238
9281.000000;1.021949
9280.000000;1.021185
9279.000000;1.020043
9278.000000;1.018965
9277.000000;1.018470
9276.000000;1.018755
9275.000000;1.019502
9274.000000;1.020095
9273.000000;1.020133
9272.000000;1.019755
9271.000000;1.019461
9270.000000;1.019592
9269.000000;1.020059
9268.000000;1.020537
9267.000000;1.020811
9266.000000;1.020850
9265.000000;1.020662
9264.000000;1.020228
9263.000000;1.019584
9262.000000;1.018854
9261.000000;1.018199
9260.000000;1.017811
9259.000000;1.017895
9258.000000;1.018512
9257.000000;1.019386
9256.000000;1.020004
9255.000000;1.020034
9254.000000;1.019589
9253.000000;1.019075
9252.000000;1.018838
9251.000000;1.018989
9250.000000;1.019420
9249.000000;1.019854
9248.000000;1.019952
9247.000000;1.019555
9246.000000;1.018855
9245.000000;1.018251
9244.000000;1.018021
9243.000000;1.018151
9242.000000;1.018439
9241.000000;1.018699
9240.000000;1.018853
9239.000000;1.018920
9238.000000;1.018930
9237.000000;1.018820
9236.000000;1.018474
9235.000000;1.017938
9234.000000;1.017503
9233.000000;1.017437
9232.000000;1.017682
9231.000000;1.017946
9230.000000;1.018068
9229.000000;1.018114
9228.000000;1.018113
9227.000000;1.017953
9226.000000;1.017616
9225.000000;1.017333
9224.000000;1.017306
9223.000000;1.017413
9222.000000;1.017343
9221.000000;1.016968
9220.000000;1.016410
9219.000000;1.015832
9218.000000;1.015340
9217.000000;1.015072
9216.000000;1.015182
9215.000000;1.015650
9214.000000;1.016215
9213.000000;1.016535
9212.000000;1.016400
9211.000000;1.015841
9210.000000;1.015146
9209.000000;1.014740
9208.000000;1.014887
9207.000000;1.015450
9206.000000;1.016020
9205.000000;1.016315
9204.000000;1.016370
9203.000000;1.016310
9202.000000;1.016105
9201.000000;1.015671
9200.000000;1.015109
9199.000000;1.014666
9198.000000;1.014455
9197.000000;1.014323
9196.000000;1.014051
9195.000000;1.013644
9194.000000;1.013379
9193.000000;1.013550
9192.000000;1.014165
9191.000000;1.014862
9190.000000;1.015150
9189.000000;1.014796
9188.000000;1.014014
9187.000000;1.013260
9186.000000;1.012815
9185.000000;1.012596
9184.000000;1.012356
9183.000000;1.012048
9182.000000;1.011887
9181.000000;1.012059
9180.000000;1.012446
9179.000000;1.012707
9178.000000;1.012622
9177.000000;1.012260
9176.000000;1.011831
9175.000000;1.011494
9174.000000;1.011336
9173.000000;1.011401
9172.000000;1.011637
9171.000000;1.011847
9170.000000;1.011810
9169.000000;1.011475
9168.000000;1.011010
9167.000000;1.010688
9166.000000;1.010726
9165.000000;1.011131
9164.000000;1.011614
9163.000000;1.011764
9162.000000;1.011435
9161.000000;1.010936
9160.000000;1.010696
9159.000000;1.010813
9158.000000;1.011064
9157.000000;1.011298
9156.000000;1.011570
9155.000000;1.011842
9154.000000;1.011828
9153.000000;1.011326
9152.000000;1.010556
9151.000000;1.009960
9150.000000;1.009738
9149.000000;1.009743
9148.000000;1.009783
9147.000000;1.009848
9146.000000;1.009988
9145.000000;1.010131
9144.000000;1.010124
9143.000000;1.009907
9142.000000;1.009603
9141.000000;1.009420
9140.000000;1.009448
9139.000000;1.009552
9138.000000;1.009499
9137.000000;1.009231
9136.000000;1.008942
9135.000000;1.008824
9134.000000;1.008826
9133.000000;1.008769
9132.000000;1.008610
9131.000000;1.008441
9130.000000;1.008266
9129.000000;1.007961
9128.000000;1.007515
9127.000000;1.007142
9126.000000;1.007075
9125.000000;1.007325
9124.000000;1.007703
9123.000000;1.008010
9122.000000;1.008158
9121.000000;1.008177
9120.000000;1.008154
9119.000000;1.008125
9118.000000;1.008006
9117.000000;1.007723
9116.000000;1.007399
9115.000000;1.007306
9114.000000;1.007543
9113.000000;1.007872
9112.000000;1.007966
9111.000000;1.007758
9110.000000;1.007459
9109.000000;1.007281
9108.000000;1.007250
9107.000000;1.007231
9106.000000;1.007060
9105.000000;1.006652
9104.000000;1.006066
9103.000000;1.005468
9102.000000;1.004991
9101.000000;1.004666
9100.000000;1.004489
9099.000000;1.004490
9098.000000;1.004660
9097.000000;1.004885
9096.000000;1.005042
9095.000000;1.005130
9094.000000;1.005247
9093.000000;1.005451
9092.000000;1.005746
9091.000000;1.006139
9090.000000;1.006577
9089.000000;1.006864
9088.000000;1.006758
9087.000000;1.006232
9086.000000;1.005566
9085.000000;1.005132
9084.000000;1.005075
9083.000000;1.005200
9082.000000;1.005166
9081.000000;1.004807
9080.000000;1.004298
9079.000000;1.003946
9078.000000;1.003823
9077.000000;1.003714
9076.000000;1.003452
9075.000000;1.003192
9074.000000;1.003211
9073.000000;1.003513
9072.000000;1.003799
9071.000000;1.003807
9070.000000;1.003563
9069.000000;1.003305
9068.000000;1.003256
9067.000000;1.003471
9066.000000;1.003820
9065.000000;1.004118
9064.000000;1.004303
9063.000000;1.004426
9062.000000;1.004411
9061.000000;1.003973
9060.000000;1.002963
9059.000000;1.001719
9058.000000;1.000825
9057.000000;1.000549
9056.000000;1.000693
9055.000000;1.000973
9054.000000;1.001323
9053.000000;1.001765
