Criado como novo conjunto de dados;"2706_e01_daniel.spp","6662.4 Secs"
cm-1;Abs
10000.000000;0.735491
9999.000000;0.735908
9998.000000;0.736330
9997.000000;0.736742
9996.000000;0.737195
9995.000000;0.737561
9994.000000;0.737460
9993.000000;0.736645
9992.000000;0.735388
9991.000000;0.734327
9990.000000;0.733858
9989.000000;0.733949
9988.000000;0.734418
9987.000000;0.735094
9986.000000;0.735709
9985.000000;0.735970
9984.000000;0.735850
9983.000000;0.735585
9982.000000;0.735326
9981.000000;0.735005
9980.000000;0.734577
9979.000000;0.734188
9978.000000;0.733996
9977.000000;0.733970
9976.000000;0.733971
9975.000000;0.733923
9974.000000;0.733887
9973.000000;0.733992
9972.000000;0.734272
9971.000000;0.734540
9970.000000;0.734553
9969.000000;0.734401
9968.000000;0.734529
9967.000000;0.735146
9966.000000;0.735770
9965.000000;0.735696
9964.000000;0.734856
9963.000000;0.733887
9962.000000;0.733387
9961.000000;0.733450
9960.000000;0.733898
9959.000000;0.734531
9958.000000;0.735015
9957.000000;0.734926
9956.000000;0.734199
9955.000000;0.733359
9954.000000;0.733047
9953.000000;0.733383
9952.000000;0.733926
9951.000000;0.734155
9950.000000;0.733916
9949.000000;0.733468
9948.000000;0.733187
9947.000000;0.733206
9946.000000;0.733320
9945.000000;0.733239
9944.000000;0.732884
9943.000000;0.732365
9942.000000;0.731804
9941.000000;0.731345
9940.000000;0.731220
9939.000000;0.731552
9938.000000;0.732121
9937.000000;0.732519
9936.000000;0.732574
9935.000000;0.732452
9934.000000;0.732348
9933.000000;0.732306
9932.000000;0.732318
9931.000000;0.732384
9930.000000;0.732426
9929.000000;0.732345
9928.000000;0.732211
9927.000000;0.732201
9926.000000;0.732314
9925.000000;0.732325
9924.000000;0.732075
9923.000000;0.731637
9922.000000;0.731157
9921.000000;0.730728
9920.000000;0.730480
9919.000000;0.730606
9918.000000;0.731161
9917.000000;0.731908
9916.000000;0.732451
9915.000000;0.732518
9914.000000;0.732163
9913.000000;0.731773
9912.000000;0.731782
9911.000000;0.732250
9910.000000;0.732741
9909.000000;0.732769
9908.000000;0.732308
9907.000000;0.731710
9906.000000;0.731226
9905.000000;0.730834
9904.000000;0.730511
9903.000000;0.730393
9902.000000;0.730585
9901.000000;0.730977
9900.000000;0.731319
9899.000000;0.731397
9898.000000;0.731152
9897.000000;0.730750
9896.000000;0.730501
9895.000000;0.730594
9894.000000;0.730932
9893.000000;0.731333
9892.000000;0.731745
9891.000000;0.732113
9890.000000;0.732175
9889.000000;0.731673
9888.000000;0.730726
9887.000000;0.729753
9886.000000;0.729053
9885.000000;0.728681
9884.000000;0.728628
9883.000000;0.728832
9882.000000;0.729063
9881.000000;0.729102
9880.000000;0.729080
9879.000000;0.729338
9878.000000;0.729918
9877.000000;0.730462
9876.000000;0.730643
9875.000000;0.730447
9874.000000;0.730003
9873.000000;0.729441
9872.000000;0.728997
9871.000000;0.728916
9870.000000;0.729116
9869.000000;0.729215
9868.000000;0.729049
9867.000000;0.728905
9866.000000;0.729035
9865.000000;0.729203
9864.000000;0.728969
9863.000000;0.728297
9862.000000;0.727648
9861.000000;0.727498
9860.000000;0.727933
9859.000000;0.728651
9858.000000;0.729231
9857.000000;0.729426
9856.000000;0.729292
9855.000000;0.729058
9854.000000;0.728849
9853.000000;0.728623
9852.000000;0.728338
9851.000000;0.728090
9850.000000;0.728017
9849.000000;0.728175
9848.000000;0.728537
9847.000000;0.729027
9846.000000;0.729511
9845.000000;0.729805
9844.000000;0.729761
9843.000000;0.729351
9842.000000;0.728700
9841.000000;0.728080
9840.000000;0.727789
9839.000000;0.727921
9838.000000;0.728267
9837.000000;0.728506
9836.000000;0.728491
9835.000000;0.728295
9834.000000;0.728095
9833.000000;0.728068
9832.000000;0.728278
9831.000000;0.728523
9830.000000;0.728413
9829.000000;0.727779
9828.000000;0.726939
9827.000000;0.726396
9826.000000;0.726357
9825.000000;0.726676
9824.000000;0.727110
9823.000000;0.727453
9822.000000;0.727552
9821.000000;0.727427
9820.000000;0.727298
9819.000000;0.727289
9818.000000;0.727204
9817.000000;0.726849
9816.000000;0.726433
9815.000000;0.726325
9814.000000;0.726488
9813.000000;0.726522
9812.000000;0.726280
9811.000000;0.726092
9810.000000;0.726289
9809.000000;0.726820
9808.000000;0.727416
9807.000000;0.727887
9806.000000;0.728115
9805.000000;0.728000
9804.000000;0.727599
9803.000000;0.727163
9802.000000;0.726924
9801.000000;0.726893
9800.000000;0.726922
9799.000000;0.726851
9798.000000;0.726611
9797.000000;0.726295
9796.000000;0.726092
9795.000000;0.726064
9794.000000;0.726054
9793.000000;0.725981
9792.000000;0.726050
9791.000000;0.726433
9790.000000;0.726856
9789.000000;0.726849
9788.000000;0.726384
9787.000000;0.725920
9786.000000;0.725806
9785.000000;0.725963
9784.000000;0.726190
9783.000000;0.726445
9782.000000;0.726682
9781.000000;0.726728
9780.000000;0.726472
9779.000000;0.725998
9778.000000;0.725448
9777.000000;0.724964
9776.000000;0.724797
9775.000000;0.725177
9774.000000;0.725922
9773.000000;0.726448
9772.000000;0.726343
9771.000000;0.725795
9770.000000;0.725292
9769.000000;0.725105
9768.000000;0.725188
9767.000000;0.725444
9766.000000;0.725857
9765.000000;0.726421
9764.000000;0.727035
9763.000000;0.727449
9762.000000;0.727354
9761.000000;0.726670
9760.000000;0.725738
9759.000000;0.725066
9758.000000;0.724855
9757.000000;0.724928
9756.000000;0.725092
9755.000000;0.725307
9754.000000;0.725479
9753.000000;0.725367
9752.000000;0.724881
9751.000000;0.724269
9750.000000;0.723859
9749.000000;0.723721
9748.000000;0.723690
9747.000000;0.723585
9746.000000;0.723348
9745.000000;0.723053
9744.000000;0.722895
9743.000000;0.723035
9742.000000;0.723414
9741.000000;0.723810
9740.000000;0.724089
9739.000000;0.724264
9738.000000;0.724334
9737.000000;0.724238
9736.000000;0.724029
9735.000000;0.723899
9734.000000;0.723950
9733.000000;0.724098
9732.000000;0.724233
9731.000000;0.724340
9730.000000;0.724432
9729.000000;0.724491
9728.000000;0.724510
9727.000000;0.724418
9726.000000;0.723988
9725.000000;0.723056
9724.000000;0.721873
9723.000000;0.721016
9722.000000;0.720861
9721.000000;0.721302
9720.000000;0.722005
9719.000000;0.722741
9718.000000;0.723382
9717.000000;0.723806
9716.000000;0.723948
9715.000000;0.723821
9714.000000;0.723445
9713.000000;0.722887
9712.000000;0.722412
9711.000000;0.722361
9710.000000;0.722767
9709.000000;0.723263
9708.000000;0.723457
9707.000000;0.723280
9706.000000;0.722918
9705.000000;0.722579
9704.000000;0.722400
9703.000000;0.722394
9702.000000;0.722398
9701.000000;0.722241
9700.000000;0.722016
9699.000000;0.721999
9698.000000;0.722238
9697.000000;0.722438
9696.000000;0.722354
9695.000000;0.722086
9694.000000;0.721873
9693.000000;0.721786
9692.000000;0.721804
9691.000000;0.721999
9690.000000;0.722443
9689.000000;0.722998
9688.000000;0.723378
9687.000000;0.723376
9686.000000;0.722978
9685.000000;0.722335
9684.000000;0.721690
9683.000000;0.721262
9682.000000;0.721123
9681.000000;0.721233
9680.000000;0.721564
9679.000000;0.722051
9678.000000;0.722442
9677.000000;0.722450
9676.000000;0.722120
9675.000000;0.721834
9674.000000;0.721851
9673.000000;0.722027
9672.000000;0.722097
9671.000000;0.722030
9670.000000;0.721988
9669.000000;0.722073
9668.000000;0.722272
9667.000000;0.722510
9666.000000;0.722652
9665.000000;0.722552
9664.000000;0.722216
9663.000000;0.721810
9662.000000;0.721437
9661.000000;0.721053
9660.000000;0.720665
9659.000000;0.720438
9658.000000;0.720486
9657.000000;0.720717
9656.000000;0.720985
9655.000000;0.721236
9654.000000;0.721402
9653.000000;0.721343
9652.000000;0.721073
9651.000000;0.720861
9650.000000;0.720930
9649.000000;0.721151
9648.000000;0.721240
9647.000000;0.721138
9646.000000;0.721020
9645.000000;0.721001
9644.000000;0.721042
9643.000000;0.721096
9642.000000;0.721181
9641.000000;0.721282
9640.000000;0.721329
9639.000000;0.721290
9638.000000;0.721210
9637.000000;0.721163
9636.000000;0.721205
9635.000000;0.721342
9634.000000;0.721504
9633.000000;0.721606
9632.000000;0.721638
9631.000000;0.721607
9630.000000;0.721390
9629.000000;0.720826
9628.000000;0.720016
9627.000000;0.719362
9626.000000;0.719161
9625.000000;0.719331
9624.000000;0.719641
9623.000000;0.720036
9622.000000;0.720501
9621.000000;0.720793
9620.000000;0.720630
9619.000000;0.720153
9618.000000;0.719861
9617.000000;0.720020
9616.000000;0.720346
9615.000000;0.720404
9614.000000;0.720144
9613.000000;0.719892
9612.000000;0.719918
9611.000000;0.720170
9610.000000;0.720407
9609.000000;0.720444
9608.000000;0.720250
9607.000000;0.719901
9606.000000;0.719526
9605.000000;0.719255
9604.000000;0.719144
9603.000000;0.719117
9602.000000;0.719013
9601.000000;0.718745
9600.000000;0.718425
9599.000000;0.718311
9598.000000;0.718600
9597.000000;0.719258
9596.000000;0.720039
9595.000000;0.720632
9594.000000;0.720813
9593.000000;0.720514
9592.000000;0.719840
9591.000000;0.719061
9590.000000;0.718534
9589.000000;0.718492
9588.000000;0.718849
9587.000000;0.719270
9586.000000;0.719497
9585.000000;0.719572
9584.000000;0.719628
9583.000000;0.719590
9582.000000;0.719273
9581.000000;0.718768
9580.000000;0.718462
9579.000000;0.718558
9578.000000;0.718780
9577.000000;0.718725
9576.000000;0.718369
9575.000000;0.718054
9574.000000;0.718060
9573.000000;0.718374
9572.000000;0.718814
9571.000000;0.719206
9570.000000;0.719458
9569.000000;0.719589
9568.000000;0.719687
9567.000000;0.719735
9566.000000;0.719555
9565.000000;0.719079
9564.000000;0.718561
9563.000000;0.718359
9562.000000;0.718522
9561.000000;0.718768
9560.000000;0.718835
9559.000000;0.718700
9558.000000;0.718494
9557.000000;0.718375
9556.000000;0.718491
9555.000000;0.718844
9554.000000;0.719190
9553.000000;0.719224
9552.000000;0.718907
9551.000000;0.718458
9550.000000;0.718052
9549.000000;0.717719
9548.000000;0.717524
9547.000000;0.717632
9546.000000;0.718075
9545.000000;0.718604
9544.000000;0.718896
9543.000000;0.718822
9542.000000;0.718497
9541.000000;0.718169
9540.000000;0.718086
9539.000000;0.718322
9538.000000;0.718656
9537.000000;0.718725
9536.000000;0.718371
9535.000000;0.717785
9534.000000;0.717294
9533.000000;0.717093
9532.000000;0.717176
9531.000000;0.717411
9530.000000;0.717647
9529.000000;0.717817
9528.000000;0.717980
9527.000000;0.718199
9526.000000;0.718400
9525.000000;0.718440
9524.000000;0.718284
9523.000000;0.718001
9522.000000;0.717626
9521.000000;0.717161
9520.000000;0.716693
9519.000000;0.716348
9518.000000;0.716127
9517.000000;0.715919
9516.000000;0.715705
9515.000000;0.715608
9514.000000;0.715716
9513.000000;0.715953
9512.000000;0.716161
9511.000000;0.716213
9510.000000;0.716065
9509.000000;0.715813
9508.000000;0.715674
9507.000000;0.715781
9506.000000;0.716012
9505.000000;0.716155
9504.000000;0.716193
9503.000000;0.716276
9502.000000;0.716424
9501.000000;0.716477
9500.000000;0.716367
9499.000000;0.716246
9498.000000;0.716264
9497.000000;0.716376
9496.000000;0.716427
9495.000000;0.716288
9494.000000;0.715895
9493.000000;0.715309
9492.000000;0.714786
9491.000000;0.714639
9490.000000;0.714930
9489.000000;0.715417
9488.000000;0.715821
9487.000000;0.716028
9486.000000;0.716035
9485.000000;0.715876
9484.000000;0.715691
9483.000000;0.715692
9482.000000;0.715947
9481.000000;0.716283
9480.000000;0.716469
9479.000000;0.716425
9478.000000;0.716212
9477.000000;0.715949
9476.000000;0.715802
9475.000000;0.715892
9474.000000;0.716126
9473.000000;0.716220
9472.000000;0.715994
9471.000000;0.715579
9470.000000;0.715264
9469.000000;0.715208
9468.000000;0.715355
9467.000000;0.715544
9466.000000;0.715644
9465.000000;0.715619
9464.000000;0.715511
9463.000000;0.715346
9462.000000;0.715084
9461.000000;0.714739
9460.000000;0.714477
9459.000000;0.714482
9458.000000;0.714709
9457.000000;0.714896
9456.000000;0.714858
9455.000000;0.714652
9454.000000;0.714470
9453.000000;0.714449
9452.000000;0.714601
9451.000000;0.714795
9450.000000;0.714819
9449.000000;0.714603
9448.000000;0.714340
9447.000000;0.714274
9446.000000;0.714380
9445.000000;0.714439
9444.000000;0.714384
9443.000000;0.714383
9442.000000;0.714526
9441.000000;0.714676
9440.000000;0.714672
9439.000000;0.714510
9438.000000;0.714225
9437.000000;0.713802
9436.000000;0.713338
9435.000000;0.713106
9434.000000;0.713310
9433.000000;0.713836
9432.000000;0.714346
9431.000000;0.714558
9430.000000;0.714420
9429.000000;0.714096
9428.000000;0.713852
9427.000000;0.713813
9426.000000;0.713818
9425.000000;0.713592
9424.000000;0.713129
9423.000000;0.712730
9422.000000;0.712643
9421.000000;0.712841
9420.000000;0.713184
9419.000000;0.713601
9418.000000;0.713982
9417.000000;0.714108
9416.000000;0.713872
9415.000000;0.713462
9414.000000;0.713155
9413.000000;0.713017
9412.000000;0.712936
9411.000000;0.712835
9410.000000;0.712721
9409.000000;0.712589
9408.000000;0.712462
9407.000000;0.712456
9406.000000;0.712673
9405.000000;0.713036
9404.000000;0.713366
9403.000000;0.713570
9402.000000;0.713658
9401.000000;0.713625
9400.000000;0.713439
9399.000000;0.713161
9398.000000;0.712931
9397.000000;0.712846
9396.000000;0.712891
9395.000000;0.712968
9394.000000;0.712946
9393.000000;0.712712
9392.000000;0.712271
9391.000000;0.711785
9390.000000;0.711450
9389.000000;0.711337
9388.000000;0.711394
9387.000000;0.711561
9386.000000;0.711807
9385.000000;0.712080
9384.000000;0.712294
9383.000000;0.712388
9382.000000;0.712336
9381.000000;0.712135
9380.000000;0.711813
9379.000000;0.711452
9378.000000;0.711161
9377.000000;0.711028
9376.000000;0.711102
9375.000000;0.711387
9374.000000;0.711821
9373.000000;0.712274
9372.000000;0.712628
9371.000000;0.712833
9370.000000;0.712903
9369.000000;0.712871
9368.000000;0.712760
9367.000000;0.712562
9366.000000;0.712232
9365.000000;0.711770
9364.000000;0.711315
9363.000000;0.711082
9362.000000;0.711155
9361.000000;0.711377
9360.000000;0.711500
9359.000000;0.711424
9358.000000;0.711251
9357.000000;0.711124
9356.000000;0.711080
9355.000000;0.711061
9354.000000;0.711031
9353.000000;0.711027
9352.000000;0.711078
9351.000000;0.711126
9350.000000;0.711101
9349.000000;0.711053
9348.000000;0.711124
9347.000000;0.711363
9346.000000;0.711642
9345.000000;0.711806
9344.000000;0.711832
9343.000000;0.711765
9342.000000;0.711585
9341.000000;0.711263
9340.000000;0.710905
9339.000000;0.710707
9338.000000;0.710739
9337.000000;0.710879
9336.000000;0.710991
9335.000000;0.711085
9334.000000;0.711254
9333.000000;0.711507
9332.000000;0.711709
9331.000000;0.711691
9330.000000;0.711414
9329.000000;0.711016
9328.000000;0.710657
9327.000000;0.710347
9326.000000;0.710027
9325.000000;0.709798
9324.000000;0.709900
9323.000000;0.710338
9322.000000;0.710705
9321.000000;0.710598
9320.000000;0.710146
9319.000000;0.709883
9318.000000;0.710097
9317.000000;0.710513
9316.000000;0.710658
9315.000000;0.710375
9314.000000;0.709906
9313.000000;0.709605
9312.000000;0.709651
9311.000000;0.709937
9310.000000;0.710149
9309.000000;0.710045
9308.000000;0.709695
9307.000000;0.709404
9306.000000;0.709384
9305.000000;0.709581
9304.000000;0.709814
9303.000000;0.709970
9302.000000;0.710024
9301.000000;0.709988
9300.000000;0.709902
9299.000000;0.709812
9298.000000;0.709709
9297.000000;0.709573
9296.000000;0.709464
9295.000000;0.709480
9294.000000;0.709565
9293.000000;0.709506
9292.000000;0.709180
9291.000000;0.708734
9290.000000;0.708438
9289.000000;0.708417
9288.000000;0.708610
9287.000000;0.708901
9286.000000;0.709199
9285.000000;0.709428
9284.000000;0.709532
9283.000000;0.709537
9282.000000;0.709535
9281.000000;0.709601
9280.000000;0.709711
9279.000000;0.709766
9278.000000;0.709680
9277.000000;0.709460
9276.000000;0.709202
9275.000000;0.709004
9274.000000;0.708892
9273.000000;0.708816
9272.000000;0.708707
9271.000000;0.708540
9270.000000;0.708371
9269.000000;0.708311
9268.000000;0.708415
9267.000000;0.708578
9266.000000;0.708640
9265.000000;0.708582
9264.000000;0.708554
9263.000000;0.708645
9262.000000;0.708752
9261.000000;0.708742
9260.000000;0.708640
9259.000000;0.708536
9258.000000;0.708422
9257.000000;0.708274
9256.000000;0.708203
9255.000000;0.708351
9254.000000;0.708641
9253.000000;0.708813
9252.000000;0.708717
9251.000000;0.708451
9250.000000;0.708205
9249.000000;0.708081
9248.000000;0.708075
9247.000000;0.708113
9246.000000;0.708081
9245.000000;0.707919
9244.000000;0.707707
9243.000000;0.707589
9242.000000;0.707602
9241.000000;0.707686
9240.000000;0.707831
9239.000000;0.708061
9238.000000;0.708286
9237.000000;0.708309
9236.000000;0.708070
9235.000000;0.707744
9234.000000;0.707538
9233.000000;0.707472
9232.000000;0.707425
9231.000000;0.707325
9230.000000;0.707232
9229.000000;0.707251
9228.000000;0.707411
9227.000000;0.707600
9226.000000;0.707623
9225.000000;0.707369
9224.000000;0.706937
9223.000000;0.706572
9222.000000;0.706466
9221.000000;0.706625
9220.000000;0.706880
9219.000000;0.706987
9218.000000;0.706809
9217.000000;0.706488
9216.000000;0.706361
9215.000000;0.706619
9214.000000;0.707079
9213.000000;0.707398
9212.000000;0.707436
9211.000000;0.707307
9210.000000;0.707141
9209.000000;0.706996
9208.000000;0.706951
9207.000000;0.707075
9206.000000;0.707250
9205.000000;0.707236
9204.000000;0.706969
9203.000000;0.706656
9202.000000;0.706492
9201.000000;0.706443
9200.000000;0.706393
9199.000000;0.706362
9198.000000;0.706446
9197.000000;0.706624
9196.000000;0.706763
9195.000000;0.706785
9194.000000;0.706717
9193.000000;0.706601
9192.000000;0.706429
9191.000000;0.706195
9190.000000;0.705966
9189.000000;0.705858
9188.000000;0.705951
9187.000000;0.706194
9186.000000;0.706420
9185.000000;0.706490
9184.000000;0.706406
9183.000000;0.706282
9182.000000;0.706205
9181.000000;0.706191
9180.000000;0.706224
9179.000000;0.706277
9178.000000;0.706283
9177.000000;0.706174
9176.000000;0.705959
9175.000000;0.705723
9174.000000;0.705565
9173.000000;0.705533
9172.000000;0.705617
9171.000000;0.705735
9170.000000;0.705770
9169.000000;0.705685
9168.000000;0.705557
9167.000000;0.705464
9166.000000;0.705369
9165.000000;0.705200
9164.000000;0.705007
9163.000000;0.704937
9162.000000;0.705040
9161.000000;0.705187
9160.000000;0.705204
9159.000000;0.705051
9158.000000;0.704878
9157.000000;0.704913
9156.000000;0.705265
9155.000000;0.705789
9154.000000;0.706187
9153.000000;0.706279
9152.000000;0.706143
9151.000000;0.705945
9150.000000;0.705754
9149.000000;0.705559
9148.000000;0.705376
9147.000000;0.705227
9146.000000;0.705088
9145.000000;0.704949
9144.000000;0.704862
9143.000000;0.704807
9142.000000;0.704630
9141.000000;0.704233
9140.000000;0.703774
9139.000000;0.703501
9138.000000;0.703448
9137.000000;0.703456
9136.000000;0.703454
9135.000000;0.703552
9134.000000;0.703843
9133.000000;0.704267
9132.000000;0.704693
9131.000000;0.705013
9130.000000;0.705139
9129.000000;0.705043
9128.000000;0.704813
9127.000000;0.704570
9126.000000;0.704331
9125.000000;0.704054
9124.000000;0.703798
9123.000000;0.703694
9122.000000;0.703782
9121.000000;0.703979
9120.000000;0.704204
9119.000000;0.704386
9118.000000;0.704410
9117.000000;0.704210
9116.000000;0.703924
9115.000000;0.703773
9114.000000;0.703795
9113.000000;0.703841
9112.000000;0.703845
9111.000000;0.703891
9110.000000;0.703972
9109.000000;0.703894
9108.000000;0.703538
9107.000000;0.703064
9106.000000;0.702729
9105.000000;0.702607
9104.000000;0.702590
9103.000000;0.702592
9102.000000;0.702630
9101.000000;0.702756
9100.000000;0.702977
9099.000000;0.703238
9098.000000;0.703443
9097.000000;0.703536
9096.000000;0.703562
9095.000000;0.703595
9094.000000;0.703623
9093.000000;0.703575
9092.000000;0.703463
9091.000000;0.703391
9090.000000;0.703416
9089.000000;0.703491
9088.000000;0.703549
9087.000000;0.703571
9086.000000;0.703537
9085.000000;0.703406
9084.000000;0.703182
9083.000000;0.702946
9082.000000;0.702794
9081.000000;0.702789
9080.000000;0.702935
9079.000000;0.703130
9078.000000;0.703197
9077.000000;0.703044
9076.000000;0.702814
9075.000000;0.702733
9074.000000;0.702833
9073.000000;0.702923
9072.000000;0.702828
9071.000000;0.702569
9070.000000;0.702281
9069.000000;0.702100
9068.000000;0.702135
9067.000000;0.702408
9066.000000;0.702769
9065.000000;0.702980
9064.000000;0.702948
9063.000000;0.702811
9062.000000;0.702752
9061.000000;0.702781
9060.000000;0.702753
9059.000000;0.702545
9058.000000;0.702197
9057.000000;0.701889
9056.000000;0.701770
9055.000000;0.701792
9054.000000;0.701761
9053.000000;0.701601
