Criado como novo conjunto de dados;"2706_e01_daniel.spp","22503.4 Secs"
cm-1;Abs
10000.000000;0.828623
9999.000000;0.827938
9998.000000;0.827068
9997.000000;0.826287
9996.000000;0.825935
9995.000000;0.826058
9994.000000;0.826405
9993.000000;0.826628
9992.000000;0.826471
9991.000000;0.825979
9990.000000;0.825514
9989.000000;0.825436
9988.000000;0.825712
9987.000000;0.826002
9986.000000;0.826050
9985.000000;0.825849
9984.000000;0.825520
9983.000000;0.825272
9982.000000;0.825402
9981.000000;0.826004
9980.000000;0.826641
9979.000000;0.826657
9978.000000;0.825920
9977.000000;0.824986
9976.000000;0.824410
9975.000000;0.824187
9974.000000;0.824020
9973.000000;0.823822
9972.000000;0.823697
9971.000000;0.823632
9970.000000;0.823537
9969.000000;0.823503
9968.000000;0.823738
9967.000000;0.824218
9966.000000;0.824648
9965.000000;0.824794
9964.000000;0.824734
9963.000000;0.824673
9962.000000;0.824653
9961.000000;0.824522
9960.000000;0.824203
9959.000000;0.823884
9958.000000;0.823860
9957.000000;0.824153
9956.000000;0.824408
9955.000000;0.824261
9954.000000;0.823795
9953.000000;0.823442
9952.000000;0.823467
9951.000000;0.823686
9950.000000;0.823739
9949.000000;0.823480
9948.000000;0.823042
9947.000000;0.822663
9946.000000;0.822556
9945.000000;0.822832
9944.000000;0.823384
9943.000000;0.823884
9942.000000;0.824031
9941.000000;0.823775
9940.000000;0.823297
9939.000000;0.822857
9938.000000;0.822709
9937.000000;0.823006
9936.000000;0.823625
9935.000000;0.824130
9934.000000;0.824067
9933.000000;0.823356
9932.000000;0.822366
9931.000000;0.821612
9930.000000;0.821376
9929.000000;0.821539
9928.000000;0.821729
9927.000000;0.821665
9926.000000;0.821390
9925.000000;0.821113
9924.000000;0.820878
9923.000000;0.820536
9922.000000;0.820066
9921.000000;0.819718
9920.000000;0.819696
9919.000000;0.819881
9918.000000;0.820017
9917.000000;0.820040
9916.000000;0.820046
9915.000000;0.820054
9914.000000;0.820034
9913.000000;0.820078
9912.000000;0.820316
9911.000000;0.820669
9910.000000;0.820903
9909.000000;0.820913
9908.000000;0.820745
9907.000000;0.820384
9906.000000;0.819804
9905.000000;0.819251
9904.000000;0.819164
9903.000000;0.819630
9902.000000;0.820190
9901.000000;0.820348
9900.000000;0.820096
9899.000000;0.819742
9898.000000;0.819429
9897.000000;0.819102
9896.000000;0.818789
9895.000000;0.818607
9894.000000;0.818508
9893.000000;0.818318
9892.000000;0.818034
9891.000000;0.817841
9890.000000;0.817821
9889.000000;0.817837
9888.000000;0.817763
9887.000000;0.817625
9886.000000;0.817488
9885.000000;0.817371
9884.000000;0.817305
9883.000000;0.817285
9882.000000;0.817130
9881.000000;0.816620
9880.000000;0.815891
9879.000000;0.815432
9878.000000;0.815511
9877.000000;0.815812
9876.000000;0.815864
9875.000000;0.815655
9874.000000;0.815568
9873.000000;0.815779
9872.000000;0.816043
9871.000000;0.816060
9870.000000;0.815828
9869.000000;0.815572
9868.000000;0.815484
9867.000000;0.815572
9866.000000;0.815623
9865.000000;0.815345
9864.000000;0.814697
9863.000000;0.814118
9862.000000;0.814199
9861.000000;0.815075
9860.000000;0.816242
9859.000000;0.817044
9858.000000;0.817200
9857.000000;0.816813
9856.000000;0.816049
9855.000000;0.815007
9854.000000;0.813830
9853.000000;0.812768
9852.000000;0.812102
9851.000000;0.812039
9850.000000;0.812606
9849.000000;0.813610
9848.000000;0.814722
9847.000000;0.815677
9846.000000;0.816350
9845.000000;0.816652
9844.000000;0.816510
9843.000000;0.816008
9842.000000;0.815416
9841.000000;0.814905
9840.000000;0.814344
9839.000000;0.813536
9838.000000;0.812600
9837.000000;0.811930
9836.000000;0.811788
9835.000000;0.812126
9834.000000;0.812804
9833.000000;0.813744
9832.000000;0.814725
9831.000000;0.815265
9830.000000;0.814990
9829.000000;0.814085
9828.000000;0.813155
9827.000000;0.812578
9826.000000;0.812217
9825.000000;0.811848
9824.000000;0.811621
9823.000000;0.811876
9822.000000;0.812599
9821.000000;0.813349
9820.000000;0.813732
9819.000000;0.813710
9818.000000;0.813398
9817.000000;0.812817
9816.000000;0.812057
9815.000000;0.811464
9814.000000;0.811361
9813.000000;0.811612
9812.000000;0.811729
9811.000000;0.811450
9810.000000;0.811030
9809.000000;0.810880
9808.000000;0.811077
9807.000000;0.811353
9806.000000;0.811453
9805.000000;0.811337
9804.000000;0.811080
9803.000000;0.810734
9802.000000;0.810366
9801.000000;0.810151
9800.000000;0.810289
9799.000000;0.810794
9798.000000;0.811415
9797.000000;0.811859
9796.000000;0.812079
9795.000000;0.812261
9794.000000;0.812491
9793.000000;0.812543
9792.000000;0.812112
9791.000000;0.811180
9790.000000;0.810070
9789.000000;0.809177
9788.000000;0.808752
9787.000000;0.808869
9786.000000;0.809401
9785.000000;0.810021
9784.000000;0.810359
9783.000000;0.810263
9782.000000;0.809857
9781.000000;0.809376
9780.000000;0.808986
9779.000000;0.808733
9778.000000;0.808552
9777.000000;0.808309
9776.000000;0.807960
9775.000000;0.807655
9774.000000;0.807574
9773.000000;0.807664
9772.000000;0.807688
9771.000000;0.807578
9770.000000;0.807565
9769.000000;0.807859
9768.000000;0.808315
9767.000000;0.808550
9766.000000;0.808320
9765.000000;0.807723
9764.000000;0.807066
9763.000000;0.806626
9762.000000;0.806469
9761.000000;0.806451
9760.000000;0.806405
9759.000000;0.806357
9758.000000;0.806479
9757.000000;0.806809
9756.000000;0.807133
9755.000000;0.807246
9754.000000;0.807215
9753.000000;0.807243
9752.000000;0.807362
9751.000000;0.807429
9750.000000;0.807401
9749.000000;0.807432
9748.000000;0.807626
9747.000000;0.807823
9746.000000;0.807758
9745.000000;0.807399
9744.000000;0.807013
9743.000000;0.806883
9742.000000;0.806999
9741.000000;0.807066
9740.000000;0.806801
9739.000000;0.806190
9738.000000;0.805469
9737.000000;0.804935
9736.000000;0.804790
9735.000000;0.805059
9734.000000;0.805541
9733.000000;0.805865
9732.000000;0.805756
9731.000000;0.805306
9730.000000;0.804888
9729.000000;0.804749
9728.000000;0.804791
9727.000000;0.804795
9726.000000;0.804735
9725.000000;0.804743
9724.000000;0.804842
9723.000000;0.804881
9722.000000;0.804768
9721.000000;0.804638
9720.000000;0.804692
9719.000000;0.804931
9718.000000;0.805120
9717.000000;0.805055
9716.000000;0.804792
9715.000000;0.804599
9714.000000;0.804662
9713.000000;0.804881
9712.000000;0.804988
9711.000000;0.804837
9710.000000;0.804552
9709.000000;0.804345
9708.000000;0.804265
9707.000000;0.804171
9706.000000;0.803958
9705.000000;0.803719
9704.000000;0.803599
9703.000000;0.803536
9702.000000;0.803275
9701.000000;0.802720
9700.000000;0.802185
9699.000000;0.802139
9698.000000;0.802679
9697.000000;0.803384
9696.000000;0.803750
9695.000000;0.803666
9694.000000;0.803384
9693.000000;0.803137
9692.000000;0.802959
9691.000000;0.802827
9690.000000;0.802788
9689.000000;0.802886
9688.000000;0.803048
9687.000000;0.803131
9686.000000;0.803046
9685.000000;0.802817
9684.000000;0.802543
9683.000000;0.802307
9682.000000;0.802128
9681.000000;0.802007
9680.000000;0.802001
9679.000000;0.802175
9678.000000;0.802442
9677.000000;0.802567
9676.000000;0.802413
9675.000000;0.802113
9674.000000;0.801879
9673.000000;0.801724
9672.000000;0.801496
9671.000000;0.801148
9670.000000;0.800796
9669.000000;0.800526
9668.000000;0.800312
9667.000000;0.800160
9666.000000;0.800169
9665.000000;0.800371
9664.000000;0.800628
9663.000000;0.800778
9662.000000;0.800815
9661.000000;0.800844
9660.000000;0.800930
9659.000000;0.801045
9658.000000;0.801129
9657.000000;0.801136
9656.000000;0.801059
9655.000000;0.800926
9654.000000;0.800785
9653.000000;0.800665
9652.000000;0.800575
9651.000000;0.800521
9650.000000;0.800455
9649.000000;0.800257
9648.000000;0.799861
9647.000000;0.799390
9646.000000;0.799084
9645.000000;0.799060
9644.000000;0.799235
9643.000000;0.799464
9642.000000;0.799655
9641.000000;0.799707
9640.000000;0.799470
9639.000000;0.798891
9638.000000;0.798165
9637.000000;0.797681
9636.000000;0.797738
9635.000000;0.798284
9634.000000;0.798889
9633.000000;0.799074
9632.000000;0.798732
9631.000000;0.798223
9630.000000;0.797985
9629.000000;0.798104
9628.000000;0.798342
9627.000000;0.798470
9626.000000;0.798459
9625.000000;0.798385
9624.000000;0.798335
9623.000000;0.798403
9622.000000;0.798600
9621.000000;0.798738
9620.000000;0.798535
9619.000000;0.797881
9618.000000;0.796920
9617.000000;0.795907
9616.000000;0.795115
9615.000000;0.794838
9614.000000;0.795191
9613.000000;0.795869
9612.000000;0.796320
9611.000000;0.796304
9610.000000;0.796105
9609.000000;0.796095
9608.000000;0.796280
9607.000000;0.796438
9606.000000;0.796504
9605.000000;0.796585
9604.000000;0.796673
9603.000000;0.796594
9602.000000;0.796262
9601.000000;0.795832
9600.000000;0.795559
9599.000000;0.795564
9598.000000;0.795747
9597.000000;0.795873
9596.000000;0.795783
9595.000000;0.795579
9594.000000;0.795553
9593.000000;0.795877
9592.000000;0.796400
9591.000000;0.796801
9590.000000;0.796884
9589.000000;0.796681
9588.000000;0.796343
9587.000000;0.796023
9586.000000;0.795830
9585.000000;0.795787
9584.000000;0.795812
9583.000000;0.795805
9582.000000;0.795729
9581.000000;0.795600
9580.000000;0.795443
9579.000000;0.795280
9578.000000;0.795113
9577.000000;0.794899
9576.000000;0.794609
9575.000000;0.794335
9574.000000;0.794231
9573.000000;0.794295
9572.000000;0.794334
9571.000000;0.794226
9570.000000;0.794084
9569.000000;0.794051
9568.000000;0.794032
9567.000000;0.793794
9566.000000;0.793318
9565.000000;0.792872
9564.000000;0.792703
9563.000000;0.792787
9562.000000;0.792927
9561.000000;0.793003
9560.000000;0.793047
9559.000000;0.793117
9558.000000;0.793195
9557.000000;0.793208
9556.000000;0.793100
9555.000000;0.792848
9554.000000;0.792466
9553.000000;0.792054
9552.000000;0.791836
9551.000000;0.792037
9550.000000;0.792638
9549.000000;0.793320
9548.000000;0.793750
9547.000000;0.793885
9546.000000;0.793887
9545.000000;0.793816
9544.000000;0.793588
9543.000000;0.793226
9542.000000;0.792918
9541.000000;0.792766
9540.000000;0.792652
9539.000000;0.792446
9538.000000;0.792213
9537.000000;0.792080
9536.000000;0.792032
9535.000000;0.791980
9534.000000;0.791933
9533.000000;0.791967
9532.000000;0.792057
9531.000000;0.792096
9530.000000;0.792042
9529.000000;0.791955
9528.000000;0.791875
9527.000000;0.791781
9526.000000;0.791652
9525.000000;0.791508
9524.000000;0.791370
9523.000000;0.791234
9522.000000;0.791066
9521.000000;0.790802
9520.000000;0.790367
9519.000000;0.789783
9518.000000;0.789227
9517.000000;0.788913
9516.000000;0.788911
9515.000000;0.789102
9514.000000;0.789307
9513.000000;0.789436
9512.000000;0.789540
9511.000000;0.789726
9510.000000;0.790038
9509.000000;0.790392
9508.000000;0.790638
9507.000000;0.790690
9506.000000;0.790599
9505.000000;0.790498
9504.000000;0.790488
9503.000000;0.790526
9502.000000;0.790428
9501.000000;0.790042
9500.000000;0.789462
9499.000000;0.789004
9498.000000;0.788862
9497.000000;0.788895
9496.000000;0.788847
9495.000000;0.788700
9494.000000;0.788623
9493.000000;0.788645
9492.000000;0.788582
9491.000000;0.788349
9490.000000;0.788114
9489.000000;0.788079
9488.000000;0.788261
9487.000000;0.788552
9486.000000;0.788857
9485.000000;0.789071
9484.000000;0.789067
9483.000000;0.788805
9482.000000;0.788395
9481.000000;0.787982
9480.000000;0.787661
9479.000000;0.787518
9478.000000;0.787628
9477.000000;0.787933
9476.000000;0.788243
9475.000000;0.788393
9474.000000;0.788307
9473.000000;0.787906
9472.000000;0.787189
9471.000000;0.786450
9470.000000;0.786185
9469.000000;0.786612
9468.000000;0.787424
9467.000000;0.788130
9466.000000;0.788501
9465.000000;0.788560
9464.000000;0.788355
9463.000000;0.787979
9462.000000;0.787643
9461.000000;0.787494
9460.000000;0.787437
9459.000000;0.787335
9458.000000;0.787261
9457.000000;0.787343
9456.000000;0.787466
9455.000000;0.787403
9454.000000;0.787184
9453.000000;0.787040
9452.000000;0.786982
9451.000000;0.786722
9450.000000;0.786121
9449.000000;0.785467
9448.000000;0.785159
9447.000000;0.785259
9446.000000;0.785480
9445.000000;0.785527
9444.000000;0.785357
9443.000000;0.785134
9442.000000;0.785041
9441.000000;0.785132
9440.000000;0.785314
9439.000000;0.785472
9438.000000;0.785578
9437.000000;0.785665
9436.000000;0.785710
9435.000000;0.785599
9434.000000;0.785220
9433.000000;0.784591
9432.000000;0.783931
9431.000000;0.783559
9430.000000;0.783619
9429.000000;0.783881
9428.000000;0.783975
9427.000000;0.783852
9426.000000;0.783844
9425.000000;0.784162
9424.000000;0.784538
9423.000000;0.784611
9422.000000;0.784487
9421.000000;0.784612
9420.000000;0.785091
9419.000000;0.785447
9418.000000;0.785181
9417.000000;0.784354
9416.000000;0.783510
9415.000000;0.783144
9414.000000;0.783354
9413.000000;0.783877
9412.000000;0.784336
9411.000000;0.784485
9410.000000;0.784319
9409.000000;0.784001
9408.000000;0.783703
9407.000000;0.783535
9406.000000;0.783542
9405.000000;0.783674
9404.000000;0.783780
9403.000000;0.783735
9402.000000;0.783569
9401.000000;0.783391
9400.000000;0.783231
9399.000000;0.783046
9398.000000;0.782852
9397.000000;0.782727
9396.000000;0.782688
9395.000000;0.782696
9394.000000;0.782757
9393.000000;0.782874
9392.000000;0.782932
9391.000000;0.782779
9390.000000;0.782432
9389.000000;0.782081
9388.000000;0.781842
9387.000000;0.781684
9386.000000;0.781582
9385.000000;0.781594
9384.000000;0.781687
9383.000000;0.781678
9382.000000;0.781448
9381.000000;0.781105
9380.000000;0.780834
9379.000000;0.780720
9378.000000;0.780812
9377.000000;0.781191
9376.000000;0.781799
9375.000000;0.782294
9374.000000;0.782315
9373.000000;0.781896
9372.000000;0.781448
9371.000000;0.781296
9370.000000;0.781380
9369.000000;0.781463
9368.000000;0.781472
9367.000000;0.781509
9366.000000;0.781589
9365.000000;0.781559
9364.000000;0.781306
9363.000000;0.780908
9362.000000;0.780499
9361.000000;0.780083
9360.000000;0.779617
9359.000000;0.779223
9358.000000;0.779125
9357.000000;0.779339
9356.000000;0.779584
9355.000000;0.779627
9354.000000;0.779556
9353.000000;0.779570
9352.000000;0.779623
9351.000000;0.779488
9350.000000;0.779138
9349.000000;0.778816
9348.000000;0.778687
9347.000000;0.778654
9346.000000;0.778595
9345.000000;0.778584
9344.000000;0.778734
9343.000000;0.778940
9342.000000;0.778980
9341.000000;0.778800
9340.000000;0.778572
9339.000000;0.778475
9338.000000;0.778558
9337.000000;0.778757
9336.000000;0.778945
9335.000000;0.778978
9334.000000;0.778841
9333.000000;0.778721
9332.000000;0.778817
9331.000000;0.779043
9330.000000;0.779091
9329.000000;0.778815
9328.000000;0.778448
9327.000000;0.778302
9326.000000;0.778377
9325.000000;0.778392
9324.000000;0.778189
9323.000000;0.777949
9322.000000;0.777956
9321.000000;0.778232
9320.000000;0.778474
9319.000000;0.778340
9318.000000;0.777781
9317.000000;0.777098
9316.000000;0.776663
9315.000000;0.776580
9314.000000;0.776624
9313.000000;0.776547
9312.000000;0.776386
9311.000000;0.776388
9310.000000;0.776643
9309.000000;0.776954
9308.000000;0.777109
9307.000000;0.777157
9306.000000;0.777257
9305.000000;0.777364
9304.000000;0.777245
9303.000000;0.776836
9302.000000;0.776409
9301.000000;0.776292
9300.000000;0.776530
9299.000000;0.776884
9298.000000;0.777096
9297.000000;0.777087
9296.000000;0.776934
9295.000000;0.776741
9294.000000;0.776540
9293.000000;0.776274
9292.000000;0.775893
9291.000000;0.775455
9290.000000;0.775121
9289.000000;0.775001
9288.000000;0.775053
9287.000000;0.775119
9286.000000;0.775055
9285.000000;0.774810
9284.000000;0.774463
9283.000000;0.774192
9282.000000;0.774152
9281.000000;0.774347
9280.000000;0.774649
9279.000000;0.774929
9278.000000;0.775123
9277.000000;0.775191
9276.000000;0.775116
9275.000000;0.774978
9274.000000;0.774902
9273.000000;0.774890
9272.000000;0.774793
9271.000000;0.774531
9270.000000;0.774228
9269.000000;0.774064
9268.000000;0.774087
9267.000000;0.774236
9266.000000;0.774466
9265.000000;0.774714
9264.000000;0.774845
9263.000000;0.774779
9262.000000;0.774609
9261.000000;0.774472
9260.000000;0.774356
9259.000000;0.774169
9258.000000;0.773961
9257.000000;0.773889
9256.000000;0.773964
9255.000000;0.773993
9254.000000;0.773805
9253.000000;0.773427
9252.000000;0.772991
9251.000000;0.772607
9250.000000;0.772353
9249.000000;0.772284
9248.000000;0.772339
9247.000000;0.772360
9246.000000;0.772265
9245.000000;0.772156
9244.000000;0.772187
9243.000000;0.772369
9242.000000;0.772578
9241.000000;0.772698
9240.000000;0.772719
9239.000000;0.772716
9238.000000;0.772812
9237.000000;0.773092
9236.000000;0.773497
9235.000000;0.773775
9234.000000;0.773645
9233.000000;0.773034
9232.000000;0.772188
9231.000000;0.771510
9230.000000;0.771293
9229.000000;0.771536
9228.000000;0.771992
9227.000000;0.772350
9226.000000;0.772424
9225.000000;0.772195
9224.000000;0.771776
9223.000000;0.771340
9222.000000;0.771061
9221.000000;0.771032
9220.000000;0.771231
9219.000000;0.771548
9218.000000;0.771831
9217.000000;0.771914
9216.000000;0.771684
9215.000000;0.771202
9214.000000;0.770715
9213.000000;0.770459
9212.000000;0.770445
9211.000000;0.770498
9210.000000;0.770498
9209.000000;0.770499
9208.000000;0.770601
9207.000000;0.770791
9206.000000;0.770964
9205.000000;0.771048
9204.000000;0.771047
9203.000000;0.770990
9202.000000;0.770887
9201.000000;0.770732
9200.000000;0.770527
9199.000000;0.770275
9198.000000;0.769982
9197.000000;0.769672
9196.000000;0.769420
9195.000000;0.769327
9194.000000;0.769408
9193.000000;0.769497
9192.000000;0.769353
9191.000000;0.768925
9190.000000;0.768484
9189.000000;0.768386
9188.000000;0.768708
9187.000000;0.769186
9186.000000;0.769497
9185.000000;0.769544
9184.000000;0.769456
9183.000000;0.769390
9182.000000;0.769397
9181.000000;0.769440
9180.000000;0.769448
9179.000000;0.769347
9178.000000;0.769103
9177.000000;0.768788
9176.000000;0.768579
9175.000000;0.768623
9174.000000;0.768854
9173.000000;0.768987
9172.000000;0.768791
9171.000000;0.768353
9170.000000;0.767987
9169.000000;0.767847
9168.000000;0.767776
9167.000000;0.767587
9166.000000;0.767374
9165.000000;0.767387
9164.000000;0.767691
9163.000000;0.768090
9162.000000;0.768401
9161.000000;0.768602
9160.000000;0.768712
9159.000000;0.768672
9158.000000;0.768450
9157.000000;0.768143
9156.000000;0.767894
9155.000000;0.767734
9154.000000;0.767581
9153.000000;0.767352
9152.000000;0.767040
9151.000000;0.766725
9150.000000;0.766539
9149.000000;0.766563
9148.000000;0.766705
9147.000000;0.766766
9146.000000;0.766661
9145.000000;0.766529
9144.000000;0.766553
9143.000000;0.766732
9142.000000;0.766889
9141.000000;0.766875
9140.000000;0.766684
9139.000000;0.766395
9138.000000;0.766107
9137.000000;0.765920
9136.000000;0.765909
9135.000000;0.766048
9134.000000;0.766203
9133.000000;0.766214
9132.000000;0.766018
9131.000000;0.765713
9130.000000;0.765506
9129.000000;0.765549
9128.000000;0.765792
9127.000000;0.766015
9126.000000;0.766038
9125.000000;0.765882
9124.000000;0.765697
9123.000000;0.765600
9122.000000;0.765633
9121.000000;0.765816
9120.000000;0.766121
9119.000000;0.766396
9118.000000;0.766424
9117.000000;0.766127
9116.000000;0.765665
9115.000000;0.765291
9114.000000;0.765108
9113.000000;0.765023
9112.000000;0.764903
9111.000000;0.764743
9110.000000;0.764659
9109.000000;0.764737
9108.000000;0.764933
9107.000000;0.765121
9106.000000;0.765230
9105.000000;0.765259
9104.000000;0.765169
9103.000000;0.764850
9102.000000;0.764305
9101.000000;0.763804
9100.000000;0.763719
9099.000000;0.764125
9098.000000;0.764666
9097.000000;0.764875
9096.000000;0.764611
9095.000000;0.764124
9094.000000;0.763745
9093.000000;0.763598
9092.000000;0.763602
9091.000000;0.763621
9090.000000;0.763567
9089.000000;0.763410
9088.000000;0.763208
9087.000000;0.763109
9086.000000;0.763265
9085.000000;0.763684
9084.000000;0.764151
9083.000000;0.764359
9082.000000;0.764154
9081.000000;0.763683
9080.000000;0.763257
9079.000000;0.763054
9078.000000;0.762988
9077.000000;0.762877
9076.000000;0.762674
9075.000000;0.762469
9074.000000;0.762300
9073.000000;0.762094
9072.000000;0.761807
9071.000000;0.761522
9070.000000;0.761353
9069.000000;0.761326
9068.000000;0.761413
9067.000000;0.761589
9066.000000;0.761789
9065.000000;0.761870
9064.000000;0.761756
9063.000000;0.761574
9062.000000;0.761537
9061.000000;0.761677
9060.000000;0.761795
9059.000000;0.761713
9058.000000;0.761475
9057.000000;0.761277
9056.000000;0.761257
9055.000000;0.761405
9054.000000;0.761611
9053.000000;0.761726
