Criado como novo conjunto de dados;"2706_e01_daniel.spp","63725.3 Secs"
cm-1;Abs
10000.000000;0.702132
9999.000000;0.701597
9998.000000;0.701062
9997.000000;0.700527
9996.000000;0.699994
9995.000000;0.699460
9994.000000;0.698929
9993.000000;0.698396
9992.000000;0.697868
9991.000000;0.697333
9990.000000;0.696812
9989.000000;0.696267
9988.000000;0.695960
9987.000000;0.696269
9986.000000;0.697022
9985.000000;0.697573
9984.000000;0.697367
9983.000000;0.696428
9982.000000;0.695225
9981.000000;0.694261
9980.000000;0.693810
9979.000000;0.693886
9978.000000;0.694280
9977.000000;0.694630
9976.000000;0.694569
9975.000000;0.693965
9974.000000;0.693097
9973.000000;0.692517
9972.000000;0.692617
9971.000000;0.693297
9970.000000;0.694106
9969.000000;0.694672
9968.000000;0.694895
9967.000000;0.694831
9966.000000;0.694613
9965.000000;0.694475
9964.000000;0.694606
9963.000000;0.694865
9962.000000;0.694868
9961.000000;0.694442
9960.000000;0.693785
9959.000000;0.693126
9958.000000;0.692473
9957.000000;0.691862
9956.000000;0.691552
9955.000000;0.691703
9954.000000;0.692043
9953.000000;0.692151
9952.000000;0.691972
9951.000000;0.691804
9950.000000;0.691865
9949.000000;0.692109
9948.000000;0.692432
9947.000000;0.692801
9946.000000;0.693139
9945.000000;0.693272
9944.000000;0.693052
9943.000000;0.692463
9942.000000;0.691651
9941.000000;0.690939
9940.000000;0.690698
9939.000000;0.691037
9938.000000;0.691648
9937.000000;0.692113
9936.000000;0.692300
9935.000000;0.692295
9934.000000;0.692075
9933.000000;0.691527
9932.000000;0.690758
9931.000000;0.690095
9930.000000;0.689721
9929.000000;0.689547
9928.000000;0.689489
9927.000000;0.689618
9926.000000;0.689888
9925.000000;0.690001
9924.000000;0.689777
9923.000000;0.689476
9922.000000;0.689462
9921.000000;0.689636
9920.000000;0.689528
9919.000000;0.688971
9918.000000;0.688369
9917.000000;0.688145
9916.000000;0.688195
9915.000000;0.688122
9914.000000;0.687859
9913.000000;0.687733
9912.000000;0.687930
9911.000000;0.688238
9910.000000;0.688412
9909.000000;0.688494
9908.000000;0.688567
9907.000000;0.688427
9906.000000;0.687829
9905.000000;0.686992
9904.000000;0.686534
9903.000000;0.686845
9902.000000;0.687687
9901.000000;0.688436
9900.000000;0.688575
9899.000000;0.687976
9898.000000;0.686923
9897.000000;0.685946
9896.000000;0.685466
9895.000000;0.685491
9894.000000;0.685702
9893.000000;0.685835
9892.000000;0.685874
9891.000000;0.685911
9890.000000;0.686026
9889.000000;0.686315
9888.000000;0.686781
9887.000000;0.687119
9886.000000;0.686877
9885.000000;0.686016
9884.000000;0.685070
9883.000000;0.684537
9882.000000;0.684313
9881.000000;0.683992
9880.000000;0.683543
9879.000000;0.683334
9878.000000;0.683518
9877.000000;0.683793
9876.000000;0.683836
9875.000000;0.683691
9874.000000;0.683545
9873.000000;0.683394
9872.000000;0.683150
9871.000000;0.682908
9870.000000;0.682861
9869.000000;0.683000
9868.000000;0.683116
9867.000000;0.683113
9866.000000;0.683132
9865.000000;0.683312
9864.000000;0.683580
9863.000000;0.683786
9862.000000;0.683904
9861.000000;0.683982
9860.000000;0.683966
9859.000000;0.683753
9858.000000;0.683402
9857.000000;0.683137
9856.000000;0.683077
9855.000000;0.683085
9854.000000;0.682967
9853.000000;0.682743
9852.000000;0.682612
9851.000000;0.682649
9850.000000;0.682657
9849.000000;0.682351
9848.000000;0.681664
9847.000000;0.680852
9846.000000;0.680291
9845.000000;0.680163
9844.000000;0.680345
9843.000000;0.680617
9842.000000;0.680911
9841.000000;0.681263
9840.000000;0.681553
9839.000000;0.681504
9838.000000;0.681039
9837.000000;0.680486
9836.000000;0.680276
9835.000000;0.680484
9834.000000;0.680777
9833.000000;0.680741
9832.000000;0.680194
9831.000000;0.679299
9830.000000;0.678504
9829.000000;0.678269
9828.000000;0.678642
9827.000000;0.679157
9826.000000;0.679309
9825.000000;0.679104
9824.000000;0.678950
9823.000000;0.679096
9822.000000;0.679422
9821.000000;0.679754
9820.000000;0.680077
9819.000000;0.680305
9818.000000;0.680177
9817.000000;0.679600
9816.000000;0.678932
9815.000000;0.678643
9814.000000;0.678744
9813.000000;0.678756
9812.000000;0.678263
9811.000000;0.677384
9810.000000;0.676652
9809.000000;0.676555
9808.000000;0.677161
9807.000000;0.678098
9806.000000;0.678823
9805.000000;0.678969
9804.000000;0.678542
9803.000000;0.677847
9802.000000;0.677257
9801.000000;0.677015
9800.000000;0.677121
9799.000000;0.677333
9798.000000;0.677323
9797.000000;0.676963
9796.000000;0.676492
9795.000000;0.676302
9794.000000;0.676500
9793.000000;0.676754
9792.000000;0.676676
9791.000000;0.676307
9790.000000;0.676048
9789.000000;0.676108
9788.000000;0.676179
9787.000000;0.675820
9786.000000;0.675048
9785.000000;0.674361
9784.000000;0.674201
9783.000000;0.674577
9782.000000;0.675183
9781.000000;0.675663
9780.000000;0.675704
9779.000000;0.675135
9778.000000;0.674148
9777.000000;0.673295
9776.000000;0.673103
9775.000000;0.673688
9774.000000;0.674747
9773.000000;0.675791
9772.000000;0.676320
9771.000000;0.676054
9770.000000;0.675219
9769.000000;0.674493
9768.000000;0.674382
9767.000000;0.674679
9766.000000;0.674749
9765.000000;0.674326
9764.000000;0.673818
9763.000000;0.673785
9762.000000;0.674281
9761.000000;0.674821
9760.000000;0.674870
9759.000000;0.674296
9758.000000;0.673423
9757.000000;0.672721
9756.000000;0.672429
9755.000000;0.672449
9754.000000;0.672581
9753.000000;0.672751
9752.000000;0.672975
9751.000000;0.673197
9750.000000;0.673293
9749.000000;0.673202
9748.000000;0.672972
9747.000000;0.672700
9746.000000;0.672494
9745.000000;0.672445
9744.000000;0.672564
9743.000000;0.672764
9742.000000;0.672966
9741.000000;0.673150
9740.000000;0.673252
9739.000000;0.673137
9738.000000;0.672747
9737.000000;0.672188
9736.000000;0.671573
9735.000000;0.670912
9734.000000;0.670275
9733.000000;0.669899
9732.000000;0.669936
9731.000000;0.670200
9730.000000;0.670354
9729.000000;0.670292
9728.000000;0.670152
9727.000000;0.670020
9726.000000;0.669865
9725.000000;0.669715
9724.000000;0.669643
9723.000000;0.669568
9722.000000;0.669327
9721.000000;0.669017
9720.000000;0.669011
9719.000000;0.669496
9718.000000;0.670148
9717.000000;0.670439
9716.000000;0.670193
9715.000000;0.669700
9714.000000;0.669322
9713.000000;0.669132
9712.000000;0.668986
9711.000000;0.668841
9710.000000;0.668852
9709.000000;0.669113
9708.000000;0.669407
9707.000000;0.669383
9706.000000;0.668974
9705.000000;0.668488
9704.000000;0.668235
9703.000000;0.668212
9702.000000;0.668227
9701.000000;0.668165
9700.000000;0.668010
9699.000000;0.667734
9698.000000;0.667357
9697.000000;0.667027
9696.000000;0.666926
9695.000000;0.667134
9694.000000;0.667651
9693.000000;0.668406
9692.000000;0.669142
9691.000000;0.669472
9690.000000;0.669238
9689.000000;0.668716
9688.000000;0.668254
9687.000000;0.667870
9686.000000;0.667388
9685.000000;0.666839
9684.000000;0.666452
9683.000000;0.666342
9682.000000;0.666461
9681.000000;0.666771
9680.000000;0.667182
9679.000000;0.667378
9678.000000;0.667026
9677.000000;0.666226
9676.000000;0.665498
9675.000000;0.665252
9674.000000;0.665453
9673.000000;0.665803
9672.000000;0.666025
9671.000000;0.665953
9670.000000;0.665581
9669.000000;0.665135
9668.000000;0.664900
9667.000000;0.664901
9666.000000;0.664883
9665.000000;0.664644
9664.000000;0.664235
9663.000000;0.663820
9662.000000;0.663485
9661.000000;0.663255
9660.000000;0.663143
9659.000000;0.663145
9658.000000;0.663277
9657.000000;0.663608
9656.000000;0.664138
9655.000000;0.664703
9654.000000;0.665145
9653.000000;0.665523
9652.000000;0.665955
9651.000000;0.666283
9650.000000;0.666134
9649.000000;0.665382
9648.000000;0.664341
9647.000000;0.663435
9646.000000;0.662830
9645.000000;0.662425
9644.000000;0.662054
9643.000000;0.661637
9642.000000;0.661271
9641.000000;0.661206
9640.000000;0.661595
9639.000000;0.662242
9638.000000;0.662735
9637.000000;0.662828
9636.000000;0.662600
9635.000000;0.662287
9634.000000;0.662110
9633.000000;0.662229
9632.000000;0.662597
9631.000000;0.662891
9630.000000;0.662790
9629.000000;0.662365
9628.000000;0.661990
9627.000000;0.661878
9626.000000;0.661933
9625.000000;0.662073
9624.000000;0.662385
9623.000000;0.662835
9622.000000;0.663103
9621.000000;0.662901
9620.000000;0.662323
9619.000000;0.661740
9618.000000;0.661433
9617.000000;0.661417
9616.000000;0.661496
9615.000000;0.661431
9614.000000;0.661139
9613.000000;0.660790
9612.000000;0.660613
9611.000000;0.660614
9610.000000;0.660602
9609.000000;0.660489
9608.000000;0.660370
9607.000000;0.660298
9606.000000;0.660164
9605.000000;0.659877
9604.000000;0.659493
9603.000000;0.659102
9602.000000;0.658774
9601.000000;0.658654
9600.000000;0.658902
9599.000000;0.659422
9598.000000;0.659823
9597.000000;0.659814
9596.000000;0.659516
9595.000000;0.659258
9594.000000;0.659169
9593.000000;0.659120
9592.000000;0.658981
9591.000000;0.658804
9590.000000;0.658736
9589.000000;0.658818
9588.000000;0.658909
9587.000000;0.658851
9586.000000;0.658708
9585.000000;0.658718
9584.000000;0.658918
9583.000000;0.658961
9582.000000;0.658518
9581.000000;0.657757
9580.000000;0.657188
9579.000000;0.657054
9578.000000;0.657171
9577.000000;0.657356
9576.000000;0.657703
9575.000000;0.658327
9574.000000;0.659093
9573.000000;0.659740
9572.000000;0.660079
9571.000000;0.659958
9570.000000;0.659284
9569.000000;0.658256
9568.000000;0.657379
9567.000000;0.657046
9566.000000;0.657185
9565.000000;0.657423
9564.000000;0.657505
9563.000000;0.657424
9562.000000;0.657291
9561.000000;0.657212
9560.000000;0.657212
9559.000000;0.657179
9558.000000;0.656960
9557.000000;0.656588
9556.000000;0.656288
9555.000000;0.656198
9554.000000;0.656208
9553.000000;0.656171
9552.000000;0.656126
9551.000000;0.656183
9550.000000;0.656308
9549.000000;0.656388
9548.000000;0.656381
9547.000000;0.656290
9546.000000;0.656055
9545.000000;0.655648
9544.000000;0.655235
9543.000000;0.655098
9542.000000;0.655366
9541.000000;0.655854
9540.000000;0.656154
9539.000000;0.655908
9538.000000;0.655120
9537.000000;0.654242
9536.000000;0.653868
9535.000000;0.654220
9534.000000;0.654936
9533.000000;0.655396
9532.000000;0.655240
9531.000000;0.654559
9530.000000;0.653706
9529.000000;0.652991
9528.000000;0.652542
9527.000000;0.652382
9526.000000;0.652540
9525.000000;0.652998
9524.000000;0.653517
9523.000000;0.653697
9522.000000;0.653371
9521.000000;0.652842
9520.000000;0.652528
9519.000000;0.652452
9518.000000;0.652312
9517.000000;0.652005
9516.000000;0.651808
9515.000000;0.651967
9514.000000;0.652377
9513.000000;0.652753
9512.000000;0.652906
9511.000000;0.652784
9510.000000;0.652460
9509.000000;0.652198
9508.000000;0.652323
9507.000000;0.652851
9506.000000;0.653382
9505.000000;0.653500
9504.000000;0.653151
9503.000000;0.652564
9502.000000;0.651974
9501.000000;0.651571
9500.000000;0.651506
9499.000000;0.651736
9498.000000;0.651952
9497.000000;0.651858
9496.000000;0.651507
9495.000000;0.651220
9494.000000;0.651195
9493.000000;0.651307
9492.000000;0.651291
9491.000000;0.651060
9490.000000;0.650814
9489.000000;0.650822
9488.000000;0.651073
9487.000000;0.651200
9486.000000;0.650904
9485.000000;0.650353
9484.000000;0.649988
9483.000000;0.649953
9482.000000;0.649991
9481.000000;0.649923
9480.000000;0.649914
9479.000000;0.650125
9478.000000;0.650376
9477.000000;0.650400
9476.000000;0.650235
9475.000000;0.650121
9474.000000;0.650125
9473.000000;0.650091
9472.000000;0.649906
9471.000000;0.649610
9470.000000;0.649273
9469.000000;0.648953
9468.000000;0.648752
9467.000000;0.648774
9466.000000;0.648987
9465.000000;0.649235
9464.000000;0.649364
9463.000000;0.649310
9462.000000;0.649111
9461.000000;0.648867
9460.000000;0.648629
9459.000000;0.648325
9458.000000;0.647894
9457.000000;0.647505
9456.000000;0.647446
9455.000000;0.647721
9454.000000;0.647954
9453.000000;0.647835
9452.000000;0.647503
9451.000000;0.647306
9450.000000;0.647344
9449.000000;0.647477
9448.000000;0.647638
9447.000000;0.647893
9446.000000;0.648202
9445.000000;0.648355
9444.000000;0.648191
9443.000000;0.647773
9442.000000;0.647338
9441.000000;0.647142
9440.000000;0.647278
9439.000000;0.647538
9438.000000;0.647527
9437.000000;0.647046
9436.000000;0.646335
9435.000000;0.645814
9434.000000;0.645668
9433.000000;0.645779
9432.000000;0.645965
9431.000000;0.646102
9430.000000;0.646063
9429.000000;0.645790
9428.000000;0.645449
9427.000000;0.645337
9426.000000;0.645542
9425.000000;0.645804
9424.000000;0.645795
9423.000000;0.645475
9422.000000;0.645112
9421.000000;0.644985
9420.000000;0.645098
9419.000000;0.645210
9418.000000;0.645131
9417.000000;0.644960
9416.000000;0.644950
9415.000000;0.645154
9414.000000;0.645326
9413.000000;0.645222
9412.000000;0.644877
9411.000000;0.644468
9410.000000;0.644083
9409.000000;0.643757
9408.000000;0.643604
9407.000000;0.643698
9406.000000;0.643860
9405.000000;0.643796
9404.000000;0.643472
9403.000000;0.643169
9402.000000;0.643133
9401.000000;0.643322
9400.000000;0.643548
9399.000000;0.643709
9398.000000;0.643798
9397.000000;0.643807
9396.000000;0.643735
9395.000000;0.643629
9394.000000;0.643525
9393.000000;0.643385
9392.000000;0.643173
9391.000000;0.642954
9390.000000;0.642845
9389.000000;0.642862
9388.000000;0.642870
9387.000000;0.642720
9386.000000;0.642416
9385.000000;0.642106
9384.000000;0.641910
9383.000000;0.641797
9382.000000;0.641676
9381.000000;0.641568
9380.000000;0.641606
9379.000000;0.641842
9378.000000;0.642152
9377.000000;0.642372
9376.000000;0.642441
9375.000000;0.642351
9374.000000;0.642070
9373.000000;0.641656
9372.000000;0.641354
9371.000000;0.641400
9370.000000;0.641701
9369.000000;0.641887
9368.000000;0.641723
9367.000000;0.641352
9366.000000;0.641064
9365.000000;0.640949
9364.000000;0.640880
9363.000000;0.640757
9362.000000;0.640617
9361.000000;0.640537
9360.000000;0.640557
9359.000000;0.640707
9358.000000;0.640996
9357.000000;0.641300
9356.000000;0.641361
9355.000000;0.640996
9354.000000;0.640324
9353.000000;0.639696
9352.000000;0.639403
9351.000000;0.639476
9350.000000;0.639749
9349.000000;0.640001
9348.000000;0.640037
9347.000000;0.639763
9346.000000;0.639273
9345.000000;0.638832
9344.000000;0.638676
9343.000000;0.638810
9342.000000;0.639012
9341.000000;0.639004
9340.000000;0.638649
9339.000000;0.638054
9338.000000;0.637550
9337.000000;0.637463
9336.000000;0.637810
9335.000000;0.638251
9334.000000;0.638435
9333.000000;0.638313
9332.000000;0.638074
9331.000000;0.637856
9330.000000;0.637705
9329.000000;0.637705
9328.000000;0.637911
9327.000000;0.638139
9326.000000;0.638065
9325.000000;0.637618
9324.000000;0.637110
9323.000000;0.636848
9322.000000;0.636805
9321.000000;0.636776
9320.000000;0.636722
9319.000000;0.636755
9318.000000;0.636885
9317.000000;0.636968
9316.000000;0.636917
9315.000000;0.636795
9314.000000;0.636695
9313.000000;0.636634
9312.000000;0.636606
9311.000000;0.636637
9310.000000;0.636712
9309.000000;0.636704
9308.000000;0.636492
9307.000000;0.636142
9306.000000;0.635921
9305.000000;0.636028
9304.000000;0.636330
9303.000000;0.636469
9302.000000;0.636273
9301.000000;0.635945
9300.000000;0.635746
9299.000000;0.635614
9298.000000;0.635295
9297.000000;0.634790
9296.000000;0.634410
9295.000000;0.634351
9294.000000;0.634449
9293.000000;0.634471
9292.000000;0.634417
9291.000000;0.634382
9290.000000;0.634315
9289.000000;0.634150
9288.000000;0.634041
9287.000000;0.634205
9286.000000;0.634571
9285.000000;0.634818
9284.000000;0.634774
9283.000000;0.634589
9282.000000;0.634502
9281.000000;0.634592
9280.000000;0.634788
9279.000000;0.634937
9278.000000;0.634838
9277.000000;0.634395
9276.000000;0.633818
9275.000000;0.633514
9274.000000;0.633681
9273.000000;0.634098
9272.000000;0.634375
9271.000000;0.634314
9270.000000;0.633961
9269.000000;0.633445
9268.000000;0.632898
9267.000000;0.632463
9266.000000;0.632233
9265.000000;0.632194
9264.000000;0.632297
9263.000000;0.632515
9262.000000;0.632764
9261.000000;0.632856
9260.000000;0.632665
9259.000000;0.632313
9258.000000;0.632033
9257.000000;0.631887
9256.000000;0.631758
9255.000000;0.631610
9254.000000;0.631576
9253.000000;0.631735
9252.000000;0.631952
9251.000000;0.632046
9250.000000;0.632000
9249.000000;0.631899
9248.000000;0.631748
9247.000000;0.631488
9246.000000;0.631165
9245.000000;0.630943
9244.000000;0.630937
9243.000000;0.631095
9242.000000;0.631248
9241.000000;0.631240
9240.000000;0.631061
9239.000000;0.630893
9238.000000;0.630972
9237.000000;0.631305
9236.000000;0.631598
9235.000000;0.631553
9234.000000;0.631187
9233.000000;0.630752
9232.000000;0.630408
9231.000000;0.630168
9230.000000;0.630083
9229.000000;0.630244
9228.000000;0.630542
9227.000000;0.630668
9226.000000;0.630490
9225.000000;0.630249
9224.000000;0.630202
9223.000000;0.630230
9222.000000;0.629989
9221.000000;0.629413
9220.000000;0.628834
9219.000000;0.628592
9218.000000;0.628685
9217.000000;0.628852
9216.000000;0.628907
9215.000000;0.628895
9214.000000;0.628958
9213.000000;0.629096
9212.000000;0.629140
9211.000000;0.628966
9210.000000;0.628684
9209.000000;0.628520
9208.000000;0.628523
9207.000000;0.628506
9206.000000;0.628317
9205.000000;0.628014
9204.000000;0.627722
9203.000000;0.627450
9202.000000;0.627165
9201.000000;0.626918
9200.000000;0.626767
9199.000000;0.626686
9198.000000;0.626666
9197.000000;0.626787
9196.000000;0.627043
9195.000000;0.627219
9194.000000;0.627146
9193.000000;0.626973
9192.000000;0.626961
9191.000000;0.627082
9190.000000;0.627104
9189.000000;0.627034
9188.000000;0.627125
9187.000000;0.627413
9186.000000;0.627570
9185.000000;0.627369
9184.000000;0.627035
9183.000000;0.626898
9182.000000;0.626919
9181.000000;0.626794
9180.000000;0.626425
9179.000000;0.626022
9178.000000;0.625782
9177.000000;0.625710
9176.000000;0.625767
9175.000000;0.625986
9174.000000;0.626345
9173.000000;0.626642
9172.000000;0.626652
9171.000000;0.626369
9170.000000;0.626016
9169.000000;0.625791
9168.000000;0.625674
9167.000000;0.625525
9166.000000;0.625324
9165.000000;0.625189
9164.000000;0.625150
9163.000000;0.625037
9162.000000;0.624706
9161.000000;0.624305
9160.000000;0.624120
9159.000000;0.624171
9158.000000;0.624160
9157.000000;0.623918
9156.000000;0.623692
9155.000000;0.623849
9154.000000;0.624392
9153.000000;0.624946
9152.000000;0.625188
9151.000000;0.625098
9150.000000;0.624805
9149.000000;0.624373
9148.000000;0.623834
9147.000000;0.623322
9146.000000;0.623009
9145.000000;0.622931
9144.000000;0.622964
9143.000000;0.622985
9142.000000;0.622997
9141.000000;0.623063
9140.000000;0.623170
9139.000000;0.623225
9138.000000;0.623172
9137.000000;0.623035
9136.000000;0.622832
9135.000000;0.622523
9134.000000;0.622124
9133.000000;0.621809
9132.000000;0.621783
9131.000000;0.622044
9130.000000;0.622332
9129.000000;0.622390
9128.000000;0.622210
9127.000000;0.621967
9126.000000;0.621752
9125.000000;0.621465
9124.000000;0.621019
9123.000000;0.620561
9122.000000;0.620389
9121.000000;0.620630
9120.000000;0.621077
9119.000000;0.621406
9118.000000;0.621464
9117.000000;0.621297
9116.000000;0.620983
9115.000000;0.620615
9114.000000;0.620397
9113.000000;0.620550
9112.000000;0.621015
9111.000000;0.621431
9110.000000;0.621507
9109.000000;0.621334
9108.000000;0.621170
9107.000000;0.621054
9106.000000;0.620801
9105.000000;0.620330
9104.000000;0.619828
9103.000000;0.619549
9102.000000;0.619566
9101.000000;0.619751
9100.000000;0.619903
9099.000000;0.619898
9098.000000;0.619758
9097.000000;0.619603
9096.000000;0.619495
9095.000000;0.619382
9094.000000;0.619227
9093.000000;0.619119
9092.000000;0.619163
9091.000000;0.619326
9090.000000;0.619498
9089.000000;0.619639
9088.000000;0.619740
9087.000000;0.619732
9086.000000;0.619571
9085.000000;0.619356
9084.000000;0.619202
9083.000000;0.619045
9082.000000;0.618760
9081.000000;0.618427
9080.000000;0.618259
9079.000000;0.618257
9078.000000;0.618196
9077.000000;0.617976
9076.000000;0.617752
9075.000000;0.617618
9074.000000;0.617440
9073.000000;0.617150
9072.000000;0.616967
9071.000000;0.617085
9070.000000;0.617304
9069.000000;0.617254
9068.000000;0.616919
9067.000000;0.616660
9066.000000;0.616725
9065.000000;0.616973
9064.000000;0.617146
9063.000000;0.617188
9062.000000;0.617184
9061.000000;0.617144
9060.000000;0.617019
9059.000000;0.616867
9058.000000;0.616811
9057.000000;0.616834
9056.000000;0.616747
9055.000000;0.616448
9054.000000;0.616093
9053.000000;0.615942
