Criado como novo conjunto de dados;"2706_e01_daniel.spp","14582.5 Secs"
cm-1;Abs
10000.000000;0.807349
9999.000000;0.806881
9998.000000;0.806414
9997.000000;0.805947
9996.000000;0.805479
9995.000000;0.805015
9994.000000;0.804545
9993.000000;0.804088
9992.000000;0.803609
9991.000000;0.803172
9990.000000;0.802650
9989.000000;0.802499
9988.000000;0.802837
9987.000000;0.803198
9986.000000;0.803433
9985.000000;0.803397
9984.000000;0.803077
9983.000000;0.802649
9982.000000;0.802404
9981.000000;0.802339
9980.000000;0.802130
9979.000000;0.801618
9978.000000;0.801105
9977.000000;0.801028
9976.000000;0.801510
9975.000000;0.802356
9974.000000;0.803250
9973.000000;0.803799
9972.000000;0.803655
9971.000000;0.802878
9970.000000;0.802027
9969.000000;0.801652
9968.000000;0.801770
9967.000000;0.801964
9966.000000;0.801863
9965.000000;0.801407
9964.000000;0.800797
9963.000000;0.800342
9962.000000;0.800248
9961.000000;0.800409
9960.000000;0.800513
9959.000000;0.800405
9958.000000;0.800220
9957.000000;0.800137
9956.000000;0.800212
9955.000000;0.800489
9954.000000;0.800960
9953.000000;0.801341
9952.000000;0.801207
9951.000000;0.800559
9950.000000;0.799912
9949.000000;0.799609
9948.000000;0.799396
9947.000000;0.798975
9946.000000;0.798628
9945.000000;0.798838
9944.000000;0.799508
9943.000000;0.800019
9942.000000;0.799991
9941.000000;0.799596
9940.000000;0.799184
9939.000000;0.798987
9938.000000;0.799162
9937.000000;0.799765
9936.000000;0.800559
9935.000000;0.801093
9934.000000;0.801054
9933.000000;0.800403
9932.000000;0.799235
9931.000000;0.797769
9930.000000;0.796469
9929.000000;0.795891
9928.000000;0.796249
9927.000000;0.797240
9926.000000;0.798321
9925.000000;0.799082
9924.000000;0.799366
9923.000000;0.799191
9922.000000;0.798628
9921.000000;0.797761
9920.000000;0.796762
9919.000000;0.795964
9918.000000;0.795712
9917.000000;0.796015
9916.000000;0.796472
9915.000000;0.796662
9914.000000;0.796509
9913.000000;0.796189
9912.000000;0.795809
9911.000000;0.795353
9910.000000;0.794842
9909.000000;0.794347
9908.000000;0.793918
9907.000000;0.793612
9906.000000;0.793548
9905.000000;0.793783
9904.000000;0.794193
9903.000000;0.794601
9902.000000;0.794939
9901.000000;0.795166
9900.000000;0.795120
9899.000000;0.794682
9898.000000;0.794043
9897.000000;0.793659
9896.000000;0.793839
9895.000000;0.794452
9894.000000;0.795039
9893.000000;0.795197
9892.000000;0.794911
9891.000000;0.794533
9890.000000;0.794439
9889.000000;0.794704
9888.000000;0.795145
9887.000000;0.795557
9886.000000;0.795750
9885.000000;0.795481
9884.000000;0.794659
9883.000000;0.793642
9882.000000;0.793030
9881.000000;0.793020
9880.000000;0.793203
9879.000000;0.793105
9878.000000;0.792719
9877.000000;0.792365
9876.000000;0.792278
9875.000000;0.792479
9874.000000;0.792824
9873.000000;0.793005
9872.000000;0.792745
9871.000000;0.792193
9870.000000;0.791905
9869.000000;0.792199
9868.000000;0.792746
9867.000000;0.793036
9866.000000;0.793043
9865.000000;0.793118
9864.000000;0.793380
9863.000000;0.793596
9862.000000;0.793610
9861.000000;0.793536
9860.000000;0.793451
9859.000000;0.793194
9858.000000;0.792601
9857.000000;0.791759
9856.000000;0.790924
9855.000000;0.790261
9854.000000;0.789744
9853.000000;0.789276
9852.000000;0.788880
9851.000000;0.788711
9850.000000;0.788868
9849.000000;0.789213
9848.000000;0.789490
9847.000000;0.789614
9846.000000;0.789735
9845.000000;0.790021
9844.000000;0.790516
9843.000000;0.791187
9842.000000;0.791893
9841.000000;0.792301
9840.000000;0.792113
9839.000000;0.791475
9838.000000;0.790937
9837.000000;0.790862
9836.000000;0.791071
9835.000000;0.791161
9834.000000;0.790951
9833.000000;0.790463
9832.000000;0.789703
9831.000000;0.788723
9830.000000;0.787776
9829.000000;0.787219
9828.000000;0.787281
9827.000000;0.787981
9826.000000;0.789068
9825.000000;0.789981
9824.000000;0.790107
9823.000000;0.789331
9822.000000;0.788195
9821.000000;0.787376
9820.000000;0.787103
9819.000000;0.787163
9818.000000;0.787274
9817.000000;0.787285
9816.000000;0.787200
9815.000000;0.787167
9814.000000;0.787321
9813.000000;0.787543
9812.000000;0.787561
9811.000000;0.787365
9810.000000;0.787305
9809.000000;0.787592
9808.000000;0.788004
9807.000000;0.788258
9806.000000;0.788369
9805.000000;0.788390
9804.000000;0.788107
9803.000000;0.787361
9802.000000;0.786495
9801.000000;0.786083
9800.000000;0.786274
9799.000000;0.786720
9798.000000;0.787085
9797.000000;0.787311
9796.000000;0.787393
9795.000000;0.787210
9794.000000;0.786698
9793.000000;0.786059
9792.000000;0.785691
9791.000000;0.785910
9790.000000;0.786651
9789.000000;0.787394
9788.000000;0.787549
9787.000000;0.787026
9786.000000;0.786316
9785.000000;0.785904
9784.000000;0.785796
9783.000000;0.785729
9782.000000;0.785596
9781.000000;0.785452
9780.000000;0.785301
9779.000000;0.785099
9778.000000;0.784868
9777.000000;0.784603
9776.000000;0.784232
9775.000000;0.783840
9774.000000;0.783745
9773.000000;0.784089
9772.000000;0.784520
9771.000000;0.784539
9770.000000;0.784078
9769.000000;0.783496
9768.000000;0.783120
9767.000000;0.783030
9766.000000;0.783188
9765.000000;0.783510
9764.000000;0.783824
9763.000000;0.783995
9762.000000;0.784032
9761.000000;0.783921
9760.000000;0.783485
9759.000000;0.782651
9758.000000;0.781739
9757.000000;0.781225
9756.000000;0.781240
9755.000000;0.781562
9754.000000;0.782004
9753.000000;0.782564
9752.000000;0.783197
9751.000000;0.783729
9750.000000;0.784031
9749.000000;0.784102
9748.000000;0.783960
9747.000000;0.783634
9746.000000;0.783257
9745.000000;0.782996
9744.000000;0.782871
9743.000000;0.782779
9742.000000;0.782665
9741.000000;0.782519
9740.000000;0.782233
9739.000000;0.781677
9738.000000;0.780931
9737.000000;0.780292
9736.000000;0.779994
9735.000000;0.780020
9734.000000;0.780197
9733.000000;0.780395
9732.000000;0.780636
9731.000000;0.781033
9730.000000;0.781569
9729.000000;0.781951
9728.000000;0.781791
9727.000000;0.781050
9726.000000;0.780143
9725.000000;0.779530
9724.000000;0.779333
9723.000000;0.779426
9722.000000;0.779697
9721.000000;0.780028
9720.000000;0.780196
9719.000000;0.780034
9718.000000;0.779649
9717.000000;0.779314
9716.000000;0.779196
9715.000000;0.779324
9714.000000;0.779687
9713.000000;0.780167
9712.000000;0.780469
9711.000000;0.780340
9710.000000;0.779851
9709.000000;0.779327
9708.000000;0.779023
9707.000000;0.778964
9706.000000;0.779026
9705.000000;0.779050
9704.000000;0.778925
9703.000000;0.778706
9702.000000;0.778564
9701.000000;0.778556
9700.000000;0.778529
9699.000000;0.778365
9698.000000;0.778172
9697.000000;0.778115
9696.000000;0.778176
9695.000000;0.778254
9694.000000;0.778390
9693.000000;0.778701
9692.000000;0.779153
9691.000000;0.779538
9690.000000;0.779662
9689.000000;0.779468
9688.000000;0.779046
9687.000000;0.778571
9686.000000;0.778153
9685.000000;0.777714
9684.000000;0.777142
9683.000000;0.776567
9682.000000;0.776282
9681.000000;0.776338
9680.000000;0.776464
9679.000000;0.776457
9678.000000;0.776395
9677.000000;0.776338
9676.000000;0.776138
9675.000000;0.775745
9674.000000;0.775422
9673.000000;0.775395
9672.000000;0.775545
9671.000000;0.775692
9670.000000;0.775938
9669.000000;0.776407
9668.000000;0.776880
9667.000000;0.777022
9666.000000;0.776822
9665.000000;0.776493
9664.000000;0.776091
9663.000000;0.775574
9662.000000;0.775121
9661.000000;0.774991
9660.000000;0.775144
9659.000000;0.775325
9658.000000;0.775463
9657.000000;0.775691
9656.000000;0.776013
9655.000000;0.776246
9654.000000;0.776290
9653.000000;0.776193
9652.000000;0.775998
9651.000000;0.775773
9650.000000;0.775717
9649.000000;0.775946
9648.000000;0.776204
9647.000000;0.776060
9646.000000;0.775420
9645.000000;0.774606
9644.000000;0.773941
9643.000000;0.773518
9642.000000;0.773347
9641.000000;0.773444
9640.000000;0.773736
9639.000000;0.774087
9638.000000;0.774427
9637.000000;0.774710
9636.000000;0.774785
9635.000000;0.774539
9634.000000;0.774115
9633.000000;0.773751
9632.000000;0.773467
9631.000000;0.773141
9630.000000;0.772831
9629.000000;0.772724
9628.000000;0.772796
9627.000000;0.772815
9626.000000;0.772719
9625.000000;0.772689
9624.000000;0.772785
9623.000000;0.772822
9622.000000;0.772692
9621.000000;0.772567
9620.000000;0.772619
9619.000000;0.772764
9618.000000;0.772821
9617.000000;0.772778
9616.000000;0.772738
9615.000000;0.772731
9614.000000;0.772728
9613.000000;0.772746
9612.000000;0.772819
9611.000000;0.772877
9610.000000;0.772764
9609.000000;0.772406
9608.000000;0.771953
9607.000000;0.771699
9606.000000;0.771819
9605.000000;0.772188
9604.000000;0.772497
9603.000000;0.772544
9602.000000;0.772299
9601.000000;0.771758
9600.000000;0.770971
9599.000000;0.770266
9598.000000;0.770155
9597.000000;0.770810
9596.000000;0.771802
9595.000000;0.772525
9594.000000;0.772751
9593.000000;0.772575
9592.000000;0.772052
9591.000000;0.771220
9590.000000;0.770389
9589.000000;0.770036
9588.000000;0.770356
9587.000000;0.771082
9586.000000;0.771748
9585.000000;0.771972
9584.000000;0.771591
9583.000000;0.770770
9582.000000;0.769996
9581.000000;0.769740
9580.000000;0.770070
9579.000000;0.770692
9578.000000;0.771285
9577.000000;0.771646
9576.000000;0.771567
9575.000000;0.770879
9574.000000;0.769677
9573.000000;0.768340
9572.000000;0.767268
9571.000000;0.766687
9570.000000;0.766651
9569.000000;0.767059
9568.000000;0.767650
9567.000000;0.768134
9566.000000;0.768362
9565.000000;0.768347
9564.000000;0.768188
9563.000000;0.768067
9562.000000;0.768185
9561.000000;0.768549
9560.000000;0.768878
9559.000000;0.768863
9558.000000;0.768479
9557.000000;0.767958
9556.000000;0.767540
9555.000000;0.767352
9554.000000;0.767386
9553.000000;0.767464
9552.000000;0.767351
9551.000000;0.767069
9550.000000;0.766935
9549.000000;0.767131
9548.000000;0.767437
9547.000000;0.767603
9546.000000;0.767793
9545.000000;0.768320
9544.000000;0.769062
9543.000000;0.769485
9542.000000;0.769260
9541.000000;0.768577
9540.000000;0.767856
9539.000000;0.767358
9538.000000;0.767084
9537.000000;0.766864
9536.000000;0.766542
9535.000000;0.766210
9534.000000;0.766162
9533.000000;0.766481
9532.000000;0.766824
9531.000000;0.766822
9530.000000;0.766524
9529.000000;0.766210
9528.000000;0.765947
9527.000000;0.765683
9526.000000;0.765593
9525.000000;0.765895
9524.000000;0.766377
9523.000000;0.766538
9522.000000;0.766242
9521.000000;0.765853
9520.000000;0.765646
9519.000000;0.765476
9518.000000;0.765130
9517.000000;0.764680
9516.000000;0.764359
9515.000000;0.764310
9514.000000;0.764566
9513.000000;0.765047
9512.000000;0.765493
9511.000000;0.765619
9510.000000;0.765424
9509.000000;0.765137
9508.000000;0.764883
9507.000000;0.764614
9506.000000;0.764397
9505.000000;0.764428
9504.000000;0.764674
9503.000000;0.764824
9502.000000;0.764716
9501.000000;0.764577
9500.000000;0.764663
9499.000000;0.764908
9498.000000;0.765054
9497.000000;0.764950
9496.000000;0.764568
9495.000000;0.763930
9494.000000;0.763170
9493.000000;0.762518
9492.000000;0.762109
9491.000000;0.761937
9490.000000;0.762026
9489.000000;0.762428
9488.000000;0.762956
9487.000000;0.763180
9486.000000;0.762911
9485.000000;0.762512
9484.000000;0.762516
9483.000000;0.763030
9482.000000;0.763674
9481.000000;0.764032
9480.000000;0.763988
9479.000000;0.763685
9478.000000;0.763304
9477.000000;0.762936
9476.000000;0.762580
9475.000000;0.762253
9474.000000;0.762045
9473.000000;0.762013
9472.000000;0.762040
9471.000000;0.761932
9470.000000;0.761662
9469.000000;0.761398
9468.000000;0.761271
9467.000000;0.761264
9466.000000;0.761312
9465.000000;0.761360
9464.000000;0.761280
9463.000000;0.760916
9462.000000;0.760322
9461.000000;0.759816
9460.000000;0.759666
9459.000000;0.759820
9458.000000;0.759988
9457.000000;0.759956
9456.000000;0.759756
9455.000000;0.759626
9454.000000;0.759812
9453.000000;0.760336
9452.000000;0.760931
9451.000000;0.761275
9450.000000;0.761290
9449.000000;0.761125
9448.000000;0.760880
9447.000000;0.760539
9446.000000;0.760151
9445.000000;0.759866
9444.000000;0.759754
9443.000000;0.759740
9442.000000;0.759781
9441.000000;0.759920
9440.000000;0.760076
9439.000000;0.760010
9438.000000;0.759631
9437.000000;0.759152
9436.000000;0.758819
9435.000000;0.758619
9434.000000;0.758438
9433.000000;0.758360
9432.000000;0.758587
9431.000000;0.759114
9430.000000;0.759670
9429.000000;0.759993
9428.000000;0.760030
9427.000000;0.759849
9426.000000;0.759500
9425.000000;0.759015
9424.000000;0.758487
9423.000000;0.758060
9422.000000;0.757842
9421.000000;0.757828
9420.000000;0.757912
9419.000000;0.757951
9418.000000;0.757849
9417.000000;0.757612
9416.000000;0.757354
9415.000000;0.757241
9414.000000;0.757360
9413.000000;0.757623
9412.000000;0.757849
9411.000000;0.757983
9410.000000;0.758124
9409.000000;0.758285
9408.000000;0.758268
9407.000000;0.757915
9406.000000;0.757397
9405.000000;0.757061
9404.000000;0.757027
9403.000000;0.757117
9402.000000;0.757168
9401.000000;0.757214
9400.000000;0.757321
9399.000000;0.757438
9398.000000;0.757497
9397.000000;0.757525
9396.000000;0.757556
9395.000000;0.757530
9394.000000;0.757365
9393.000000;0.757083
9392.000000;0.756801
9391.000000;0.756652
9390.000000;0.756733
9389.000000;0.757049
9388.000000;0.757449
9387.000000;0.757696
9386.000000;0.757630
9385.000000;0.757230
9384.000000;0.756549
9383.000000;0.755693
9382.000000;0.754900
9381.000000;0.754461
9380.000000;0.754500
9379.000000;0.754865
9378.000000;0.755302
9377.000000;0.755674
9376.000000;0.755977
9375.000000;0.756208
9374.000000;0.756294
9373.000000;0.756138
9372.000000;0.755717
9371.000000;0.755160
9370.000000;0.754727
9369.000000;0.754614
9368.000000;0.754744
9367.000000;0.754811
9366.000000;0.754591
9365.000000;0.754159
9364.000000;0.753769
9363.000000;0.753578
9362.000000;0.753533
9361.000000;0.753511
9360.000000;0.753465
9359.000000;0.753446
9358.000000;0.753477
9357.000000;0.753478
9356.000000;0.753342
9355.000000;0.753086
9354.000000;0.752862
9353.000000;0.752783
9352.000000;0.752807
9351.000000;0.752820
9350.000000;0.752792
9349.000000;0.752781
9348.000000;0.752850
9347.000000;0.753032
9346.000000;0.753321
9345.000000;0.753624
9344.000000;0.753782
9343.000000;0.753734
9342.000000;0.753604
9341.000000;0.753534
9340.000000;0.753514
9339.000000;0.753449
9338.000000;0.753336
9337.000000;0.753226
9336.000000;0.753072
9335.000000;0.752765
9334.000000;0.752346
9333.000000;0.751993
9332.000000;0.751808
9331.000000;0.751730
9330.000000;0.751704
9329.000000;0.751787
9328.000000;0.752032
9327.000000;0.752369
9326.000000;0.752664
9325.000000;0.752842
9324.000000;0.752903
9323.000000;0.752868
9322.000000;0.752747
9321.000000;0.752514
9320.000000;0.752124
9319.000000;0.751628
9318.000000;0.751234
9317.000000;0.751155
9316.000000;0.751357
9315.000000;0.751578
9314.000000;0.751616
9313.000000;0.751522
9312.000000;0.751435
9311.000000;0.751358
9310.000000;0.751166
9309.000000;0.750835
9308.000000;0.750539
9307.000000;0.750499
9306.000000;0.750715
9305.000000;0.750893
9304.000000;0.750687
9303.000000;0.750059
9302.000000;0.749382
9301.000000;0.749122
9300.000000;0.749421
9299.000000;0.750005
9298.000000;0.750437
9297.000000;0.750437
9296.000000;0.750020
9295.000000;0.749463
9294.000000;0.749115
9293.000000;0.749137
9292.000000;0.749388
9291.000000;0.749587
9290.000000;0.749605
9289.000000;0.749528
9288.000000;0.749491
9287.000000;0.749531
9286.000000;0.749607
9285.000000;0.749678
9284.000000;0.749723
9283.000000;0.749727
9282.000000;0.749660
9281.000000;0.749460
9280.000000;0.749082
9279.000000;0.748603
9278.000000;0.748216
9277.000000;0.748055
9276.000000;0.748069
9275.000000;0.748138
9274.000000;0.748210
9273.000000;0.748241
9272.000000;0.748087
9271.000000;0.747630
9270.000000;0.747038
9269.000000;0.746720
9268.000000;0.746958
9267.000000;0.747639
9266.000000;0.748375
9265.000000;0.748790
9264.000000;0.748706
9263.000000;0.748177
9262.000000;0.747445
9261.000000;0.746808
9260.000000;0.746451
9259.000000;0.746380
9258.000000;0.746513
9257.000000;0.746789
9256.000000;0.747157
9255.000000;0.747515
9254.000000;0.747690
9253.000000;0.747521
9252.000000;0.747019
9251.000000;0.746446
9250.000000;0.746168
9249.000000;0.746354
9248.000000;0.746831
9247.000000;0.747282
9246.000000;0.747541
9245.000000;0.747637
9244.000000;0.747596
9243.000000;0.747336
9242.000000;0.746794
9241.000000;0.746087
9240.000000;0.745500
9239.000000;0.745295
9238.000000;0.745495
9237.000000;0.745826
9236.000000;0.745952
9235.000000;0.745801
9234.000000;0.745611
9233.000000;0.745603
9232.000000;0.745726
9231.000000;0.745798
9230.000000;0.745786
9229.000000;0.745772
9228.000000;0.745726
9227.000000;0.745540
9226.000000;0.745269
9225.000000;0.745119
9224.000000;0.745137
9223.000000;0.745102
9222.000000;0.744847
9221.000000;0.744548
9220.000000;0.744531
9219.000000;0.744832
9218.000000;0.745117
9217.000000;0.745057
9216.000000;0.744694
9215.000000;0.744374
9214.000000;0.744367
9213.000000;0.744617
9212.000000;0.744843
9211.000000;0.744800
9210.000000;0.744429
9209.000000;0.743823
9208.000000;0.743161
9207.000000;0.742675
9206.000000;0.742566
9205.000000;0.742871
9204.000000;0.743422
9203.000000;0.743943
9202.000000;0.744203
9201.000000;0.744101
9200.000000;0.743730
9199.000000;0.743355
9198.000000;0.743224
9197.000000;0.743326
9196.000000;0.743391
9195.000000;0.743185
9194.000000;0.742748
9193.000000;0.742310
9192.000000;0.742049
9191.000000;0.742002
9190.000000;0.742109
9189.000000;0.742289
9188.000000;0.742477
9187.000000;0.742664
9186.000000;0.742864
9185.000000;0.743035
9184.000000;0.743103
9183.000000;0.743071
9182.000000;0.743001
9181.000000;0.742880
9180.000000;0.742656
9179.000000;0.742426
9178.000000;0.742414
9177.000000;0.742646
9176.000000;0.742812
9175.000000;0.742636
9174.000000;0.742233
9173.000000;0.741932
9172.000000;0.741847
9171.000000;0.741825
9170.000000;0.741749
9169.000000;0.741657
9168.000000;0.741593
9167.000000;0.741543
9166.000000;0.741513
9165.000000;0.741505
9164.000000;0.741406
9163.000000;0.741089
9162.000000;0.740649
9161.000000;0.740364
9160.000000;0.740387
9159.000000;0.740597
9158.000000;0.740792
9157.000000;0.740917
9156.000000;0.741057
9155.000000;0.741298
9154.000000;0.741620
9153.000000;0.741866
9152.000000;0.741826
9151.000000;0.741455
9150.000000;0.741000
9149.000000;0.740750
9148.000000;0.740667
9147.000000;0.740430
9146.000000;0.739885
9145.000000;0.739289
9144.000000;0.739015
9143.000000;0.739119
9142.000000;0.739328
9141.000000;0.739378
9140.000000;0.739257
9139.000000;0.739130
9138.000000;0.739146
9137.000000;0.739312
9136.000000;0.739530
9135.000000;0.739685
9134.000000;0.739713
9133.000000;0.739599
9132.000000;0.739383
9131.000000;0.739181
9130.000000;0.739126
9129.000000;0.739236
9128.000000;0.739372
9127.000000;0.739378
9126.000000;0.739233
9125.000000;0.739009
9124.000000;0.738768
9123.000000;0.738576
9122.000000;0.738553
9121.000000;0.738775
9120.000000;0.739141
9119.000000;0.739440
9118.000000;0.739550
9117.000000;0.739482
9116.000000;0.739271
9115.000000;0.738950
9114.000000;0.738619
9113.000000;0.738409
9112.000000;0.738328
9111.000000;0.738256
9110.000000;0.738109
9109.000000;0.737945
9108.000000;0.737858
9107.000000;0.737850
9106.000000;0.737849
9105.000000;0.737795
9104.000000;0.737701
9103.000000;0.737611
9102.000000;0.737534
9101.000000;0.737402
9100.000000;0.737171
9099.000000;0.736932
9098.000000;0.736833
9097.000000;0.736834
9096.000000;0.736692
9095.000000;0.736305
9094.000000;0.735935
9093.000000;0.735898
9092.000000;0.736118
9091.000000;0.736213
9090.000000;0.736003
9089.000000;0.735691
9088.000000;0.735525
9087.000000;0.735497
9086.000000;0.735482
9085.000000;0.735493
9084.000000;0.735623
9083.000000;0.735850
9082.000000;0.736053
9081.000000;0.736159
9080.000000;0.736176
9079.000000;0.736115
9078.000000;0.735984
9077.000000;0.735832
9076.000000;0.735732
9075.000000;0.735720
9074.000000;0.735790
9073.000000;0.735913
9072.000000;0.736008
9071.000000;0.735941
9070.000000;0.735637
9069.000000;0.735184
9068.000000;0.734786
9067.000000;0.734586
9066.000000;0.734555
9065.000000;0.734562
9064.000000;0.734546
9063.000000;0.734566
9062.000000;0.734654
9061.000000;0.734671
9060.000000;0.734435
9059.000000;0.734026
9058.000000;0.733823
9057.000000;0.734104
9056.000000;0.734684
9055.000000;0.735086
9054.000000;0.735047
9053.000000;0.734715
