Criado como novo conjunto de dados;"2706_e01_daniel.spp","54004.8 Secs"
cm-1;Abs
10000.000000;0.646948
9999.000000;0.646465
9998.000000;0.645610
9997.000000;0.644719
9996.000000;0.644218
9995.000000;0.644108
9994.000000;0.644165
9993.000000;0.644163
9992.000000;0.644162
9991.000000;0.644279
9990.000000;0.644500
9989.000000;0.644673
9988.000000;0.644720
9987.000000;0.644669
9986.000000;0.644491
9985.000000;0.644077
9984.000000;0.643489
9983.000000;0.643046
9982.000000;0.642987
9981.000000;0.643138
9980.000000;0.643179
9979.000000;0.643149
9978.000000;0.643386
9977.000000;0.643898
9976.000000;0.644159
9975.000000;0.643743
9974.000000;0.642920
9973.000000;0.642334
9972.000000;0.642244
9971.000000;0.642339
9970.000000;0.642248
9969.000000;0.641978
9968.000000;0.641786
9967.000000;0.641857
9966.000000;0.642190
9965.000000;0.642647
9964.000000;0.643016
9963.000000;0.643123
9962.000000;0.642958
9961.000000;0.642673
9960.000000;0.642430
9959.000000;0.642288
9958.000000;0.642240
9957.000000;0.642287
9956.000000;0.642424
9955.000000;0.642572
9954.000000;0.642572
9953.000000;0.642243
9952.000000;0.641506
9951.000000;0.640529
9950.000000;0.639712
9949.000000;0.639429
9948.000000;0.639708
9947.000000;0.640193
9946.000000;0.640453
9945.000000;0.640311
9944.000000;0.639875
9943.000000;0.639376
9942.000000;0.639037
9941.000000;0.639025
9940.000000;0.639366
9939.000000;0.639862
9938.000000;0.640199
9937.000000;0.640215
9936.000000;0.640029
9935.000000;0.639884
9934.000000;0.639870
9933.000000;0.639848
9932.000000;0.639630
9931.000000;0.639172
9930.000000;0.638605
9929.000000;0.638122
9928.000000;0.637856
9927.000000;0.637797
9926.000000;0.637808
9925.000000;0.637724
9924.000000;0.637497
9923.000000;0.637234
9922.000000;0.637095
9921.000000;0.637168
9920.000000;0.637428
9919.000000;0.637774
9918.000000;0.638076
9917.000000;0.638208
9916.000000;0.638093
9915.000000;0.637723
9914.000000;0.637179
9913.000000;0.636666
9912.000000;0.636471
9911.000000;0.636804
9910.000000;0.637573
9909.000000;0.638342
9908.000000;0.638582
9907.000000;0.638034
9906.000000;0.636921
9905.000000;0.635808
9904.000000;0.635206
9903.000000;0.635186
9902.000000;0.635370
9901.000000;0.635342
9900.000000;0.635056
9899.000000;0.634778
9898.000000;0.634674
9897.000000;0.634642
9896.000000;0.634567
9895.000000;0.634520
9894.000000;0.634601
9893.000000;0.634754
9892.000000;0.634850
9891.000000;0.634848
9890.000000;0.634729
9889.000000;0.634417
9888.000000;0.633913
9887.000000;0.633447
9886.000000;0.633304
9885.000000;0.633536
9884.000000;0.633944
9883.000000;0.634289
9882.000000;0.634425
9881.000000;0.634352
9880.000000;0.634280
9879.000000;0.634539
9878.000000;0.635192
9877.000000;0.635815
9876.000000;0.635880
9875.000000;0.635331
9874.000000;0.634555
9873.000000;0.633838
9872.000000;0.633117
9871.000000;0.632310
9870.000000;0.631604
9869.000000;0.631276
9868.000000;0.631426
9867.000000;0.631937
9866.000000;0.632552
9865.000000;0.632922
9864.000000;0.632779
9863.000000;0.632219
9862.000000;0.631648
9861.000000;0.631392
9860.000000;0.631461
9859.000000;0.631730
9858.000000;0.632100
9857.000000;0.632393
9856.000000;0.632352
9855.000000;0.631950
9854.000000;0.631539
9853.000000;0.631450
9852.000000;0.631567
9851.000000;0.631517
9850.000000;0.631186
9849.000000;0.630802
9848.000000;0.630520
9847.000000;0.630220
9846.000000;0.629784
9845.000000;0.629387
9844.000000;0.629374
9843.000000;0.629882
9842.000000;0.630666
9841.000000;0.631266
9840.000000;0.631378
9839.000000;0.631092
9838.000000;0.630766
9837.000000;0.630648
9836.000000;0.630652
9835.000000;0.630530
9834.000000;0.630202
9833.000000;0.629824
9832.000000;0.629585
9831.000000;0.629527
9830.000000;0.629545
9829.000000;0.629468
9828.000000;0.629155
9827.000000;0.628620
9826.000000;0.628079
9825.000000;0.627786
9824.000000;0.627791
9823.000000;0.627902
9822.000000;0.627922
9821.000000;0.627858
9820.000000;0.627834
9819.000000;0.627843
9818.000000;0.627716
9817.000000;0.627374
9816.000000;0.627038
9815.000000;0.627059
9814.000000;0.627533
9813.000000;0.628168
9812.000000;0.628599
9811.000000;0.628750
9810.000000;0.628808
9809.000000;0.628908
9808.000000;0.628976
9807.000000;0.628875
9806.000000;0.628571
9805.000000;0.628123
9804.000000;0.627642
9803.000000;0.627283
9802.000000;0.627183
9801.000000;0.627309
9800.000000;0.627452
9799.000000;0.627415
9798.000000;0.627189
9797.000000;0.626905
9796.000000;0.626689
9795.000000;0.626595
9794.000000;0.626613
9793.000000;0.626658
9792.000000;0.626575
9791.000000;0.626243
9790.000000;0.625657
9789.000000;0.624929
9788.000000;0.624239
9787.000000;0.623803
9786.000000;0.623791
9785.000000;0.624189
9784.000000;0.624784
9783.000000;0.625317
9782.000000;0.625661
9781.000000;0.625829
9780.000000;0.625863
9779.000000;0.625768
9778.000000;0.625537
9777.000000;0.625187
9776.000000;0.624794
9775.000000;0.624477
9774.000000;0.624328
9773.000000;0.624353
9772.000000;0.624504
9771.000000;0.624756
9770.000000;0.625124
9769.000000;0.625567
9768.000000;0.625921
9767.000000;0.625956
9766.000000;0.625544
9765.000000;0.624801
9764.000000;0.624061
9763.000000;0.623614
9762.000000;0.623416
9761.000000;0.623151
9760.000000;0.622638
9759.000000;0.622078
9758.000000;0.621768
9757.000000;0.621707
9756.000000;0.621680
9755.000000;0.621683
9754.000000;0.621960
9753.000000;0.622576
9752.000000;0.623195
9751.000000;0.623438
9750.000000;0.623272
9749.000000;0.622917
9748.000000;0.622521
9747.000000;0.622111
9746.000000;0.621739
9745.000000;0.621500
9744.000000;0.621429
9743.000000;0.621474
9742.000000;0.621530
9741.000000;0.621427
9740.000000;0.621035
9739.000000;0.620482
9738.000000;0.620162
9737.000000;0.620335
9736.000000;0.620802
9735.000000;0.621139
9734.000000;0.621208
9733.000000;0.621234
9732.000000;0.621412
9731.000000;0.621643
9730.000000;0.621711
9729.000000;0.621543
9728.000000;0.621200
9727.000000;0.620752
9726.000000;0.620273
9725.000000;0.619888
9724.000000;0.619724
9723.000000;0.619809
9722.000000;0.620066
9721.000000;0.620398
9720.000000;0.620758
9719.000000;0.621123
9718.000000;0.621435
9717.000000;0.621567
9716.000000;0.621402
9715.000000;0.620951
9714.000000;0.620360
9713.000000;0.619808
9712.000000;0.619422
9711.000000;0.619287
9710.000000;0.619414
9709.000000;0.619672
9708.000000;0.619840
9707.000000;0.619806
9706.000000;0.619647
9705.000000;0.619449
9704.000000;0.619154
9703.000000;0.618705
9702.000000;0.618250
9701.000000;0.617999
9700.000000;0.617929
9699.000000;0.617790
9698.000000;0.617444
9697.000000;0.617059
9696.000000;0.616907
9695.000000;0.617072
9694.000000;0.617414
9693.000000;0.617737
9692.000000;0.617939
9691.000000;0.618059
9690.000000;0.618205
9689.000000;0.618402
9688.000000;0.618502
9687.000000;0.618332
9686.000000;0.617923
9685.000000;0.617510
9684.000000;0.617271
9683.000000;0.617162
9682.000000;0.617057
9681.000000;0.616937
9680.000000;0.616882
9679.000000;0.616960
9678.000000;0.617188
9677.000000;0.617533
9676.000000;0.617857
9675.000000;0.617960
9674.000000;0.617766
9673.000000;0.617445
9672.000000;0.617224
9671.000000;0.617111
9670.000000;0.616885
9669.000000;0.616379
9668.000000;0.615690
9667.000000;0.615101
9666.000000;0.614848
9665.000000;0.614971
9664.000000;0.615290
9663.000000;0.615521
9662.000000;0.615460
9661.000000;0.615136
9660.000000;0.614751
9659.000000;0.614469
9658.000000;0.614332
9657.000000;0.614347
9656.000000;0.614548
9655.000000;0.614911
9654.000000;0.615282
9653.000000;0.615495
9652.000000;0.615559
9651.000000;0.615635
9650.000000;0.615820
9649.000000;0.616000
9648.000000;0.615953
9647.000000;0.615567
9646.000000;0.614940
9645.000000;0.614294
9644.000000;0.613809
9643.000000;0.613523
9642.000000;0.613356
9641.000000;0.613202
9640.000000;0.613012
9639.000000;0.612824
9638.000000;0.612753
9637.000000;0.612922
9636.000000;0.613328
9635.000000;0.613779
9634.000000;0.614020
9633.000000;0.613952
9632.000000;0.613684
9631.000000;0.613350
9630.000000;0.612986
9629.000000;0.612611
9628.000000;0.612324
9627.000000;0.612188
9626.000000;0.612122
9625.000000;0.612046
9624.000000;0.612086
9623.000000;0.612443
9622.000000;0.613033
9621.000000;0.613454
9620.000000;0.613400
9619.000000;0.612989
9618.000000;0.612582
9617.000000;0.612389
9616.000000;0.612337
9615.000000;0.612261
9614.000000;0.612092
9613.000000;0.611872
9612.000000;0.611696
9611.000000;0.611623
9610.000000;0.611616
9609.000000;0.611569
9608.000000;0.611438
9607.000000;0.611291
9606.000000;0.611218
9605.000000;0.611213
9604.000000;0.611183
9603.000000;0.611013
9602.000000;0.610636
9601.000000;0.610112
9600.000000;0.609675
9599.000000;0.609586
9598.000000;0.609861
9597.000000;0.610219
9596.000000;0.610374
9595.000000;0.610309
9594.000000;0.610204
9593.000000;0.610215
9592.000000;0.610400
9591.000000;0.610739
9590.000000;0.611085
9589.000000;0.611170
9588.000000;0.610840
9587.000000;0.610253
9586.000000;0.609725
9585.000000;0.609410
9584.000000;0.609241
9583.000000;0.609127
9582.000000;0.609058
9581.000000;0.609059
9580.000000;0.609150
9579.000000;0.609334
9578.000000;0.609499
9577.000000;0.609419
9576.000000;0.609045
9575.000000;0.608720
9574.000000;0.608880
9573.000000;0.609484
9572.000000;0.609996
9571.000000;0.609981
9570.000000;0.609530
9569.000000;0.609023
9568.000000;0.608688
9567.000000;0.608536
9566.000000;0.608547
9565.000000;0.608693
9564.000000;0.608859
9563.000000;0.608903
9562.000000;0.608799
9561.000000;0.608605
9560.000000;0.608336
9559.000000;0.607964
9558.000000;0.607529
9557.000000;0.607154
9556.000000;0.606938
9555.000000;0.606893
9554.000000;0.606954
9553.000000;0.607032
9552.000000;0.607092
9551.000000;0.607223
9550.000000;0.607565
9549.000000;0.608116
9548.000000;0.608648
9547.000000;0.608870
9546.000000;0.608668
9545.000000;0.608154
9544.000000;0.607563
9543.000000;0.607112
9542.000000;0.606895
9541.000000;0.606797
9540.000000;0.606589
9539.000000;0.606186
9538.000000;0.605763
9537.000000;0.605572
9536.000000;0.605662
9535.000000;0.605849
9534.000000;0.605921
9533.000000;0.605807
9532.000000;0.605581
9531.000000;0.605370
9530.000000;0.605246
9529.000000;0.605153
9528.000000;0.605001
9527.000000;0.604840
9526.000000;0.604887
9525.000000;0.605249
9524.000000;0.605719
9523.000000;0.605953
9522.000000;0.605849
9521.000000;0.605625
9520.000000;0.605506
9519.000000;0.605482
9518.000000;0.605421
9517.000000;0.605295
9516.000000;0.605184
9515.000000;0.605113
9514.000000;0.605003
9513.000000;0.604791
9512.000000;0.604506
9511.000000;0.604210
9510.000000;0.603901
9509.000000;0.603546
9508.000000;0.603191
9507.000000;0.602992
9506.000000;0.603087
9505.000000;0.603443
9504.000000;0.603850
9503.000000;0.604089
9502.000000;0.604108
9501.000000;0.604026
9500.000000;0.603983
9499.000000;0.604016
9498.000000;0.604081
9497.000000;0.604167
9496.000000;0.604318
9495.000000;0.604510
9494.000000;0.604572
9493.000000;0.604308
9492.000000;0.603726
9491.000000;0.603096
9490.000000;0.602730
9489.000000;0.602737
9488.000000;0.602969
9487.000000;0.603172
9486.000000;0.603148
9485.000000;0.602862
9484.000000;0.602460
9483.000000;0.602188
9482.000000;0.602213
9481.000000;0.602495
9480.000000;0.602824
9479.000000;0.602967
9478.000000;0.602801
9477.000000;0.602390
9476.000000;0.601962
9475.000000;0.601746
9474.000000;0.601743
9473.000000;0.601708
9472.000000;0.601449
9471.000000;0.601075
9470.000000;0.600845
9469.000000;0.600851
9468.000000;0.600991
9467.000000;0.601198
9466.000000;0.601503
9465.000000;0.601858
9464.000000;0.602098
9463.000000;0.602137
9462.000000;0.602049
9461.000000;0.601890
9460.000000;0.601616
9459.000000;0.601262
9458.000000;0.601016
9457.000000;0.600935
9456.000000;0.600761
9455.000000;0.600243
9454.000000;0.599561
9453.000000;0.599194
9452.000000;0.599358
9451.000000;0.599776
9450.000000;0.600047
9449.000000;0.600043
9448.000000;0.599869
9447.000000;0.599626
9446.000000;0.599348
9445.000000;0.599092
9444.000000;0.598945
9443.000000;0.598954
9442.000000;0.599103
9441.000000;0.599342
9440.000000;0.599582
9439.000000;0.599699
9438.000000;0.599618
9437.000000;0.599370
9436.000000;0.599033
9435.000000;0.598655
9434.000000;0.598269
9433.000000;0.597926
9432.000000;0.597654
9431.000000;0.597404
9430.000000;0.597159
9429.000000;0.597056
9428.000000;0.597276
9427.000000;0.597759
9426.000000;0.598171
9425.000000;0.598221
9424.000000;0.597953
9423.000000;0.597628
9422.000000;0.597415
9421.000000;0.597298
9420.000000;0.597247
9419.000000;0.597289
9418.000000;0.597398
9417.000000;0.597442
9416.000000;0.597332
9415.000000;0.597126
9414.000000;0.596945
9413.000000;0.596834
9412.000000;0.596761
9411.000000;0.596687
9410.000000;0.596584
9409.000000;0.596450
9408.000000;0.596361
9407.000000;0.596426
9406.000000;0.596634
9405.000000;0.596799
9404.000000;0.596740
9403.000000;0.596463
9402.000000;0.596101
9401.000000;0.595734
9400.000000;0.595400
9399.000000;0.595205
9398.000000;0.595273
9397.000000;0.595561
9396.000000;0.595861
9395.000000;0.596027
9394.000000;0.596099
9393.000000;0.596160
9392.000000;0.596182
9391.000000;0.596081
9390.000000;0.595855
9389.000000;0.595585
9388.000000;0.595342
9387.000000;0.595141
9386.000000;0.594950
9385.000000;0.594717
9384.000000;0.594410
9383.000000;0.594086
9382.000000;0.593886
9381.000000;0.593881
9380.000000;0.593955
9379.000000;0.593905
9378.000000;0.593691
9377.000000;0.593524
9376.000000;0.593643
9375.000000;0.594014
9374.000000;0.594304
9373.000000;0.594214
9372.000000;0.593790
9371.000000;0.593348
9370.000000;0.593116
9369.000000;0.593050
9368.000000;0.592994
9367.000000;0.592905
9366.000000;0.592843
9365.000000;0.592840
9364.000000;0.592894
9363.000000;0.592998
9362.000000;0.593092
9361.000000;0.593041
9360.000000;0.592791
9359.000000;0.592507
9358.000000;0.592395
9357.000000;0.592433
9356.000000;0.592422
9355.000000;0.592300
9354.000000;0.592214
9353.000000;0.592245
9352.000000;0.592262
9351.000000;0.592155
9350.000000;0.592031
9349.000000;0.592060
9348.000000;0.592218
9347.000000;0.592350
9346.000000;0.592392
9345.000000;0.592395
9344.000000;0.592353
9343.000000;0.592181
9342.000000;0.591864
9341.000000;0.591526
9340.000000;0.591310
9339.000000;0.591265
9338.000000;0.591357
9337.000000;0.591501
9336.000000;0.591576
9335.000000;0.591482
9334.000000;0.591236
9333.000000;0.590962
9332.000000;0.590759
9331.000000;0.590640
9330.000000;0.590585
9329.000000;0.590600
9328.000000;0.590668
9327.000000;0.590710
9326.000000;0.590661
9325.000000;0.590574
9324.000000;0.590569
9323.000000;0.590701
9322.000000;0.590915
9321.000000;0.591128
9320.000000;0.591284
9319.000000;0.591328
9318.000000;0.591204
9317.000000;0.590926
9316.000000;0.590594
9315.000000;0.590284
9314.000000;0.589985
9313.000000;0.589703
9312.000000;0.589548
9311.000000;0.589625
9310.000000;0.589841
9309.000000;0.589982
9308.000000;0.589980
9307.000000;0.589987
9306.000000;0.590126
9305.000000;0.590272
9304.000000;0.590188
9303.000000;0.589784
9302.000000;0.589183
9301.000000;0.588590
9300.000000;0.588188
9299.000000;0.588065
9298.000000;0.588121
9297.000000;0.588108
9296.000000;0.587871
9295.000000;0.587552
9294.000000;0.587439
9293.000000;0.587637
9292.000000;0.587971
9291.000000;0.588206
9290.000000;0.588246
9289.000000;0.588134
9288.000000;0.587960
9287.000000;0.587796
9286.000000;0.587641
9285.000000;0.587411
9284.000000;0.587077
9283.000000;0.586791
9282.000000;0.586760
9281.000000;0.586982
9280.000000;0.587227
9279.000000;0.587316
9278.000000;0.587299
9277.000000;0.587310
9276.000000;0.587373
9275.000000;0.587416
9274.000000;0.587393
9273.000000;0.587279
9272.000000;0.587035
9271.000000;0.586678
9270.000000;0.586346
9269.000000;0.586212
9268.000000;0.586316
9267.000000;0.586520
9266.000000;0.586652
9265.000000;0.586645
9264.000000;0.586550
9263.000000;0.586429
9262.000000;0.586244
9261.000000;0.585901
9260.000000;0.585428
9259.000000;0.585064
9258.000000;0.585071
9257.000000;0.585447
9256.000000;0.585915
9255.000000;0.586192
9254.000000;0.586181
9253.000000;0.585925
9252.000000;0.585516
9251.000000;0.585107
9250.000000;0.584875
9249.000000;0.584856
9248.000000;0.584882
9247.000000;0.584796
9246.000000;0.584641
9245.000000;0.584571
9244.000000;0.584625
9243.000000;0.584700
9242.000000;0.584701
9241.000000;0.584635
9240.000000;0.584550
9239.000000;0.584495
9238.000000;0.584508
9237.000000;0.584577
9236.000000;0.584606
9235.000000;0.584491
9234.000000;0.584236
9233.000000;0.583955
9232.000000;0.583749
9231.000000;0.583646
9230.000000;0.583636
9229.000000;0.583713
9228.000000;0.583835
9227.000000;0.583897
9226.000000;0.583797
9225.000000;0.583530
9224.000000;0.583223
9223.000000;0.583039
9222.000000;0.583029
9221.000000;0.583080
9220.000000;0.583025
9219.000000;0.582814
9218.000000;0.582554
9217.000000;0.582373
9216.000000;0.582320
9215.000000;0.582393
9214.000000;0.582572
9213.000000;0.582787
9212.000000;0.582905
9211.000000;0.582829
9210.000000;0.582575
9209.000000;0.582230
9208.000000;0.581870
9207.000000;0.581597
9206.000000;0.581550
9205.000000;0.581777
9204.000000;0.582097
9203.000000;0.582224
9202.000000;0.582042
9201.000000;0.581688
9200.000000;0.581348
9199.000000;0.581102
9198.000000;0.580980
9197.000000;0.581061
9196.000000;0.581367
9195.000000;0.581727
9194.000000;0.581865
9193.000000;0.581684
9192.000000;0.581362
9191.000000;0.581161
9190.000000;0.581171
9189.000000;0.581298
9188.000000;0.581405
9187.000000;0.581393
9186.000000;0.581205
9185.000000;0.580860
9184.000000;0.580506
9183.000000;0.580326
9182.000000;0.580341
9181.000000;0.580382
9180.000000;0.580316
9179.000000;0.580220
9178.000000;0.580256
9177.000000;0.580408
9176.000000;0.580469
9175.000000;0.580291
9174.000000;0.579959
9173.000000;0.579681
9172.000000;0.579574
9171.000000;0.579572
9170.000000;0.579519
9169.000000;0.579324
9168.000000;0.579065
9167.000000;0.578926
9166.000000;0.579004
9165.000000;0.579185
9164.000000;0.579261
9163.000000;0.579143
9162.000000;0.578919
9161.000000;0.578698
9160.000000;0.578499
9159.000000;0.578289
9158.000000;0.578066
9157.000000;0.577866
9156.000000;0.577735
9155.000000;0.577728
9154.000000;0.577866
9153.000000;0.578074
9152.000000;0.578210
9151.000000;0.578192
9150.000000;0.578050
9149.000000;0.577847
9148.000000;0.577606
9147.000000;0.577349
9146.000000;0.577129
9145.000000;0.576998
9144.000000;0.576955
9143.000000;0.576992
9142.000000;0.577110
9141.000000;0.577271
9140.000000;0.577388
9139.000000;0.577410
9138.000000;0.577391
9137.000000;0.577404
9136.000000;0.577459
9135.000000;0.577530
9134.000000;0.577610
9133.000000;0.577661
9132.000000;0.577567
9131.000000;0.577242
9130.000000;0.576774
9129.000000;0.576367
9128.000000;0.576134
9127.000000;0.576006
9126.000000;0.575862
9125.000000;0.575678
9124.000000;0.575508
9123.000000;0.575397
9122.000000;0.575377
9121.000000;0.575493
9120.000000;0.575741
9119.000000;0.575966
9118.000000;0.575934
9117.000000;0.575585
9116.000000;0.575190
9115.000000;0.575136
9114.000000;0.575532
9113.000000;0.576070
9112.000000;0.576331
9111.000000;0.576176
9110.000000;0.575776
9109.000000;0.575357
9108.000000;0.575024
9107.000000;0.574787
9106.000000;0.574631
9105.000000;0.574486
9104.000000;0.574254
9103.000000;0.573930
9102.000000;0.573649
9101.000000;0.573572
9100.000000;0.573747
9099.000000;0.574102
9098.000000;0.574496
9097.000000;0.574747
9096.000000;0.574709
9095.000000;0.574403
9094.000000;0.574051
9093.000000;0.573892
9092.000000;0.573973
9091.000000;0.574150
9090.000000;0.574271
9089.000000;0.574311
9088.000000;0.574322
9087.000000;0.574318
9086.000000;0.574224
9085.000000;0.573945
9084.000000;0.573490
9083.000000;0.573033
9082.000000;0.572804
9081.000000;0.572893
9080.000000;0.573158
9079.000000;0.573358
9078.000000;0.573338
9077.000000;0.573109
9076.000000;0.572781
9075.000000;0.572456
9074.000000;0.572181
9073.000000;0.571980
9072.000000;0.571892
9071.000000;0.571953
9070.000000;0.572098
9069.000000;0.572170
9068.000000;0.572093
9067.000000;0.571990
9066.000000;0.572043
9065.000000;0.572228
9064.000000;0.572325
9063.000000;0.572195
9062.000000;0.571935
9061.000000;0.571718
9060.000000;0.571593
9059.000000;0.571540
9058.000000;0.571598
9057.000000;0.571799
9056.000000;0.572027
9055.000000;0.572056
9054.000000;0.571772
9053.000000;0.571299
