Criado como novo conjunto de dados;"2706_e01_daniel.spp","75786.0 Secs"
cm-1;Abs
10000.000000;0.782065
9999.000000;0.781368
9998.000000;0.780595
9997.000000;0.779938
9996.000000;0.779616
9995.000000;0.779663
9994.000000;0.779888
9993.000000;0.779951
9992.000000;0.779706
9991.000000;0.779403
9990.000000;0.779376
9989.000000;0.779549
9988.000000;0.779548
9987.000000;0.779312
9986.000000;0.779253
9985.000000;0.779675
9984.000000;0.780295
9983.000000;0.780496
9982.000000;0.779895
9981.000000;0.778628
9980.000000;0.777303
9979.000000;0.776717
9978.000000;0.777298
9977.000000;0.778628
9976.000000;0.779703
9975.000000;0.779798
9974.000000;0.779014
9973.000000;0.777972
9972.000000;0.777229
9971.000000;0.776979
9970.000000;0.777030
9969.000000;0.777006
9968.000000;0.776782
9967.000000;0.776700
9966.000000;0.777161
9965.000000;0.778056
9964.000000;0.778888
9963.000000;0.779357
9962.000000;0.779465
9961.000000;0.779148
9960.000000;0.778335
9959.000000;0.777427
9958.000000;0.777101
9957.000000;0.777435
9956.000000;0.777645
9955.000000;0.776976
9954.000000;0.775541
9953.000000;0.774084
9952.000000;0.773231
9951.000000;0.773190
9950.000000;0.773796
9949.000000;0.774556
9948.000000;0.774893
9947.000000;0.774655
9946.000000;0.774252
9945.000000;0.774137
9944.000000;0.774283
9943.000000;0.774320
9942.000000;0.774011
9941.000000;0.773467
9940.000000;0.773011
9939.000000;0.772928
9938.000000;0.773224
9937.000000;0.773628
9936.000000;0.773935
9935.000000;0.774246
9934.000000;0.774653
9933.000000;0.774847
9932.000000;0.774407
9931.000000;0.773427
9930.000000;0.772459
9929.000000;0.771842
9928.000000;0.771505
9927.000000;0.771435
9926.000000;0.771849
9925.000000;0.772692
9924.000000;0.773382
9923.000000;0.773343
9922.000000;0.772605
9921.000000;0.771725
9920.000000;0.771284
9919.000000;0.771527
9918.000000;0.772227
9917.000000;0.772837
9916.000000;0.773010
9915.000000;0.773000
9914.000000;0.773276
9913.000000;0.773803
9912.000000;0.774040
9911.000000;0.773673
9910.000000;0.772924
9909.000000;0.772106
9908.000000;0.771310
9907.000000;0.770625
9906.000000;0.770231
9905.000000;0.770098
9904.000000;0.769939
9903.000000;0.769613
9902.000000;0.769262
9901.000000;0.768981
9900.000000;0.768706
9899.000000;0.768533
9898.000000;0.768719
9897.000000;0.769224
9896.000000;0.769610
9895.000000;0.769581
9894.000000;0.769285
9893.000000;0.768961
9892.000000;0.768661
9891.000000;0.768450
9890.000000;0.768485
9889.000000;0.768711
9888.000000;0.768850
9887.000000;0.768859
9886.000000;0.769023
9885.000000;0.769381
9884.000000;0.769465
9883.000000;0.768895
9882.000000;0.767906
9881.000000;0.767021
9880.000000;0.766491
9879.000000;0.766309
9878.000000;0.766427
9877.000000;0.766706
9876.000000;0.766909
9875.000000;0.767018
9874.000000;0.767323
9873.000000;0.767955
9872.000000;0.768548
9871.000000;0.768582
9870.000000;0.767923
9869.000000;0.766873
9868.000000;0.765899
9867.000000;0.765466
9866.000000;0.765827
9865.000000;0.766766
9864.000000;0.767694
9863.000000;0.768143
9862.000000;0.768023
9861.000000;0.767408
9860.000000;0.766418
9859.000000;0.765411
9858.000000;0.764866
9857.000000;0.764860
9856.000000;0.764935
9855.000000;0.764693
9854.000000;0.764253
9853.000000;0.763931
9852.000000;0.763782
9851.000000;0.763671
9850.000000;0.763516
9849.000000;0.763250
9848.000000;0.762785
9847.000000;0.762231
9846.000000;0.761881
9845.000000;0.761843
9844.000000;0.761944
9843.000000;0.762125
9842.000000;0.762566
9841.000000;0.763216
9840.000000;0.763606
9839.000000;0.763453
9838.000000;0.763098
9837.000000;0.763002
9836.000000;0.763101
9835.000000;0.763033
9834.000000;0.762753
9833.000000;0.762467
9832.000000;0.762155
9831.000000;0.761612
9830.000000;0.760920
9829.000000;0.760478
9828.000000;0.760541
9827.000000;0.760968
9826.000000;0.761410
9825.000000;0.761540
9824.000000;0.761176
9823.000000;0.760465
9822.000000;0.759931
9821.000000;0.760058
9820.000000;0.760781
9819.000000;0.761515
9818.000000;0.761737
9817.000000;0.761412
9816.000000;0.760884
9815.000000;0.760509
9814.000000;0.760432
9813.000000;0.760583
9812.000000;0.760768
9811.000000;0.760785
9810.000000;0.760519
9809.000000;0.760015
9808.000000;0.759463
9807.000000;0.759048
9806.000000;0.758756
9805.000000;0.758418
9804.000000;0.758028
9803.000000;0.757852
9802.000000;0.758060
9801.000000;0.758404
9800.000000;0.758549
9799.000000;0.758597
9798.000000;0.758903
9797.000000;0.759391
9796.000000;0.759503
9795.000000;0.758936
9794.000000;0.758108
9793.000000;0.757687
9792.000000;0.757922
9791.000000;0.758579
9790.000000;0.759231
9789.000000;0.759430
9788.000000;0.758903
9787.000000;0.757861
9786.000000;0.757001
9785.000000;0.756934
9784.000000;0.757646
9783.000000;0.758560
9782.000000;0.759045
9781.000000;0.758807
9780.000000;0.757986
9779.000000;0.757027
9778.000000;0.756352
9777.000000;0.756051
9776.000000;0.755940
9775.000000;0.755933
9774.000000;0.756183
9773.000000;0.756743
9772.000000;0.757264
9771.000000;0.757227
9770.000000;0.756451
9769.000000;0.755340
9768.000000;0.754612
9767.000000;0.754761
9766.000000;0.755641
9765.000000;0.756567
9764.000000;0.756911
9763.000000;0.756598
9762.000000;0.755972
9761.000000;0.755332
9760.000000;0.754805
9759.000000;0.754523
9758.000000;0.754567
9757.000000;0.754710
9756.000000;0.754570
9755.000000;0.754095
9754.000000;0.753658
9753.000000;0.753585
9752.000000;0.753812
9751.000000;0.754068
9750.000000;0.754163
9749.000000;0.754024
9748.000000;0.753681
9747.000000;0.753332
9746.000000;0.753279
9745.000000;0.753653
9744.000000;0.754311
9743.000000;0.754980
9742.000000;0.755398
9741.000000;0.755371
9740.000000;0.754929
9739.000000;0.754409
9738.000000;0.754168
9737.000000;0.754190
9736.000000;0.754167
9735.000000;0.753937
9734.000000;0.753581
9733.000000;0.753124
9732.000000;0.752485
9731.000000;0.751774
9730.000000;0.751329
9729.000000;0.751345
9728.000000;0.751713
9727.000000;0.752288
9726.000000;0.753005
9725.000000;0.753639
9724.000000;0.753759
9723.000000;0.753155
9722.000000;0.752132
9721.000000;0.751229
9720.000000;0.750785
9719.000000;0.750822
9718.000000;0.751135
9717.000000;0.751425
9716.000000;0.751521
9715.000000;0.751557
9714.000000;0.751753
9713.000000;0.752034
9712.000000;0.752110
9711.000000;0.751940
9710.000000;0.751807
9709.000000;0.751847
9708.000000;0.751809
9707.000000;0.751422
9706.000000;0.750720
9705.000000;0.749889
9704.000000;0.749080
9703.000000;0.748531
9702.000000;0.748580
9701.000000;0.749300
9700.000000;0.750278
9699.000000;0.750971
9698.000000;0.751169
9697.000000;0.750979
9696.000000;0.750550
9695.000000;0.750006
9694.000000;0.749497
9693.000000;0.749145
9692.000000;0.748978
9691.000000;0.749028
9690.000000;0.749341
9689.000000;0.749818
9688.000000;0.750159
9687.000000;0.750107
9686.000000;0.749626
9685.000000;0.748818
9684.000000;0.747845
9683.000000;0.747016
9682.000000;0.746717
9681.000000;0.747069
9680.000000;0.747752
9679.000000;0.748303
9678.000000;0.748513
9677.000000;0.748447
9676.000000;0.748233
9675.000000;0.747953
9674.000000;0.747677
9673.000000;0.747448
9672.000000;0.747271
9671.000000;0.747163
9670.000000;0.747184
9669.000000;0.747377
9668.000000;0.747715
9667.000000;0.748046
9666.000000;0.748079
9665.000000;0.747536
9664.000000;0.746506
9663.000000;0.745575
9662.000000;0.745377
9661.000000;0.745975
9660.000000;0.746809
9659.000000;0.747262
9658.000000;0.747131
9657.000000;0.746603
9656.000000;0.746028
9655.000000;0.745723
9654.000000;0.745786
9653.000000;0.745982
9652.000000;0.745975
9651.000000;0.745678
9650.000000;0.745244
9649.000000;0.744744
9648.000000;0.744131
9647.000000;0.743541
9646.000000;0.743295
9645.000000;0.743493
9644.000000;0.743837
9643.000000;0.744004
9642.000000;0.744007
9641.000000;0.744061
9640.000000;0.744268
9639.000000;0.744574
9638.000000;0.744869
9637.000000;0.745009
9636.000000;0.744817
9635.000000;0.744236
9634.000000;0.743461
9633.000000;0.742865
9632.000000;0.742765
9631.000000;0.743193
9630.000000;0.743838
9629.000000;0.744245
9628.000000;0.744204
9627.000000;0.743908
9626.000000;0.743683
9625.000000;0.743651
9624.000000;0.743797
9623.000000;0.744157
9622.000000;0.744671
9621.000000;0.744978
9620.000000;0.744696
9619.000000;0.743885
9618.000000;0.742944
9617.000000;0.742113
9616.000000;0.741419
9615.000000;0.741051
9614.000000;0.741289
9613.000000;0.741958
9612.000000;0.742400
9611.000000;0.742208
9610.000000;0.741672
9609.000000;0.741282
9608.000000;0.741130
9607.000000;0.741064
9606.000000;0.741119
9605.000000;0.741404
9604.000000;0.741716
9603.000000;0.741649
9602.000000;0.741087
9601.000000;0.740361
9600.000000;0.739927
9599.000000;0.740068
9598.000000;0.740794
9597.000000;0.741823
9596.000000;0.742653
9595.000000;0.742855
9594.000000;0.742384
9593.000000;0.741547
9592.000000;0.740698
9591.000000;0.740053
9590.000000;0.739732
9589.000000;0.739794
9588.000000;0.740141
9587.000000;0.740455
9586.000000;0.740352
9585.000000;0.739716
9584.000000;0.738865
9583.000000;0.738321
9582.000000;0.738349
9581.000000;0.738769
9580.000000;0.739228
9579.000000;0.739552
9578.000000;0.739721
9577.000000;0.739666
9576.000000;0.739313
9575.000000;0.738781
9574.000000;0.738323
9573.000000;0.738068
9572.000000;0.738015
9571.000000;0.738234
9570.000000;0.738837
9569.000000;0.739662
9568.000000;0.740210
9567.000000;0.740039
9566.000000;0.739159
9565.000000;0.738003
9564.000000;0.737099
9563.000000;0.736779
9562.000000;0.737022
9561.000000;0.737461
9560.000000;0.737653
9559.000000;0.737410
9558.000000;0.736842
9557.000000;0.736126
9556.000000;0.735415
9555.000000;0.734955
9554.000000;0.735052
9553.000000;0.735750
9552.000000;0.736650
9551.000000;0.737225
9550.000000;0.737288
9549.000000;0.737095
9548.000000;0.737007
9547.000000;0.737123
9546.000000;0.737232
9545.000000;0.737056
9544.000000;0.736523
9543.000000;0.735840
9542.000000;0.735327
9541.000000;0.735192
9540.000000;0.735411
9539.000000;0.735724
9538.000000;0.735794
9537.000000;0.735506
9536.000000;0.735116
9535.000000;0.734962
9534.000000;0.734991
9533.000000;0.734783
9532.000000;0.734157
9531.000000;0.733520
9530.000000;0.733398
9529.000000;0.733779
9528.000000;0.734169
9527.000000;0.734221
9526.000000;0.734026
9525.000000;0.733808
9524.000000;0.733607
9523.000000;0.733381
9522.000000;0.733201
9521.000000;0.733196
9520.000000;0.733340
9519.000000;0.733402
9518.000000;0.733147
9517.000000;0.732620
9516.000000;0.732218
9515.000000;0.732352
9514.000000;0.733007
9513.000000;0.733707
9512.000000;0.733974
9511.000000;0.733724
9510.000000;0.733184
9509.000000;0.732622
9508.000000;0.732281
9507.000000;0.732325
9506.000000;0.732633
9505.000000;0.732757
9504.000000;0.732352
9503.000000;0.731577
9502.000000;0.730920
9501.000000;0.730722
9500.000000;0.731040
9499.000000;0.731767
9498.000000;0.732622
9497.000000;0.733174
9496.000000;0.733182
9495.000000;0.732883
9494.000000;0.732678
9493.000000;0.732557
9492.000000;0.732125
9491.000000;0.731199
9490.000000;0.730144
9489.000000;0.729537
9488.000000;0.729642
9487.000000;0.730249
9486.000000;0.730871
9485.000000;0.731079
9484.000000;0.730809
9483.000000;0.730371
9482.000000;0.730128
9481.000000;0.730208
9480.000000;0.730560
9479.000000;0.731106
9478.000000;0.731673
9477.000000;0.731912
9476.000000;0.731551
9475.000000;0.730734
9474.000000;0.729903
9473.000000;0.729397
9472.000000;0.729256
9471.000000;0.729330
9470.000000;0.729415
9469.000000;0.729380
9468.000000;0.729328
9467.000000;0.729507
9466.000000;0.729891
9465.000000;0.730031
9464.000000;0.729587
9463.000000;0.728857
9462.000000;0.728458
9461.000000;0.728567
9460.000000;0.728809
9459.000000;0.728834
9458.000000;0.728683
9457.000000;0.728521
9456.000000;0.728350
9455.000000;0.728095
9454.000000;0.727760
9453.000000;0.727421
9452.000000;0.727191
9451.000000;0.727196
9450.000000;0.727408
9449.000000;0.727548
9448.000000;0.727377
9447.000000;0.727060
9446.000000;0.726995
9445.000000;0.727277
9444.000000;0.727572
9443.000000;0.727550
9442.000000;0.727206
9441.000000;0.726698
9440.000000;0.726143
9439.000000;0.725680
9438.000000;0.725500
9437.000000;0.725645
9436.000000;0.725897
9435.000000;0.725974
9434.000000;0.725771
9433.000000;0.725349
9432.000000;0.724803
9431.000000;0.724249
9430.000000;0.723887
9429.000000;0.723961
9428.000000;0.724562
9427.000000;0.725433
9426.000000;0.726004
9425.000000;0.725802
9424.000000;0.724936
9423.000000;0.724053
9422.000000;0.723762
9421.000000;0.724167
9420.000000;0.724960
9419.000000;0.725734
9418.000000;0.726101
9417.000000;0.725810
9416.000000;0.725032
9415.000000;0.724354
9414.000000;0.724220
9413.000000;0.724452
9412.000000;0.724532
9411.000000;0.724259
9410.000000;0.723877
9409.000000;0.723673
9408.000000;0.723747
9407.000000;0.724068
9406.000000;0.724441
9405.000000;0.724468
9404.000000;0.723899
9403.000000;0.723059
9402.000000;0.722599
9401.000000;0.722779
9400.000000;0.723219
9399.000000;0.723408
9398.000000;0.723217
9397.000000;0.722822
9396.000000;0.722404
9395.000000;0.722070
9394.000000;0.721913
9393.000000;0.721994
9392.000000;0.722288
9391.000000;0.722667
9390.000000;0.722909
9389.000000;0.722774
9388.000000;0.722215
9387.000000;0.721473
9386.000000;0.720863
9385.000000;0.720509
9384.000000;0.720362
9383.000000;0.720350
9382.000000;0.720395
9381.000000;0.720395
9380.000000;0.720367
9379.000000;0.720519
9378.000000;0.720980
9377.000000;0.721547
9376.000000;0.721870
9375.000000;0.721838
9374.000000;0.721593
9373.000000;0.721289
9372.000000;0.721031
9371.000000;0.720929
9370.000000;0.720968
9369.000000;0.720921
9368.000000;0.720599
9367.000000;0.720124
9366.000000;0.719724
9365.000000;0.719402
9364.000000;0.719082
9363.000000;0.718940
9362.000000;0.719228
9361.000000;0.719809
9360.000000;0.720215
9359.000000;0.720206
9358.000000;0.719972
9357.000000;0.719780
9356.000000;0.719732
9355.000000;0.719859
9354.000000;0.720137
9353.000000;0.720314
9352.000000;0.720055
9351.000000;0.719386
9350.000000;0.718757
9349.000000;0.718540
9348.000000;0.718662
9347.000000;0.718812
9346.000000;0.718795
9345.000000;0.718602
9344.000000;0.718320
9343.000000;0.718067
9342.000000;0.717917
9341.000000;0.717822
9340.000000;0.717719
9339.000000;0.717698
9338.000000;0.717856
9337.000000;0.718014
9336.000000;0.717821
9335.000000;0.717214
9334.000000;0.716572
9333.000000;0.716296
9332.000000;0.716391
9331.000000;0.716533
9330.000000;0.716436
9329.000000;0.716085
9328.000000;0.715731
9327.000000;0.715678
9326.000000;0.715973
9325.000000;0.716329
9324.000000;0.716450
9323.000000;0.716398
9322.000000;0.716464
9321.000000;0.716735
9320.000000;0.716986
9319.000000;0.716990
9318.000000;0.716759
9317.000000;0.716428
9316.000000;0.716083
9315.000000;0.715773
9314.000000;0.715541
9313.000000;0.715398
9312.000000;0.715324
9311.000000;0.715283
9310.000000;0.715196
9309.000000;0.714992
9308.000000;0.714791
9307.000000;0.714905
9306.000000;0.715462
9305.000000;0.716122
9304.000000;0.716391
9303.000000;0.716166
9302.000000;0.715759
9301.000000;0.715442
9300.000000;0.715226
9299.000000;0.715018
9298.000000;0.714752
9297.000000;0.714371
9296.000000;0.713904
9295.000000;0.713579
9294.000000;0.713577
9293.000000;0.713699
9292.000000;0.713530
9291.000000;0.713005
9290.000000;0.712539
9289.000000;0.712505
9288.000000;0.712819
9287.000000;0.713130
9286.000000;0.713256
9285.000000;0.713284
9284.000000;0.713372
9283.000000;0.713565
9282.000000;0.713748
9281.000000;0.713745
9280.000000;0.713522
9279.000000;0.713258
9278.000000;0.713122
9277.000000;0.713037
9276.000000;0.712805
9275.000000;0.712411
9274.000000;0.712056
9273.000000;0.711907
9272.000000;0.711975
9271.000000;0.712172
9270.000000;0.712336
9269.000000;0.712235
9268.000000;0.711788
9267.000000;0.711243
9266.000000;0.710953
9265.000000;0.710986
9264.000000;0.711133
9263.000000;0.711250
9262.000000;0.711354
9261.000000;0.711407
9260.000000;0.711262
9259.000000;0.710920
9258.000000;0.710589
9257.000000;0.710431
9256.000000;0.710398
9255.000000;0.710396
9254.000000;0.710406
9253.000000;0.710390
9252.000000;0.710248
9251.000000;0.709970
9250.000000;0.709684
9249.000000;0.709465
9248.000000;0.709241
9247.000000;0.708964
9246.000000;0.708733
9245.000000;0.708663
9244.000000;0.708703
9243.000000;0.708703
9242.000000;0.708591
9241.000000;0.708457
9240.000000;0.708466
9239.000000;0.708708
9238.000000;0.709078
9237.000000;0.709334
9236.000000;0.709338
9235.000000;0.709198
9234.000000;0.709104
9233.000000;0.709085
9232.000000;0.709038
9231.000000;0.708932
9230.000000;0.708819
9229.000000;0.708675
9228.000000;0.708379
9227.000000;0.707875
9226.000000;0.707280
9225.000000;0.706809
9224.000000;0.706663
9223.000000;0.706899
9222.000000;0.707334
9221.000000;0.707649
9220.000000;0.707687
9219.000000;0.707584
9218.000000;0.707502
9217.000000;0.707384
9216.000000;0.707118
9215.000000;0.706827
9214.000000;0.706748
9213.000000;0.706906
9212.000000;0.707097
9211.000000;0.707166
9210.000000;0.707098
9209.000000;0.706870
9208.000000;0.706454
9207.000000;0.705991
9206.000000;0.705767
9205.000000;0.705910
9204.000000;0.706214
9203.000000;0.706310
9202.000000;0.705966
9201.000000;0.705271
9200.000000;0.704614
9199.000000;0.704423
9198.000000;0.704807
9197.000000;0.705453
9196.000000;0.705919
9195.000000;0.705988
9194.000000;0.705684
9193.000000;0.705143
9192.000000;0.704614
9191.000000;0.704427
9190.000000;0.704728
9189.000000;0.705270
9188.000000;0.705628
9187.000000;0.705596
9186.000000;0.705268
9185.000000;0.704851
9184.000000;0.704547
9183.000000;0.704504
9182.000000;0.704662
9181.000000;0.704722
9180.000000;0.704464
9179.000000;0.704007
9178.000000;0.703637
9177.000000;0.703478
9176.000000;0.703537
9175.000000;0.703891
9174.000000;0.704536
9173.000000;0.705136
9172.000000;0.705220
9171.000000;0.704652
9170.000000;0.703731
9169.000000;0.702871
9168.000000;0.702386
9167.000000;0.702438
9166.000000;0.702911
9165.000000;0.703369
9164.000000;0.703406
9163.000000;0.703058
9162.000000;0.702661
9161.000000;0.702355
9160.000000;0.701993
9159.000000;0.701509
9158.000000;0.701066
9157.000000;0.700833
9156.000000;0.700848
9155.000000;0.701118
9154.000000;0.701598
9153.000000;0.702052
9152.000000;0.702180
9151.000000;0.701950
9150.000000;0.701621
9149.000000;0.701398
9148.000000;0.701276
9147.000000;0.701201
9146.000000;0.701143
9145.000000;0.700972
9144.000000;0.700513
9143.000000;0.699821
9142.000000;0.699226
9141.000000;0.699047
9140.000000;0.699352
9139.000000;0.699979
9138.000000;0.700623
9137.000000;0.700947
9136.000000;0.700834
9135.000000;0.700533
9134.000000;0.700372
9133.000000;0.700347
9132.000000;0.700197
9131.000000;0.699830
9130.000000;0.699425
9129.000000;0.699101
9128.000000;0.698786
9127.000000;0.698456
9126.000000;0.698234
9125.000000;0.698167
9124.000000;0.698133
9123.000000;0.698083
9122.000000;0.698167
9121.000000;0.698490
9120.000000;0.698921
9119.000000;0.699236
9118.000000;0.699302
9117.000000;0.699059
9116.000000;0.698516
9115.000000;0.697871
9114.000000;0.697467
9113.000000;0.697466
9112.000000;0.697672
9111.000000;0.697750
9110.000000;0.697557
9109.000000;0.697217
9108.000000;0.696964
9107.000000;0.696967
9106.000000;0.697213
9105.000000;0.697504
9104.000000;0.697641
9103.000000;0.697602
9102.000000;0.697473
9101.000000;0.697263
9100.000000;0.696936
9099.000000;0.696603
9098.000000;0.696476
9097.000000;0.696593
9096.000000;0.696747
9095.000000;0.696736
9094.000000;0.696553
9093.000000;0.696298
9092.000000;0.696041
9091.000000;0.695819
9090.000000;0.695656
9089.000000;0.695523
9088.000000;0.695367
9087.000000;0.695231
9086.000000;0.695237
9085.000000;0.695446
9084.000000;0.695796
9083.000000;0.696158
9082.000000;0.696373
9081.000000;0.696290
9080.000000;0.695886
9079.000000;0.695355
9078.000000;0.694954
9077.000000;0.694778
9076.000000;0.694754
9075.000000;0.694788
9074.000000;0.694778
9073.000000;0.694575
9072.000000;0.694104
9071.000000;0.693521
9070.000000;0.693111
9069.000000;0.693023
9068.000000;0.693230
9067.000000;0.693656
9066.000000;0.694168
9065.000000;0.694499
9064.000000;0.694406
9063.000000;0.693930
9062.000000;0.693345
9061.000000;0.692868
9060.000000;0.692586
9059.000000;0.692597
9058.000000;0.692941
9057.000000;0.693397
9056.000000;0.693576
9055.000000;0.693341
9054.000000;0.692939
9053.000000;0.692671
