Criado como novo conjunto de dados;"2706_e01_daniel.spp","94867.3 Secs"
cm-1;Abs
10000.000000;0.859132
9999.000000;0.858596
9998.000000;0.858881
9997.000000;0.859739
9996.000000;0.860501
9995.000000;0.860880
9994.000000;0.860844
9993.000000;0.860573
9992.000000;0.860144
9991.000000;0.859626
9990.000000;0.859144
9989.000000;0.858910
9988.000000;0.858975
9987.000000;0.859025
9986.000000;0.858617
9985.000000;0.857701
9984.000000;0.856768
9983.000000;0.856336
9982.000000;0.856405
9981.000000;0.856568
9980.000000;0.856584
9979.000000;0.856593
9978.000000;0.856766
9977.000000;0.856959
9976.000000;0.856864
9975.000000;0.856432
9974.000000;0.856001
9973.000000;0.855940
9972.000000;0.856265
9971.000000;0.856659
9970.000000;0.856880
9969.000000;0.857012
9968.000000;0.857247
9967.000000;0.857532
9966.000000;0.857603
9965.000000;0.857362
9964.000000;0.857045
9963.000000;0.856898
9962.000000;0.856841
9961.000000;0.856588
9960.000000;0.856053
9959.000000;0.855497
9958.000000;0.855259
9957.000000;0.855405
9956.000000;0.855683
9955.000000;0.855787
9954.000000;0.855607
9953.000000;0.855223
9952.000000;0.854692
9951.000000;0.853944
9950.000000;0.852957
9949.000000;0.851972
9948.000000;0.851404
9947.000000;0.851529
9946.000000;0.852296
9945.000000;0.853369
9944.000000;0.854287
9943.000000;0.854653
9942.000000;0.854406
9941.000000;0.853944
9940.000000;0.853791
9939.000000;0.854044
9938.000000;0.854245
9937.000000;0.853908
9936.000000;0.853034
9935.000000;0.852059
9934.000000;0.851436
9933.000000;0.851391
9932.000000;0.851872
9931.000000;0.852529
9930.000000;0.852827
9929.000000;0.852474
9928.000000;0.851776
9927.000000;0.851434
9926.000000;0.851907
9925.000000;0.853005
9924.000000;0.854066
9923.000000;0.854451
9922.000000;0.853971
9921.000000;0.852979
9920.000000;0.852123
9919.000000;0.851849
9918.000000;0.852057
9917.000000;0.852254
9916.000000;0.852074
9915.000000;0.851617
9914.000000;0.851263
9913.000000;0.851236
9912.000000;0.851406
9911.000000;0.851493
9910.000000;0.851362
9909.000000;0.851060
9908.000000;0.850622
9907.000000;0.849997
9906.000000;0.849253
9905.000000;0.848726
9904.000000;0.848777
9903.000000;0.849396
9902.000000;0.850191
9901.000000;0.850771
9900.000000;0.850992
9899.000000;0.850854
9898.000000;0.850414
9897.000000;0.849878
9896.000000;0.849527
9895.000000;0.849417
9894.000000;0.849319
9893.000000;0.849119
9892.000000;0.849063
9891.000000;0.849405
9890.000000;0.849978
9889.000000;0.850399
9888.000000;0.850561
9887.000000;0.850624
9886.000000;0.850578
9885.000000;0.850203
9884.000000;0.849521
9883.000000;0.848978
9882.000000;0.848967
9881.000000;0.849336
9880.000000;0.849519
9879.000000;0.849124
9878.000000;0.848322
9877.000000;0.847715
9876.000000;0.847818
9875.000000;0.848604
9874.000000;0.849548
9873.000000;0.850140
9872.000000;0.850273
9871.000000;0.850083
9870.000000;0.849619
9869.000000;0.848940
9868.000000;0.848381
9867.000000;0.848331
9866.000000;0.848694
9865.000000;0.848888
9864.000000;0.848503
9863.000000;0.847720
9862.000000;0.847007
9861.000000;0.846669
9860.000000;0.846786
9859.000000;0.847291
9858.000000;0.847879
9857.000000;0.848070
9856.000000;0.847656
9855.000000;0.846964
9854.000000;0.846513
9853.000000;0.846517
9852.000000;0.846856
9851.000000;0.847331
9850.000000;0.847706
9849.000000;0.847704
9848.000000;0.847309
9847.000000;0.846980
9846.000000;0.847180
9845.000000;0.847657
9844.000000;0.847560
9843.000000;0.846427
9842.000000;0.844805
9841.000000;0.843709
9840.000000;0.843659
9839.000000;0.844385
9838.000000;0.845278
9837.000000;0.845879
9836.000000;0.846023
9835.000000;0.845769
9834.000000;0.845324
9833.000000;0.844923
9832.000000;0.844671
9831.000000;0.844510
9830.000000;0.844353
9829.000000;0.844217
9828.000000;0.844201
9827.000000;0.844381
9826.000000;0.844738
9825.000000;0.845188
9824.000000;0.845603
9823.000000;0.845860
9822.000000;0.845925
9821.000000;0.845920
9820.000000;0.846003
9819.000000;0.846143
9818.000000;0.846062
9817.000000;0.845522
9816.000000;0.844629
9815.000000;0.843753
9814.000000;0.843144
9813.000000;0.842760
9812.000000;0.842500
9811.000000;0.842439
9810.000000;0.842680
9809.000000;0.843056
9808.000000;0.843188
9807.000000;0.842886
9806.000000;0.842375
9805.000000;0.842051
9804.000000;0.842043
9803.000000;0.842105
9802.000000;0.841943
9801.000000;0.841618
9800.000000;0.841569
9799.000000;0.842188
9798.000000;0.843373
9797.000000;0.844491
9796.000000;0.844831
9795.000000;0.844161
9794.000000;0.842894
9793.000000;0.841766
9792.000000;0.841298
9791.000000;0.841474
9790.000000;0.841856
9789.000000;0.842016
9788.000000;0.841899
9787.000000;0.841788
9786.000000;0.841958
9785.000000;0.842404
9784.000000;0.842890
9783.000000;0.843143
9782.000000;0.842989
9781.000000;0.842389
9780.000000;0.841470
9779.000000;0.840518
9778.000000;0.839857
9777.000000;0.839663
9776.000000;0.839862
9775.000000;0.840221
9774.000000;0.840510
9773.000000;0.840640
9772.000000;0.840678
9771.000000;0.840750
9770.000000;0.840913
9769.000000;0.841090
9768.000000;0.841124
9767.000000;0.840882
9766.000000;0.840378
9765.000000;0.839827
9764.000000;0.839548
9763.000000;0.839722
9762.000000;0.840199
9761.000000;0.840599
9760.000000;0.840654
9759.000000;0.840431
9758.000000;0.840175
9757.000000;0.840008
9756.000000;0.839850
9755.000000;0.839617
9754.000000;0.839385
9753.000000;0.839274
9752.000000;0.839242
9751.000000;0.839111
9750.000000;0.838832
9749.000000;0.838646
9748.000000;0.838830
9747.000000;0.839299
9746.000000;0.839586
9745.000000;0.839314
9744.000000;0.838615
9743.000000;0.837975
9742.000000;0.837722
9741.000000;0.837797
9740.000000;0.837959
9739.000000;0.838037
9738.000000;0.837933
9737.000000;0.837588
9736.000000;0.837099
9735.000000;0.836740
9734.000000;0.836689
9733.000000;0.836770
9732.000000;0.836625
9731.000000;0.836177
9730.000000;0.835802
9729.000000;0.835953
9728.000000;0.836664
9727.000000;0.837495
9726.000000;0.837977
9725.000000;0.838059
9724.000000;0.838074
9723.000000;0.838307
9722.000000;0.838686
9721.000000;0.838924
9720.000000;0.838873
9719.000000;0.838636
9718.000000;0.838369
9717.000000;0.838100
9716.000000;0.837772
9715.000000;0.837352
9714.000000;0.836856
9713.000000;0.836350
9712.000000;0.835954
9711.000000;0.835809
9710.000000;0.835975
9709.000000;0.836378
9708.000000;0.836842
9707.000000;0.837132
9706.000000;0.837038
9705.000000;0.836569
9704.000000;0.836055
9703.000000;0.835881
9702.000000;0.836064
9701.000000;0.836259
9700.000000;0.836232
9699.000000;0.836129
9698.000000;0.836148
9697.000000;0.836182
9696.000000;0.835992
9695.000000;0.835621
9694.000000;0.835374
9693.000000;0.835414
9692.000000;0.835610
9691.000000;0.835760
9690.000000;0.835786
9689.000000;0.835679
9688.000000;0.835467
9687.000000;0.835259
9686.000000;0.835193
9685.000000;0.835241
9684.000000;0.835207
9683.000000;0.834957
9682.000000;0.834548
9681.000000;0.834101
9680.000000;0.833675
9679.000000;0.833350
9678.000000;0.833279
9677.000000;0.833545
9676.000000;0.833990
9675.000000;0.834282
9674.000000;0.834152
9673.000000;0.833577
9672.000000;0.832799
9671.000000;0.832168
9670.000000;0.831882
9669.000000;0.831838
9668.000000;0.831821
9667.000000;0.831814
9666.000000;0.832024
9665.000000;0.832570
9664.000000;0.833265
9663.000000;0.833802
9662.000000;0.834046
9661.000000;0.834077
9660.000000;0.834029
9659.000000;0.833994
9658.000000;0.834012
9657.000000;0.834034
9656.000000;0.833916
9655.000000;0.833546
9654.000000;0.832990
9653.000000;0.832497
9652.000000;0.832322
9651.000000;0.832518
9650.000000;0.832850
9649.000000;0.832944
9648.000000;0.832653
9647.000000;0.832251
9646.000000;0.832136
9645.000000;0.832292
9644.000000;0.832243
9643.000000;0.831652
9642.000000;0.830815
9641.000000;0.830370
9640.000000;0.830611
9639.000000;0.831252
9638.000000;0.831825
9637.000000;0.832132
9636.000000;0.832272
9635.000000;0.832395
9634.000000;0.832506
9633.000000;0.832469
9632.000000;0.832180
9631.000000;0.831748
9630.000000;0.831452
9629.000000;0.831448
9628.000000;0.831558
9627.000000;0.831454
9626.000000;0.831045
9625.000000;0.830564
9624.000000;0.830304
9623.000000;0.830383
9622.000000;0.830737
9621.000000;0.831176
9620.000000;0.831409
9619.000000;0.831179
9618.000000;0.830486
9617.000000;0.829618
9616.000000;0.828921
9615.000000;0.828617
9614.000000;0.828805
9613.000000;0.829467
9612.000000;0.830342
9611.000000;0.830941
9610.000000;0.830839
9609.000000;0.830011
9608.000000;0.828840
9607.000000;0.827883
9606.000000;0.827611
9605.000000;0.828182
9604.000000;0.829272
9603.000000;0.830204
9602.000000;0.830481
9601.000000;0.830233
9600.000000;0.830029
9599.000000;0.830179
9598.000000;0.830387
9597.000000;0.830155
9596.000000;0.829399
9595.000000;0.828532
9594.000000;0.827945
9593.000000;0.827602
9592.000000;0.827215
9591.000000;0.826709
9590.000000;0.826348
9589.000000;0.826388
9588.000000;0.826759
9587.000000;0.827170
9586.000000;0.827474
9585.000000;0.827762
9584.000000;0.828098
9583.000000;0.828341
9582.000000;0.828332
9581.000000;0.828152
9580.000000;0.828049
9579.000000;0.828125
9578.000000;0.828242
9577.000000;0.828245
9576.000000;0.828148
9575.000000;0.828022
9574.000000;0.827809
9573.000000;0.827393
9572.000000;0.826835
9571.000000;0.826409
9570.000000;0.826297
9569.000000;0.826339
9568.000000;0.826186
9567.000000;0.825714
9566.000000;0.825194
9565.000000;0.825000
9564.000000;0.825210
9563.000000;0.825551
9562.000000;0.825676
9561.000000;0.825435
9560.000000;0.824955
9559.000000;0.824567
9558.000000;0.824624
9557.000000;0.825227
9556.000000;0.826054
9555.000000;0.826590
9554.000000;0.826593
9553.000000;0.826276
9552.000000;0.826007
9551.000000;0.825945
9550.000000;0.826043
9549.000000;0.826230
9548.000000;0.826421
9547.000000;0.826402
9546.000000;0.825962
9545.000000;0.825187
9544.000000;0.824490
9543.000000;0.824244
9542.000000;0.824427
9541.000000;0.824700
9540.000000;0.824789
9539.000000;0.824730
9538.000000;0.824735
9537.000000;0.824897
9536.000000;0.825083
9535.000000;0.825101
9534.000000;0.824905
9533.000000;0.824574
9532.000000;0.824160
9531.000000;0.823672
9530.000000;0.823219
9529.000000;0.823027
9528.000000;0.823221
9527.000000;0.823670
9526.000000;0.824141
9525.000000;0.824514
9524.000000;0.824771
9523.000000;0.824837
9522.000000;0.824616
9521.000000;0.824149
9520.000000;0.823606
9519.000000;0.823116
9518.000000;0.822729
9517.000000;0.822529
9516.000000;0.822600
9515.000000;0.822855
9514.000000;0.823042
9513.000000;0.823010
9512.000000;0.822840
9511.000000;0.822649
9510.000000;0.822403
9509.000000;0.822054
9508.000000;0.821742
9507.000000;0.821683
9506.000000;0.821900
9505.000000;0.822172
9504.000000;0.822267
9503.000000;0.822149
9502.000000;0.821948
9501.000000;0.821806
9500.000000;0.821774
9499.000000;0.821802
9498.000000;0.821797
9497.000000;0.821705
9496.000000;0.821548
9495.000000;0.821390
9494.000000;0.821288
9493.000000;0.821256
9492.000000;0.821236
9491.000000;0.821130
9490.000000;0.820929
9489.000000;0.820792
9488.000000;0.820874
9487.000000;0.821079
9486.000000;0.821131
9485.000000;0.820958
9484.000000;0.820844
9483.000000;0.821033
9482.000000;0.821339
9481.000000;0.821339
9480.000000;0.820915
9479.000000;0.820395
9478.000000;0.820123
9477.000000;0.820081
9476.000000;0.820023
9475.000000;0.819833
9474.000000;0.819630
9473.000000;0.819569
9472.000000;0.819666
9471.000000;0.819830
9470.000000;0.819984
9469.000000;0.820102
9468.000000;0.820184
9467.000000;0.820231
9466.000000;0.820276
9465.000000;0.820366
9464.000000;0.820450
9463.000000;0.820312
9462.000000;0.819732
9461.000000;0.818772
9460.000000;0.817827
9459.000000;0.817307
9458.000000;0.817297
9457.000000;0.817547
9456.000000;0.817748
9455.000000;0.817796
9454.000000;0.817844
9453.000000;0.818156
9452.000000;0.818833
9451.000000;0.819631
9450.000000;0.820116
9449.000000;0.820078
9448.000000;0.819705
9447.000000;0.819296
9446.000000;0.818904
9445.000000;0.818404
9444.000000;0.817831
9443.000000;0.817424
9442.000000;0.817337
9441.000000;0.817475
9440.000000;0.817654
9439.000000;0.817801
9438.000000;0.817961
9437.000000;0.818173
9436.000000;0.818403
9435.000000;0.818546
9434.000000;0.818493
9433.000000;0.818261
9432.000000;0.818030
9431.000000;0.817963
9430.000000;0.818014
9429.000000;0.818025
9428.000000;0.817949
9427.000000;0.817825
9426.000000;0.817594
9425.000000;0.817168
9424.000000;0.816689
9423.000000;0.816481
9422.000000;0.816645
9421.000000;0.816899
9420.000000;0.816928
9419.000000;0.816728
9418.000000;0.816481
9417.000000;0.816270
9416.000000;0.816094
9415.000000;0.816008
9414.000000;0.816056
9413.000000;0.816149
9412.000000;0.816184
9411.000000;0.816202
9410.000000;0.816265
9409.000000;0.816289
9408.000000;0.816182
9407.000000;0.816068
9406.000000;0.816122
9405.000000;0.816241
9404.000000;0.816142
9403.000000;0.815798
9402.000000;0.815507
9401.000000;0.815446
9400.000000;0.815423
9399.000000;0.815235
9398.000000;0.815055
9397.000000;0.815241
9396.000000;0.815819
9395.000000;0.816385
9394.000000;0.816508
9393.000000;0.816114
9392.000000;0.815467
9391.000000;0.814912
9390.000000;0.814666
9389.000000;0.814735
9388.000000;0.814912
9387.000000;0.814908
9386.000000;0.814563
9385.000000;0.813982
9384.000000;0.813418
9383.000000;0.813056
9382.000000;0.812899
9381.000000;0.812865
9380.000000;0.812905
9379.000000;0.813018
9378.000000;0.813201
9377.000000;0.813451
9376.000000;0.813771
9375.000000;0.814097
9374.000000;0.814272
9373.000000;0.814189
9372.000000;0.813953
9371.000000;0.813807
9370.000000;0.813871
9369.000000;0.814060
9368.000000;0.814268
9367.000000;0.814482
9366.000000;0.814646
9365.000000;0.814573
9364.000000;0.814143
9363.000000;0.813498
9362.000000;0.812930
9361.000000;0.812634
9360.000000;0.812647
9359.000000;0.812938
9358.000000;0.813385
9357.000000;0.813719
9356.000000;0.813685
9355.000000;0.813262
9354.000000;0.812623
9353.000000;0.811917
9352.000000;0.811243
9351.000000;0.810772
9350.000000;0.810683
9349.000000;0.810957
9348.000000;0.811383
9347.000000;0.811809
9346.000000;0.812203
9345.000000;0.812484
9344.000000;0.812512
9343.000000;0.812313
9342.000000;0.812097
9341.000000;0.811946
9340.000000;0.811664
9339.000000;0.811108
9338.000000;0.810475
9337.000000;0.810098
9336.000000;0.810061
9335.000000;0.810210
9334.000000;0.810440
9333.000000;0.810749
9332.000000;0.811039
9331.000000;0.811091
9330.000000;0.810815
9329.000000;0.810408
9328.000000;0.810157
9327.000000;0.810164
9326.000000;0.810280
9325.000000;0.810277
9324.000000;0.810059
9323.000000;0.809760
9322.000000;0.809635
9321.000000;0.809845
9320.000000;0.810327
9319.000000;0.810856
9318.000000;0.811187
9317.000000;0.811156
9316.000000;0.810757
9315.000000;0.810177
9314.000000;0.809692
9313.000000;0.809445
9312.000000;0.809364
9311.000000;0.809335
9310.000000;0.809349
9309.000000;0.809419
9308.000000;0.809457
9307.000000;0.809381
9306.000000;0.809263
9305.000000;0.809235
9304.000000;0.809285
9303.000000;0.809304
9302.000000;0.809313
9301.000000;0.809466
9300.000000;0.809790
9299.000000;0.810068
9298.000000;0.810064
9297.000000;0.809771
9296.000000;0.809373
9295.000000;0.809021
9294.000000;0.808712
9293.000000;0.808333
9292.000000;0.807804
9291.000000;0.807223
9290.000000;0.806866
9289.000000;0.806974
9288.000000;0.807491
9287.000000;0.808088
9286.000000;0.808461
9285.000000;0.808562
9284.000000;0.808505
9283.000000;0.808360
9282.000000;0.808114
9281.000000;0.807760
9280.000000;0.807378
9279.000000;0.807105
9278.000000;0.807042
9277.000000;0.807154
9276.000000;0.807261
9275.000000;0.807206
9274.000000;0.807025
9273.000000;0.806896
9272.000000;0.806891
9271.000000;0.806893
9270.000000;0.806788
9269.000000;0.806653
9268.000000;0.806636
9267.000000;0.806737
9266.000000;0.806812
9265.000000;0.806798
9264.000000;0.806780
9263.000000;0.806837
9262.000000;0.806904
9261.000000;0.806859
9260.000000;0.806683
9259.000000;0.806470
9258.000000;0.806321
9257.000000;0.806283
9256.000000;0.806383
9255.000000;0.806585
9254.000000;0.806719
9253.000000;0.806546
9252.000000;0.806018
9251.000000;0.805424
9250.000000;0.805154
9249.000000;0.805311
9248.000000;0.805651
9247.000000;0.805904
9246.000000;0.806045
9245.000000;0.806163
9244.000000;0.806220
9243.000000;0.806069
9242.000000;0.805676
9241.000000;0.805197
9240.000000;0.804841
9239.000000;0.804749
9238.000000;0.804932
9237.000000;0.805232
9236.000000;0.805362
9235.000000;0.805134
9234.000000;0.804669
9233.000000;0.804269
9232.000000;0.804094
9231.000000;0.804084
9230.000000;0.804184
9229.000000;0.804441
9228.000000;0.804801
9227.000000;0.804989
9226.000000;0.804785
9225.000000;0.804322
9224.000000;0.803984
9223.000000;0.803997
9222.000000;0.804228
9221.000000;0.804355
9220.000000;0.804148
9219.000000;0.803606
9218.000000;0.802923
9217.000000;0.802378
9216.000000;0.802193
9215.000000;0.802427
9214.000000;0.802969
9213.000000;0.803594
9212.000000;0.804078
9211.000000;0.804297
9210.000000;0.804255
9209.000000;0.804001
9208.000000;0.803576
9207.000000;0.803079
9206.000000;0.802739
9205.000000;0.802754
9204.000000;0.803040
9203.000000;0.803266
9202.000000;0.803181
9201.000000;0.802827
9200.000000;0.802402
9199.000000;0.802069
9198.000000;0.801942
9197.000000;0.802093
9196.000000;0.802415
9195.000000;0.802600
9194.000000;0.802432
9193.000000;0.802047
9192.000000;0.801763
9191.000000;0.801704
9190.000000;0.801753
9189.000000;0.801805
9188.000000;0.801854
9187.000000;0.801863
9186.000000;0.801768
9185.000000;0.801657
9184.000000;0.801730
9183.000000;0.801978
9182.000000;0.802101
9181.000000;0.801877
9180.000000;0.801485
9179.000000;0.801265
9178.000000;0.801252
9177.000000;0.801155
9176.000000;0.800834
9175.000000;0.800577
9174.000000;0.800773
9173.000000;0.801399
9172.000000;0.801975
9171.000000;0.802066
9170.000000;0.801713
9169.000000;0.801296
9168.000000;0.801057
9167.000000;0.800900
9166.000000;0.800672
9165.000000;0.800457
9164.000000;0.800455
9163.000000;0.800658
9162.000000;0.800831
9161.000000;0.800806
9160.000000;0.800646
9159.000000;0.800478
9158.000000;0.800295
9157.000000;0.800039
9156.000000;0.799801
9155.000000;0.799782
9154.000000;0.800037
9153.000000;0.800340
9152.000000;0.800385
9151.000000;0.800098
9150.000000;0.799715
9149.000000;0.799538
9148.000000;0.799617
9147.000000;0.799724
9146.000000;0.799631
9145.000000;0.799360
9144.000000;0.799096
9143.000000;0.798947
9142.000000;0.798851
9141.000000;0.798725
9140.000000;0.798575
9139.000000;0.798471
9138.000000;0.798483
9137.000000;0.798674
9136.000000;0.799055
9135.000000;0.799509
9134.000000;0.799831
9133.000000;0.799911
9132.000000;0.799819
9131.000000;0.799662
9130.000000;0.799423
9129.000000;0.799036
9128.000000;0.798566
9127.000000;0.798210
9126.000000;0.798073
9125.000000;0.798029
9124.000000;0.797850
9123.000000;0.797487
9122.000000;0.797189
9121.000000;0.797304
9120.000000;0.797909
9119.000000;0.798649
9118.000000;0.798985
9117.000000;0.798665
9116.000000;0.797943
9115.000000;0.797307
9114.000000;0.797039
9113.000000;0.797042
9112.000000;0.797054
9111.000000;0.796936
9110.000000;0.796757
9109.000000;0.796665
9108.000000;0.796751
9107.000000;0.797015
9106.000000;0.797374
9105.000000;0.797661
9104.000000;0.797676
9103.000000;0.797333
9102.000000;0.796776
9101.000000;0.796272
9100.000000;0.795959
9099.000000;0.795768
9098.000000;0.795624
9097.000000;0.795601
9096.000000;0.795792
9095.000000;0.796094
9094.000000;0.796283
9093.000000;0.796276
9092.000000;0.796171
9091.000000;0.796027
9090.000000;0.795796
9089.000000;0.795503
9088.000000;0.795339
9087.000000;0.795440
9086.000000;0.795691
9085.000000;0.795871
9084.000000;0.795897
9083.000000;0.795792
9082.000000;0.795523
9081.000000;0.795055
9080.000000;0.794557
9079.000000;0.794353
9078.000000;0.794584
9077.000000;0.795034
9076.000000;0.795373
9075.000000;0.795472
9074.000000;0.795430
9073.000000;0.795359
9072.000000;0.795268
9071.000000;0.795125
9070.000000;0.794941
9069.000000;0.794761
9068.000000;0.794625
9067.000000;0.794572
9066.000000;0.794644
9065.000000;0.794862
9064.000000;0.795152
9063.000000;0.795342
9062.000000;0.795256
9061.000000;0.794878
9060.000000;0.794398
9059.000000;0.794078
9058.000000;0.794050
9057.000000;0.794248
9056.000000;0.794492
9055.000000;0.794605
9054.000000;0.794510
9053.000000;0.794270
