Criado como novo conjunto de dados;"2706_e01_daniel.spp","14942.6 Secs"
cm-1;Abs
10000.000000;0.832668
9999.000000;0.831773
9998.000000;0.831556
9997.000000;0.831920
9996.000000;0.832561
9995.000000;0.833086
9994.000000;0.833102
9993.000000;0.832564
9992.000000;0.831945
9991.000000;0.831647
9990.000000;0.831386
9989.000000;0.830630
9988.000000;0.829549
9987.000000;0.828894
9986.000000;0.828962
9985.000000;0.829311
9984.000000;0.829599
9983.000000;0.830034
9982.000000;0.830729
9981.000000;0.831236
9980.000000;0.831153
9979.000000;0.830794
9978.000000;0.830747
9977.000000;0.831024
9976.000000;0.831076
9975.000000;0.830579
9974.000000;0.829857
9973.000000;0.829526
9972.000000;0.829856
9971.000000;0.830503
9970.000000;0.830806
9969.000000;0.830408
9968.000000;0.829591
9967.000000;0.828897
9966.000000;0.828501
9965.000000;0.828148
9964.000000;0.827641
9963.000000;0.827106
9962.000000;0.826747
9961.000000;0.826611
9960.000000;0.826658
9959.000000;0.826810
9958.000000;0.826892
9957.000000;0.826764
9956.000000;0.826549
9955.000000;0.826531
9954.000000;0.826798
9953.000000;0.827190
9952.000000;0.827597
9951.000000;0.828008
9950.000000;0.828244
9949.000000;0.827989
9948.000000;0.827239
9947.000000;0.826479
9946.000000;0.826203
9945.000000;0.826425
9944.000000;0.826773
9943.000000;0.826912
9942.000000;0.826759
9941.000000;0.826417
9940.000000;0.826063
9939.000000;0.825846
9938.000000;0.825804
9937.000000;0.825858
9936.000000;0.825892
9935.000000;0.825793
9934.000000;0.825493
9933.000000;0.825087
9932.000000;0.824833
9931.000000;0.824889
9930.000000;0.825092
9929.000000;0.825156
9928.000000;0.825033
9927.000000;0.824939
9926.000000;0.825054
9925.000000;0.825345
9924.000000;0.825664
9923.000000;0.825873
9922.000000;0.825909
9921.000000;0.825863
9920.000000;0.825926
9919.000000;0.826118
9918.000000;0.826176
9917.000000;0.825870
9916.000000;0.825330
9915.000000;0.824861
9914.000000;0.824582
9913.000000;0.824481
9912.000000;0.824674
9911.000000;0.825246
9910.000000;0.825859
9909.000000;0.825906
9908.000000;0.825155
9907.000000;0.823995
9906.000000;0.822957
9905.000000;0.822223
9904.000000;0.821704
9903.000000;0.821365
9902.000000;0.821258
9901.000000;0.821326
9900.000000;0.821336
9899.000000;0.821064
9898.000000;0.820551
9897.000000;0.820154
9896.000000;0.820259
9895.000000;0.820863
9894.000000;0.821486
9893.000000;0.821592
9892.000000;0.821077
9891.000000;0.820321
9890.000000;0.819875
9889.000000;0.820105
9888.000000;0.820941
9887.000000;0.821813
9886.000000;0.822032
9885.000000;0.821452
9884.000000;0.820659
9883.000000;0.820345
9882.000000;0.820616
9881.000000;0.821056
9880.000000;0.821258
9879.000000;0.821094
9878.000000;0.820626
9877.000000;0.820069
9876.000000;0.819743
9875.000000;0.819800
9874.000000;0.820044
9873.000000;0.820225
9872.000000;0.820408
9871.000000;0.820802
9870.000000;0.821305
9869.000000;0.821545
9868.000000;0.821361
9867.000000;0.820961
9866.000000;0.820550
9865.000000;0.820085
9864.000000;0.819485
9863.000000;0.818901
9862.000000;0.818632
9861.000000;0.818821
9860.000000;0.819281
9859.000000;0.819622
9858.000000;0.819597
9857.000000;0.819326
9856.000000;0.819108
9855.000000;0.819029
9854.000000;0.818894
9853.000000;0.818564
9852.000000;0.818149
9851.000000;0.817827
9850.000000;0.817688
9849.000000;0.817826
9848.000000;0.818285
9847.000000;0.818806
9846.000000;0.818937
9845.000000;0.818610
9844.000000;0.818318
9843.000000;0.818445
9842.000000;0.818713
9841.000000;0.818585
9840.000000;0.817986
9839.000000;0.817298
9838.000000;0.816859
9837.000000;0.816797
9836.000000;0.817129
9835.000000;0.817670
9834.000000;0.818011
9833.000000;0.817964
9832.000000;0.817846
9831.000000;0.817980
9830.000000;0.818131
9829.000000;0.817844
9828.000000;0.817167
9827.000000;0.816541
9826.000000;0.816085
9825.000000;0.815531
9824.000000;0.814859
9823.000000;0.814469
9822.000000;0.814628
9821.000000;0.815150
9820.000000;0.815727
9819.000000;0.816170
9818.000000;0.816243
9817.000000;0.815703
9816.000000;0.814705
9815.000000;0.813852
9814.000000;0.813607
9813.000000;0.813871
9812.000000;0.814287
9811.000000;0.814706
9810.000000;0.815155
9809.000000;0.815561
9808.000000;0.815753
9807.000000;0.815663
9806.000000;0.815382
9805.000000;0.815019
9804.000000;0.814593
9803.000000;0.814064
9802.000000;0.813454
9801.000000;0.812931
9800.000000;0.812720
9799.000000;0.812894
9798.000000;0.813290
9797.000000;0.813653
9796.000000;0.813775
9795.000000;0.813516
9794.000000;0.812918
9793.000000;0.812349
9792.000000;0.812256
9791.000000;0.812628
9790.000000;0.812965
9789.000000;0.812942
9788.000000;0.812827
9787.000000;0.812950
9786.000000;0.813105
9785.000000;0.812892
9784.000000;0.812420
9783.000000;0.812203
9782.000000;0.812423
9781.000000;0.812755
9780.000000;0.812889
9779.000000;0.812837
9778.000000;0.812709
9777.000000;0.812548
9776.000000;0.812427
9775.000000;0.812402
9774.000000;0.812335
9773.000000;0.812079
9772.000000;0.811813
9771.000000;0.811889
9770.000000;0.812329
9769.000000;0.812757
9768.000000;0.812866
9767.000000;0.812656
9766.000000;0.812240
9765.000000;0.811737
9764.000000;0.811397
9763.000000;0.811452
9762.000000;0.811743
9761.000000;0.811772
9760.000000;0.811273
9759.000000;0.810489
9758.000000;0.809802
9757.000000;0.809338
9756.000000;0.809039
9755.000000;0.808908
9754.000000;0.809054
9753.000000;0.809601
9752.000000;0.810561
9751.000000;0.811639
9750.000000;0.812219
9749.000000;0.811836
9748.000000;0.810720
9747.000000;0.809609
9746.000000;0.808976
9745.000000;0.808697
9744.000000;0.808494
9743.000000;0.808415
9742.000000;0.808684
9741.000000;0.809288
9740.000000;0.809924
9739.000000;0.810258
9738.000000;0.810134
9737.000000;0.809612
9736.000000;0.808912
9735.000000;0.808290
9734.000000;0.807912
9733.000000;0.807851
9732.000000;0.808118
9731.000000;0.808620
9730.000000;0.809151
9729.000000;0.809553
9728.000000;0.809832
9727.000000;0.809972
9726.000000;0.809774
9725.000000;0.809090
9724.000000;0.808148
9723.000000;0.807420
9722.000000;0.807167
9721.000000;0.807274
9720.000000;0.807495
9719.000000;0.807623
9718.000000;0.807484
9717.000000;0.807009
9716.000000;0.806343
9715.000000;0.805715
9714.000000;0.805201
9713.000000;0.804785
9712.000000;0.804571
9711.000000;0.804709
9710.000000;0.805113
9709.000000;0.805496
9708.000000;0.805717
9707.000000;0.805870
9706.000000;0.806011
9705.000000;0.806021
9704.000000;0.805803
9703.000000;0.805417
9702.000000;0.804987
9701.000000;0.804656
9700.000000;0.804643
9699.000000;0.805114
9698.000000;0.805875
9697.000000;0.806410
9696.000000;0.806351
9695.000000;0.805826
9694.000000;0.805254
9693.000000;0.804908
9692.000000;0.804768
9691.000000;0.804693
9690.000000;0.804632
9689.000000;0.804660
9688.000000;0.804850
9687.000000;0.805113
9686.000000;0.805232
9685.000000;0.805095
9684.000000;0.804821
9683.000000;0.804590
9682.000000;0.804456
9681.000000;0.804394
9680.000000;0.804401
9679.000000;0.804427
9678.000000;0.804319
9677.000000;0.803977
9676.000000;0.803485
9675.000000;0.802971
9674.000000;0.802471
9673.000000;0.802073
9672.000000;0.802026
9671.000000;0.802471
9670.000000;0.803167
9669.000000;0.803724
9668.000000;0.804021
9667.000000;0.804168
9666.000000;0.804161
9665.000000;0.803869
9664.000000;0.803362
9663.000000;0.802964
9662.000000;0.802910
9661.000000;0.803123
9660.000000;0.803365
9659.000000;0.803471
9658.000000;0.803435
9657.000000;0.803395
9656.000000;0.803537
9655.000000;0.803878
9654.000000;0.804188
9653.000000;0.804242
9652.000000;0.804047
9651.000000;0.803707
9650.000000;0.803191
9649.000000;0.802457
9648.000000;0.801700
9647.000000;0.801245
9646.000000;0.801191
9645.000000;0.801359
9644.000000;0.801530
9643.000000;0.801593
9642.000000;0.801524
9641.000000;0.801420
9640.000000;0.801458
9639.000000;0.801652
9638.000000;0.801724
9637.000000;0.801438
9636.000000;0.800932
9635.000000;0.800501
9634.000000;0.800172
9633.000000;0.799790
9632.000000;0.799413
9631.000000;0.799281
9630.000000;0.799416
9629.000000;0.799555
9628.000000;0.799520
9627.000000;0.799372
9626.000000;0.799224
9625.000000;0.799145
9624.000000;0.799238
9623.000000;0.799552
9622.000000;0.799913
9621.000000;0.800071
9620.000000;0.800021
9619.000000;0.799926
9618.000000;0.799798
9617.000000;0.799561
9616.000000;0.799374
9615.000000;0.799531
9614.000000;0.799977
9613.000000;0.800276
9612.000000;0.800173
9611.000000;0.799859
9610.000000;0.799577
9609.000000;0.799284
9608.000000;0.798883
9607.000000;0.798492
9606.000000;0.798277
9605.000000;0.798201
9604.000000;0.798141
9603.000000;0.798078
9602.000000;0.798023
9601.000000;0.797902
9600.000000;0.797656
9599.000000;0.797362
9598.000000;0.797140
9597.000000;0.797066
9596.000000;0.797205
9595.000000;0.797583
9594.000000;0.798037
9593.000000;0.798285
9592.000000;0.798250
9591.000000;0.798134
9590.000000;0.798072
9589.000000;0.797911
9588.000000;0.797495
9587.000000;0.797023
9586.000000;0.796893
9585.000000;0.797247
9584.000000;0.797813
9583.000000;0.798164
9582.000000;0.798047
9581.000000;0.797493
9580.000000;0.796723
9579.000000;0.795949
9578.000000;0.795257
9577.000000;0.794703
9576.000000;0.794474
9575.000000;0.794811
9574.000000;0.795701
9573.000000;0.796731
9572.000000;0.797353
9571.000000;0.797285
9570.000000;0.796679
9569.000000;0.795956
9568.000000;0.795499
9567.000000;0.795385
9566.000000;0.795361
9565.000000;0.795125
9564.000000;0.794677
9563.000000;0.794328
9562.000000;0.794344
9561.000000;0.794668
9560.000000;0.795014
9559.000000;0.795170
9558.000000;0.795160
9557.000000;0.795128
9556.000000;0.795158
9555.000000;0.795217
9554.000000;0.795261
9553.000000;0.795318
9552.000000;0.795412
9551.000000;0.795425
9550.000000;0.795191
9549.000000;0.794754
9548.000000;0.794430
9547.000000;0.794481
9546.000000;0.794813
9545.000000;0.795083
9544.000000;0.795044
9543.000000;0.794717
9542.000000;0.794309
9541.000000;0.794055
9540.000000;0.794060
9539.000000;0.794180
9538.000000;0.794121
9537.000000;0.793728
9536.000000;0.793133
9535.000000;0.792568
9534.000000;0.792155
9533.000000;0.791967
9532.000000;0.792085
9531.000000;0.792443
9530.000000;0.792736
9529.000000;0.792709
9528.000000;0.792470
9527.000000;0.792325
9526.000000;0.792393
9525.000000;0.792541
9524.000000;0.792614
9523.000000;0.792548
9522.000000;0.792336
9521.000000;0.792087
9520.000000;0.792045
9519.000000;0.792327
9518.000000;0.792667
9517.000000;0.792689
9516.000000;0.792408
9515.000000;0.792204
9514.000000;0.792290
9513.000000;0.792463
9512.000000;0.792450
9511.000000;0.792262
9510.000000;0.792072
9509.000000;0.791921
9508.000000;0.791727
9507.000000;0.791469
9506.000000;0.791234
9505.000000;0.791101
9504.000000;0.791045
9503.000000;0.790936
9502.000000;0.790643
9501.000000;0.790180
9500.000000;0.789766
9499.000000;0.789660
9498.000000;0.789924
9497.000000;0.790385
9496.000000;0.790808
9495.000000;0.791072
9494.000000;0.791172
9493.000000;0.791154
9492.000000;0.791039
9491.000000;0.790813
9490.000000;0.790484
9489.000000;0.790163
9488.000000;0.789994
9487.000000;0.789964
9486.000000;0.789893
9485.000000;0.789667
9484.000000;0.789394
9483.000000;0.789234
9482.000000;0.789181
9481.000000;0.789127
9480.000000;0.789043
9479.000000;0.788973
9478.000000;0.788927
9477.000000;0.788891
9476.000000;0.788896
9475.000000;0.788941
9474.000000;0.788912
9473.000000;0.788714
9472.000000;0.788432
9471.000000;0.788255
9470.000000;0.788283
9469.000000;0.788458
9468.000000;0.788635
9467.000000;0.788641
9466.000000;0.788380
9465.000000;0.787979
9464.000000;0.787714
9463.000000;0.787694
9462.000000;0.787705
9461.000000;0.787515
9460.000000;0.787206
9459.000000;0.787043
9458.000000;0.787121
9457.000000;0.787306
9456.000000;0.787462
9455.000000;0.787569
9454.000000;0.787652
9453.000000;0.787751
9452.000000;0.787922
9451.000000;0.788115
9450.000000;0.788139
9449.000000;0.787847
9448.000000;0.787337
9447.000000;0.786861
9446.000000;0.786611
9445.000000;0.786665
9444.000000;0.786992
9443.000000;0.787368
9442.000000;0.787459
9441.000000;0.787184
9440.000000;0.786871
9439.000000;0.786836
9438.000000;0.786936
9437.000000;0.786781
9436.000000;0.786295
9435.000000;0.785807
9434.000000;0.785629
9433.000000;0.785773
9432.000000;0.786041
9431.000000;0.786163
9430.000000;0.785922
9429.000000;0.785364
9428.000000;0.784865
9427.000000;0.784757
9426.000000;0.784924
9425.000000;0.784987
9424.000000;0.784825
9423.000000;0.784648
9422.000000;0.784603
9421.000000;0.784623
9420.000000;0.784699
9419.000000;0.784948
9418.000000;0.785300
9417.000000;0.785404
9416.000000;0.785043
9415.000000;0.784469
9414.000000;0.784156
9413.000000;0.784303
9412.000000;0.784690
9411.000000;0.784932
9410.000000;0.784803
9409.000000;0.784384
9408.000000;0.783974
9407.000000;0.783797
9406.000000;0.783802
9405.000000;0.783809
9404.000000;0.783785
9403.000000;0.783851
9402.000000;0.784034
9401.000000;0.784198
9400.000000;0.784229
9399.000000;0.784135
9398.000000;0.783940
9397.000000;0.783641
9396.000000;0.783321
9395.000000;0.783126
9394.000000;0.783092
9393.000000;0.783098
9392.000000;0.783049
9391.000000;0.782987
9390.000000;0.782957
9389.000000;0.782904
9388.000000;0.782752
9387.000000;0.782503
9386.000000;0.782198
9385.000000;0.781885
9384.000000;0.781668
9383.000000;0.781653
9382.000000;0.781804
9381.000000;0.781931
9380.000000;0.781893
9379.000000;0.781734
9378.000000;0.781574
9377.000000;0.781458
9376.000000;0.781380
9375.000000;0.781362
9374.000000;0.781430
9373.000000;0.781541
9372.000000;0.781589
9371.000000;0.781504
9370.000000;0.781331
9369.000000;0.781216
9368.000000;0.781289
9367.000000;0.781505
9366.000000;0.781627
9365.000000;0.781454
9364.000000;0.781043
9363.000000;0.780657
9362.000000;0.780494
9361.000000;0.780545
9360.000000;0.780679
9359.000000;0.780775
9358.000000;0.780758
9357.000000;0.780614
9356.000000;0.780415
9355.000000;0.780290
9354.000000;0.780309
9353.000000;0.780404
9352.000000;0.780432
9351.000000;0.780315
9350.000000;0.780141
9349.000000;0.780105
9348.000000;0.780310
9347.000000;0.780628
9346.000000;0.780788
9345.000000;0.780622
9344.000000;0.780202
9343.000000;0.779757
9342.000000;0.779517
9341.000000;0.779606
9340.000000;0.779960
9339.000000;0.780304
9338.000000;0.780335
9337.000000;0.779986
9336.000000;0.779459
9335.000000;0.778975
9334.000000;0.778607
9333.000000;0.778353
9332.000000;0.778246
9331.000000;0.778296
9330.000000;0.778457
9329.000000;0.778685
9328.000000;0.778952
9327.000000;0.779145
9326.000000;0.779106
9325.000000;0.778841
9324.000000;0.778553
9323.000000;0.778387
9322.000000;0.778278
9321.000000;0.778147
9320.000000;0.778068
9319.000000;0.778114
9318.000000;0.778166
9317.000000;0.778043
9316.000000;0.777722
9315.000000;0.777303
9314.000000;0.776862
9313.000000;0.776494
9312.000000;0.776375
9311.000000;0.776582
9310.000000;0.776907
9309.000000;0.777039
9308.000000;0.776913
9307.000000;0.776764
9306.000000;0.776841
9305.000000;0.777147
9304.000000;0.777460
9303.000000;0.777543
9302.000000;0.777376
9301.000000;0.777195
9300.000000;0.777233
9299.000000;0.777418
9298.000000;0.777449
9297.000000;0.777190
9296.000000;0.776806
9295.000000;0.776462
9294.000000;0.776128
9293.000000;0.775784
9292.000000;0.775593
9291.000000;0.775668
9290.000000;0.775834
9289.000000;0.775849
9288.000000;0.775701
9287.000000;0.775544
9286.000000;0.775446
9285.000000;0.775399
9284.000000;0.775441
9283.000000;0.775570
9282.000000;0.775630
9281.000000;0.775488
9280.000000;0.775202
9279.000000;0.774892
9278.000000;0.774568
9277.000000;0.774282
9276.000000;0.774258
9275.000000;0.774598
9274.000000;0.774994
9273.000000;0.775042
9272.000000;0.774776
9271.000000;0.774606
9270.000000;0.774743
9269.000000;0.774977
9268.000000;0.775029
9267.000000;0.774863
9266.000000;0.774606
9265.000000;0.774368
9264.000000;0.774232
9263.000000;0.774249
9262.000000;0.774379
9261.000000;0.774534
9260.000000;0.774662
9259.000000;0.774716
9258.000000;0.774607
9257.000000;0.774344
9256.000000;0.774140
9255.000000;0.774189
9254.000000;0.774365
9253.000000;0.774362
9252.000000;0.774105
9251.000000;0.773832
9250.000000;0.773738
9249.000000;0.773743
9248.000000;0.773660
9247.000000;0.773440
9246.000000;0.773171
9245.000000;0.772946
9244.000000;0.772795
9243.000000;0.772703
9242.000000;0.772653
9241.000000;0.772674
9240.000000;0.772777
9239.000000;0.772836
9238.000000;0.772651
9237.000000;0.772246
9236.000000;0.771950
9235.000000;0.772027
9234.000000;0.772340
9233.000000;0.772521
9232.000000;0.772426
9231.000000;0.772223
9230.000000;0.772105
9229.000000;0.772100
9228.000000;0.772148
9227.000000;0.772184
9226.000000;0.772167
9225.000000;0.772144
9224.000000;0.772251
9223.000000;0.772504
9222.000000;0.772669
9221.000000;0.772486
9220.000000;0.771984
9219.000000;0.771429
9218.000000;0.771020
9217.000000;0.770787
9216.000000;0.770722
9215.000000;0.770824
9214.000000;0.771054
9213.000000;0.771365
9212.000000;0.771718
9211.000000;0.771931
9210.000000;0.771656
9209.000000;0.770758
9208.000000;0.769627
9207.000000;0.768891
9206.000000;0.768843
9205.000000;0.769326
9204.000000;0.770065
9203.000000;0.770821
9202.000000;0.771286
9201.000000;0.771189
9200.000000;0.770628
9199.000000;0.770037
9198.000000;0.769735
9197.000000;0.769683
9196.000000;0.769724
9195.000000;0.769810
9194.000000;0.769902
9193.000000;0.769879
9192.000000;0.769696
9191.000000;0.769487
9190.000000;0.769405
9189.000000;0.769440
9188.000000;0.769501
9187.000000;0.769552
9186.000000;0.769594
9185.000000;0.769593
9184.000000;0.769530
9183.000000;0.769427
9182.000000;0.769297
9181.000000;0.769123
9180.000000;0.768922
9179.000000;0.768767
9178.000000;0.768695
9177.000000;0.768695
9176.000000;0.768773
9175.000000;0.768961
9174.000000;0.769221
9173.000000;0.769412
9172.000000;0.769393
9171.000000;0.769122
9170.000000;0.768670
9169.000000;0.768200
9168.000000;0.767891
9167.000000;0.767798
9166.000000;0.767796
9165.000000;0.767726
9164.000000;0.767585
9163.000000;0.767483
9162.000000;0.767469
9161.000000;0.767498
9160.000000;0.767537
9159.000000;0.767590
9158.000000;0.767608
9157.000000;0.767515
9156.000000;0.767335
9155.000000;0.767202
9154.000000;0.767224
9153.000000;0.767375
9152.000000;0.767524
9151.000000;0.767519
9150.000000;0.767286
9149.000000;0.766912
9148.000000;0.766588
9147.000000;0.766422
9146.000000;0.766354
9145.000000;0.766289
9144.000000;0.766220
9143.000000;0.766131
9142.000000;0.765919
9141.000000;0.765557
9140.000000;0.765249
9139.000000;0.765248
9138.000000;0.765539
9137.000000;0.765859
9136.000000;0.766008
9135.000000;0.766002
9134.000000;0.765930
9133.000000;0.765834
9132.000000;0.765747
9131.000000;0.765736
9130.000000;0.765830
9129.000000;0.765960
9128.000000;0.766004
9127.000000;0.765875
9126.000000;0.765579
9125.000000;0.765245
9124.000000;0.765053
9123.000000;0.765087
9122.000000;0.765293
9121.000000;0.765563
9120.000000;0.765799
9119.000000;0.765872
9118.000000;0.765681
9117.000000;0.765323
9116.000000;0.765064
9115.000000;0.765031
9114.000000;0.765062
9113.000000;0.764969
9112.000000;0.764822
9111.000000;0.764799
9110.000000;0.764879
9109.000000;0.764884
9108.000000;0.764744
9107.000000;0.764558
9106.000000;0.764415
9105.000000;0.764312
9104.000000;0.764220
9103.000000;0.764101
9102.000000;0.763895
9101.000000;0.763623
9100.000000;0.763440
9099.000000;0.763457
9098.000000;0.763597
9097.000000;0.763744
9096.000000;0.763928
9095.000000;0.764197
9094.000000;0.764385
9093.000000;0.764250
9092.000000;0.763811
9091.000000;0.763341
9090.000000;0.763030
9089.000000;0.762843
9088.000000;0.762718
9087.000000;0.762710
9086.000000;0.762886
9085.000000;0.763182
9084.000000;0.763426
9083.000000;0.763454
9082.000000;0.763210
9081.000000;0.762795
9080.000000;0.762384
9079.000000;0.762049
9078.000000;0.761747
9077.000000;0.761529
9076.000000;0.761611
9075.000000;0.762068
9074.000000;0.762586
9073.000000;0.762726
9072.000000;0.762388
9071.000000;0.761860
9070.000000;0.761453
9069.000000;0.761257
9068.000000;0.761206
9067.000000;0.761195
9066.000000;0.761150
9065.000000;0.761090
9064.000000;0.761121
9063.000000;0.761247
9062.000000;0.761297
9061.000000;0.761154
9060.000000;0.760966
9059.000000;0.760930
9058.000000;0.760977
9057.000000;0.760895
9056.000000;0.760682
9055.000000;0.760542
9054.000000;0.760578
9053.000000;0.760707
