Criado como novo conjunto de dados;"2706_e01_daniel.spp","94686.8 Secs"
cm-1;Abs
10000.000000;0.862589
9999.000000;0.861928
9998.000000;0.860578
9997.000000;0.859113
9996.000000;0.858258
9995.000000;0.857970
9994.000000;0.857817
9993.000000;0.857311
9992.000000;0.856480
9991.000000;0.855764
9990.000000;0.855715
9989.000000;0.856479
9988.000000;0.857628
9987.000000;0.858514
9986.000000;0.858804
9985.000000;0.858646
9984.000000;0.858413
9983.000000;0.858406
9982.000000;0.858711
9981.000000;0.859142
9980.000000;0.859355
9979.000000;0.859193
9978.000000;0.858895
9977.000000;0.858776
9976.000000;0.858776
9975.000000;0.858567
9974.000000;0.858095
9973.000000;0.857687
9972.000000;0.857553
9971.000000;0.857510
9970.000000;0.857344
9969.000000;0.857186
9968.000000;0.857299
9967.000000;0.857697
9966.000000;0.858153
9965.000000;0.858411
9964.000000;0.858224
9963.000000;0.857414
9962.000000;0.856168
9961.000000;0.855123
9960.000000;0.854842
9959.000000;0.855224
9958.000000;0.855659
9957.000000;0.855726
9956.000000;0.855529
9955.000000;0.855392
9954.000000;0.855467
9953.000000;0.855673
9952.000000;0.855832
9951.000000;0.855771
9950.000000;0.855444
9949.000000;0.854965
9948.000000;0.854483
9947.000000;0.854033
9946.000000;0.853614
9945.000000;0.853320
9944.000000;0.853239
9943.000000;0.853282
9942.000000;0.853291
9941.000000;0.853288
9940.000000;0.853443
9939.000000;0.853805
9938.000000;0.854248
9937.000000;0.854653
9936.000000;0.855002
9935.000000;0.855270
9934.000000;0.855408
9933.000000;0.855444
9932.000000;0.855414
9931.000000;0.855198
9930.000000;0.854629
9929.000000;0.853842
9928.000000;0.853286
9927.000000;0.853272
9926.000000;0.853630
9925.000000;0.853908
9924.000000;0.853802
9923.000000;0.853350
9922.000000;0.852834
9921.000000;0.852569
9920.000000;0.852669
9919.000000;0.852916
9918.000000;0.852957
9917.000000;0.852666
9916.000000;0.852241
9915.000000;0.851917
9914.000000;0.851755
9913.000000;0.851788
9912.000000;0.852185
9911.000000;0.853073
9910.000000;0.854245
9909.000000;0.855135
9908.000000;0.855159
9907.000000;0.854137
9906.000000;0.852530
9905.000000;0.851235
9904.000000;0.850928
9903.000000;0.851460
9902.000000;0.851997
9901.000000;0.851875
9900.000000;0.851200
9899.000000;0.850544
9898.000000;0.850246
9897.000000;0.850213
9896.000000;0.850256
9895.000000;0.850342
9894.000000;0.850515
9893.000000;0.850778
9892.000000;0.851095
9891.000000;0.851401
9890.000000;0.851573
9889.000000;0.851513
9888.000000;0.851229
9887.000000;0.850776
9886.000000;0.850169
9885.000000;0.849479
9884.000000;0.848956
9883.000000;0.848865
9882.000000;0.849167
9881.000000;0.849539
9880.000000;0.849745
9879.000000;0.849836
9878.000000;0.849941
9877.000000;0.850026
9876.000000;0.849977
9875.000000;0.849765
9874.000000;0.849434
9873.000000;0.849039
9872.000000;0.848714
9871.000000;0.848676
9870.000000;0.848972
9869.000000;0.849329
9868.000000;0.849438
9867.000000;0.849343
9866.000000;0.849316
9865.000000;0.849383
9864.000000;0.849230
9863.000000;0.848674
9862.000000;0.847985
9861.000000;0.847594
9860.000000;0.847615
9859.000000;0.847832
9858.000000;0.848008
9857.000000;0.848005
9856.000000;0.847700
9855.000000;0.847065
9854.000000;0.846351
9853.000000;0.845941
9852.000000;0.845955
9851.000000;0.846159
9850.000000;0.846303
9849.000000;0.846384
9848.000000;0.846515
9847.000000;0.846746
9846.000000;0.847122
9845.000000;0.847713
9844.000000;0.848392
9843.000000;0.848747
9842.000000;0.848461
9841.000000;0.847696
9840.000000;0.846920
9839.000000;0.846407
9838.000000;0.846117
9837.000000;0.845969
9836.000000;0.845971
9835.000000;0.846081
9834.000000;0.846164
9833.000000;0.846167
9832.000000;0.846162
9831.000000;0.846175
9830.000000;0.846146
9829.000000;0.846097
9828.000000;0.846130
9827.000000;0.846184
9826.000000;0.846016
9825.000000;0.845587
9824.000000;0.845246
9823.000000;0.845343
9822.000000;0.845758
9821.000000;0.846015
9820.000000;0.845804
9819.000000;0.845230
9818.000000;0.844593
9817.000000;0.844097
9816.000000;0.843797
9815.000000;0.843679
9814.000000;0.843693
9813.000000;0.843778
9812.000000;0.843884
9811.000000;0.843963
9810.000000;0.843942
9809.000000;0.843785
9808.000000;0.843569
9807.000000;0.843447
9806.000000;0.843492
9805.000000;0.843607
9804.000000;0.843618
9803.000000;0.843464
9802.000000;0.843290
9801.000000;0.843281
9800.000000;0.843440
9799.000000;0.843572
9798.000000;0.843541
9797.000000;0.843421
9796.000000;0.843320
9795.000000;0.843165
9794.000000;0.842849
9793.000000;0.842513
9792.000000;0.842444
9791.000000;0.842632
9790.000000;0.842679
9789.000000;0.842277
9788.000000;0.841586
9787.000000;0.840988
9786.000000;0.840663
9785.000000;0.840581
9784.000000;0.840741
9783.000000;0.841130
9782.000000;0.841492
9781.000000;0.841473
9780.000000;0.841069
9779.000000;0.840712
9778.000000;0.840786
9777.000000;0.841211
9776.000000;0.841575
9775.000000;0.841588
9774.000000;0.841307
9773.000000;0.841010
9772.000000;0.840954
9771.000000;0.841198
9770.000000;0.841527
9769.000000;0.841603
9768.000000;0.841286
9767.000000;0.840818
9766.000000;0.840594
9765.000000;0.840746
9764.000000;0.841034
9763.000000;0.841159
9762.000000;0.841084
9761.000000;0.840982
9760.000000;0.840922
9759.000000;0.840777
9758.000000;0.840459
9757.000000;0.840090
9756.000000;0.839844
9755.000000;0.839681
9754.000000;0.839417
9753.000000;0.839034
9752.000000;0.838770
9751.000000;0.838833
9750.000000;0.839150
9749.000000;0.839443
9748.000000;0.839498
9747.000000;0.839321
9746.000000;0.839123
9745.000000;0.839208
9744.000000;0.839732
9743.000000;0.840479
9742.000000;0.840951
9741.000000;0.840823
9740.000000;0.840265
9739.000000;0.839688
9738.000000;0.839279
9737.000000;0.838943
9736.000000;0.838647
9735.000000;0.838585
9734.000000;0.838900
9733.000000;0.839405
9732.000000;0.839689
9731.000000;0.839476
9730.000000;0.838830
9729.000000;0.838070
9728.000000;0.837534
9727.000000;0.837365
9726.000000;0.837473
9725.000000;0.837670
9724.000000;0.837822
9723.000000;0.837868
9722.000000;0.837772
9721.000000;0.837550
9720.000000;0.837282
9719.000000;0.836997
9718.000000;0.836596
9717.000000;0.836008
9716.000000;0.835415
9715.000000;0.835137
9714.000000;0.835266
9713.000000;0.835588
9712.000000;0.835956
9711.000000;0.836547
9710.000000;0.837544
9709.000000;0.838671
9708.000000;0.839288
9707.000000;0.839015
9706.000000;0.838126
9705.000000;0.837248
9704.000000;0.836787
9703.000000;0.836690
9702.000000;0.836681
9701.000000;0.836615
9700.000000;0.836578
9699.000000;0.836689
9698.000000;0.836852
9697.000000;0.836784
9696.000000;0.836348
9695.000000;0.835797
9694.000000;0.835586
9693.000000;0.835883
9692.000000;0.836344
9691.000000;0.836479
9690.000000;0.836197
9689.000000;0.835885
9688.000000;0.835898
9687.000000;0.836088
9686.000000;0.835972
9685.000000;0.835339
9684.000000;0.834550
9683.000000;0.834142
9682.000000;0.834249
9681.000000;0.834524
9680.000000;0.834595
9679.000000;0.834450
9678.000000;0.834302
9677.000000;0.834209
9676.000000;0.834001
9675.000000;0.833586
9674.000000;0.833176
9673.000000;0.833095
9672.000000;0.833388
9671.000000;0.833724
9670.000000;0.833742
9669.000000;0.833442
9668.000000;0.833158
9667.000000;0.833155
9666.000000;0.833348
9665.000000;0.833458
9664.000000;0.833369
9663.000000;0.833227
9662.000000;0.833226
9661.000000;0.833394
9660.000000;0.833610
9659.000000;0.833762
9658.000000;0.833853
9657.000000;0.833975
9656.000000;0.834217
9655.000000;0.834538
9654.000000;0.834771
9653.000000;0.834780
9652.000000;0.834619
9651.000000;0.834448
9650.000000;0.834264
9649.000000;0.833835
9648.000000;0.833010
9647.000000;0.832026
9646.000000;0.831363
9645.000000;0.831308
9644.000000;0.831733
9643.000000;0.832287
9642.000000;0.832710
9641.000000;0.832911
9640.000000;0.832871
9639.000000;0.832583
9638.000000;0.832097
9637.000000;0.831552
9636.000000;0.831152
9635.000000;0.831066
9634.000000;0.831291
9633.000000;0.831598
9632.000000;0.831711
9631.000000;0.831596
9630.000000;0.831533
9629.000000;0.831792
9628.000000;0.832270
9627.000000;0.832541
9626.000000;0.832292
9625.000000;0.831619
9624.000000;0.830895
9623.000000;0.830404
9622.000000;0.830194
9621.000000;0.830174
9620.000000;0.830254
9619.000000;0.830379
9618.000000;0.830511
9617.000000;0.830614
9616.000000;0.830625
9615.000000;0.830465
9614.000000;0.830124
9613.000000;0.829756
9612.000000;0.829621
9611.000000;0.829874
9610.000000;0.830405
9609.000000;0.830883
9608.000000;0.830973
9607.000000;0.830565
9606.000000;0.829869
9605.000000;0.829255
9604.000000;0.828936
9603.000000;0.828768
9602.000000;0.828420
9601.000000;0.827789
9600.000000;0.827204
9599.000000;0.827137
9598.000000;0.827727
9597.000000;0.828629
9596.000000;0.829310
9595.000000;0.829448
9594.000000;0.829109
9593.000000;0.828609
9592.000000;0.828251
9591.000000;0.828124
9590.000000;0.828109
9589.000000;0.828091
9588.000000;0.828121
9587.000000;0.828311
9586.000000;0.828579
9585.000000;0.828618
9584.000000;0.828228
9583.000000;0.827601
9582.000000;0.827172
9581.000000;0.827162
9580.000000;0.827379
9579.000000;0.827477
9578.000000;0.827352
9577.000000;0.827205
9576.000000;0.827266
9575.000000;0.827530
9574.000000;0.827788
9573.000000;0.827853
9572.000000;0.827704
9571.000000;0.827432
9570.000000;0.827122
9569.000000;0.826827
9568.000000;0.826619
9567.000000;0.826578
9566.000000;0.826696
9565.000000;0.826832
9564.000000;0.826826
9563.000000;0.826665
9562.000000;0.826486
9561.000000;0.826402
9560.000000;0.826395
9559.000000;0.826392
9558.000000;0.826395
9557.000000;0.826457
9556.000000;0.826553
9555.000000;0.826553
9554.000000;0.826366
9553.000000;0.826060
9552.000000;0.825809
9551.000000;0.825759
9550.000000;0.825946
9549.000000;0.826313
9548.000000;0.826733
9547.000000;0.827038
9546.000000;0.827090
9545.000000;0.826880
9544.000000;0.826539
9543.000000;0.826229
9542.000000;0.826030
9541.000000;0.825923
9540.000000;0.825870
9539.000000;0.825861
9538.000000;0.825882
9537.000000;0.825872
9536.000000;0.825767
9535.000000;0.825597
9534.000000;0.825461
9533.000000;0.825375
9532.000000;0.825173
9531.000000;0.824661
9530.000000;0.823895
9529.000000;0.823222
9528.000000;0.822966
9527.000000;0.823121
9526.000000;0.823411
9525.000000;0.823617
9524.000000;0.823740
9523.000000;0.823847
9522.000000;0.823897
9521.000000;0.823804
9520.000000;0.823588
9519.000000;0.823355
9518.000000;0.823156
9517.000000;0.822979
9516.000000;0.822873
9515.000000;0.822931
9514.000000;0.823121
9513.000000;0.823235
9512.000000;0.823118
9511.000000;0.822874
9510.000000;0.822768
9509.000000;0.822953
9508.000000;0.823373
9507.000000;0.823861
9506.000000;0.824215
9505.000000;0.824210
9504.000000;0.823732
9503.000000;0.822963
9502.000000;0.822318
9501.000000;0.822082
9500.000000;0.822168
9499.000000;0.822308
9498.000000;0.822392
9497.000000;0.822516
9496.000000;0.822729
9495.000000;0.822907
9494.000000;0.822902
9493.000000;0.822691
9492.000000;0.822366
9491.000000;0.822048
9490.000000;0.821880
9489.000000;0.821970
9488.000000;0.822274
9487.000000;0.822567
9486.000000;0.822639
9485.000000;0.822456
9484.000000;0.822123
9483.000000;0.821735
9482.000000;0.821367
9481.000000;0.821130
9480.000000;0.821106
9479.000000;0.821194
9478.000000;0.821170
9477.000000;0.820940
9476.000000;0.820697
9475.000000;0.820732
9474.000000;0.821091
9473.000000;0.821478
9472.000000;0.821490
9471.000000;0.820965
9470.000000;0.820112
9469.000000;0.819345
9468.000000;0.818985
9467.000000;0.819085
9466.000000;0.819472
9465.000000;0.819914
9464.000000;0.820255
9463.000000;0.820414
9462.000000;0.820329
9461.000000;0.819967
9460.000000;0.819450
9459.000000;0.819114
9458.000000;0.819292
9457.000000;0.819943
9456.000000;0.820549
9455.000000;0.820566
9454.000000;0.820011
9453.000000;0.819465
9452.000000;0.819433
9451.000000;0.819830
9450.000000;0.820186
9449.000000;0.820219
9448.000000;0.820005
9447.000000;0.819675
9446.000000;0.819203
9445.000000;0.818590
9444.000000;0.818035
9443.000000;0.817772
9442.000000;0.817830
9441.000000;0.818068
9440.000000;0.818379
9439.000000;0.818696
9438.000000;0.818859
9437.000000;0.818652
9436.000000;0.818067
9435.000000;0.817399
9434.000000;0.817005
9433.000000;0.817007
9432.000000;0.817232
9431.000000;0.817405
9430.000000;0.817341
9429.000000;0.817030
9428.000000;0.816625
9427.000000;0.816338
9426.000000;0.816275
9425.000000;0.816352
9424.000000;0.816388
9423.000000;0.816300
9422.000000;0.816162
9421.000000;0.816098
9420.000000;0.816158
9419.000000;0.816313
9418.000000;0.816495
9417.000000;0.816608
9416.000000;0.816579
9415.000000;0.816435
9414.000000;0.816306
9413.000000;0.816288
9412.000000;0.816340
9411.000000;0.816355
9410.000000;0.816302
9409.000000;0.816241
9408.000000;0.816220
9407.000000;0.816225
9406.000000;0.816216
9405.000000;0.816138
9404.000000;0.815946
9403.000000;0.815696
9402.000000;0.815584
9401.000000;0.815763
9400.000000;0.816127
9399.000000;0.816395
9398.000000;0.816423
9397.000000;0.816318
9396.000000;0.816203
9395.000000;0.816036
9394.000000;0.815751
9393.000000;0.815453
9392.000000;0.815329
9391.000000;0.815418
9390.000000;0.815604
9389.000000;0.815779
9388.000000;0.815880
9387.000000;0.815817
9386.000000;0.815513
9385.000000;0.815047
9384.000000;0.814626
9383.000000;0.814373
9382.000000;0.814234
9381.000000;0.814120
9380.000000;0.814048
9379.000000;0.814093
9378.000000;0.814259
9377.000000;0.814450
9376.000000;0.814551
9375.000000;0.814516
9374.000000;0.814406
9373.000000;0.814351
9372.000000;0.814441
9371.000000;0.814634
9370.000000;0.814785
9369.000000;0.814770
9368.000000;0.814573
9367.000000;0.814284
9366.000000;0.814030
9365.000000;0.813886
9364.000000;0.813797
9363.000000;0.813638
9362.000000;0.813361
9361.000000;0.813048
9360.000000;0.812786
9359.000000;0.812595
9358.000000;0.812528
9357.000000;0.812715
9356.000000;0.813143
9355.000000;0.813504
9354.000000;0.813465
9353.000000;0.813094
9352.000000;0.812811
9351.000000;0.812890
9350.000000;0.813166
9349.000000;0.813301
9348.000000;0.813157
9347.000000;0.812830
9346.000000;0.812472
9345.000000;0.812193
9344.000000;0.812060
9343.000000;0.812042
9342.000000;0.812038
9341.000000;0.812032
9340.000000;0.812151
9339.000000;0.812457
9338.000000;0.812760
9337.000000;0.812755
9336.000000;0.812338
9335.000000;0.811709
9334.000000;0.811169
9333.000000;0.810901
9332.000000;0.810920
9331.000000;0.811154
9330.000000;0.811529
9329.000000;0.811962
9328.000000;0.812281
9327.000000;0.812250
9326.000000;0.811772
9325.000000;0.811096
9324.000000;0.810676
9323.000000;0.810753
9322.000000;0.811169
9321.000000;0.811600
9320.000000;0.811848
9319.000000;0.811852
9318.000000;0.811584
9317.000000;0.811094
9316.000000;0.810567
9315.000000;0.810183
9314.000000;0.809941
9313.000000;0.809753
9312.000000;0.809634
9311.000000;0.809674
9310.000000;0.809865
9309.000000;0.810082
9308.000000;0.810228
9307.000000;0.810281
9306.000000;0.810231
9305.000000;0.810107
9304.000000;0.810030
9303.000000;0.810077
9302.000000;0.810118
9301.000000;0.809917
9300.000000;0.809454
9299.000000;0.808970
9298.000000;0.808668
9297.000000;0.808519
9296.000000;0.808425
9295.000000;0.808441
9294.000000;0.808691
9293.000000;0.809128
9292.000000;0.809496
9291.000000;0.809563
9290.000000;0.809326
9289.000000;0.808981
9288.000000;0.808723
9287.000000;0.808592
9286.000000;0.808516
9285.000000;0.808474
9284.000000;0.808551
9283.000000;0.808787
9282.000000;0.809062
9281.000000;0.809190
9280.000000;0.809134
9279.000000;0.809034
9278.000000;0.809044
9277.000000;0.809196
9276.000000;0.809387
9275.000000;0.809420
9274.000000;0.809121
9273.000000;0.808501
9272.000000;0.807808
9271.000000;0.807306
9270.000000;0.807030
9269.000000;0.806847
9268.000000;0.806704
9267.000000;0.806663
9266.000000;0.806730
9265.000000;0.806818
9264.000000;0.806920
9263.000000;0.807128
9262.000000;0.807389
9261.000000;0.807447
9260.000000;0.807140
9259.000000;0.806645
9258.000000;0.806305
9257.000000;0.806300
9256.000000;0.806561
9255.000000;0.806911
9254.000000;0.807139
9253.000000;0.807067
9252.000000;0.806705
9251.000000;0.806310
9250.000000;0.806151
9249.000000;0.806231
9248.000000;0.806365
9247.000000;0.806467
9246.000000;0.806607
9245.000000;0.806811
9244.000000;0.806955
9243.000000;0.806895
9242.000000;0.806609
9241.000000;0.806178
9240.000000;0.805733
9239.000000;0.805428
9238.000000;0.805366
9237.000000;0.805501
9236.000000;0.805683
9235.000000;0.805814
9234.000000;0.805894
9233.000000;0.805901
9232.000000;0.805740
9231.000000;0.805380
9230.000000;0.804962
9229.000000;0.804698
9228.000000;0.804673
9227.000000;0.804799
9226.000000;0.804912
9225.000000;0.804887
9224.000000;0.804695
9223.000000;0.804404
9222.000000;0.804133
9221.000000;0.803969
9220.000000;0.803923
9219.000000;0.803952
9218.000000;0.803996
9217.000000;0.803995
9216.000000;0.803936
9215.000000;0.803914
9214.000000;0.804069
9213.000000;0.804417
9212.000000;0.804763
9211.000000;0.804868
9210.000000;0.804682
9209.000000;0.804367
9208.000000;0.804091
9207.000000;0.803867
9206.000000;0.803641
9205.000000;0.803456
9204.000000;0.803428
9203.000000;0.803549
9202.000000;0.803610
9201.000000;0.803401
9200.000000;0.802976
9199.000000;0.802614
9198.000000;0.802526
9197.000000;0.802640
9196.000000;0.802726
9195.000000;0.802650
9194.000000;0.802463
9193.000000;0.802286
9192.000000;0.802195
9191.000000;0.802207
9190.000000;0.802318
9189.000000;0.802505
9188.000000;0.802728
9187.000000;0.802933
9186.000000;0.803050
9185.000000;0.803015
9184.000000;0.802829
9183.000000;0.802574
9182.000000;0.802332
9181.000000;0.802104
9180.000000;0.801866
9179.000000;0.801678
9178.000000;0.801666
9177.000000;0.801863
9176.000000;0.802128
9175.000000;0.802248
9174.000000;0.802099
9173.000000;0.801721
9172.000000;0.801282
9171.000000;0.800966
9170.000000;0.800834
9169.000000;0.800779
9168.000000;0.800675
9167.000000;0.800563
9166.000000;0.800615
9165.000000;0.800866
9164.000000;0.801093
9163.000000;0.801036
9162.000000;0.800696
9161.000000;0.800330
9160.000000;0.800185
9159.000000;0.800303
9158.000000;0.800548
9157.000000;0.800736
9156.000000;0.800759
9155.000000;0.800632
9154.000000;0.800455
9153.000000;0.800305
9152.000000;0.800180
9151.000000;0.800078
9150.000000;0.800049
9149.000000;0.800101
9148.000000;0.800100
9147.000000;0.799915
9146.000000;0.799653
9145.000000;0.799605
9144.000000;0.799869
9143.000000;0.800152
9142.000000;0.800082
9141.000000;0.799676
9140.000000;0.799357
9139.000000;0.799462
9138.000000;0.799866
9137.000000;0.800143
9136.000000;0.800046
9135.000000;0.799715
9134.000000;0.799462
9133.000000;0.799437
9132.000000;0.799558
9131.000000;0.799666
9130.000000;0.799646
9129.000000;0.799441
9128.000000;0.799052
9127.000000;0.798573
9126.000000;0.798171
9125.000000;0.797958
9124.000000;0.797900
9123.000000;0.797875
9122.000000;0.797826
9121.000000;0.797822
9120.000000;0.797966
9119.000000;0.798273
9118.000000;0.798645
9117.000000;0.798930
9116.000000;0.799038
9115.000000;0.799008
9114.000000;0.798957
9113.000000;0.798952
9112.000000;0.798928
9111.000000;0.798758
9110.000000;0.798378
9109.000000;0.797849
9108.000000;0.797334
9107.000000;0.797025
9106.000000;0.797052
9105.000000;0.797355
9104.000000;0.797695
9103.000000;0.797850
9102.000000;0.797817
9101.000000;0.797755
9100.000000;0.797738
9099.000000;0.797663
9098.000000;0.797434
9097.000000;0.797145
9096.000000;0.796997
9095.000000;0.797069
9094.000000;0.797266
9093.000000;0.797451
9092.000000;0.797549
9091.000000;0.797522
9090.000000;0.797332
9089.000000;0.796995
9088.000000;0.796624
9087.000000;0.796352
9086.000000;0.796211
9085.000000;0.796109
9084.000000;0.795949
9083.000000;0.795748
9082.000000;0.795619
9081.000000;0.795654
9080.000000;0.795834
9079.000000;0.796046
9078.000000;0.796144
9077.000000;0.796014
9076.000000;0.795634
9075.000000;0.795124
9074.000000;0.794703
9073.000000;0.794531
9072.000000;0.794625
9071.000000;0.794912
9070.000000;0.795314
9069.000000;0.795703
9068.000000;0.795861
9067.000000;0.795645
9066.000000;0.795198
9065.000000;0.794852
9064.000000;0.794770
9063.000000;0.794793
9062.000000;0.794716
9061.000000;0.794582
9060.000000;0.794589
9059.000000;0.794763
9058.000000;0.794902
9057.000000;0.794836
9056.000000;0.794625
9055.000000;0.794441
9054.000000;0.794340
9053.000000;0.794219
