Criado como novo conjunto de dados;"2706_e01_daniel.spp","8462.1 Secs"
cm-1;Abs
10000.000000;0.842352
9999.000000;0.843070
9998.000000;0.843369
9997.000000;0.842998
9996.000000;0.842280
9995.000000;0.841601
9994.000000;0.841144
9993.000000;0.841014
9992.000000;0.841281
9991.000000;0.841839
9990.000000;0.842381
9989.000000;0.842666
9988.000000;0.842761
9987.000000;0.842949
9986.000000;0.843343
9985.000000;0.843647
9984.000000;0.843399
9983.000000;0.842554
9982.000000;0.841736
9981.000000;0.841737
9980.000000;0.842712
9979.000000;0.843985
9978.000000;0.844661
9977.000000;0.844357
9976.000000;0.843320
9975.000000;0.842051
9974.000000;0.840984
9973.000000;0.840341
9972.000000;0.840038
9971.000000;0.839769
9970.000000;0.839380
9969.000000;0.839114
9968.000000;0.839308
9967.000000;0.839880
9966.000000;0.840318
9965.000000;0.840276
9964.000000;0.839981
9963.000000;0.839939
9962.000000;0.840368
9961.000000;0.841017
9960.000000;0.841461
9959.000000;0.841464
9958.000000;0.841141
9957.000000;0.840851
9956.000000;0.840897
9955.000000;0.841235
9954.000000;0.841516
9953.000000;0.841484
9952.000000;0.841269
9951.000000;0.841212
9950.000000;0.841446
9949.000000;0.841728
9948.000000;0.841656
9947.000000;0.840994
9946.000000;0.839840
9945.000000;0.838619
9944.000000;0.837888
9943.000000;0.837969
9942.000000;0.838676
9941.000000;0.839424
9940.000000;0.839677
9939.000000;0.839324
9938.000000;0.838681
9937.000000;0.838189
9936.000000;0.838101
9935.000000;0.838364
9934.000000;0.838717
9933.000000;0.838952
9932.000000;0.839118
9931.000000;0.839391
9930.000000;0.839754
9929.000000;0.839901
9928.000000;0.839583
9927.000000;0.838963
9926.000000;0.838494
9925.000000;0.838417
9924.000000;0.838537
9923.000000;0.838546
9922.000000;0.838429
9921.000000;0.838387
9920.000000;0.838433
9919.000000;0.838318
9918.000000;0.837922
9917.000000;0.837512
9916.000000;0.837434
9915.000000;0.837702
9914.000000;0.838072
9913.000000;0.838441
9912.000000;0.838890
9911.000000;0.839328
9910.000000;0.839390
9909.000000;0.838863
9908.000000;0.837984
9907.000000;0.837148
9906.000000;0.836480
9905.000000;0.835936
9904.000000;0.835658
9903.000000;0.835883
9902.000000;0.836515
9901.000000;0.837074
9900.000000;0.837209
9899.000000;0.837032
9898.000000;0.836867
9897.000000;0.836850
9896.000000;0.836936
9895.000000;0.837116
9894.000000;0.837364
9893.000000;0.837463
9892.000000;0.837144
9891.000000;0.836458
9890.000000;0.835886
9889.000000;0.835967
9888.000000;0.836803
9887.000000;0.837943
9886.000000;0.838732
9885.000000;0.838792
9884.000000;0.838228
9883.000000;0.837380
9882.000000;0.836467
9881.000000;0.835523
9880.000000;0.834618
9879.000000;0.833996
9878.000000;0.833914
9877.000000;0.834437
9876.000000;0.835374
9875.000000;0.836321
9874.000000;0.836768
9873.000000;0.836424
9872.000000;0.835565
9871.000000;0.834905
9870.000000;0.834914
9869.000000;0.835371
9868.000000;0.835727
9867.000000;0.835787
9866.000000;0.835759
9865.000000;0.835739
9864.000000;0.835525
9863.000000;0.835039
9862.000000;0.834629
9861.000000;0.834746
9860.000000;0.835461
9859.000000;0.836437
9858.000000;0.837247
9857.000000;0.837581
9856.000000;0.837312
9855.000000;0.836582
9854.000000;0.835755
9853.000000;0.835102
9852.000000;0.834564
9851.000000;0.833970
9850.000000;0.833455
9849.000000;0.833391
9848.000000;0.833894
9847.000000;0.834595
9846.000000;0.835005
9845.000000;0.834967
9844.000000;0.834667
9843.000000;0.834329
9842.000000;0.834047
9841.000000;0.833837
9840.000000;0.833707
9839.000000;0.833652
9838.000000;0.833678
9837.000000;0.833815
9836.000000;0.834065
9835.000000;0.834345
9834.000000;0.834550
9833.000000;0.834627
9832.000000;0.834513
9831.000000;0.834051
9830.000000;0.833131
9829.000000;0.831916
9828.000000;0.830800
9827.000000;0.830062
9826.000000;0.829709
9825.000000;0.829706
9824.000000;0.830181
9823.000000;0.831184
9822.000000;0.832377
9821.000000;0.833239
9820.000000;0.833611
9819.000000;0.833764
9818.000000;0.833863
9817.000000;0.833671
9816.000000;0.832986
9815.000000;0.832154
9814.000000;0.831774
9813.000000;0.831957
9812.000000;0.832219
9811.000000;0.832186
9810.000000;0.832071
9809.000000;0.832293
9808.000000;0.832859
9807.000000;0.833387
9806.000000;0.833604
9805.000000;0.833513
9804.000000;0.833142
9803.000000;0.832452
9802.000000;0.831601
9801.000000;0.831010
9800.000000;0.830961
9799.000000;0.831242
9798.000000;0.831391
9797.000000;0.831227
9796.000000;0.830979
9795.000000;0.830903
9794.000000;0.830965
9793.000000;0.830949
9792.000000;0.830753
9791.000000;0.830476
9790.000000;0.830304
9789.000000;0.830392
9788.000000;0.830834
9787.000000;0.831626
9786.000000;0.832587
9785.000000;0.833395
9784.000000;0.833768
9783.000000;0.833659
9782.000000;0.833258
9781.000000;0.832782
9780.000000;0.832292
9779.000000;0.831727
9778.000000;0.831107
9777.000000;0.830592
9776.000000;0.830327
9775.000000;0.830286
9774.000000;0.830316
9773.000000;0.830286
9772.000000;0.830150
9771.000000;0.829937
9770.000000;0.829786
9769.000000;0.829923
9768.000000;0.830439
9767.000000;0.831095
9766.000000;0.831509
9765.000000;0.831541
9764.000000;0.831368
9763.000000;0.831113
9762.000000;0.830635
9761.000000;0.829828
9760.000000;0.828986
9759.000000;0.828640
9758.000000;0.829032
9757.000000;0.829908
9756.000000;0.830793
9755.000000;0.831331
9754.000000;0.831379
9753.000000;0.830976
9752.000000;0.830317
9751.000000;0.829645
9750.000000;0.829108
9749.000000;0.828751
9748.000000;0.828620
9747.000000;0.828722
9746.000000;0.828885
9745.000000;0.828861
9744.000000;0.828669
9743.000000;0.828699
9742.000000;0.829298
9741.000000;0.830308
9740.000000;0.831124
9739.000000;0.831222
9738.000000;0.830588
9737.000000;0.829683
9736.000000;0.829046
9735.000000;0.828887
9734.000000;0.828980
9733.000000;0.828944
9732.000000;0.828651
9731.000000;0.828297
9730.000000;0.828103
9729.000000;0.828091
9728.000000;0.828205
9727.000000;0.828500
9726.000000;0.829048
9725.000000;0.829726
9724.000000;0.830257
9723.000000;0.830455
9722.000000;0.830315
9721.000000;0.829889
9720.000000;0.829247
9719.000000;0.828555
9718.000000;0.828049
9717.000000;0.827841
9716.000000;0.827806
9715.000000;0.827711
9714.000000;0.827418
9713.000000;0.826977
9712.000000;0.826630
9711.000000;0.826723
9710.000000;0.827474
9709.000000;0.828722
9708.000000;0.829942
9707.000000;0.830606
9706.000000;0.830550
9705.000000;0.830011
9704.000000;0.829376
9703.000000;0.828914
9702.000000;0.828673
9701.000000;0.828561
9700.000000;0.828489
9699.000000;0.828480
9698.000000;0.828630
9697.000000;0.828940
9696.000000;0.829220
9695.000000;0.829183
9694.000000;0.828695
9693.000000;0.827940
9692.000000;0.827319
9691.000000;0.827119
9690.000000;0.827263
9689.000000;0.827408
9688.000000;0.827340
9687.000000;0.827199
9686.000000;0.827241
9685.000000;0.827461
9684.000000;0.827571
9683.000000;0.827382
9682.000000;0.827054
9681.000000;0.826901
9680.000000;0.827032
9679.000000;0.827275
9678.000000;0.827401
9677.000000;0.827361
9676.000000;0.827291
9675.000000;0.827356
9674.000000;0.827577
9673.000000;0.827795
9672.000000;0.827776
9671.000000;0.827395
9670.000000;0.826732
9669.000000;0.826029
9668.000000;0.825539
9667.000000;0.825367
9666.000000;0.825377
9665.000000;0.825304
9664.000000;0.825039
9663.000000;0.824810
9662.000000;0.824968
9661.000000;0.825566
9660.000000;0.826265
9659.000000;0.826721
9658.000000;0.826946
9657.000000;0.827174
9656.000000;0.827454
9655.000000;0.827554
9654.000000;0.827269
9653.000000;0.826704
9652.000000;0.826190
9651.000000;0.825985
9650.000000;0.826074
9649.000000;0.826199
9648.000000;0.826069
9647.000000;0.825635
9646.000000;0.825188
9645.000000;0.825136
9644.000000;0.825624
9643.000000;0.826386
9642.000000;0.826960
9641.000000;0.827037
9640.000000;0.826635
9639.000000;0.826039
9638.000000;0.825582
9637.000000;0.825412
9636.000000;0.825384
9635.000000;0.825223
9634.000000;0.824828
9633.000000;0.824367
9632.000000;0.824063
9631.000000;0.823974
9630.000000;0.824028
9629.000000;0.824151
9628.000000;0.824262
9627.000000;0.824255
9626.000000;0.824133
9625.000000;0.824116
9624.000000;0.824405
9623.000000;0.824843
9622.000000;0.824994
9621.000000;0.824643
9620.000000;0.824066
9619.000000;0.823714
9618.000000;0.823738
9617.000000;0.823927
9616.000000;0.824029
9615.000000;0.824008
9614.000000;0.824017
9613.000000;0.824201
9612.000000;0.824517
9611.000000;0.824716
9610.000000;0.824568
9609.000000;0.824144
9608.000000;0.823792
9607.000000;0.823770
9606.000000;0.823988
9605.000000;0.824176
9604.000000;0.824200
9603.000000;0.824105
9602.000000;0.823967
9601.000000;0.823844
9600.000000;0.823825
9599.000000;0.823949
9598.000000;0.824099
9597.000000;0.824114
9596.000000;0.824003
9595.000000;0.823919
9594.000000;0.823945
9593.000000;0.824046
9592.000000;0.824192
9591.000000;0.824359
9590.000000;0.824394
9589.000000;0.824099
9588.000000;0.823516
9587.000000;0.823000
9586.000000;0.822907
9585.000000;0.823288
9584.000000;0.823899
9583.000000;0.824360
9582.000000;0.824338
9581.000000;0.823777
9580.000000;0.823076
9579.000000;0.822817
9578.000000;0.823193
9577.000000;0.823793
9576.000000;0.824101
9575.000000;0.824060
9574.000000;0.823990
9573.000000;0.824036
9572.000000;0.823961
9571.000000;0.823504
9570.000000;0.822771
9569.000000;0.822177
9568.000000;0.822054
9567.000000;0.822359
9566.000000;0.822764
9565.000000;0.823024
9564.000000;0.823213
9563.000000;0.823518
9562.000000;0.823870
9561.000000;0.823951
9560.000000;0.823637
9559.000000;0.823227
9558.000000;0.823077
9557.000000;0.823139
9556.000000;0.823064
9555.000000;0.822723
9554.000000;0.822405
9553.000000;0.822430
9552.000000;0.822742
9551.000000;0.822975
9550.000000;0.822861
9549.000000;0.822478
9548.000000;0.822091
9547.000000;0.821826
9546.000000;0.821569
9545.000000;0.821230
9544.000000;0.820975
9543.000000;0.821055
9542.000000;0.821430
9541.000000;0.821747
9540.000000;0.821753
9539.000000;0.821584
9538.000000;0.821533
9537.000000;0.821700
9536.000000;0.821994
9535.000000;0.822318
9534.000000;0.822560
9533.000000;0.822515
9532.000000;0.822060
9531.000000;0.821385
9530.000000;0.820872
9529.000000;0.820736
9528.000000;0.820898
9527.000000;0.821166
9526.000000;0.821379
9525.000000;0.821400
9524.000000;0.821180
9523.000000;0.820853
9522.000000;0.820621
9521.000000;0.820494
9520.000000;0.820287
9519.000000;0.819895
9518.000000;0.819472
9517.000000;0.819263
9516.000000;0.819353
9515.000000;0.819622
9514.000000;0.819857
9513.000000;0.819902
9512.000000;0.819783
9511.000000;0.819706
9510.000000;0.819851
9509.000000;0.820141
9508.000000;0.820306
9507.000000;0.820170
9506.000000;0.819814
9505.000000;0.819441
9504.000000;0.819220
9503.000000;0.819234
9502.000000;0.819479
9501.000000;0.819824
9500.000000;0.820078
9499.000000;0.820122
9498.000000;0.819974
9497.000000;0.819729
9496.000000;0.819495
9495.000000;0.819353
9494.000000;0.819262
9493.000000;0.819038
9492.000000;0.818581
9491.000000;0.818117
9490.000000;0.818052
9489.000000;0.818511
9488.000000;0.819167
9487.000000;0.819574
9486.000000;0.819590
9485.000000;0.819406
9484.000000;0.819278
9483.000000;0.819323
9482.000000;0.819477
9481.000000;0.819562
9480.000000;0.819415
9479.000000;0.819041
9478.000000;0.818616
9477.000000;0.818336
9476.000000;0.818313
9475.000000;0.818581
9474.000000;0.819081
9473.000000;0.819600
9472.000000;0.819851
9471.000000;0.819717
9470.000000;0.819366
9469.000000;0.819067
9468.000000;0.818963
9467.000000;0.819039
9466.000000;0.819188
9465.000000;0.819232
9464.000000;0.819015
9463.000000;0.818567
9462.000000;0.818143
9461.000000;0.817971
9460.000000;0.818018
9459.000000;0.818082
9458.000000;0.818048
9457.000000;0.817960
9456.000000;0.817887
9455.000000;0.817868
9454.000000;0.817974
9453.000000;0.818287
9452.000000;0.818757
9451.000000;0.819157
9450.000000;0.819248
9449.000000;0.818962
9448.000000;0.818433
9447.000000;0.817896
9446.000000;0.817561
9445.000000;0.817503
9444.000000;0.817606
9443.000000;0.817644
9442.000000;0.817498
9441.000000;0.817294
9440.000000;0.817252
9439.000000;0.817386
9438.000000;0.817440
9437.000000;0.817200
9436.000000;0.816806
9435.000000;0.816645
9434.000000;0.816901
9433.000000;0.817338
9432.000000;0.817560
9431.000000;0.817416
9430.000000;0.817067
9429.000000;0.816751
9428.000000;0.816606
9427.000000;0.816676
9426.000000;0.816937
9425.000000;0.817276
9424.000000;0.817501
9423.000000;0.817451
9422.000000;0.817110
9421.000000;0.816678
9420.000000;0.816491
9419.000000;0.816787
9418.000000;0.817452
9417.000000;0.818053
9416.000000;0.818216
9415.000000;0.817912
9414.000000;0.817360
9413.000000;0.816755
9412.000000;0.816231
9411.000000;0.815956
9410.000000;0.816051
9409.000000;0.816405
9408.000000;0.816768
9407.000000;0.817013
9406.000000;0.817140
9405.000000;0.817051
9404.000000;0.816573
9403.000000;0.815795
9402.000000;0.815154
9401.000000;0.814998
9400.000000;0.815208
9399.000000;0.815399
9398.000000;0.815402
9397.000000;0.815376
9396.000000;0.815508
9395.000000;0.815788
9394.000000;0.816092
9393.000000;0.816326
9392.000000;0.816411
9391.000000;0.816275
9390.000000;0.815943
9389.000000;0.815592
9388.000000;0.815421
9387.000000;0.815435
9386.000000;0.815434
9385.000000;0.815222
9384.000000;0.814807
9383.000000;0.814346
9382.000000;0.813956
9381.000000;0.813672
9380.000000;0.813571
9379.000000;0.813800
9378.000000;0.814404
9377.000000;0.815210
9376.000000;0.815929
9375.000000;0.816328
9374.000000;0.816295
9373.000000;0.815858
9372.000000;0.815250
9371.000000;0.814820
9370.000000;0.814695
9369.000000;0.814647
9368.000000;0.814433
9367.000000;0.814173
9366.000000;0.814162
9365.000000;0.814391
9364.000000;0.814531
9363.000000;0.814427
9362.000000;0.814309
9361.000000;0.814389
9360.000000;0.814530
9359.000000;0.814494
9358.000000;0.814326
9357.000000;0.814277
9356.000000;0.814446
9355.000000;0.814694
9354.000000;0.814846
9353.000000;0.814827
9352.000000;0.814654
9351.000000;0.814459
9350.000000;0.814465
9349.000000;0.814787
9348.000000;0.815226
9347.000000;0.815408
9346.000000;0.815138
9345.000000;0.814569
9344.000000;0.814012
9343.000000;0.813660
9342.000000;0.813504
9341.000000;0.813445
9340.000000;0.813444
9339.000000;0.813551
9338.000000;0.813804
9337.000000;0.814091
9336.000000;0.814195
9335.000000;0.813993
9334.000000;0.813577
9333.000000;0.813144
9332.000000;0.812827
9331.000000;0.812648
9330.000000;0.812579
9329.000000;0.812588
9328.000000;0.812652
9327.000000;0.812772
9326.000000;0.812955
9325.000000;0.813160
9324.000000;0.813324
9323.000000;0.813434
9322.000000;0.813529
9321.000000;0.813619
9320.000000;0.813665
9319.000000;0.813660
9318.000000;0.813631
9317.000000;0.813548
9316.000000;0.813320
9315.000000;0.812930
9314.000000;0.812520
9313.000000;0.812283
9312.000000;0.812331
9311.000000;0.812652
9310.000000;0.813108
9309.000000;0.813450
9308.000000;0.813464
9307.000000;0.813170
9306.000000;0.812815
9305.000000;0.812595
9304.000000;0.812497
9303.000000;0.812448
9302.000000;0.812493
9301.000000;0.812707
9300.000000;0.813017
9299.000000;0.813243
9298.000000;0.813288
9297.000000;0.813162
9296.000000;0.812859
9295.000000;0.812360
9294.000000;0.811758
9293.000000;0.811288
9292.000000;0.811135
9291.000000;0.811229
9290.000000;0.811276
9289.000000;0.811031
9288.000000;0.810585
9287.000000;0.810343
9286.000000;0.810647
9285.000000;0.811420
9284.000000;0.812216
9283.000000;0.812625
9282.000000;0.812546
9281.000000;0.812138
9280.000000;0.811652
9279.000000;0.811352
9278.000000;0.811420
9277.000000;0.811814
9276.000000;0.812294
9275.000000;0.812633
9274.000000;0.812724
9273.000000;0.812499
9272.000000;0.811917
9271.000000;0.811154
9270.000000;0.810619
9269.000000;0.810594
9268.000000;0.810940
9267.000000;0.811261
9266.000000;0.811295
9265.000000;0.811046
9264.000000;0.810657
9263.000000;0.810302
9262.000000;0.810121
9261.000000;0.810131
9260.000000;0.810215
9259.000000;0.810309
9258.000000;0.810508
9257.000000;0.810856
9256.000000;0.811150
9255.000000;0.811148
9254.000000;0.810913
9253.000000;0.810764
9252.000000;0.810880
9251.000000;0.811151
9250.000000;0.811398
9249.000000;0.811558
9248.000000;0.811607
9247.000000;0.811492
9246.000000;0.811206
9245.000000;0.810840
9244.000000;0.810498
9243.000000;0.810232
9242.000000;0.810055
9241.000000;0.809928
9240.000000;0.809736
9239.000000;0.809421
9238.000000;0.809135
9237.000000;0.809120
9236.000000;0.809388
9235.000000;0.809646
9234.000000;0.809610
9233.000000;0.809294
9232.000000;0.808942
9231.000000;0.808755
9230.000000;0.808776
9229.000000;0.808938
9228.000000;0.809145
9227.000000;0.809312
9226.000000;0.809399
9225.000000;0.809398
9224.000000;0.809290
9223.000000;0.809062
9222.000000;0.808788
9221.000000;0.808602
9220.000000;0.808574
9219.000000;0.808657
9218.000000;0.808790
9217.000000;0.808963
9216.000000;0.809144
9215.000000;0.809217
9214.000000;0.809091
9213.000000;0.808824
9212.000000;0.808573
9211.000000;0.808435
9210.000000;0.808389
9209.000000;0.808374
9208.000000;0.808344
9207.000000;0.808255
9206.000000;0.808084
9205.000000;0.807896
9204.000000;0.807835
9203.000000;0.807978
9202.000000;0.808216
9201.000000;0.808329
9200.000000;0.808213
9199.000000;0.807982
9198.000000;0.807837
9197.000000;0.807855
9196.000000;0.807963
9195.000000;0.808067
9194.000000;0.808131
9193.000000;0.808160
9192.000000;0.808176
9191.000000;0.808215
9190.000000;0.808263
9189.000000;0.808191
9188.000000;0.807871
9187.000000;0.807392
9186.000000;0.807068
9185.000000;0.807156
9184.000000;0.807596
9183.000000;0.808084
9182.000000;0.808376
9181.000000;0.808462
9180.000000;0.808475
9179.000000;0.808487
9178.000000;0.808413
9177.000000;0.808105
9176.000000;0.807581
9175.000000;0.807102
9174.000000;0.806940
9173.000000;0.807061
9172.000000;0.807170
9171.000000;0.807087
9170.000000;0.806948
9169.000000;0.806964
9168.000000;0.807126
9167.000000;0.807261
9166.000000;0.807240
9165.000000;0.807016
9164.000000;0.806570
9163.000000;0.805998
9162.000000;0.805573
9161.000000;0.805531
9160.000000;0.805815
9159.000000;0.806160
9158.000000;0.806379
9157.000000;0.806445
9156.000000;0.806355
9155.000000;0.806155
9154.000000;0.806057
9153.000000;0.806288
9152.000000;0.806749
9151.000000;0.807027
9150.000000;0.806829
9149.000000;0.806284
9148.000000;0.805727
9147.000000;0.805371
9146.000000;0.805263
9145.000000;0.805400
9144.000000;0.805727
9143.000000;0.806080
9142.000000;0.806298
9141.000000;0.806358
9140.000000;0.806327
9139.000000;0.806242
9138.000000;0.806097
9137.000000;0.805927
9136.000000;0.805784
9135.000000;0.805682
9134.000000;0.805607
9133.000000;0.805572
9132.000000;0.805617
9131.000000;0.805764
9130.000000;0.806023
9129.000000;0.806370
9128.000000;0.806681
9127.000000;0.806753
9126.000000;0.806480
9125.000000;0.805987
9124.000000;0.805521
9123.000000;0.805232
9122.000000;0.805094
9121.000000;0.805016
9120.000000;0.804948
9119.000000;0.804908
9118.000000;0.804948
9117.000000;0.805114
9116.000000;0.805405
9115.000000;0.805765
9114.000000;0.806103
9113.000000;0.806320
9112.000000;0.806311
9111.000000;0.806036
9110.000000;0.805616
9109.000000;0.805297
9108.000000;0.805232
9107.000000;0.805318
9106.000000;0.805311
9105.000000;0.805079
9104.000000;0.804698
9103.000000;0.804318
9102.000000;0.804031
9101.000000;0.803882
9100.000000;0.803926
9099.000000;0.804184
9098.000000;0.804557
9097.000000;0.804834
9096.000000;0.804838
9095.000000;0.804581
9094.000000;0.804263
9093.000000;0.804088
9092.000000;0.804096
9091.000000;0.804188
9090.000000;0.804281
9089.000000;0.804382
9088.000000;0.804506
9087.000000;0.804596
9086.000000;0.804586
9085.000000;0.804479
9084.000000;0.804313
9083.000000;0.804117
9082.000000;0.803934
9081.000000;0.803860
9080.000000;0.803939
9079.000000;0.804055
9078.000000;0.804036
9077.000000;0.803865
9076.000000;0.803701
9075.000000;0.803666
9074.000000;0.803704
9073.000000;0.803695
9072.000000;0.803622
9071.000000;0.803540
9070.000000;0.803468
9069.000000;0.803389
9068.000000;0.803318
9067.000000;0.803278
9066.000000;0.803234
9065.000000;0.803147
9064.000000;0.803084
9063.000000;0.803160
9062.000000;0.803360
9061.000000;0.803522
9060.000000;0.803552
9059.000000;0.803567
9058.000000;0.803735
9057.000000;0.804033
9056.000000;0.804250
9055.000000;0.804196
9054.000000;0.803854
9053.000000;0.803334
