Criado como novo conjunto de dados;"2706_e01_daniel.spp","5762.1 Secs"
cm-1;Abs
10000.000000;0.883316
9999.000000;0.883035
9998.000000;0.883017
9997.000000;0.883071
9996.000000;0.883068
9995.000000;0.883085
9994.000000;0.883151
9993.000000;0.883279
9992.000000;0.883509
9991.000000;0.883986
9990.000000;0.884706
9989.000000;0.885330
9988.000000;0.885399
9987.000000;0.884801
9986.000000;0.883875
9985.000000;0.883057
9984.000000;0.882539
9983.000000;0.882301
9982.000000;0.882276
9981.000000;0.882378
9980.000000;0.882502
9979.000000;0.882672
9978.000000;0.883071
9977.000000;0.883744
9976.000000;0.884331
9975.000000;0.884321
9974.000000;0.883656
9973.000000;0.882888
9972.000000;0.882655
9971.000000;0.883097
9970.000000;0.883873
9969.000000;0.884600
9968.000000;0.885121
9967.000000;0.885398
9966.000000;0.885378
9965.000000;0.885035
9964.000000;0.884459
9963.000000;0.883845
9962.000000;0.883423
9961.000000;0.883372
9960.000000;0.883658
9959.000000;0.883952
9958.000000;0.883844
9957.000000;0.883244
9956.000000;0.882498
9955.000000;0.882034
9954.000000;0.881980
9953.000000;0.882192
9952.000000;0.882495
9951.000000;0.882746
9950.000000;0.882793
9949.000000;0.882569
9948.000000;0.882230
9947.000000;0.882061
9946.000000;0.882219
9945.000000;0.882630
9944.000000;0.883134
9943.000000;0.883599
9942.000000;0.883933
9941.000000;0.884095
9940.000000;0.884114
9939.000000;0.884010
9938.000000;0.883715
9937.000000;0.883239
9936.000000;0.882842
9935.000000;0.882835
9934.000000;0.883156
9933.000000;0.883337
9932.000000;0.882998
9931.000000;0.882245
9930.000000;0.881510
9929.000000;0.881145
9928.000000;0.881263
9927.000000;0.881767
9926.000000;0.882325
9925.000000;0.882466
9924.000000;0.881979
9923.000000;0.881206
9922.000000;0.880733
9921.000000;0.880761
9920.000000;0.880953
9919.000000;0.880905
9918.000000;0.880613
9917.000000;0.880385
9916.000000;0.880419
9915.000000;0.880641
9914.000000;0.880899
9913.000000;0.881156
9912.000000;0.881424
9911.000000;0.881624
9910.000000;0.881624
9909.000000;0.881407
9908.000000;0.881111
9907.000000;0.880875
9906.000000;0.880726
9905.000000;0.880644
9904.000000;0.880695
9903.000000;0.880991
9902.000000;0.881526
9901.000000;0.882114
9900.000000;0.882505
9899.000000;0.882567
9898.000000;0.882375
9897.000000;0.882145
9896.000000;0.882053
9895.000000;0.882087
9894.000000;0.882093
9893.000000;0.881993
9892.000000;0.881872
9891.000000;0.881820
9890.000000;0.881800
9889.000000;0.881755
9888.000000;0.881723
9887.000000;0.881686
9886.000000;0.881440
9885.000000;0.880847
9884.000000;0.880175
9883.000000;0.879916
9882.000000;0.880197
9881.000000;0.880626
9880.000000;0.880784
9879.000000;0.880659
9878.000000;0.880501
9877.000000;0.880495
9876.000000;0.880726
9875.000000;0.881237
9874.000000;0.881862
9873.000000;0.882153
9872.000000;0.881751
9871.000000;0.880823
9870.000000;0.879939
9869.000000;0.879522
9868.000000;0.879557
9867.000000;0.879802
9866.000000;0.880076
9865.000000;0.880340
9864.000000;0.880657
9863.000000;0.881106
9862.000000;0.881608
9861.000000;0.881864
9860.000000;0.881662
9859.000000;0.881225
9858.000000;0.881038
9857.000000;0.881249
9856.000000;0.881455
9855.000000;0.881208
9854.000000;0.880577
9853.000000;0.880054
9852.000000;0.880012
9851.000000;0.880422
9850.000000;0.881024
9849.000000;0.881583
9848.000000;0.881995
9847.000000;0.882283
9846.000000;0.882522
9845.000000;0.882636
9844.000000;0.882315
9843.000000;0.881308
9842.000000;0.879857
9841.000000;0.878648
9840.000000;0.878199
9839.000000;0.878407
9838.000000;0.878817
9837.000000;0.879208
9836.000000;0.879677
9835.000000;0.880207
9834.000000;0.880463
9833.000000;0.880179
9832.000000;0.879564
9831.000000;0.879119
9830.000000;0.879132
9829.000000;0.879482
9828.000000;0.879868
9827.000000;0.880037
9826.000000;0.879841
9825.000000;0.879278
9824.000000;0.878573
9823.000000;0.878102
9822.000000;0.878117
9821.000000;0.878559
9820.000000;0.879124
9819.000000;0.879476
9818.000000;0.879413
9817.000000;0.878980
9816.000000;0.878477
9815.000000;0.878249
9814.000000;0.878366
9813.000000;0.878575
9812.000000;0.878653
9811.000000;0.878763
9810.000000;0.879315
9809.000000;0.880440
9808.000000;0.881690
9807.000000;0.882360
9806.000000;0.882132
9805.000000;0.881361
9804.000000;0.880709
9803.000000;0.880515
9802.000000;0.880544
9801.000000;0.880321
9800.000000;0.879639
9799.000000;0.878750
9798.000000;0.878116
9797.000000;0.878026
9796.000000;0.878362
9795.000000;0.878683
9794.000000;0.878603
9793.000000;0.878165
9792.000000;0.877797
9791.000000;0.877810
9790.000000;0.878004
9789.000000;0.877936
9788.000000;0.877540
9787.000000;0.877277
9786.000000;0.877563
9785.000000;0.878226
9784.000000;0.878675
9783.000000;0.878561
9782.000000;0.878135
9781.000000;0.877943
9780.000000;0.878297
9779.000000;0.879065
9778.000000;0.879873
9777.000000;0.880396
9776.000000;0.880491
9775.000000;0.880189
9774.000000;0.879673
9773.000000;0.879211
9772.000000;0.878964
9771.000000;0.878833
9770.000000;0.878596
9769.000000;0.878241
9768.000000;0.878031
9767.000000;0.878137
9766.000000;0.878359
9765.000000;0.878366
9764.000000;0.878126
9763.000000;0.877885
9762.000000;0.877766
9761.000000;0.877666
9760.000000;0.877565
9759.000000;0.877640
9758.000000;0.877918
9757.000000;0.878056
9756.000000;0.877705
9755.000000;0.877005
9754.000000;0.876493
9753.000000;0.876514
9752.000000;0.876929
9751.000000;0.877409
9750.000000;0.877860
9749.000000;0.878411
9748.000000;0.879067
9747.000000;0.879493
9746.000000;0.879254
9745.000000;0.878265
9744.000000;0.876992
9743.000000;0.876135
9742.000000;0.876102
9741.000000;0.876772
9740.000000;0.877705
9739.000000;0.878465
9738.000000;0.878777
9737.000000;0.878568
9736.000000;0.877999
9735.000000;0.877399
9734.000000;0.877011
9733.000000;0.876822
9732.000000;0.876706
9731.000000;0.876686
9730.000000;0.876912
9729.000000;0.877366
9728.000000;0.877742
9727.000000;0.877742
9726.000000;0.877439
9725.000000;0.877241
9724.000000;0.877470
9723.000000;0.878053
9722.000000;0.878640
9721.000000;0.878955
9720.000000;0.878981
9719.000000;0.878835
9718.000000;0.878564
9717.000000;0.878106
9716.000000;0.877457
9715.000000;0.876807
9714.000000;0.876450
9713.000000;0.876518
9712.000000;0.876801
9711.000000;0.876911
9710.000000;0.876713
9709.000000;0.876531
9708.000000;0.876828
9707.000000;0.877663
9706.000000;0.878564
9705.000000;0.878960
9704.000000;0.878617
9703.000000;0.877696
9702.000000;0.876551
9701.000000;0.875589
9700.000000;0.875131
9699.000000;0.875195
9698.000000;0.875470
9697.000000;0.875648
9696.000000;0.875750
9695.000000;0.875996
9694.000000;0.876444
9693.000000;0.876957
9692.000000;0.877454
9691.000000;0.877966
9690.000000;0.878403
9689.000000;0.878515
9688.000000;0.878179
9687.000000;0.877557
9686.000000;0.876892
9685.000000;0.876277
9684.000000;0.875728
9683.000000;0.875315
9682.000000;0.875106
9681.000000;0.875061
9680.000000;0.875101
9679.000000;0.875220
9678.000000;0.875438
9677.000000;0.875695
9676.000000;0.875882
9675.000000;0.875941
9674.000000;0.875878
9673.000000;0.875718
9672.000000;0.875517
9671.000000;0.875357
9670.000000;0.875294
9669.000000;0.875352
9668.000000;0.875565
9667.000000;0.875939
9666.000000;0.876349
9665.000000;0.876568
9664.000000;0.876469
9663.000000;0.876144
9662.000000;0.875767
9661.000000;0.875438
9660.000000;0.875224
9659.000000;0.875254
9658.000000;0.875639
9657.000000;0.876296
9656.000000;0.876909
9655.000000;0.877118
9654.000000;0.876779
9653.000000;0.876120
9652.000000;0.875597
9651.000000;0.875494
9650.000000;0.875623
9649.000000;0.875546
9648.000000;0.875116
9647.000000;0.874646
9646.000000;0.874461
9645.000000;0.874478
9644.000000;0.874409
9643.000000;0.874247
9642.000000;0.874311
9641.000000;0.874822
9640.000000;0.875619
9639.000000;0.876344
9638.000000;0.876738
9637.000000;0.876727
9636.000000;0.876369
9635.000000;0.875848
9634.000000;0.875431
9633.000000;0.875289
9632.000000;0.875350
9631.000000;0.875378
9630.000000;0.875220
9629.000000;0.874976
9628.000000;0.874889
9627.000000;0.875080
9626.000000;0.875382
9625.000000;0.875469
9624.000000;0.875179
9623.000000;0.874694
9622.000000;0.874357
9621.000000;0.874333
9620.000000;0.874481
9619.000000;0.874565
9618.000000;0.874537
9617.000000;0.874574
9616.000000;0.874826
9615.000000;0.875183
9614.000000;0.875334
9613.000000;0.875100
9612.000000;0.874664
9611.000000;0.874428
9610.000000;0.874631
9609.000000;0.875102
9608.000000;0.875406
9607.000000;0.875227
9606.000000;0.874643
9605.000000;0.874059
9604.000000;0.873853
9603.000000;0.874043
9602.000000;0.874288
9601.000000;0.874229
9600.000000;0.873824
9599.000000;0.873361
9598.000000;0.873181
9597.000000;0.873414
9596.000000;0.873922
9595.000000;0.874410
9594.000000;0.874623
9593.000000;0.874534
9592.000000;0.874358
9591.000000;0.874342
9590.000000;0.874541
9589.000000;0.874797
9588.000000;0.874900
9587.000000;0.874728
9586.000000;0.874325
9585.000000;0.873917
9584.000000;0.873755
9583.000000;0.873815
9582.000000;0.873758
9581.000000;0.873357
9580.000000;0.872886
9579.000000;0.872844
9578.000000;0.873299
9577.000000;0.873776
9576.000000;0.873878
9575.000000;0.873738
9574.000000;0.873739
9573.000000;0.874009
9572.000000;0.874400
9571.000000;0.874753
9570.000000;0.874967
9569.000000;0.874935
9568.000000;0.874667
9567.000000;0.874414
9566.000000;0.874416
9565.000000;0.874549
9564.000000;0.874467
9563.000000;0.874110
9562.000000;0.873837
9561.000000;0.873976
9560.000000;0.874431
9559.000000;0.874843
9558.000000;0.875008
9557.000000;0.874997
9556.000000;0.874973
9555.000000;0.875012
9554.000000;0.875097
9553.000000;0.875185
9552.000000;0.875263
9551.000000;0.875360
9550.000000;0.875472
9549.000000;0.875491
9548.000000;0.875277
9547.000000;0.874864
9546.000000;0.874512
9545.000000;0.874452
9544.000000;0.874612
9543.000000;0.874689
9542.000000;0.874507
9541.000000;0.874208
9540.000000;0.874025
9539.000000;0.873957
9538.000000;0.873795
9537.000000;0.873452
9536.000000;0.873117
9535.000000;0.873035
9534.000000;0.873214
9533.000000;0.873476
9532.000000;0.873711
9531.000000;0.873957
9530.000000;0.874198
9529.000000;0.874255
9528.000000;0.873959
9527.000000;0.873406
9526.000000;0.872926
9525.000000;0.872824
9524.000000;0.873163
9523.000000;0.873787
9522.000000;0.874476
9521.000000;0.875065
9520.000000;0.875430
9519.000000;0.875458
9518.000000;0.875096
9517.000000;0.874444
9516.000000;0.873746
9515.000000;0.873218
9514.000000;0.872903
9513.000000;0.872742
9512.000000;0.872698
9511.000000;0.872759
9510.000000;0.872836
9509.000000;0.872809
9508.000000;0.872687
9507.000000;0.872628
9506.000000;0.872763
9505.000000;0.873054
9504.000000;0.873321
9503.000000;0.873359
9502.000000;0.873057
9501.000000;0.872512
9500.000000;0.872061
9499.000000;0.872037
9498.000000;0.872419
9497.000000;0.872797
9496.000000;0.872774
9495.000000;0.872340
9494.000000;0.871803
9493.000000;0.871449
9492.000000;0.871354
9491.000000;0.871491
9490.000000;0.871877
9489.000000;0.872578
9488.000000;0.873553
9487.000000;0.874503
9486.000000;0.874950
9485.000000;0.874607
9484.000000;0.873708
9483.000000;0.872831
9482.000000;0.872347
9481.000000;0.872148
9480.000000;0.871971
9479.000000;0.871788
9478.000000;0.871755
9477.000000;0.871912
9476.000000;0.872153
9475.000000;0.872415
9474.000000;0.872676
9473.000000;0.872814
9472.000000;0.872688
9471.000000;0.872416
9470.000000;0.872313
9469.000000;0.872490
9468.000000;0.872677
9467.000000;0.872608
9466.000000;0.872421
9465.000000;0.872490
9464.000000;0.872918
9463.000000;0.873399
9462.000000;0.873592
9461.000000;0.873484
9460.000000;0.873302
9459.000000;0.873198
9458.000000;0.873130
9457.000000;0.872994
9456.000000;0.872743
9455.000000;0.872394
9454.000000;0.872012
9453.000000;0.871727
9452.000000;0.871639
9451.000000;0.871664
9450.000000;0.871559
9449.000000;0.871213
9448.000000;0.870865
9447.000000;0.870898
9446.000000;0.871429
9445.000000;0.872158
9444.000000;0.872661
9443.000000;0.872729
9442.000000;0.872454
9441.000000;0.872072
9440.000000;0.871797
9439.000000;0.871720
9438.000000;0.871797
9437.000000;0.871939
9436.000000;0.872115
9435.000000;0.872322
9434.000000;0.872500
9433.000000;0.872551
9432.000000;0.872477
9431.000000;0.872393
9430.000000;0.872371
9429.000000;0.872371
9428.000000;0.872357
9427.000000;0.872391
9426.000000;0.872510
9425.000000;0.872603
9424.000000;0.872507
9423.000000;0.872203
9422.000000;0.871857
9421.000000;0.871682
9420.000000;0.871791
9419.000000;0.872136
9418.000000;0.872515
9417.000000;0.872687
9416.000000;0.872528
9415.000000;0.872073
9414.000000;0.871409
9413.000000;0.870612
9412.000000;0.869844
9411.000000;0.869380
9410.000000;0.869426
9409.000000;0.869931
9408.000000;0.870649
9407.000000;0.871306
9406.000000;0.871693
9405.000000;0.871695
9404.000000;0.871385
9403.000000;0.871029
9402.000000;0.870859
9401.000000;0.870852
9400.000000;0.870827
9399.000000;0.870723
9398.000000;0.870647
9397.000000;0.870683
9396.000000;0.870812
9395.000000;0.871015
9394.000000;0.871294
9393.000000;0.871544
9392.000000;0.871547
9391.000000;0.871216
9390.000000;0.870757
9389.000000;0.870498
9388.000000;0.870578
9387.000000;0.870856
9386.000000;0.871080
9385.000000;0.871098
9384.000000;0.870931
9383.000000;0.870712
9382.000000;0.870567
9381.000000;0.870528
9380.000000;0.870559
9379.000000;0.870633
9378.000000;0.870748
9377.000000;0.870879
9376.000000;0.870950
9375.000000;0.870869
9374.000000;0.870589
9373.000000;0.870140
9372.000000;0.869648
9371.000000;0.869292
9370.000000;0.869199
9369.000000;0.869393
9368.000000;0.869855
9367.000000;0.870564
9366.000000;0.871412
9365.000000;0.872102
9364.000000;0.872281
9363.000000;0.871838
9362.000000;0.871002
9361.000000;0.870163
9360.000000;0.869628
9359.000000;0.869517
9358.000000;0.869762
9357.000000;0.870117
9356.000000;0.870301
9355.000000;0.870225
9354.000000;0.870060
9353.000000;0.870023
9352.000000;0.870133
9351.000000;0.870253
9350.000000;0.870322
9349.000000;0.870418
9348.000000;0.870579
9347.000000;0.870671
9346.000000;0.870515
9345.000000;0.870120
9344.000000;0.869719
9343.000000;0.869558
9342.000000;0.869686
9341.000000;0.869966
9340.000000;0.870241
9339.000000;0.870462
9338.000000;0.870654
9337.000000;0.870833
9336.000000;0.870986
9335.000000;0.871073
9334.000000;0.871008
9333.000000;0.870668
9332.000000;0.870041
9331.000000;0.869361
9330.000000;0.868992
9329.000000;0.869102
9328.000000;0.869466
9327.000000;0.869670
9326.000000;0.869508
9325.000000;0.869153
9324.000000;0.868946
9323.000000;0.869071
9322.000000;0.869426
9321.000000;0.869751
9320.000000;0.869861
9319.000000;0.869789
9318.000000;0.869726
9317.000000;0.869827
9316.000000;0.870013
9315.000000;0.870013
9314.000000;0.869655
9313.000000;0.869145
9312.000000;0.868940
9311.000000;0.869274
9310.000000;0.869842
9309.000000;0.870078
9308.000000;0.869761
9307.000000;0.869269
9306.000000;0.869142
9305.000000;0.869501
9304.000000;0.869986
9303.000000;0.870198
9302.000000;0.870079
9301.000000;0.869833
9300.000000;0.869632
9299.000000;0.869496
9298.000000;0.869391
9297.000000;0.869328
9296.000000;0.869326
9295.000000;0.869364
9294.000000;0.869421
9293.000000;0.869527
9292.000000;0.869719
9291.000000;0.869948
9290.000000;0.870071
9289.000000;0.869959
9288.000000;0.869605
9287.000000;0.869134
9286.000000;0.868731
9285.000000;0.868580
9284.000000;0.868800
9283.000000;0.869338
9282.000000;0.869923
9281.000000;0.870219
9280.000000;0.870074
9279.000000;0.869615
9278.000000;0.869089
9277.000000;0.868691
9276.000000;0.868550
9275.000000;0.868755
9274.000000;0.869255
9273.000000;0.869797
9272.000000;0.870059
9271.000000;0.869917
9270.000000;0.869503
9269.000000;0.869027
9268.000000;0.868610
9267.000000;0.868295
9266.000000;0.868119
9265.000000;0.868101
9264.000000;0.868205
9263.000000;0.868354
9262.000000;0.868487
9261.000000;0.868599
9260.000000;0.868739
9259.000000;0.868960
9258.000000;0.869213
9257.000000;0.869336
9256.000000;0.869193
9255.000000;0.868854
9254.000000;0.868574
9253.000000;0.868570
9252.000000;0.868836
9251.000000;0.869160
9250.000000;0.869267
9249.000000;0.869012
9248.000000;0.868504
9247.000000;0.868067
9246.000000;0.867984
9245.000000;0.868246
9244.000000;0.868628
9243.000000;0.868963
9242.000000;0.869238
9241.000000;0.869403
9240.000000;0.869303
9239.000000;0.868926
9238.000000;0.868535
9237.000000;0.868360
9236.000000;0.868250
9235.000000;0.867863
9234.000000;0.867180
9233.000000;0.866603
9232.000000;0.866481
9231.000000;0.866717
9230.000000;0.866953
9229.000000;0.866980
9228.000000;0.866875
9227.000000;0.866817
9226.000000;0.866925
9225.000000;0.867204
9224.000000;0.867533
9223.000000;0.867709
9222.000000;0.867611
9221.000000;0.867326
9220.000000;0.867065
9219.000000;0.866944
9218.000000;0.866907
9217.000000;0.866871
9216.000000;0.866881
9215.000000;0.867074
9214.000000;0.867479
9213.000000;0.867879
9212.000000;0.867922
9211.000000;0.867477
9210.000000;0.866847
9209.000000;0.866530
9208.000000;0.866722
9207.000000;0.867135
9206.000000;0.867362
9205.000000;0.867311
9204.000000;0.867170
9203.000000;0.867059
9202.000000;0.866919
9201.000000;0.866722
9200.000000;0.866578
9199.000000;0.866566
9198.000000;0.866587
9197.000000;0.866502
9196.000000;0.866353
9195.000000;0.866329
9194.000000;0.866551
9193.000000;0.866955
9192.000000;0.867369
9191.000000;0.867645
9190.000000;0.867718
9189.000000;0.867607
9188.000000;0.867357
9187.000000;0.867003
9186.000000;0.866606
9185.000000;0.866319
9184.000000;0.866327
9183.000000;0.866670
9182.000000;0.867140
9181.000000;0.867416
9180.000000;0.867321
9179.000000;0.866957
9178.000000;0.866625
9177.000000;0.866620
9176.000000;0.867034
9175.000000;0.867673
9174.000000;0.868174
9173.000000;0.868249
9172.000000;0.867867
9171.000000;0.867229
9170.000000;0.866603
9169.000000;0.866202
9168.000000;0.866100
9167.000000;0.866209
9166.000000;0.866330
9165.000000;0.866311
9164.000000;0.866173
9163.000000;0.866053
9162.000000;0.866023
9161.000000;0.866018
9160.000000;0.865935
9159.000000;0.865772
9158.000000;0.865633
9157.000000;0.865614
9156.000000;0.865693
9155.000000;0.865741
9154.000000;0.865668
9153.000000;0.865543
9152.000000;0.865558
9151.000000;0.865830
9150.000000;0.866247
9149.000000;0.866551
9148.000000;0.866566
9147.000000;0.866339
9146.000000;0.866079
9145.000000;0.865985
9144.000000;0.866124
9143.000000;0.866402
9142.000000;0.866618
9141.000000;0.866562
9140.000000;0.866152
9139.000000;0.865515
9138.000000;0.864936
9137.000000;0.864683
9136.000000;0.864812
9135.000000;0.865139
9134.000000;0.865411
9133.000000;0.865529
9132.000000;0.865600
9131.000000;0.865766
9130.000000;0.866023
9129.000000;0.866226
9128.000000;0.866255
9127.000000;0.866136
9126.000000;0.865965
9125.000000;0.865760
9124.000000;0.865442
9123.000000;0.864997
9122.000000;0.864606
9121.000000;0.864520
9120.000000;0.864798
9119.000000;0.865212
9118.000000;0.865448
9117.000000;0.865372
9116.000000;0.865099
9115.000000;0.864851
9114.000000;0.864823
9113.000000;0.865103
9112.000000;0.865593
9111.000000;0.866026
9110.000000;0.866147
9109.000000;0.865932
9108.000000;0.865575
9107.000000;0.865265
9106.000000;0.865053
9105.000000;0.864916
9104.000000;0.864842
9103.000000;0.864813
9102.000000;0.864767
9101.000000;0.864658
9100.000000;0.864524
9099.000000;0.864471
9098.000000;0.864593
9097.000000;0.864885
9096.000000;0.865191
9095.000000;0.865280
9094.000000;0.865087
9093.000000;0.864825
9092.000000;0.864742
9091.000000;0.864770
9090.000000;0.864601
9089.000000;0.864142
9088.000000;0.863707
9087.000000;0.863642
9086.000000;0.863925
9085.000000;0.864255
9084.000000;0.864420
9083.000000;0.864409
9082.000000;0.864293
9081.000000;0.864193
9080.000000;0.864284
9079.000000;0.864613
9078.000000;0.864927
9077.000000;0.864875
9076.000000;0.864417
9075.000000;0.863874
9074.000000;0.863563
9073.000000;0.863535
9072.000000;0.863688
9071.000000;0.863932
9070.000000;0.864167
9069.000000;0.864266
9068.000000;0.864190
9067.000000;0.864064
9066.000000;0.864032
9065.000000;0.864125
9064.000000;0.864293
9063.000000;0.864481
9062.000000;0.864608
9061.000000;0.864570
9060.000000;0.864379
9059.000000;0.864218
9058.000000;0.864264
9057.000000;0.864505
9056.000000;0.864800
9055.000000;0.865046
9054.000000;0.865162
9053.000000;0.864996
