Criado como novo conjunto de dados;"2706_e01_daniel.spp","4322.2 Secs"
cm-1;Abs
10000.000000;0.642662
9999.000000;0.642349
9998.000000;0.641907
9997.000000;0.641650
9996.000000;0.641633
9995.000000;0.641743
9994.000000;0.641847
9993.000000;0.641845
9992.000000;0.641690
9991.000000;0.641440
9990.000000;0.641231
9989.000000;0.641183
9988.000000;0.641302
9987.000000;0.641450
9986.000000;0.641431
9985.000000;0.641160
9984.000000;0.640788
9983.000000;0.640584
9982.000000;0.640687
9981.000000;0.640988
9980.000000;0.641232
9979.000000;0.641196
9978.000000;0.640830
9977.000000;0.640309
9976.000000;0.639916
9975.000000;0.639770
9974.000000;0.639735
9973.000000;0.639708
9972.000000;0.639883
9971.000000;0.640489
9970.000000;0.641306
9969.000000;0.641750
9968.000000;0.641529
9967.000000;0.640975
9966.000000;0.640593
9965.000000;0.640499
9964.000000;0.640485
9963.000000;0.640428
9962.000000;0.640392
9961.000000;0.640412
9960.000000;0.640431
9959.000000;0.640401
9958.000000;0.640334
9957.000000;0.640257
9956.000000;0.640242
9955.000000;0.640412
9954.000000;0.640779
9953.000000;0.641122
9952.000000;0.641191
9951.000000;0.640983
9950.000000;0.640694
9949.000000;0.640431
9948.000000;0.640128
9947.000000;0.639734
9946.000000;0.639314
9945.000000;0.638932
9944.000000;0.638576
9943.000000;0.638267
9942.000000;0.638121
9941.000000;0.638222
9940.000000;0.638487
9939.000000;0.638736
9938.000000;0.638891
9937.000000;0.639035
9936.000000;0.639302
9935.000000;0.639699
9934.000000;0.640036
9933.000000;0.640048
9932.000000;0.639680
9931.000000;0.639228
9930.000000;0.639122
9929.000000;0.639497
9928.000000;0.640015
9927.000000;0.640169
9926.000000;0.639750
9925.000000;0.639007
9924.000000;0.638370
9923.000000;0.638099
9922.000000;0.638181
9921.000000;0.638469
9920.000000;0.638831
9919.000000;0.639187
9918.000000;0.639475
9917.000000;0.639622
9916.000000;0.639569
9915.000000;0.639322
9914.000000;0.639006
9913.000000;0.638811
9912.000000;0.638842
9911.000000;0.639033
9910.000000;0.639243
9909.000000;0.639404
9908.000000;0.639508
9907.000000;0.639498
9906.000000;0.639307
9905.000000;0.639004
9904.000000;0.638771
9903.000000;0.638687
9902.000000;0.638645
9901.000000;0.638554
9900.000000;0.638482
9899.000000;0.638476
9898.000000;0.638409
9897.000000;0.638161
9896.000000;0.637877
9895.000000;0.637813
9894.000000;0.637964
9893.000000;0.638043
9892.000000;0.637860
9891.000000;0.637543
9890.000000;0.637359
9889.000000;0.637462
9888.000000;0.637848
9887.000000;0.638379
9886.000000;0.638778
9885.000000;0.638769
9884.000000;0.638346
9883.000000;0.637804
9882.000000;0.637434
9881.000000;0.637262
9880.000000;0.637160
9879.000000;0.637073
9878.000000;0.637015
9877.000000;0.636938
9876.000000;0.636780
9875.000000;0.636616
9874.000000;0.636623
9873.000000;0.636862
9872.000000;0.637196
9871.000000;0.637438
9870.000000;0.637516
9869.000000;0.637478
9868.000000;0.637396
9867.000000;0.637326
9866.000000;0.637305
9865.000000;0.637313
9864.000000;0.637236
9863.000000;0.636941
9862.000000;0.636458
9861.000000;0.636070
9860.000000;0.636110
9859.000000;0.636611
9858.000000;0.637215
9857.000000;0.637504
9856.000000;0.637394
9855.000000;0.637137
9854.000000;0.636991
9853.000000;0.636999
9852.000000;0.637071
9851.000000;0.637142
9850.000000;0.637206
9849.000000;0.637301
9848.000000;0.637494
9847.000000;0.637788
9846.000000;0.638032
9845.000000;0.638014
9844.000000;0.637720
9843.000000;0.637416
9842.000000;0.637374
9841.000000;0.637562
9840.000000;0.637657
9839.000000;0.637378
9838.000000;0.636747
9837.000000;0.636073
9836.000000;0.635718
9835.000000;0.635854
9834.000000;0.636370
9833.000000;0.636966
9832.000000;0.637349
9831.000000;0.637395
9830.000000;0.637213
9829.000000;0.637071
9828.000000;0.637175
9827.000000;0.637425
9826.000000;0.637447
9825.000000;0.636971
9824.000000;0.636180
9823.000000;0.635594
9822.000000;0.635595
9821.000000;0.636127
9820.000000;0.636831
9819.000000;0.637353
9818.000000;0.637505
9817.000000;0.637289
9816.000000;0.636865
9815.000000;0.636470
9814.000000;0.636274
9813.000000;0.636299
9812.000000;0.636469
9811.000000;0.636695
9810.000000;0.636894
9809.000000;0.636987
9808.000000;0.636922
9807.000000;0.636676
9806.000000;0.636284
9805.000000;0.635879
9804.000000;0.635661
9803.000000;0.635734
9802.000000;0.635969
9801.000000;0.636143
9800.000000;0.636213
9799.000000;0.636328
9798.000000;0.636556
9797.000000;0.636704
9796.000000;0.636500
9795.000000;0.635897
9794.000000;0.635121
9793.000000;0.634481
9792.000000;0.634178
9791.000000;0.634248
9790.000000;0.634587
9789.000000;0.635023
9788.000000;0.635391
9787.000000;0.635591
9786.000000;0.635606
9785.000000;0.635525
9784.000000;0.635490
9783.000000;0.635554
9782.000000;0.635604
9781.000000;0.635494
9780.000000;0.635249
9779.000000;0.635053
9778.000000;0.635030
9777.000000;0.635143
9776.000000;0.635304
9775.000000;0.635472
9774.000000;0.635619
9773.000000;0.635686
9772.000000;0.635643
9771.000000;0.635484
9770.000000;0.635179
9769.000000;0.634720
9768.000000;0.634257
9767.000000;0.634045
9766.000000;0.634190
9765.000000;0.634559
9764.000000;0.634996
9763.000000;0.635497
9762.000000;0.636052
9761.000000;0.636435
9760.000000;0.636366
9759.000000;0.635875
9758.000000;0.635353
9757.000000;0.635203
9756.000000;0.635499
9755.000000;0.635997
9754.000000;0.636392
9753.000000;0.636544
9752.000000;0.636500
9751.000000;0.636337
9750.000000;0.636033
9749.000000;0.635531
9748.000000;0.634912
9747.000000;0.634428
9746.000000;0.634300
9745.000000;0.634527
9744.000000;0.634931
9743.000000;0.635346
9742.000000;0.635703
9741.000000;0.635965
9740.000000;0.636063
9739.000000;0.635931
9738.000000;0.635598
9737.000000;0.635212
9736.000000;0.634957
9735.000000;0.634882
9734.000000;0.634826
9733.000000;0.634610
9732.000000;0.634295
9731.000000;0.634148
9730.000000;0.634311
9729.000000;0.634616
9728.000000;0.634791
9727.000000;0.634756
9726.000000;0.634617
9725.000000;0.634457
9724.000000;0.634273
9723.000000;0.634080
9722.000000;0.633953
9721.000000;0.633949
9720.000000;0.634043
9719.000000;0.634139
9718.000000;0.634103
9717.000000;0.633862
9716.000000;0.633541
9715.000000;0.633440
9714.000000;0.633737
9713.000000;0.634246
9712.000000;0.634587
9711.000000;0.634611
9710.000000;0.634508
9709.000000;0.634497
9708.000000;0.634539
9707.000000;0.634462
9706.000000;0.634235
9705.000000;0.633984
9704.000000;0.633787
9703.000000;0.633601
9702.000000;0.633401
9701.000000;0.633284
9700.000000;0.633374
9699.000000;0.633667
9698.000000;0.634032
9697.000000;0.634337
9696.000000;0.634509
9695.000000;0.634528
9694.000000;0.634438
9693.000000;0.634386
9692.000000;0.634518
9691.000000;0.634780
9690.000000;0.634921
9689.000000;0.634787
9688.000000;0.634547
9687.000000;0.634468
9686.000000;0.634533
9685.000000;0.634468
9684.000000;0.634186
9683.000000;0.633964
9682.000000;0.634070
9681.000000;0.634361
9680.000000;0.634432
9679.000000;0.634091
9678.000000;0.633513
9677.000000;0.632992
9676.000000;0.632715
9675.000000;0.632767
9674.000000;0.633141
9673.000000;0.633658
9672.000000;0.634001
9671.000000;0.633961
9670.000000;0.633605
9669.000000;0.633163
9668.000000;0.632807
9667.000000;0.632595
9666.000000;0.632527
9665.000000;0.632573
9664.000000;0.632682
9663.000000;0.632838
9662.000000;0.633096
9661.000000;0.633482
9660.000000;0.633880
9659.000000;0.634096
9658.000000;0.634074
9657.000000;0.633964
9656.000000;0.633940
9655.000000;0.633998
9654.000000;0.633985
9653.000000;0.633841
9652.000000;0.633716
9651.000000;0.633788
9650.000000;0.633996
9649.000000;0.634046
9648.000000;0.633739
9647.000000;0.633234
9646.000000;0.632908
9645.000000;0.632965
9644.000000;0.633251
9643.000000;0.633461
9642.000000;0.633436
9641.000000;0.633238
9640.000000;0.633032
9639.000000;0.632984
9638.000000;0.633199
9637.000000;0.633623
9636.000000;0.634009
9635.000000;0.634100
9634.000000;0.633894
9633.000000;0.633659
9632.000000;0.633634
9631.000000;0.633783
9630.000000;0.633902
9629.000000;0.633898
9628.000000;0.633856
9627.000000;0.633874
9626.000000;0.633931
9625.000000;0.633953
9624.000000;0.633926
9623.000000;0.633907
9622.000000;0.633948
9621.000000;0.634047
9620.000000;0.634148
9619.000000;0.634156
9618.000000;0.633978
9617.000000;0.633588
9616.000000;0.633070
9615.000000;0.632596
9614.000000;0.632337
9613.000000;0.632354
9612.000000;0.632538
9611.000000;0.632689
9610.000000;0.632718
9609.000000;0.632726
9608.000000;0.632847
9607.000000;0.633042
9606.000000;0.633141
9605.000000;0.633059
9604.000000;0.632866
9603.000000;0.632635
9602.000000;0.632376
9601.000000;0.632147
9600.000000;0.632100
9599.000000;0.632297
9598.000000;0.632601
9597.000000;0.632837
9596.000000;0.633003
9595.000000;0.633169
9594.000000;0.633242
9593.000000;0.633022
9592.000000;0.632505
9591.000000;0.631979
9590.000000;0.631769
9589.000000;0.631949
9588.000000;0.632345
9587.000000;0.632716
9586.000000;0.632886
9585.000000;0.632809
9584.000000;0.632585
9583.000000;0.632391
9582.000000;0.632329
9581.000000;0.632353
9580.000000;0.632373
9579.000000;0.632389
9578.000000;0.632475
9577.000000;0.632678
9576.000000;0.632957
9575.000000;0.633218
9574.000000;0.633353
9573.000000;0.633275
9572.000000;0.632950
9571.000000;0.632430
9570.000000;0.631845
9569.000000;0.631374
9568.000000;0.631194
9567.000000;0.631397
9566.000000;0.631887
9565.000000;0.632381
9564.000000;0.632586
9563.000000;0.632449
9562.000000;0.632232
9561.000000;0.632257
9560.000000;0.632571
9559.000000;0.632883
9558.000000;0.632891
9557.000000;0.632599
9556.000000;0.632268
9555.000000;0.632095
9554.000000;0.632043
9553.000000;0.631989
9552.000000;0.631904
9551.000000;0.631846
9550.000000;0.631872
9549.000000;0.632024
9548.000000;0.632322
9547.000000;0.632685
9546.000000;0.632944
9545.000000;0.633028
9544.000000;0.633075
9543.000000;0.633236
9542.000000;0.633416
9541.000000;0.633346
9540.000000;0.632912
9539.000000;0.632294
9538.000000;0.631761
9537.000000;0.631463
9536.000000;0.631439
9535.000000;0.631692
9534.000000;0.632144
9533.000000;0.632597
9532.000000;0.632842
9531.000000;0.632831
9530.000000;0.632696
9529.000000;0.632600
9528.000000;0.632566
9527.000000;0.632453
9526.000000;0.632112
9525.000000;0.631610
9524.000000;0.631237
9523.000000;0.631255
9522.000000;0.631613
9521.000000;0.632005
9520.000000;0.632188
9519.000000;0.632163
9518.000000;0.632060
9517.000000;0.631960
9516.000000;0.631939
9515.000000;0.632130
9514.000000;0.632587
9513.000000;0.633089
9512.000000;0.633251
9511.000000;0.632916
9510.000000;0.632351
9509.000000;0.631971
9508.000000;0.631900
9507.000000;0.631893
9506.000000;0.631690
9505.000000;0.631329
9504.000000;0.631051
9503.000000;0.630978
9502.000000;0.631009
9501.000000;0.631025
9500.000000;0.631066
9499.000000;0.631230
9498.000000;0.631506
9497.000000;0.631777
9496.000000;0.631975
9495.000000;0.632105
9494.000000;0.632139
9493.000000;0.631975
9492.000000;0.631582
9491.000000;0.631122
9490.000000;0.630879
9489.000000;0.631038
9488.000000;0.631527
9487.000000;0.632085
9486.000000;0.632479
9485.000000;0.632662
9484.000000;0.632713
9483.000000;0.632675
9482.000000;0.632525
9481.000000;0.632285
9480.000000;0.632059
9479.000000;0.631896
9478.000000;0.631715
9477.000000;0.631449
9476.000000;0.631211
9475.000000;0.631182
9474.000000;0.631372
9473.000000;0.631580
9472.000000;0.631618
9471.000000;0.631480
9470.000000;0.631302
9469.000000;0.631235
9468.000000;0.631366
9467.000000;0.631668
9466.000000;0.631978
9465.000000;0.632093
9464.000000;0.631928
9463.000000;0.631600
9462.000000;0.631297
9461.000000;0.631108
9460.000000;0.630965
9459.000000;0.630762
9458.000000;0.630502
9457.000000;0.630328
9456.000000;0.630361
9455.000000;0.630544
9454.000000;0.630710
9453.000000;0.630807
9452.000000;0.630962
9451.000000;0.631245
9450.000000;0.631497
9449.000000;0.631520
9448.000000;0.631376
9447.000000;0.631325
9446.000000;0.631466
9445.000000;0.631618
9444.000000;0.631597
9443.000000;0.631462
9442.000000;0.631383
9441.000000;0.631375
9440.000000;0.631300
9439.000000;0.631103
9438.000000;0.630921
9437.000000;0.630917
9436.000000;0.631064
9435.000000;0.631155
9434.000000;0.631033
9433.000000;0.630778
9432.000000;0.630619
9431.000000;0.630680
9430.000000;0.630854
9429.000000;0.630963
9428.000000;0.630949
9427.000000;0.630855
9426.000000;0.630696
9425.000000;0.630467
9424.000000;0.630246
9423.000000;0.630176
9422.000000;0.630313
9421.000000;0.630572
9420.000000;0.630846
9419.000000;0.631095
9418.000000;0.631300
9417.000000;0.631410
9416.000000;0.631379
9415.000000;0.631218
9414.000000;0.630996
9413.000000;0.630796
9412.000000;0.630679
9411.000000;0.630644
9410.000000;0.630623
9409.000000;0.630569
9408.000000;0.630521
9407.000000;0.630548
9406.000000;0.630650
9405.000000;0.630770
9404.000000;0.630856
9403.000000;0.630864
9402.000000;0.630737
9401.000000;0.630474
9400.000000;0.630186
9399.000000;0.629991
9398.000000;0.629880
9397.000000;0.629820
9396.000000;0.629917
9395.000000;0.630308
9394.000000;0.630872
9393.000000;0.631252
9392.000000;0.631257
9391.000000;0.631074
9390.000000;0.630990
9389.000000;0.631025
9388.000000;0.630976
9387.000000;0.630722
9386.000000;0.630359
9385.000000;0.630074
9384.000000;0.629989
9383.000000;0.630108
9382.000000;0.630301
9381.000000;0.630386
9380.000000;0.630285
9379.000000;0.630098
9378.000000;0.629963
9377.000000;0.629916
9376.000000;0.629918
9375.000000;0.629945
9374.000000;0.629974
9373.000000;0.629951
9372.000000;0.629882
9371.000000;0.629907
9370.000000;0.630145
9369.000000;0.630491
9368.000000;0.630693
9367.000000;0.630642
9366.000000;0.630468
9365.000000;0.630324
9364.000000;0.630206
9363.000000;0.630063
9362.000000;0.629951
9361.000000;0.629961
9360.000000;0.630028
9359.000000;0.629976
9358.000000;0.629781
9357.000000;0.629669
9356.000000;0.629869
9355.000000;0.630324
9354.000000;0.630735
9353.000000;0.630891
9352.000000;0.630853
9351.000000;0.630814
9350.000000;0.630851
9349.000000;0.630892
9348.000000;0.630831
9347.000000;0.630605
9346.000000;0.630233
9345.000000;0.629855
9344.000000;0.629695
9343.000000;0.629850
9342.000000;0.630125
9341.000000;0.630188
9340.000000;0.629915
9339.000000;0.629505
9338.000000;0.629234
9337.000000;0.629203
9336.000000;0.629356
9335.000000;0.629623
9334.000000;0.629943
9333.000000;0.630202
9332.000000;0.630265
9331.000000;0.630097
9330.000000;0.629804
9329.000000;0.629546
9328.000000;0.629436
9327.000000;0.629480
9326.000000;0.629605
9325.000000;0.629729
9324.000000;0.629820
9323.000000;0.629878
9322.000000;0.629891
9321.000000;0.629833
9320.000000;0.629709
9319.000000;0.629564
9318.000000;0.629460
9317.000000;0.629450
9316.000000;0.629549
9315.000000;0.629678
9314.000000;0.629684
9313.000000;0.629511
9312.000000;0.629318
9311.000000;0.629315
9310.000000;0.629487
9309.000000;0.629608
9308.000000;0.629565
9307.000000;0.629515
9306.000000;0.629657
9305.000000;0.629923
9304.000000;0.630034
9303.000000;0.629827
9302.000000;0.629428
9301.000000;0.629113
9300.000000;0.629052
9299.000000;0.629201
9298.000000;0.629389
9297.000000;0.629483
9296.000000;0.629475
9295.000000;0.629416
9294.000000;0.629316
9293.000000;0.629149
9292.000000;0.628934
9291.000000;0.628745
9290.000000;0.628642
9289.000000;0.628643
9288.000000;0.628762
9287.000000;0.628987
9286.000000;0.629224
9285.000000;0.629361
9284.000000;0.629399
9283.000000;0.629432
9282.000000;0.629503
9281.000000;0.629564
9280.000000;0.629620
9279.000000;0.629758
9278.000000;0.629994
9277.000000;0.630180
9276.000000;0.630179
9275.000000;0.630021
9274.000000;0.629833
9273.000000;0.629673
9272.000000;0.629529
9271.000000;0.629394
9270.000000;0.629258
9269.000000;0.629094
9268.000000;0.628946
9267.000000;0.628940
9266.000000;0.629095
9265.000000;0.629199
9264.000000;0.629018
9263.000000;0.628608
9262.000000;0.628280
9261.000000;0.628259
9260.000000;0.628482
9259.000000;0.628728
9258.000000;0.628846
9257.000000;0.628828
9256.000000;0.628759
9255.000000;0.628743
9254.000000;0.628812
9253.000000;0.628895
9252.000000;0.628898
9251.000000;0.628805
9250.000000;0.628688
9249.000000;0.628622
9248.000000;0.628644
9247.000000;0.628746
9246.000000;0.628851
9245.000000;0.628840
9244.000000;0.628674
9243.000000;0.628455
9242.000000;0.628321
9241.000000;0.628293
9240.000000;0.628332
9239.000000;0.628463
9238.000000;0.628746
9237.000000;0.629123
9236.000000;0.629415
9235.000000;0.629509
9234.000000;0.629426
9233.000000;0.629219
9232.000000;0.628889
9231.000000;0.628466
9230.000000;0.628073
9229.000000;0.627854
9228.000000;0.627862
9227.000000;0.628047
9226.000000;0.628302
9225.000000;0.628518
9224.000000;0.628637
9223.000000;0.628669
9222.000000;0.628639
9221.000000;0.628542
9220.000000;0.628412
9219.000000;0.628379
9218.000000;0.628564
9217.000000;0.628887
9216.000000;0.629107
9215.000000;0.629076
9214.000000;0.628888
9213.000000;0.628721
9212.000000;0.628651
9211.000000;0.628649
9210.000000;0.628667
9209.000000;0.628633
9208.000000;0.628450
9207.000000;0.628129
9206.000000;0.627852
9205.000000;0.627823
9204.000000;0.628029
9203.000000;0.628233
9202.000000;0.628223
9201.000000;0.628013
9200.000000;0.627801
9199.000000;0.627780
9198.000000;0.627981
9197.000000;0.628258
9196.000000;0.628408
9195.000000;0.628341
9194.000000;0.628142
9193.000000;0.627958
9192.000000;0.627859
9191.000000;0.627829
9190.000000;0.627856
9189.000000;0.627962
9188.000000;0.628149
9187.000000;0.628353
9186.000000;0.628485
9185.000000;0.628499
9184.000000;0.628413
9183.000000;0.628304
9182.000000;0.628269
9181.000000;0.628360
9180.000000;0.628527
9179.000000;0.628665
9178.000000;0.628711
9177.000000;0.628688
9176.000000;0.628634
9175.000000;0.628533
9174.000000;0.628360
9173.000000;0.628177
9172.000000;0.628095
9171.000000;0.628124
9170.000000;0.628122
9169.000000;0.627985
9168.000000;0.627845
9167.000000;0.627966
9166.000000;0.628395
9165.000000;0.628811
9164.000000;0.628824
9163.000000;0.628379
9162.000000;0.627796
9161.000000;0.627418
9160.000000;0.627334
9159.000000;0.627434
9158.000000;0.627582
9157.000000;0.627687
9156.000000;0.627705
9155.000000;0.627685
9154.000000;0.627768
9153.000000;0.628042
9152.000000;0.628415
9151.000000;0.628706
9150.000000;0.628829
9149.000000;0.628824
9148.000000;0.628720
9147.000000;0.628479
9146.000000;0.628105
9145.000000;0.627719
9144.000000;0.627472
9143.000000;0.627428
9142.000000;0.627544
9141.000000;0.627710
9140.000000;0.627803
9139.000000;0.627746
9138.000000;0.627561
9137.000000;0.627356
9136.000000;0.627228
9135.000000;0.627224
9134.000000;0.627369
9133.000000;0.627664
9132.000000;0.628013
9131.000000;0.628236
9130.000000;0.628198
9129.000000;0.627930
9128.000000;0.627584
9127.000000;0.627319
9126.000000;0.627230
9125.000000;0.627320
9124.000000;0.627479
9123.000000;0.627548
9122.000000;0.627474
9121.000000;0.627372
9120.000000;0.627375
9119.000000;0.627462
9118.000000;0.627513
9117.000000;0.627485
9116.000000;0.627448
9115.000000;0.627447
9114.000000;0.627452
9113.000000;0.627448
9112.000000;0.627496
9111.000000;0.627639
9110.000000;0.627823
9109.000000;0.627925
9108.000000;0.627866
9107.000000;0.627669
9106.000000;0.627462
9105.000000;0.627391
9104.000000;0.627481
9103.000000;0.627592
9102.000000;0.627575
9101.000000;0.627454
9100.000000;0.627388
9099.000000;0.627443
9098.000000;0.627534
9097.000000;0.627589
9096.000000;0.627635
9095.000000;0.627680
9094.000000;0.627618
9093.000000;0.627383
9092.000000;0.627108
9091.000000;0.627013
9090.000000;0.627178
9089.000000;0.627489
9088.000000;0.627787
9087.000000;0.627965
9086.000000;0.627982
9085.000000;0.627864
9084.000000;0.627705
9083.000000;0.627579
9082.000000;0.627475
9081.000000;0.627348
9080.000000;0.627197
9079.000000;0.627021
9078.000000;0.626768
9077.000000;0.626425
9076.000000;0.626129
9075.000000;0.626077
9074.000000;0.626305
9073.000000;0.626661
9072.000000;0.626984
9071.000000;0.627205
9070.000000;0.627283
9069.000000;0.627184
9068.000000;0.626975
9067.000000;0.626825
9066.000000;0.626814
9065.000000;0.626820
9064.000000;0.626661
9063.000000;0.626332
9062.000000;0.626024
9061.000000;0.625955
9060.000000;0.626200
9059.000000;0.626659
9058.000000;0.627120
9057.000000;0.627389
9056.000000;0.627420
9055.000000;0.627312
9054.000000;0.627188
9053.000000;0.627108
