Criado como novo conjunto de dados;"2706_e01_daniel.spp","55264.7 Secs"
cm-1;Abs
10000.000000;0.807528
9999.000000;0.808041
9998.000000;0.808551
9997.000000;0.809069
9996.000000;0.809573
9995.000000;0.810108
9994.000000;0.810550
9993.000000;0.810569
9992.000000;0.810171
9991.000000;0.809394
9990.000000;0.808316
9989.000000;0.807001
9988.000000;0.805679
9987.000000;0.804766
9986.000000;0.804574
9985.000000;0.805026
9984.000000;0.805836
9983.000000;0.806871
9982.000000;0.808079
9981.000000;0.809112
9980.000000;0.809457
9979.000000;0.809091
9978.000000;0.808649
9977.000000;0.808658
9976.000000;0.808808
9975.000000;0.808286
9974.000000;0.806789
9973.000000;0.804953
9972.000000;0.803794
9971.000000;0.803858
9970.000000;0.804892
9969.000000;0.806173
9968.000000;0.807111
9967.000000;0.807615
9966.000000;0.807900
9965.000000;0.808035
9964.000000;0.807841
9963.000000;0.807245
9962.000000;0.806525
9961.000000;0.806033
9960.000000;0.805792
9959.000000;0.805484
9958.000000;0.804804
9957.000000;0.803765
9956.000000;0.802699
9955.000000;0.802003
9954.000000;0.801799
9953.000000;0.801815
9952.000000;0.801672
9951.000000;0.801345
9950.000000;0.801176
9949.000000;0.801392
9948.000000;0.801766
9947.000000;0.801892
9946.000000;0.801684
9945.000000;0.801441
9944.000000;0.801478
9943.000000;0.801853
9942.000000;0.802414
9941.000000;0.802974
9940.000000;0.803388
9939.000000;0.803570
9938.000000;0.803501
9937.000000;0.803216
9936.000000;0.802747
9935.000000;0.802112
9934.000000;0.801395
9933.000000;0.800835
9932.000000;0.800745
9931.000000;0.801225
9930.000000;0.801941
9929.000000;0.802324
9928.000000;0.802078
9927.000000;0.801399
9926.000000;0.800622
9925.000000;0.799832
9924.000000;0.798988
9923.000000;0.798279
9922.000000;0.798058
9921.000000;0.798415
9920.000000;0.799053
9919.000000;0.799662
9918.000000;0.800242
9917.000000;0.800960
9916.000000;0.801798
9915.000000;0.802413
9914.000000;0.802366
9913.000000;0.801552
9912.000000;0.800466
9911.000000;0.799883
9910.000000;0.800097
9909.000000;0.800563
9908.000000;0.800461
9907.000000;0.799590
9906.000000;0.798529
9905.000000;0.797959
9904.000000;0.798095
9903.000000;0.798731
9902.000000;0.799548
9901.000000;0.800246
9900.000000;0.800593
9899.000000;0.800496
9898.000000;0.799996
9897.000000;0.799161
9896.000000;0.798123
9895.000000;0.797165
9894.000000;0.796562
9893.000000;0.796290
9892.000000;0.796106
9891.000000;0.795959
9890.000000;0.796131
9889.000000;0.796849
9888.000000;0.797912
9887.000000;0.798794
9886.000000;0.799058
9885.000000;0.798627
9884.000000;0.797765
9883.000000;0.796853
9882.000000;0.796101
9881.000000;0.795506
9880.000000;0.795096
9879.000000;0.795089
9878.000000;0.795617
9877.000000;0.796398
9876.000000;0.796939
9875.000000;0.797043
9874.000000;0.796883
9873.000000;0.796643
9872.000000;0.796364
9871.000000;0.796167
9870.000000;0.796300
9869.000000;0.796839
9868.000000;0.797546
9867.000000;0.798072
9866.000000;0.798158
9865.000000;0.797678
9864.000000;0.796758
9863.000000;0.795835
9862.000000;0.795291
9861.000000;0.795022
9860.000000;0.794643
9859.000000;0.794125
9858.000000;0.793872
9857.000000;0.794080
9856.000000;0.794433
9855.000000;0.794561
9854.000000;0.794458
9853.000000;0.794242
9852.000000;0.793890
9851.000000;0.793470
9850.000000;0.793308
9849.000000;0.793610
9848.000000;0.794101
9847.000000;0.794352
9846.000000;0.794296
9845.000000;0.794154
9844.000000;0.794027
9843.000000;0.793871
9842.000000;0.793733
9841.000000;0.793716
9840.000000;0.793776
9839.000000;0.793825
9838.000000;0.793961
9837.000000;0.794322
9836.000000;0.794727
9835.000000;0.794732
9834.000000;0.794118
9833.000000;0.793156
9832.000000;0.792334
9831.000000;0.791896
9830.000000;0.791669
9829.000000;0.791308
9828.000000;0.790722
9827.000000;0.790261
9826.000000;0.790384
9825.000000;0.791107
9824.000000;0.791942
9823.000000;0.792433
9822.000000;0.792608
9821.000000;0.792769
9820.000000;0.792983
9819.000000;0.792973
9818.000000;0.792451
9817.000000;0.791449
9816.000000;0.790358
9815.000000;0.789667
9814.000000;0.789568
9813.000000;0.789766
9812.000000;0.789813
9811.000000;0.789658
9810.000000;0.789689
9809.000000;0.790198
9808.000000;0.791015
9807.000000;0.791755
9806.000000;0.792187
9805.000000;0.792223
9804.000000;0.791786
9803.000000;0.790953
9802.000000;0.790045
9801.000000;0.789340
9800.000000;0.788841
9799.000000;0.788502
9798.000000;0.788487
9797.000000;0.788929
9796.000000;0.789567
9795.000000;0.789975
9794.000000;0.790084
9793.000000;0.790217
9792.000000;0.790581
9791.000000;0.791006
9790.000000;0.791220
9789.000000;0.791139
9788.000000;0.790801
9787.000000;0.790205
9786.000000;0.789363
9785.000000;0.788416
9784.000000;0.787613
9783.000000;0.787150
9782.000000;0.787026
9781.000000;0.787022
9780.000000;0.786888
9779.000000;0.786603
9778.000000;0.786393
9777.000000;0.786474
9776.000000;0.786841
9775.000000;0.787383
9774.000000;0.788025
9773.000000;0.788624
9772.000000;0.788876
9771.000000;0.788553
9770.000000;0.787788
9769.000000;0.786962
9768.000000;0.786344
9767.000000;0.785982
9766.000000;0.785875
9765.000000;0.786019
9764.000000;0.786299
9763.000000;0.786537
9762.000000;0.786694
9761.000000;0.786899
9760.000000;0.787244
9759.000000;0.787686
9758.000000;0.788131
9757.000000;0.788436
9756.000000;0.788351
9755.000000;0.787674
9754.000000;0.786582
9753.000000;0.785614
9752.000000;0.785176
9751.000000;0.785182
9750.000000;0.785288
9749.000000;0.785353
9748.000000;0.785492
9747.000000;0.785740
9746.000000;0.785909
9745.000000;0.785846
9744.000000;0.785672
9743.000000;0.785606
9742.000000;0.785658
9741.000000;0.785608
9740.000000;0.785281
9739.000000;0.784694
9738.000000;0.783962
9737.000000;0.783218
9736.000000;0.782676
9735.000000;0.782608
9734.000000;0.783092
9733.000000;0.783849
9732.000000;0.784504
9731.000000;0.784971
9730.000000;0.785454
9729.000000;0.786014
9728.000000;0.786336
9727.000000;0.786031
9726.000000;0.785116
9725.000000;0.784084
9724.000000;0.783501
9723.000000;0.783540
9722.000000;0.783911
9721.000000;0.784204
9720.000000;0.784277
9719.000000;0.784254
9718.000000;0.784199
9717.000000;0.783946
9716.000000;0.783362
9715.000000;0.782644
9714.000000;0.782182
9713.000000;0.782180
9712.000000;0.782525
9711.000000;0.782978
9710.000000;0.783318
9709.000000;0.783384
9708.000000;0.783191
9707.000000;0.783035
9706.000000;0.783232
9705.000000;0.783707
9704.000000;0.784003
9703.000000;0.783782
9702.000000;0.783115
9701.000000;0.782256
9700.000000;0.781386
9699.000000;0.780713
9698.000000;0.780543
9697.000000;0.780972
9696.000000;0.781618
9695.000000;0.781934
9694.000000;0.781777
9693.000000;0.781494
9692.000000;0.781437
9691.000000;0.781593
9690.000000;0.781727
9689.000000;0.781716
9688.000000;0.781632
9687.000000;0.781550
9686.000000;0.781395
9685.000000;0.781044
9684.000000;0.780564
9683.000000;0.780276
9682.000000;0.780460
9681.000000;0.781004
9680.000000;0.781412
9679.000000;0.781228
9678.000000;0.780432
9677.000000;0.779429
9676.000000;0.778760
9675.000000;0.778804
9674.000000;0.779554
9673.000000;0.780520
9672.000000;0.780986
9671.000000;0.780580
9670.000000;0.779618
9669.000000;0.778777
9668.000000;0.778421
9667.000000;0.778369
9666.000000;0.778298
9665.000000;0.778197
9664.000000;0.778294
9663.000000;0.778636
9662.000000;0.778955
9661.000000;0.778984
9660.000000;0.778758
9659.000000;0.778490
9658.000000;0.778272
9657.000000;0.778073
9656.000000;0.777968
9655.000000;0.778127
9654.000000;0.778501
9653.000000;0.778744
9652.000000;0.778607
9651.000000;0.778287
9650.000000;0.778170
9649.000000;0.778325
9648.000000;0.778451
9647.000000;0.778319
9646.000000;0.778047
9645.000000;0.777938
9644.000000;0.778165
9643.000000;0.778636
9642.000000;0.779028
9641.000000;0.778959
9640.000000;0.778294
9639.000000;0.777330
9638.000000;0.776578
9637.000000;0.776307
9636.000000;0.776385
9635.000000;0.776525
9634.000000;0.776532
9633.000000;0.776349
9632.000000;0.776045
9631.000000;0.775833
9630.000000;0.775891
9629.000000;0.776107
9628.000000;0.776146
9627.000000;0.775858
9626.000000;0.775483
9625.000000;0.775341
9624.000000;0.775457
9623.000000;0.775622
9622.000000;0.775707
9621.000000;0.775753
9620.000000;0.775794
9619.000000;0.775753
9618.000000;0.775579
9617.000000;0.775410
9616.000000;0.775490
9615.000000;0.775878
9614.000000;0.776280
9613.000000;0.776288
9612.000000;0.775837
9611.000000;0.775278
9610.000000;0.774926
9609.000000;0.774695
9608.000000;0.774348
9607.000000;0.773953
9606.000000;0.773814
9605.000000;0.773989
9604.000000;0.774203
9603.000000;0.774250
9602.000000;0.774223
9601.000000;0.774233
9600.000000;0.774192
9599.000000;0.774024
9598.000000;0.773849
9597.000000;0.773789
9596.000000;0.773761
9595.000000;0.773649
9594.000000;0.773519
9593.000000;0.773494
9592.000000;0.773529
9591.000000;0.773524
9590.000000;0.773525
9589.000000;0.773615
9588.000000;0.773663
9587.000000;0.773411
9586.000000;0.772801
9585.000000;0.772091
9584.000000;0.771613
9583.000000;0.771526
9582.000000;0.771783
9581.000000;0.772198
9580.000000;0.772557
9579.000000;0.772736
9578.000000;0.772748
9577.000000;0.772644
9576.000000;0.772450
9575.000000;0.772272
9574.000000;0.772323
9573.000000;0.772675
9572.000000;0.773035
9571.000000;0.772969
9570.000000;0.772407
9569.000000;0.771752
9568.000000;0.771467
9567.000000;0.771614
9566.000000;0.771874
9565.000000;0.771890
9564.000000;0.771558
9563.000000;0.771046
9562.000000;0.770645
9561.000000;0.770553
9560.000000;0.770731
9559.000000;0.770936
9558.000000;0.770949
9557.000000;0.770774
9556.000000;0.770609
9555.000000;0.770602
9554.000000;0.770671
9553.000000;0.770602
9552.000000;0.770322
9551.000000;0.770006
9550.000000;0.769897
9549.000000;0.770045
9548.000000;0.770289
9547.000000;0.770453
9546.000000;0.770502
9545.000000;0.770500
9544.000000;0.770524
9543.000000;0.770625
9542.000000;0.770783
9541.000000;0.770839
9540.000000;0.770551
9539.000000;0.769824
9538.000000;0.768904
9537.000000;0.768228
9536.000000;0.768059
9535.000000;0.768271
9534.000000;0.768532
9533.000000;0.768639
9532.000000;0.768613
9531.000000;0.768505
9530.000000;0.768271
9529.000000;0.767930
9528.000000;0.767735
9527.000000;0.767999
9526.000000;0.768706
9525.000000;0.769421
9524.000000;0.769669
9523.000000;0.769345
9522.000000;0.768698
9521.000000;0.768048
9520.000000;0.767583
9519.000000;0.767333
9518.000000;0.767217
9517.000000;0.767129
9516.000000;0.767051
9515.000000;0.767045
9514.000000;0.767103
9513.000000;0.767105
9512.000000;0.766995
9511.000000;0.766901
9510.000000;0.766976
9509.000000;0.767192
9508.000000;0.767394
9507.000000;0.767491
9506.000000;0.767506
9505.000000;0.767512
9504.000000;0.767609
9503.000000;0.767847
9502.000000;0.768061
9501.000000;0.767936
9500.000000;0.767425
9499.000000;0.766945
9498.000000;0.766905
9497.000000;0.767138
9496.000000;0.767090
9495.000000;0.766534
9494.000000;0.765817
9493.000000;0.765359
9492.000000;0.765223
9491.000000;0.765259
9490.000000;0.765376
9489.000000;0.765516
9488.000000;0.765559
9487.000000;0.765460
9486.000000;0.765367
9485.000000;0.765452
9484.000000;0.765711
9483.000000;0.766000
9482.000000;0.766173
9481.000000;0.766109
9480.000000;0.765736
9479.000000;0.765159
9478.000000;0.764654
9477.000000;0.764412
9476.000000;0.764346
9475.000000;0.764244
9474.000000;0.764058
9473.000000;0.763944
9472.000000;0.764085
9471.000000;0.764535
9470.000000;0.765173
9469.000000;0.765725
9468.000000;0.765885
9467.000000;0.765526
9466.000000;0.764782
9465.000000;0.763928
9464.000000;0.763221
9463.000000;0.762848
9462.000000;0.762905
9461.000000;0.763333
9460.000000;0.763921
9459.000000;0.764429
9458.000000;0.764713
9457.000000;0.764746
9456.000000;0.764584
9455.000000;0.764330
9454.000000;0.764031
9453.000000;0.763617
9452.000000;0.762997
9451.000000;0.762246
9450.000000;0.761593
9449.000000;0.761216
9448.000000;0.761146
9447.000000;0.761370
9446.000000;0.761881
9445.000000;0.762553
9444.000000;0.763138
9443.000000;0.763477
9442.000000;0.763639
9441.000000;0.763735
9440.000000;0.763732
9439.000000;0.763544
9438.000000;0.763231
9437.000000;0.762948
9436.000000;0.762728
9435.000000;0.762442
9434.000000;0.761995
9433.000000;0.761491
9432.000000;0.761152
9431.000000;0.761079
9430.000000;0.761141
9429.000000;0.761112
9428.000000;0.760921
9427.000000;0.760714
9426.000000;0.760628
9425.000000;0.760590
9424.000000;0.760415
9423.000000;0.760083
9422.000000;0.759795
9421.000000;0.759752
9420.000000;0.759966
9419.000000;0.760299
9418.000000;0.760603
9417.000000;0.760796
9416.000000;0.760878
9415.000000;0.760900
9414.000000;0.760883
9413.000000;0.760769
9412.000000;0.760513
9411.000000;0.760201
9410.000000;0.759966
9409.000000;0.759827
9408.000000;0.759705
9407.000000;0.759595
9406.000000;0.759569
9405.000000;0.759617
9404.000000;0.759640
9403.000000;0.759626
9402.000000;0.759687
9401.000000;0.759835
9400.000000;0.759886
9399.000000;0.759683
9398.000000;0.759323
9397.000000;0.759047
9396.000000;0.758961
9395.000000;0.758979
9394.000000;0.758995
9393.000000;0.759015
9392.000000;0.759125
9391.000000;0.759359
9390.000000;0.759619
9389.000000;0.759748
9388.000000;0.759686
9387.000000;0.759524
9386.000000;0.759355
9385.000000;0.759141
9384.000000;0.758810
9383.000000;0.758427
9382.000000;0.758117
9381.000000;0.757866
9380.000000;0.757543
9379.000000;0.757151
9378.000000;0.756891
9377.000000;0.756942
9376.000000;0.757280
9375.000000;0.757733
9374.000000;0.758083
9373.000000;0.758119
9372.000000;0.757774
9371.000000;0.757277
9370.000000;0.757003
9369.000000;0.757081
9368.000000;0.757293
9367.000000;0.757386
9366.000000;0.757319
9365.000000;0.757115
9364.000000;0.756709
9363.000000;0.756121
9362.000000;0.755625
9361.000000;0.755533
9360.000000;0.755853
9359.000000;0.756322
9358.000000;0.756701
9357.000000;0.756889
9356.000000;0.756804
9355.000000;0.756405
9354.000000;0.755834
9353.000000;0.755378
9352.000000;0.755194
9351.000000;0.755176
9350.000000;0.755130
9349.000000;0.754995
9348.000000;0.754858
9347.000000;0.754818
9346.000000;0.754908
9345.000000;0.755091
9344.000000;0.755269
9343.000000;0.755300
9342.000000;0.755072
9341.000000;0.754624
9340.000000;0.754202
9339.000000;0.754105
9338.000000;0.754410
9337.000000;0.754840
9336.000000;0.754989
9335.000000;0.754699
9334.000000;0.754167
9333.000000;0.753705
9332.000000;0.753465
9331.000000;0.753440
9330.000000;0.753590
9329.000000;0.753876
9328.000000;0.754207
9327.000000;0.754464
9326.000000;0.754592
9325.000000;0.754621
9324.000000;0.754594
9323.000000;0.754500
9322.000000;0.754277
9321.000000;0.753872
9320.000000;0.753321
9319.000000;0.752785
9318.000000;0.752472
9317.000000;0.752474
9316.000000;0.752676
9315.000000;0.752819
9314.000000;0.752692
9313.000000;0.752321
9312.000000;0.752002
9311.000000;0.752061
9310.000000;0.752512
9309.000000;0.752977
9308.000000;0.753034
9307.000000;0.752643
9306.000000;0.752152
9305.000000;0.751900
9304.000000;0.751925
9303.000000;0.752066
9302.000000;0.752222
9301.000000;0.752439
9300.000000;0.752782
9299.000000;0.753191
9298.000000;0.753463
9297.000000;0.753401
9296.000000;0.753006
9295.000000;0.752499
9294.000000;0.752095
9293.000000;0.751802
9292.000000;0.751529
9291.000000;0.751325
9290.000000;0.751369
9289.000000;0.751694
9288.000000;0.752084
9287.000000;0.752274
9286.000000;0.752161
9285.000000;0.751804
9284.000000;0.751335
9283.000000;0.750940
9282.000000;0.750787
9281.000000;0.750878
9280.000000;0.751032
9279.000000;0.751077
9278.000000;0.750999
9277.000000;0.750885
9276.000000;0.750812
9275.000000;0.750823
9274.000000;0.750895
9273.000000;0.750864
9272.000000;0.750516
9271.000000;0.749866
9270.000000;0.749265
9269.000000;0.749066
9268.000000;0.749240
9267.000000;0.749433
9266.000000;0.749381
9265.000000;0.749155
9264.000000;0.748992
9263.000000;0.748999
9262.000000;0.749072
9261.000000;0.749053
9260.000000;0.748899
9259.000000;0.748714
9258.000000;0.748636
9257.000000;0.748686
9256.000000;0.748761
9255.000000;0.748753
9254.000000;0.748662
9253.000000;0.748585
9252.000000;0.748635
9251.000000;0.748859
9250.000000;0.749176
9249.000000;0.749358
9248.000000;0.749165
9247.000000;0.748562
9246.000000;0.747809
9245.000000;0.747245
9244.000000;0.747007
9243.000000;0.746971
9242.000000;0.746989
9241.000000;0.747086
9240.000000;0.747406
9239.000000;0.747966
9238.000000;0.748526
9237.000000;0.748725
9236.000000;0.748378
9235.000000;0.747625
9234.000000;0.746810
9233.000000;0.746230
9232.000000;0.745991
9231.000000;0.746040
9230.000000;0.746242
9229.000000;0.746446
9228.000000;0.746526
9227.000000;0.746438
9226.000000;0.746255
9225.000000;0.746132
9224.000000;0.746198
9223.000000;0.746436
9222.000000;0.746644
9221.000000;0.746602
9220.000000;0.746287
9219.000000;0.745903
9218.000000;0.745662
9217.000000;0.745589
9216.000000;0.745571
9215.000000;0.745547
9214.000000;0.745563
9213.000000;0.745671
9212.000000;0.745829
9211.000000;0.745904
9210.000000;0.745772
9209.000000;0.745446
9208.000000;0.745108
9207.000000;0.744948
9206.000000;0.744933
9205.000000;0.744843
9204.000000;0.744581
9203.000000;0.744338
9202.000000;0.744365
9201.000000;0.744654
9200.000000;0.744960
9199.000000;0.745068
9198.000000;0.744934
9197.000000;0.744641
9196.000000;0.744334
9195.000000;0.744168
9194.000000;0.744190
9193.000000;0.744289
9192.000000;0.744349
9191.000000;0.744397
9190.000000;0.744508
9189.000000;0.744636
9188.000000;0.744670
9187.000000;0.744586
9186.000000;0.744432
9185.000000;0.744222
9184.000000;0.744001
9183.000000;0.743916
9182.000000;0.744019
9181.000000;0.744073
9180.000000;0.743801
9179.000000;0.743293
9178.000000;0.742928
9177.000000;0.742857
9176.000000;0.742834
9175.000000;0.742621
9174.000000;0.742317
9173.000000;0.742150
9172.000000;0.742139
9171.000000;0.742143
9170.000000;0.742094
9169.000000;0.742023
9168.000000;0.741944
9167.000000;0.741863
9166.000000;0.741828
9165.000000;0.741861
9164.000000;0.741886
9163.000000;0.741814
9162.000000;0.741657
9161.000000;0.741488
9160.000000;0.741357
9159.000000;0.741298
9158.000000;0.741356
9157.000000;0.741528
9156.000000;0.741730
9155.000000;0.741868
9154.000000;0.741897
9153.000000;0.741806
9152.000000;0.741629
9151.000000;0.741499
9150.000000;0.741550
9149.000000;0.741700
9148.000000;0.741653
9147.000000;0.741207
9146.000000;0.740497
9145.000000;0.739855
9144.000000;0.739520
9143.000000;0.739514
9142.000000;0.739713
9141.000000;0.739933
9140.000000;0.740058
9139.000000;0.740155
9138.000000;0.740410
9137.000000;0.740867
9136.000000;0.741308
9135.000000;0.741461
9134.000000;0.741258
9133.000000;0.740801
9132.000000;0.740210
9131.000000;0.739600
9130.000000;0.739139
9129.000000;0.738955
9128.000000;0.739013
9127.000000;0.739157
9126.000000;0.739266
9125.000000;0.739304
9124.000000;0.739292
9123.000000;0.739310
9122.000000;0.739453
9121.000000;0.739696
9120.000000;0.739820
9119.000000;0.739600
9118.000000;0.739063
9117.000000;0.738463
9116.000000;0.738045
9115.000000;0.737895
9114.000000;0.737980
9113.000000;0.738217
9112.000000;0.738487
9111.000000;0.738686
9110.000000;0.738774
9109.000000;0.738740
9108.000000;0.738550
9107.000000;0.738186
9106.000000;0.737720
9105.000000;0.737280
9104.000000;0.736949
9103.000000;0.736758
9102.000000;0.736738
9101.000000;0.736912
9100.000000;0.737221
9099.000000;0.737540
9098.000000;0.737782
9097.000000;0.737925
9096.000000;0.737936
9095.000000;0.737738
9094.000000;0.737291
9093.000000;0.736679
9092.000000;0.736072
9091.000000;0.735633
9090.000000;0.735455
9089.000000;0.735551
9088.000000;0.735879
9087.000000;0.736378
9086.000000;0.736966
9085.000000;0.737499
9084.000000;0.737770
9083.000000;0.737617
9082.000000;0.737075
9081.000000;0.736376
9080.000000;0.735782
9079.000000;0.735400
9078.000000;0.735179
9077.000000;0.735047
9076.000000;0.735018
9075.000000;0.735159
9074.000000;0.735461
9073.000000;0.735791
9072.000000;0.735974
9071.000000;0.735911
9070.000000;0.735619
9069.000000;0.735197
9068.000000;0.734777
9067.000000;0.734491
9066.000000;0.734393
9065.000000;0.734434
9064.000000;0.734518
9063.000000;0.734621
9062.000000;0.734798
9061.000000;0.735094
9060.000000;0.735455
9059.000000;0.735746
9058.000000;0.735849
9057.000000;0.735746
9056.000000;0.735530
9055.000000;0.735306
9054.000000;0.735068
9053.000000;0.734727
