Criado como novo conjunto de dados;"2706_e01_daniel.spp","68765.4 Secs"
cm-1;Abs
10000.000000;0.778776
9999.000000;0.778522
9998.000000;0.778268
9997.000000;0.778014
9996.000000;0.777760
9995.000000;0.777507
9994.000000;0.777253
9993.000000;0.777001
9992.000000;0.776747
9991.000000;0.776496
9990.000000;0.776238
9989.000000;0.776027
9988.000000;0.775984
9987.000000;0.776092
9986.000000;0.776077
9985.000000;0.775601
9984.000000;0.774656
9983.000000;0.773651
9982.000000;0.773061
9981.000000;0.773018
9980.000000;0.773255
9979.000000;0.773429
9978.000000;0.773477
9977.000000;0.773608
9976.000000;0.773906
9975.000000;0.774066
9974.000000;0.773720
9973.000000;0.773001
9972.000000;0.772532
9971.000000;0.772764
9970.000000;0.773470
9969.000000;0.774023
9968.000000;0.774035
9967.000000;0.773632
9966.000000;0.773198
9965.000000;0.773018
9964.000000;0.773129
9963.000000;0.773353
9962.000000;0.773457
9961.000000;0.773313
9960.000000;0.772951
9959.000000;0.772490
9958.000000;0.772073
9957.000000;0.771850
9956.000000;0.771883
9955.000000;0.772029
9954.000000;0.772017
9953.000000;0.771709
9952.000000;0.771252
9951.000000;0.770950
9950.000000;0.771019
9949.000000;0.771399
9948.000000;0.771687
9947.000000;0.771344
9946.000000;0.770231
9945.000000;0.768919
9944.000000;0.768271
9943.000000;0.768648
9942.000000;0.769673
9941.000000;0.770763
9940.000000;0.771632
9939.000000;0.772202
9938.000000;0.772378
9937.000000;0.772166
9936.000000;0.771816
9935.000000;0.771527
9934.000000;0.771103
9933.000000;0.770219
9932.000000;0.769006
9931.000000;0.768079
9930.000000;0.767900
9929.000000;0.768334
9928.000000;0.768908
9927.000000;0.769351
9926.000000;0.769721
9925.000000;0.770114
9924.000000;0.770429
9923.000000;0.770476
9922.000000;0.770197
9921.000000;0.769693
9920.000000;0.769064
9919.000000;0.768340
9918.000000;0.767612
9917.000000;0.767138
9916.000000;0.767168
9915.000000;0.767669
9914.000000;0.768295
9913.000000;0.768671
9912.000000;0.768624
9911.000000;0.768203
9910.000000;0.767600
9909.000000;0.767094
9908.000000;0.766919
9907.000000;0.767071
9906.000000;0.767312
9905.000000;0.767419
9904.000000;0.767347
9903.000000;0.767161
9902.000000;0.766943
9901.000000;0.766804
9900.000000;0.766855
9899.000000;0.767069
9898.000000;0.767286
9897.000000;0.767409
9896.000000;0.767475
9895.000000;0.767457
9894.000000;0.767179
9893.000000;0.766582
9892.000000;0.765929
9891.000000;0.765544
9890.000000;0.765406
9889.000000;0.765191
9888.000000;0.764704
9887.000000;0.764113
9886.000000;0.763751
9885.000000;0.763786
9884.000000;0.764136
9883.000000;0.764593
9882.000000;0.764985
9881.000000;0.765228
9880.000000;0.765251
9879.000000;0.764932
9878.000000;0.764234
9877.000000;0.763403
9876.000000;0.762858
9875.000000;0.762797
9874.000000;0.763004
9873.000000;0.763144
9872.000000;0.763121
9871.000000;0.763054
9870.000000;0.763006
9869.000000;0.762922
9868.000000;0.762770
9867.000000;0.762577
9866.000000;0.762325
9865.000000;0.761995
9864.000000;0.761697
9863.000000;0.761622
9862.000000;0.761851
9861.000000;0.762270
9860.000000;0.762710
9859.000000;0.763080
9858.000000;0.763337
9857.000000;0.763379
9856.000000;0.763031
9855.000000;0.762210
9854.000000;0.761157
9853.000000;0.760439
9852.000000;0.760501
9851.000000;0.761141
9850.000000;0.761582
9849.000000;0.761250
9848.000000;0.760406
9847.000000;0.759862
9846.000000;0.760146
9845.000000;0.761100
9844.000000;0.762135
9843.000000;0.762697
9842.000000;0.762536
9841.000000;0.761783
9840.000000;0.760865
9839.000000;0.760209
9838.000000;0.759971
9837.000000;0.760035
9836.000000;0.760205
9835.000000;0.760320
9834.000000;0.760281
9833.000000;0.760117
9832.000000;0.759977
9831.000000;0.759912
9830.000000;0.759763
9829.000000;0.759415
9828.000000;0.759056
9827.000000;0.758955
9826.000000;0.759017
9825.000000;0.758887
9824.000000;0.758498
9823.000000;0.758222
9822.000000;0.758354
9821.000000;0.758698
9820.000000;0.758842
9819.000000;0.758636
9818.000000;0.758253
9817.000000;0.757919
9816.000000;0.757760
9815.000000;0.757781
9814.000000;0.757824
9813.000000;0.757665
9812.000000;0.757300
9811.000000;0.757061
9810.000000;0.757262
9809.000000;0.757828
9808.000000;0.758384
9807.000000;0.758652
9806.000000;0.758585
9805.000000;0.758222
9804.000000;0.757623
9803.000000;0.756935
9802.000000;0.756318
9801.000000;0.755803
9800.000000;0.755350
9799.000000;0.755045
9798.000000;0.755049
9797.000000;0.755335
9796.000000;0.755636
9795.000000;0.755718
9794.000000;0.755595
9793.000000;0.755409
9792.000000;0.755237
9791.000000;0.755098
9790.000000;0.755055
9789.000000;0.755195
9788.000000;0.755528
9787.000000;0.755983
9786.000000;0.756446
9785.000000;0.756772
9784.000000;0.756812
9783.000000;0.756514
9782.000000;0.755979
9781.000000;0.755379
9780.000000;0.754839
9779.000000;0.754404
9778.000000;0.754062
9777.000000;0.753774
9776.000000;0.753549
9775.000000;0.753480
9774.000000;0.753609
9773.000000;0.753711
9772.000000;0.753379
9771.000000;0.752486
9770.000000;0.751492
9769.000000;0.751069
9768.000000;0.751411
9767.000000;0.752055
9766.000000;0.752434
9765.000000;0.752448
9764.000000;0.752406
9763.000000;0.752522
9762.000000;0.752688
9761.000000;0.752724
9760.000000;0.752651
9759.000000;0.752624
9758.000000;0.752677
9757.000000;0.752679
9756.000000;0.752530
9755.000000;0.752307
9754.000000;0.752160
9753.000000;0.752116
9752.000000;0.752048
9751.000000;0.751830
9750.000000;0.751496
9749.000000;0.751226
9748.000000;0.751167
9747.000000;0.751262
9746.000000;0.751241
9745.000000;0.750829
9744.000000;0.750037
9743.000000;0.749211
9742.000000;0.748738
9741.000000;0.748685
9740.000000;0.748774
9739.000000;0.748730
9738.000000;0.748591
9737.000000;0.748638
9736.000000;0.749063
9735.000000;0.749775
9734.000000;0.750486
9733.000000;0.750903
9732.000000;0.750862
9731.000000;0.750389
9730.000000;0.749694
9729.000000;0.749076
9728.000000;0.748748
9727.000000;0.748705
9726.000000;0.748782
9725.000000;0.748817
9724.000000;0.748787
9723.000000;0.748787
9722.000000;0.748889
9721.000000;0.749051
9720.000000;0.749162
9719.000000;0.749171
9718.000000;0.749118
9717.000000;0.749051
9716.000000;0.748963
9715.000000;0.748841
9714.000000;0.748698
9713.000000;0.748522
9712.000000;0.748241
9711.000000;0.747841
9710.000000;0.747455
9709.000000;0.747266
9708.000000;0.747334
9707.000000;0.747565
9706.000000;0.747838
9705.000000;0.748049
9704.000000;0.748079
9703.000000;0.747847
9702.000000;0.747457
9701.000000;0.747175
9700.000000;0.747180
9699.000000;0.747364
9698.000000;0.747443
9697.000000;0.747220
9696.000000;0.746746
9695.000000;0.746275
9694.000000;0.746072
9693.000000;0.746191
9692.000000;0.746420
9691.000000;0.746507
9690.000000;0.746457
9689.000000;0.746494
9688.000000;0.746720
9687.000000;0.746939
9686.000000;0.746918
9685.000000;0.746691
9684.000000;0.746480
9683.000000;0.746374
9682.000000;0.746222
9681.000000;0.745840
9680.000000;0.745234
9679.000000;0.744627
9678.000000;0.744309
9677.000000;0.744410
9676.000000;0.744719
9675.000000;0.744784
9674.000000;0.744333
9673.000000;0.743594
9672.000000;0.743098
9671.000000;0.743135
9670.000000;0.743492
9669.000000;0.743722
9668.000000;0.743595
9667.000000;0.743261
9666.000000;0.743045
9665.000000;0.743147
9664.000000;0.743499
9663.000000;0.743878
9662.000000;0.744121
9661.000000;0.744217
9660.000000;0.744178
9659.000000;0.743925
9658.000000;0.743389
9657.000000;0.742693
9656.000000;0.742107
9655.000000;0.741821
9654.000000;0.741853
9653.000000;0.742171
9652.000000;0.742768
9651.000000;0.743527
9650.000000;0.744125
9649.000000;0.744199
9648.000000;0.743639
9647.000000;0.742678
9646.000000;0.741701
9645.000000;0.741009
9644.000000;0.740719
9643.000000;0.740791
9642.000000;0.741067
9641.000000;0.741346
9640.000000;0.741492
9639.000000;0.741545
9638.000000;0.741679
9637.000000;0.741999
9636.000000;0.742394
9635.000000;0.742616
9634.000000;0.742526
9633.000000;0.742213
9632.000000;0.741877
9631.000000;0.741639
9630.000000;0.741473
9629.000000;0.741288
9628.000000;0.741034
9627.000000;0.740761
9626.000000;0.740578
9625.000000;0.740546
9624.000000;0.740631
9623.000000;0.740786
9622.000000;0.741018
9621.000000;0.741260
9620.000000;0.741271
9619.000000;0.740854
9618.000000;0.740194
9617.000000;0.739766
9616.000000;0.739789
9615.000000;0.739953
9614.000000;0.739832
9613.000000;0.739421
9612.000000;0.739058
9611.000000;0.738926
9610.000000;0.738863
9609.000000;0.738669
9608.000000;0.738362
9607.000000;0.738090
9606.000000;0.737926
9605.000000;0.737836
9604.000000;0.737759
9603.000000;0.737655
9602.000000;0.737551
9601.000000;0.737548
9600.000000;0.737737
9599.000000;0.738087
9598.000000;0.738474
9597.000000;0.738777
9596.000000;0.738883
9595.000000;0.738672
9594.000000;0.738137
9593.000000;0.737495
9592.000000;0.737041
9591.000000;0.736840
9590.000000;0.736652
9589.000000;0.736190
9588.000000;0.735413
9587.000000;0.734590
9586.000000;0.734112
9585.000000;0.734212
9584.000000;0.734757
9583.000000;0.735353
9582.000000;0.735736
9581.000000;0.736004
9580.000000;0.736375
9579.000000;0.736807
9578.000000;0.737040
9577.000000;0.736972
9576.000000;0.736782
9575.000000;0.736677
9574.000000;0.736681
9573.000000;0.736703
9572.000000;0.736645
9571.000000;0.736413
9570.000000;0.735981
9569.000000;0.735492
9568.000000;0.735164
9567.000000;0.735064
9566.000000;0.735101
9565.000000;0.735199
9564.000000;0.735313
9563.000000;0.735268
9562.000000;0.734855
9561.000000;0.734163
9560.000000;0.733588
9559.000000;0.733413
9558.000000;0.733568
9557.000000;0.733883
9556.000000;0.734335
9555.000000;0.734878
9554.000000;0.735251
9553.000000;0.735206
9552.000000;0.734801
9551.000000;0.734301
9550.000000;0.733887
9549.000000;0.733640
9548.000000;0.733650
9547.000000;0.733898
9546.000000;0.734147
9545.000000;0.734186
9544.000000;0.734114
9543.000000;0.734170
9542.000000;0.734319
9541.000000;0.734262
9540.000000;0.733857
9539.000000;0.733301
9538.000000;0.732866
9537.000000;0.732643
9536.000000;0.732583
9535.000000;0.732602
9534.000000;0.732599
9533.000000;0.732532
9532.000000;0.732498
9531.000000;0.732616
9530.000000;0.732784
9529.000000;0.732733
9528.000000;0.732387
9527.000000;0.732024
9526.000000;0.731955
9525.000000;0.732159
9524.000000;0.732318
9523.000000;0.732155
9522.000000;0.731667
9521.000000;0.731072
9520.000000;0.730606
9519.000000;0.730336
9518.000000;0.730156
9517.000000;0.729983
9516.000000;0.729921
9515.000000;0.730150
9514.000000;0.730633
9513.000000;0.731055
9512.000000;0.731122
9511.000000;0.730842
9510.000000;0.730458
9509.000000;0.730191
9508.000000;0.730114
9507.000000;0.730210
9506.000000;0.730445
9505.000000;0.730770
9504.000000;0.731091
9503.000000;0.731273
9502.000000;0.731216
9501.000000;0.730964
9500.000000;0.730684
9499.000000;0.730478
9498.000000;0.730229
9497.000000;0.729751
9496.000000;0.729114
9495.000000;0.728666
9494.000000;0.728664
9493.000000;0.729003
9492.000000;0.729364
9491.000000;0.729580
9490.000000;0.729722
9489.000000;0.729895
9488.000000;0.730066
9487.000000;0.730107
9486.000000;0.729935
9485.000000;0.729593
9484.000000;0.729239
9483.000000;0.729043
9482.000000;0.729025
9481.000000;0.728981
9480.000000;0.728636
9479.000000;0.727917
9478.000000;0.727073
9477.000000;0.726512
9476.000000;0.726503
9475.000000;0.726972
9474.000000;0.727543
9473.000000;0.727792
9472.000000;0.727568
9471.000000;0.727093
9470.000000;0.726734
9469.000000;0.726655
9468.000000;0.726718
9467.000000;0.726713
9466.000000;0.726625
9465.000000;0.726594
9464.000000;0.726665
9463.000000;0.726688
9462.000000;0.726513
9461.000000;0.726210
9460.000000;0.725988
9459.000000;0.725935
9458.000000;0.725959
9457.000000;0.725962
9456.000000;0.725957
9455.000000;0.725959
9454.000000;0.725900
9453.000000;0.725758
9452.000000;0.725684
9451.000000;0.725834
9450.000000;0.726118
9449.000000;0.726247
9448.000000;0.726057
9447.000000;0.725662
9446.000000;0.725270
9445.000000;0.724988
9444.000000;0.724836
9443.000000;0.724826
9442.000000;0.724925
9441.000000;0.725028
9440.000000;0.725068
9439.000000;0.725093
9438.000000;0.725155
9437.000000;0.725170
9436.000000;0.724995
9435.000000;0.724618
9434.000000;0.724162
9433.000000;0.723748
9432.000000;0.723418
9431.000000;0.723197
9430.000000;0.723114
9429.000000;0.723146
9428.000000;0.723218
9427.000000;0.723292
9426.000000;0.723396
9425.000000;0.723536
9424.000000;0.723639
9423.000000;0.723611
9422.000000;0.723444
9421.000000;0.723229
9420.000000;0.723085
9419.000000;0.723071
9418.000000;0.723154
9417.000000;0.723250
9416.000000;0.723299
9415.000000;0.723271
9414.000000;0.723130
9413.000000;0.722834
9412.000000;0.722423
9411.000000;0.722044
9410.000000;0.721808
9409.000000;0.721648
9408.000000;0.721422
9407.000000;0.721106
9406.000000;0.720800
9405.000000;0.720548
9404.000000;0.720300
9403.000000;0.720082
9402.000000;0.720064
9401.000000;0.720351
9400.000000;0.720797
9399.000000;0.721127
9398.000000;0.721183
9397.000000;0.720983
9396.000000;0.720601
9395.000000;0.720131
9394.000000;0.719735
9393.000000;0.719587
9392.000000;0.719735
9391.000000;0.720078
9390.000000;0.720472
9389.000000;0.720797
9388.000000;0.720931
9387.000000;0.720800
9386.000000;0.720472
9385.000000;0.720118
9384.000000;0.719832
9383.000000;0.719565
9382.000000;0.719265
9381.000000;0.718999
9380.000000;0.718872
9379.000000;0.718862
9378.000000;0.718838
9377.000000;0.718709
9376.000000;0.718522
9375.000000;0.718403
9374.000000;0.718454
9373.000000;0.718676
9372.000000;0.718978
9371.000000;0.719236
9370.000000;0.719360
9369.000000;0.719318
9368.000000;0.719148
9367.000000;0.718965
9366.000000;0.718906
9365.000000;0.718996
9364.000000;0.719070
9363.000000;0.718922
9362.000000;0.718545
9361.000000;0.718144
9360.000000;0.717898
9359.000000;0.717798
9358.000000;0.717736
9357.000000;0.717651
9356.000000;0.717529
9355.000000;0.717332
9354.000000;0.717027
9353.000000;0.716643
9352.000000;0.716246
9351.000000;0.715873
9350.000000;0.715560
9349.000000;0.715373
9348.000000;0.715346
9347.000000;0.715424
9346.000000;0.715521
9345.000000;0.715611
9344.000000;0.715711
9343.000000;0.715811
9342.000000;0.715898
9341.000000;0.716000
9340.000000;0.716126
9339.000000;0.716188
9338.000000;0.716061
9337.000000;0.715744
9336.000000;0.715381
9335.000000;0.715150
9334.000000;0.715151
9333.000000;0.715359
9332.000000;0.715607
9331.000000;0.715686
9330.000000;0.715555
9329.000000;0.715385
9328.000000;0.715332
9327.000000;0.715312
9326.000000;0.715155
9325.000000;0.714908
9324.000000;0.714794
9323.000000;0.714859
9322.000000;0.714896
9321.000000;0.714765
9320.000000;0.714612
9319.000000;0.714639
9318.000000;0.714811
9317.000000;0.714922
9316.000000;0.714857
9315.000000;0.714631
9314.000000;0.714280
9313.000000;0.713863
9312.000000;0.713526
9311.000000;0.713389
9310.000000;0.713374
9309.000000;0.713302
9308.000000;0.713165
9307.000000;0.713153
9306.000000;0.713363
9305.000000;0.713593
9304.000000;0.713546
9303.000000;0.713173
9302.000000;0.712744
9301.000000;0.712574
9300.000000;0.712724
9299.000000;0.712960
9298.000000;0.713012
9297.000000;0.712834
9296.000000;0.712602
9295.000000;0.712469
9294.000000;0.712383
9293.000000;0.712207
9292.000000;0.711937
9291.000000;0.711729
9290.000000;0.711696
9289.000000;0.711770
9288.000000;0.711776
9287.000000;0.711613
9286.000000;0.711362
9285.000000;0.711232
9284.000000;0.711375
9283.000000;0.711693
9282.000000;0.711848
9281.000000;0.711569
9280.000000;0.710964
9279.000000;0.710441
9278.000000;0.710289
9277.000000;0.710395
9276.000000;0.710415
9275.000000;0.710152
9274.000000;0.709754
9273.000000;0.709542
9272.000000;0.709689
9271.000000;0.710046
9270.000000;0.710267
9269.000000;0.710167
9268.000000;0.709913
9267.000000;0.709810
9266.000000;0.709877
9265.000000;0.709777
9264.000000;0.709235
9263.000000;0.708448
9262.000000;0.707939
9261.000000;0.708036
9260.000000;0.708569
9259.000000;0.709085
9258.000000;0.709275
9257.000000;0.709183
9256.000000;0.709067
9255.000000;0.709101
9254.000000;0.709218
9253.000000;0.709225
9252.000000;0.709065
9251.000000;0.708907
9250.000000;0.708939
9249.000000;0.709089
9248.000000;0.709069
9247.000000;0.708685
9246.000000;0.708056
9245.000000;0.707493
9244.000000;0.707212
9243.000000;0.707192
9242.000000;0.707256
9241.000000;0.707234
9240.000000;0.707102
9239.000000;0.706983
9238.000000;0.707015
9237.000000;0.707189
9236.000000;0.707342
9235.000000;0.707312
9234.000000;0.707078
9233.000000;0.706732
9232.000000;0.706387
9231.000000;0.706155
9230.000000;0.706146
9229.000000;0.706382
9228.000000;0.706738
9227.000000;0.706995
9226.000000;0.706996
9225.000000;0.706731
9224.000000;0.706296
9223.000000;0.705825
9222.000000;0.705434
9221.000000;0.705171
9220.000000;0.705009
9219.000000;0.704917
9218.000000;0.704936
9217.000000;0.705115
9216.000000;0.705396
9215.000000;0.705617
9214.000000;0.705682
9213.000000;0.705646
9212.000000;0.705616
9211.000000;0.705621
9210.000000;0.705626
9209.000000;0.705595
9208.000000;0.705478
9207.000000;0.705190
9206.000000;0.704715
9205.000000;0.704224
9204.000000;0.703972
9203.000000;0.704031
9202.000000;0.704178
9201.000000;0.704146
9200.000000;0.703943
9199.000000;0.703834
9198.000000;0.703998
9197.000000;0.704290
9196.000000;0.704415
9195.000000;0.704293
9194.000000;0.704135
9193.000000;0.704119
9192.000000;0.704124
9191.000000;0.703867
9190.000000;0.703281
9189.000000;0.702630
9188.000000;0.702245
9187.000000;0.702227
9186.000000;0.702456
9185.000000;0.702774
9184.000000;0.703060
9183.000000;0.703192
9182.000000;0.703057
9181.000000;0.702665
9180.000000;0.702202
9179.000000;0.701903
9178.000000;0.701875
9177.000000;0.702053
9176.000000;0.702310
9175.000000;0.702579
9174.000000;0.702855
9173.000000;0.703110
9172.000000;0.703229
9171.000000;0.703064
9170.000000;0.702572
9169.000000;0.701898
9168.000000;0.701325
9167.000000;0.701083
9166.000000;0.701168
9165.000000;0.701343
9164.000000;0.701345
9163.000000;0.701131
9162.000000;0.700878
9161.000000;0.700740
9160.000000;0.700661
9159.000000;0.700482
9158.000000;0.700185
9157.000000;0.699927
9156.000000;0.699838
9155.000000;0.699881
9154.000000;0.699935
9153.000000;0.699936
9152.000000;0.699879
9151.000000;0.699761
9150.000000;0.699599
9149.000000;0.699467
9148.000000;0.699452
9147.000000;0.699569
9146.000000;0.699761
9145.000000;0.699955
9144.000000;0.700091
9143.000000;0.700097
9142.000000;0.699913
9141.000000;0.699554
9140.000000;0.699129
9139.000000;0.698800
9138.000000;0.698693
9137.000000;0.698819
9136.000000;0.699037
9135.000000;0.699143
9134.000000;0.699054
9133.000000;0.698895
9132.000000;0.698844
9131.000000;0.698904
9130.000000;0.698867
9129.000000;0.698535
9128.000000;0.697952
9127.000000;0.697387
9126.000000;0.697112
9125.000000;0.697179
9124.000000;0.697402
9123.000000;0.697532
9122.000000;0.697480
9121.000000;0.697360
9120.000000;0.697344
9119.000000;0.697460
9118.000000;0.697557
9117.000000;0.697445
9116.000000;0.697067
9115.000000;0.696583
9114.000000;0.696271
9113.000000;0.696329
9112.000000;0.696699
9111.000000;0.697100
9110.000000;0.697255
9109.000000;0.697113
9108.000000;0.696836
9107.000000;0.696602
9106.000000;0.696436
9105.000000;0.696244
9104.000000;0.695973
9103.000000;0.695702
9102.000000;0.695577
9101.000000;0.695652
9100.000000;0.695814
9099.000000;0.695859
9098.000000;0.695657
9097.000000;0.695247
9096.000000;0.694816
9095.000000;0.694564
9094.000000;0.694555
9093.000000;0.694648
9092.000000;0.694606
9091.000000;0.694332
9090.000000;0.693977
9089.000000;0.693783
9088.000000;0.693840
9087.000000;0.694053
9086.000000;0.694272
9085.000000;0.694378
9084.000000;0.694259
9083.000000;0.693890
9082.000000;0.693466
9081.000000;0.693309
9080.000000;0.693510
9079.000000;0.693768
9078.000000;0.693706
9077.000000;0.693298
9076.000000;0.692861
9075.000000;0.692667
9074.000000;0.692709
9073.000000;0.692835
9072.000000;0.692957
9071.000000;0.693051
9070.000000;0.693072
9069.000000;0.692976
9068.000000;0.692805
9067.000000;0.692668
9066.000000;0.692634
9065.000000;0.692677
9064.000000;0.692715
9063.000000;0.692695
9062.000000;0.692612
9061.000000;0.692476
9060.000000;0.692284
9059.000000;0.692063
9058.000000;0.691902
9057.000000;0.691885
9056.000000;0.691973
9055.000000;0.692018
9054.000000;0.691940
9053.000000;0.691842
