Criado como novo conjunto de dados;"2706_e01_daniel.spp","105307.5 Secs"
cm-1;Abs
10000.000000;0.863771
9999.000000;0.864411
9998.000000;0.864933
9997.000000;0.865185
9996.000000;0.865169
9995.000000;0.864900
9994.000000;0.864464
9993.000000;0.864133
9992.000000;0.864181
9991.000000;0.864574
9990.000000;0.864964
9989.000000;0.865034
9988.000000;0.864771
9987.000000;0.864397
9986.000000;0.864145
9985.000000;0.864127
9984.000000;0.864316
9983.000000;0.864573
9982.000000;0.864712
9981.000000;0.864639
9980.000000;0.864448
9979.000000;0.864362
9978.000000;0.864513
9977.000000;0.864779
9976.000000;0.864864
9975.000000;0.864585
9974.000000;0.864065
9973.000000;0.863599
9972.000000;0.863338
9971.000000;0.863180
9970.000000;0.862988
9969.000000;0.862815
9968.000000;0.862847
9967.000000;0.863164
9966.000000;0.863673
9965.000000;0.864227
9964.000000;0.864692
9963.000000;0.864909
9962.000000;0.864720
9961.000000;0.864151
9960.000000;0.863465
9959.000000;0.862940
9958.000000;0.862584
9957.000000;0.862199
9956.000000;0.861737
9955.000000;0.861478
9954.000000;0.861720
9953.000000;0.862359
9952.000000;0.862905
9951.000000;0.862964
9950.000000;0.862597
9949.000000;0.862150
9948.000000;0.861837
9947.000000;0.861617
9946.000000;0.861393
9945.000000;0.861130
9944.000000;0.860758
9943.000000;0.860162
9942.000000;0.859399
9941.000000;0.858827
9940.000000;0.858845
9939.000000;0.859506
9938.000000;0.860504
9937.000000;0.861498
9936.000000;0.862311
9935.000000;0.862800
9934.000000;0.862770
9933.000000;0.862191
9932.000000;0.861428
9931.000000;0.860995
9930.000000;0.861032
9929.000000;0.861146
9928.000000;0.860881
9927.000000;0.860261
9926.000000;0.859746
9925.000000;0.859682
9924.000000;0.859953
9923.000000;0.860164
9922.000000;0.860046
9921.000000;0.859614
9920.000000;0.859064
9919.000000;0.858624
9918.000000;0.858469
9917.000000;0.858621
9916.000000;0.858920
9915.000000;0.859176
9914.000000;0.859346
9913.000000;0.859544
9912.000000;0.859874
9911.000000;0.860331
9910.000000;0.860820
9909.000000;0.861180
9908.000000;0.861199
9907.000000;0.860729
9906.000000;0.859858
9905.000000;0.858934
9904.000000;0.858356
9903.000000;0.858321
9902.000000;0.858698
9901.000000;0.859089
9900.000000;0.859050
9899.000000;0.858442
9898.000000;0.857590
9897.000000;0.857030
9896.000000;0.857010
9895.000000;0.857317
9894.000000;0.857580
9893.000000;0.857649
9892.000000;0.857626
9891.000000;0.857661
9890.000000;0.857835
9889.000000;0.858174
9888.000000;0.858626
9887.000000;0.859027
9886.000000;0.859165
9885.000000;0.858949
9884.000000;0.858513
9883.000000;0.858152
9882.000000;0.858109
9881.000000;0.858326
9880.000000;0.858426
9879.000000;0.858055
9878.000000;0.857283
9877.000000;0.856558
9876.000000;0.856219
9875.000000;0.856188
9874.000000;0.856189
9873.000000;0.856107
9872.000000;0.855996
9871.000000;0.855883
9870.000000;0.855784
9869.000000;0.855798
9868.000000;0.855963
9867.000000;0.856065
9866.000000;0.855841
9865.000000;0.855357
9864.000000;0.854973
9863.000000;0.854919
9862.000000;0.855095
9861.000000;0.855330
9860.000000;0.855573
9859.000000;0.855754
9858.000000;0.855659
9857.000000;0.855169
9856.000000;0.854486
9855.000000;0.853959
9854.000000;0.853744
9853.000000;0.853759
9852.000000;0.853863
9851.000000;0.853944
9850.000000;0.853913
9849.000000;0.853778
9848.000000;0.853705
9847.000000;0.853826
9846.000000;0.854008
9845.000000;0.853972
9844.000000;0.853676
9843.000000;0.853413
9842.000000;0.853456
9841.000000;0.853711
9840.000000;0.853848
9839.000000;0.853684
9838.000000;0.853322
9837.000000;0.852949
9836.000000;0.852637
9835.000000;0.852399
9834.000000;0.852295
9833.000000;0.852343
9832.000000;0.852360
9831.000000;0.852069
9830.000000;0.851458
9829.000000;0.850898
9828.000000;0.850762
9827.000000;0.850969
9826.000000;0.851079
9825.000000;0.850856
9824.000000;0.850568
9823.000000;0.850610
9822.000000;0.850989
9821.000000;0.851332
9820.000000;0.851361
9819.000000;0.851178
9818.000000;0.851072
9817.000000;0.851187
9816.000000;0.851452
9815.000000;0.851746
9814.000000;0.852014
9813.000000;0.852250
9812.000000;0.852455
9811.000000;0.852624
9810.000000;0.852724
9809.000000;0.852698
9808.000000;0.852519
9807.000000;0.852245
9806.000000;0.851957
9805.000000;0.851634
9804.000000;0.851165
9803.000000;0.850534
9802.000000;0.849959
9801.000000;0.849743
9800.000000;0.849992
9799.000000;0.850537
9798.000000;0.851117
9797.000000;0.851575
9796.000000;0.851864
9795.000000;0.851971
9794.000000;0.851884
9793.000000;0.851613
9792.000000;0.851182
9791.000000;0.850649
9790.000000;0.850159
9789.000000;0.849865
9788.000000;0.849753
9787.000000;0.849619
9786.000000;0.849334
9785.000000;0.849051
9784.000000;0.849023
9783.000000;0.849260
9782.000000;0.849503
9781.000000;0.849529
9780.000000;0.849350
9779.000000;0.849105
9778.000000;0.848932
9777.000000;0.848962
9776.000000;0.849246
9775.000000;0.849603
9774.000000;0.849668
9773.000000;0.849199
9772.000000;0.848316
9771.000000;0.847384
9770.000000;0.846764
9769.000000;0.846699
9768.000000;0.847248
9767.000000;0.848190
9766.000000;0.849051
9765.000000;0.849419
9764.000000;0.849238
9763.000000;0.848765
9762.000000;0.848268
9761.000000;0.847875
9760.000000;0.847639
9759.000000;0.847603
9758.000000;0.847759
9757.000000;0.847999
9756.000000;0.848159
9755.000000;0.848072
9754.000000;0.847654
9753.000000;0.846993
9752.000000;0.846353
9751.000000;0.846007
9750.000000;0.846025
9749.000000;0.846249
9748.000000;0.846455
9747.000000;0.846537
9746.000000;0.846570
9745.000000;0.846718
9744.000000;0.847063
9743.000000;0.847502
9742.000000;0.847855
9741.000000;0.848050
9740.000000;0.848124
9739.000000;0.848043
9738.000000;0.847705
9737.000000;0.847179
9736.000000;0.846763
9735.000000;0.846637
9734.000000;0.846593
9733.000000;0.846314
9732.000000;0.845834
9731.000000;0.845469
9730.000000;0.845335
9729.000000;0.845182
9728.000000;0.844805
9727.000000;0.844404
9726.000000;0.844390
9725.000000;0.844907
9724.000000;0.845665
9723.000000;0.846192
9722.000000;0.846201
9721.000000;0.845802
9720.000000;0.845393
9719.000000;0.845297
9718.000000;0.845468
9717.000000;0.845586
9716.000000;0.845414
9715.000000;0.844992
9714.000000;0.844491
9713.000000;0.844035
9712.000000;0.843725
9711.000000;0.843691
9710.000000;0.843980
9709.000000;0.844463
9708.000000;0.844931
9707.000000;0.845223
9706.000000;0.845204
9705.000000;0.844750
9704.000000;0.843902
9703.000000;0.842962
9702.000000;0.842293
9701.000000;0.842042
9700.000000;0.842143
9699.000000;0.842523
9698.000000;0.843137
9697.000000;0.843824
9696.000000;0.844293
9695.000000;0.844314
9694.000000;0.843871
9693.000000;0.843148
9692.000000;0.842441
9691.000000;0.842041
9690.000000;0.842056
9689.000000;0.842309
9688.000000;0.842522
9687.000000;0.842624
9686.000000;0.842782
9685.000000;0.843084
9684.000000;0.843369
9683.000000;0.843460
9682.000000;0.843416
9681.000000;0.843425
9680.000000;0.843516
9679.000000;0.843530
9678.000000;0.843354
9677.000000;0.843056
9676.000000;0.842780
9675.000000;0.842621
9674.000000;0.842567
9673.000000;0.842504
9672.000000;0.842291
9671.000000;0.841929
9670.000000;0.841621
9669.000000;0.841562
9668.000000;0.841674
9667.000000;0.841677
9666.000000;0.841438
9665.000000;0.841117
9664.000000;0.840927
9663.000000;0.840893
9662.000000;0.840903
9661.000000;0.840896
9660.000000;0.840885
9659.000000;0.840894
9658.000000;0.840977
9657.000000;0.841221
9656.000000;0.841613
9655.000000;0.841952
9654.000000;0.842007
9653.000000;0.841771
9652.000000;0.841431
9651.000000;0.841115
9650.000000;0.840786
9649.000000;0.840420
9648.000000;0.840165
9647.000000;0.840217
9646.000000;0.840577
9645.000000;0.840984
9644.000000;0.841094
9643.000000;0.840735
9642.000000;0.840038
9641.000000;0.839339
9640.000000;0.838931
9639.000000;0.838893
9638.000000;0.839145
9637.000000;0.839591
9636.000000;0.840133
9635.000000;0.840597
9634.000000;0.840790
9633.000000;0.840668
9632.000000;0.840372
9631.000000;0.840029
9630.000000;0.839623
9629.000000;0.839096
9628.000000;0.838530
9627.000000;0.838134
9626.000000;0.838070
9625.000000;0.838340
9624.000000;0.838792
9623.000000;0.839231
9622.000000;0.839568
9621.000000;0.839865
9620.000000;0.840203
9619.000000;0.840463
9618.000000;0.840346
9617.000000;0.839710
9616.000000;0.838831
9615.000000;0.838207
9614.000000;0.838109
9613.000000;0.838384
9612.000000;0.838665
9611.000000;0.838683
9610.000000;0.838419
9609.000000;0.838051
9608.000000;0.837814
9607.000000;0.837814
9606.000000;0.837940
9605.000000;0.837984
9604.000000;0.837836
9603.000000;0.837555
9602.000000;0.837274
9601.000000;0.837117
9600.000000;0.837159
9599.000000;0.837366
9598.000000;0.837552
9597.000000;0.837546
9596.000000;0.837415
9595.000000;0.837398
9594.000000;0.837536
9593.000000;0.837524
9592.000000;0.837116
9591.000000;0.836554
9590.000000;0.836381
9589.000000;0.836795
9588.000000;0.837386
9587.000000;0.837601
9586.000000;0.837317
9585.000000;0.836841
9584.000000;0.836477
9583.000000;0.836275
9582.000000;0.836151
9581.000000;0.836063
9580.000000;0.836030
9579.000000;0.836068
9578.000000;0.836157
9577.000000;0.836203
9576.000000;0.836044
9575.000000;0.835632
9574.000000;0.835189
9573.000000;0.835030
9572.000000;0.835178
9571.000000;0.835323
9570.000000;0.835245
9569.000000;0.835135
9568.000000;0.835323
9567.000000;0.835799
9566.000000;0.836176
9565.000000;0.836112
9564.000000;0.835636
9563.000000;0.835056
9562.000000;0.834703
9561.000000;0.834737
9560.000000;0.835049
9559.000000;0.835304
9558.000000;0.835189
9557.000000;0.834679
9556.000000;0.834012
9555.000000;0.833477
9554.000000;0.833290
9553.000000;0.833543
9552.000000;0.834057
9551.000000;0.834329
9550.000000;0.833943
9549.000000;0.833120
9548.000000;0.832590
9547.000000;0.832785
9546.000000;0.833387
9545.000000;0.833798
9544.000000;0.833838
9543.000000;0.833732
9542.000000;0.833624
9541.000000;0.833441
9540.000000;0.833156
9539.000000;0.832861
9538.000000;0.832533
9537.000000;0.832007
9536.000000;0.831299
9535.000000;0.830773
9534.000000;0.830833
9533.000000;0.831520
9532.000000;0.832464
9531.000000;0.833165
9530.000000;0.833328
9529.000000;0.833040
9528.000000;0.832669
9527.000000;0.832505
9526.000000;0.832467
9525.000000;0.832251
9524.000000;0.831775
9523.000000;0.831333
9522.000000;0.831260
9521.000000;0.831532
9520.000000;0.831810
9519.000000;0.831808
9518.000000;0.831532
9517.000000;0.831193
9516.000000;0.830978
9515.000000;0.830913
9514.000000;0.830883
9513.000000;0.830757
9512.000000;0.830528
9511.000000;0.830316
9510.000000;0.830237
9509.000000;0.830275
9508.000000;0.830276
9507.000000;0.830073
9506.000000;0.829641
9505.000000;0.829158
9504.000000;0.828875
9503.000000;0.828900
9502.000000;0.829094
9501.000000;0.829248
9500.000000;0.829311
9499.000000;0.829399
9498.000000;0.829585
9497.000000;0.829791
9496.000000;0.829917
9495.000000;0.829985
9494.000000;0.830091
9493.000000;0.830249
9492.000000;0.830357
9491.000000;0.830319
9490.000000;0.830144
9489.000000;0.829930
9488.000000;0.829772
9487.000000;0.829704
9486.000000;0.829714
9485.000000;0.829777
9484.000000;0.829850
9483.000000;0.829834
9482.000000;0.829631
9481.000000;0.829258
9480.000000;0.828874
9479.000000;0.828648
9478.000000;0.828597
9477.000000;0.828594
9476.000000;0.828537
9475.000000;0.828480
9474.000000;0.828598
9473.000000;0.829006
9472.000000;0.829586
9471.000000;0.829997
9470.000000;0.829944
9469.000000;0.829477
9468.000000;0.828949
9467.000000;0.828637
9466.000000;0.828472
9465.000000;0.828233
9464.000000;0.827890
9463.000000;0.827618
9462.000000;0.827510
9461.000000;0.827454
9460.000000;0.827337
9459.000000;0.827237
9458.000000;0.827344
9457.000000;0.827722
9456.000000;0.828221
9455.000000;0.828579
9454.000000;0.828625
9453.000000;0.828417
9452.000000;0.828178
9451.000000;0.828076
9450.000000;0.828098
9449.000000;0.828158
9448.000000;0.828236
9447.000000;0.828305
9446.000000;0.828216
9445.000000;0.827832
9444.000000;0.827283
9443.000000;0.826888
9442.000000;0.826803
9441.000000;0.826880
9440.000000;0.826928
9439.000000;0.826935
9438.000000;0.826947
9437.000000;0.826889
9436.000000;0.826661
9435.000000;0.826327
9434.000000;0.826073
9433.000000;0.826013
9432.000000;0.826139
9431.000000;0.826382
9430.000000;0.826632
9429.000000;0.826726
9428.000000;0.826572
9427.000000;0.826274
9426.000000;0.826036
9425.000000;0.825905
9424.000000;0.825725
9423.000000;0.825379
9422.000000;0.825016
9421.000000;0.824938
9420.000000;0.825271
9419.000000;0.825772
9418.000000;0.826021
9417.000000;0.825773
9416.000000;0.825147
9415.000000;0.824463
9414.000000;0.823994
9413.000000;0.823850
9412.000000;0.823996
9411.000000;0.824259
9410.000000;0.824381
9409.000000;0.824210
9408.000000;0.823881
9407.000000;0.823698
9406.000000;0.823817
9405.000000;0.824146
9404.000000;0.824527
9403.000000;0.824893
9402.000000;0.825173
9401.000000;0.825216
9400.000000;0.824918
9399.000000;0.824374
9398.000000;0.823807
9397.000000;0.823395
9396.000000;0.823224
9395.000000;0.823300
9394.000000;0.823528
9393.000000;0.823730
9392.000000;0.823789
9391.000000;0.823758
9390.000000;0.823769
9389.000000;0.823864
9388.000000;0.823992
9387.000000;0.824082
9386.000000;0.824074
9385.000000;0.823933
9384.000000;0.823739
9383.000000;0.823666
9382.000000;0.823760
9381.000000;0.823790
9380.000000;0.823479
9379.000000;0.822895
9378.000000;0.822436
9377.000000;0.822403
9376.000000;0.822684
9375.000000;0.822935
9374.000000;0.822963
9373.000000;0.822842
9372.000000;0.822715
9371.000000;0.822606
9370.000000;0.822472
9369.000000;0.822341
9368.000000;0.822311
9367.000000;0.822379
9366.000000;0.822377
9365.000000;0.822165
9364.000000;0.821860
9363.000000;0.821721
9362.000000;0.821828
9361.000000;0.821980
9360.000000;0.821975
9359.000000;0.821849
9358.000000;0.821754
9357.000000;0.821723
9356.000000;0.821684
9355.000000;0.821618
9354.000000;0.821540
9353.000000;0.821395
9352.000000;0.821115
9351.000000;0.820775
9350.000000;0.820525
9349.000000;0.820403
9348.000000;0.820351
9347.000000;0.820389
9346.000000;0.820589
9345.000000;0.820866
9344.000000;0.820982
9343.000000;0.820815
9342.000000;0.820463
9341.000000;0.820031
9340.000000;0.819522
9339.000000;0.819049
9338.000000;0.818931
9337.000000;0.819336
9336.000000;0.819938
9335.000000;0.820170
9334.000000;0.819813
9333.000000;0.819154
9332.000000;0.818569
9331.000000;0.818185
9330.000000;0.818005
9329.000000;0.818104
9328.000000;0.818516
9327.000000;0.819031
9326.000000;0.819323
9325.000000;0.819274
9324.000000;0.819059
9323.000000;0.818899
9322.000000;0.818881
9321.000000;0.818991
9320.000000;0.819192
9319.000000;0.819376
9318.000000;0.819370
9317.000000;0.819110
9316.000000;0.818755
9315.000000;0.818532
9314.000000;0.818507
9313.000000;0.818583
9312.000000;0.818678
9311.000000;0.818781
9310.000000;0.818844
9309.000000;0.818775
9308.000000;0.818578
9307.000000;0.818391
9306.000000;0.818319
9305.000000;0.818311
9304.000000;0.818250
9303.000000;0.818097
9302.000000;0.817888
9301.000000;0.817657
9300.000000;0.817428
9299.000000;0.817231
9298.000000;0.817081
9297.000000;0.816983
9296.000000;0.816975
9295.000000;0.817091
9294.000000;0.817249
9293.000000;0.817281
9292.000000;0.817158
9291.000000;0.817042
9290.000000;0.817033
9289.000000;0.816985
9288.000000;0.816745
9287.000000;0.816462
9286.000000;0.816447
9285.000000;0.816727
9284.000000;0.816973
9283.000000;0.816888
9282.000000;0.816526
9281.000000;0.816150
9280.000000;0.815960
9279.000000;0.816007
9278.000000;0.816226
9277.000000;0.816446
9276.000000;0.816464
9275.000000;0.816232
9274.000000;0.815897
9273.000000;0.815626
9272.000000;0.815456
9271.000000;0.815385
9270.000000;0.815490
9269.000000;0.815823
9268.000000;0.816257
9267.000000;0.816551
9266.000000;0.816548
9265.000000;0.816252
9264.000000;0.815756
9263.000000;0.815176
9262.000000;0.814638
9261.000000;0.814244
9260.000000;0.814048
9259.000000;0.814082
9258.000000;0.814355
9257.000000;0.814764
9256.000000;0.815075
9255.000000;0.815084
9254.000000;0.814796
9253.000000;0.814375
9252.000000;0.813979
9251.000000;0.813701
9250.000000;0.813622
9249.000000;0.813757
9248.000000;0.813969
9247.000000;0.814065
9246.000000;0.814029
9245.000000;0.814051
9244.000000;0.814271
9243.000000;0.814557
9242.000000;0.814635
9241.000000;0.814407
9240.000000;0.814076
9239.000000;0.813961
9238.000000;0.814183
9237.000000;0.814561
9236.000000;0.814787
9235.000000;0.814722
9234.000000;0.814490
9233.000000;0.814261
9232.000000;0.814024
9231.000000;0.813668
9230.000000;0.813263
9229.000000;0.813110
9228.000000;0.813402
9227.000000;0.813931
9226.000000;0.814239
9225.000000;0.814065
9224.000000;0.813566
9223.000000;0.813100
9222.000000;0.812883
9221.000000;0.812856
9220.000000;0.812827
9219.000000;0.812656
9218.000000;0.812370
9217.000000;0.812120
9216.000000;0.812054
9215.000000;0.812189
9214.000000;0.812402
9213.000000;0.812562
9212.000000;0.812637
9211.000000;0.812676
9210.000000;0.812683
9209.000000;0.812567
9208.000000;0.812255
9207.000000;0.811817
9206.000000;0.811456
9205.000000;0.811327
9204.000000;0.811385
9203.000000;0.811435
9202.000000;0.811351
9201.000000;0.811212
9200.000000;0.811197
9199.000000;0.811349
9198.000000;0.811491
9197.000000;0.811388
9196.000000;0.810969
9195.000000;0.810390
9194.000000;0.809892
9193.000000;0.809652
9192.000000;0.809723
9191.000000;0.810056
9190.000000;0.810509
9189.000000;0.810883
9188.000000;0.811009
9187.000000;0.810873
9186.000000;0.810646
9185.000000;0.810571
9184.000000;0.810774
9183.000000;0.811150
9182.000000;0.811423
9181.000000;0.811378
9180.000000;0.811045
9179.000000;0.810673
9178.000000;0.810494
9177.000000;0.810531
9176.000000;0.810616
9175.000000;0.810595
9174.000000;0.810475
9173.000000;0.810375
9172.000000;0.810345
9171.000000;0.810277
9170.000000;0.810032
9169.000000;0.809642
9168.000000;0.809326
9167.000000;0.809258
9166.000000;0.809354
9165.000000;0.809366
9164.000000;0.809177
9163.000000;0.808935
9162.000000;0.808853
9161.000000;0.808934
9160.000000;0.808992
9159.000000;0.808890
9158.000000;0.808689
9157.000000;0.808531
9156.000000;0.808476
9155.000000;0.808482
9154.000000;0.808507
9153.000000;0.808552
9152.000000;0.808610
9151.000000;0.808637
9150.000000;0.808598
9149.000000;0.808510
9148.000000;0.808406
9147.000000;0.808275
9146.000000;0.808099
9145.000000;0.807939
9144.000000;0.807905
9143.000000;0.807998
9142.000000;0.808051
9141.000000;0.807913
9140.000000;0.807654
9139.000000;0.807492
9138.000000;0.807524
9137.000000;0.807625
9136.000000;0.807654
9135.000000;0.807631
9134.000000;0.807649
9133.000000;0.807704
9132.000000;0.807701
9131.000000;0.807607
9130.000000;0.807477
9129.000000;0.807365
9128.000000;0.807294
9127.000000;0.807285
9126.000000;0.807334
9125.000000;0.807342
9124.000000;0.807196
9123.000000;0.806920
9122.000000;0.806684
9121.000000;0.806622
9120.000000;0.806697
9119.000000;0.806780
9118.000000;0.806784
9117.000000;0.806710
9116.000000;0.806618
9115.000000;0.806601
9114.000000;0.806732
9113.000000;0.806975
9112.000000;0.807177
9111.000000;0.807192
9110.000000;0.807011
9109.000000;0.806750
9108.000000;0.806527
9107.000000;0.806367
9106.000000;0.806215
9105.000000;0.806029
9104.000000;0.805860
9103.000000;0.805820
9102.000000;0.805934
9101.000000;0.806040
9100.000000;0.805909
9099.000000;0.805462
9098.000000;0.804840
9097.000000;0.804251
9096.000000;0.803822
9095.000000;0.803589
9094.000000;0.803535
9093.000000;0.803582
9092.000000;0.803622
9091.000000;0.803616
9090.000000;0.803640
9089.000000;0.803780
9088.000000;0.804032
9087.000000;0.804331
9086.000000;0.804607
9085.000000;0.804788
9084.000000;0.804800
9083.000000;0.804638
9082.000000;0.804407
9081.000000;0.804240
9080.000000;0.804178
9079.000000;0.804160
9078.000000;0.804098
9077.000000;0.803930
9076.000000;0.803665
9075.000000;0.803415
9074.000000;0.803308
9073.000000;0.803310
9072.000000;0.803212
9071.000000;0.802903
9070.000000;0.802576
9069.000000;0.802529
9068.000000;0.802770
9067.000000;0.802995
9066.000000;0.802978
9065.000000;0.802850
9064.000000;0.802903
9063.000000;0.803210
9062.000000;0.803560
9061.000000;0.803712
9060.000000;0.803608
9059.000000;0.803354
9058.000000;0.803095
9057.000000;0.802937
9056.000000;0.802912
9055.000000;0.802965
9054.000000;0.802989
9053.000000;0.802935
