Criado como novo conjunto de dados;"2706_e01_daniel.spp","100267.1 Secs"
cm-1;Abs
10000.000000;0.866604
9999.000000;0.865838
9998.000000;0.865094
9997.000000;0.864378
9996.000000;0.863717
9995.000000;0.863298
9994.000000;0.863412
9993.000000;0.864096
9992.000000;0.864874
9991.000000;0.865110
9990.000000;0.864667
9989.000000;0.864069
9988.000000;0.863928
9987.000000;0.864333
9986.000000;0.864836
9985.000000;0.864908
9984.000000;0.864315
9983.000000;0.863215
9982.000000;0.862043
9981.000000;0.861255
9980.000000;0.861051
9979.000000;0.861296
9978.000000;0.861723
9977.000000;0.862167
9976.000000;0.862562
9975.000000;0.862847
9974.000000;0.862980
9973.000000;0.862969
9972.000000;0.862794
9971.000000;0.862383
9970.000000;0.861812
9969.000000;0.861426
9968.000000;0.861566
9967.000000;0.862203
9966.000000;0.862978
9965.000000;0.863556
9964.000000;0.863787
9963.000000;0.863595
9962.000000;0.863016
9961.000000;0.862404
9960.000000;0.862282
9959.000000;0.862781
9958.000000;0.863386
9957.000000;0.863456
9956.000000;0.862891
9955.000000;0.862125
9954.000000;0.861542
9953.000000;0.861141
9952.000000;0.860769
9951.000000;0.860414
9950.000000;0.860193
9949.000000;0.860145
9948.000000;0.860164
9947.000000;0.860101
9946.000000;0.859911
9945.000000;0.859702
9944.000000;0.859610
9943.000000;0.859634
9942.000000;0.859654
9941.000000;0.859665
9940.000000;0.859880
9939.000000;0.860481
9938.000000;0.861330
9937.000000;0.862071
9936.000000;0.862532
9935.000000;0.862835
9934.000000;0.863078
9933.000000;0.863082
9932.000000;0.862589
9931.000000;0.861633
9930.000000;0.860558
9929.000000;0.859672
9928.000000;0.859021
9927.000000;0.858532
9926.000000;0.858259
9925.000000;0.858365
9924.000000;0.858884
9923.000000;0.859576
9922.000000;0.860073
9921.000000;0.860132
9920.000000;0.859742
9919.000000;0.859060
9918.000000;0.858339
9917.000000;0.857863
9916.000000;0.857817
9915.000000;0.858138
9914.000000;0.858550
9913.000000;0.858806
9912.000000;0.858847
9911.000000;0.858729
9910.000000;0.858457
9909.000000;0.857960
9908.000000;0.857220
9907.000000;0.856395
9906.000000;0.855812
9905.000000;0.855765
9904.000000;0.856254
9903.000000;0.856910
9902.000000;0.857272
9901.000000;0.857153
9900.000000;0.856711
9899.000000;0.856246
9898.000000;0.856041
9897.000000;0.856294
9896.000000;0.856941
9895.000000;0.857534
9894.000000;0.857540
9893.000000;0.856896
9892.000000;0.856100
9891.000000;0.855672
9890.000000;0.855728
9889.000000;0.856118
9888.000000;0.856673
9887.000000;0.857120
9886.000000;0.857045
9885.000000;0.856335
9884.000000;0.855492
9883.000000;0.855142
9882.000000;0.855291
9881.000000;0.855409
9880.000000;0.855222
9879.000000;0.855041
9878.000000;0.855222
9877.000000;0.855657
9876.000000;0.855981
9875.000000;0.856013
9874.000000;0.855781
9873.000000;0.855309
9872.000000;0.854629
9871.000000;0.853913
9870.000000;0.853430
9869.000000;0.853353
9868.000000;0.853640
9867.000000;0.854058
9866.000000;0.854299
9865.000000;0.854236
9864.000000;0.854117
9863.000000;0.854343
9862.000000;0.854958
9861.000000;0.855484
9860.000000;0.855386
9859.000000;0.854623
9858.000000;0.853638
9857.000000;0.852929
9856.000000;0.852719
9855.000000;0.852945
9854.000000;0.853395
9853.000000;0.853886
9852.000000;0.854351
9851.000000;0.854754
9850.000000;0.854950
9849.000000;0.854783
9848.000000;0.854344
9847.000000;0.853965
9846.000000;0.853871
9845.000000;0.853984
9844.000000;0.854100
9843.000000;0.854100
9842.000000;0.853904
9841.000000;0.853446
9840.000000;0.852866
9839.000000;0.852513
9838.000000;0.852515
9837.000000;0.852505
9836.000000;0.852074
9835.000000;0.851382
9834.000000;0.850994
9833.000000;0.851101
9832.000000;0.851271
9831.000000;0.851060
9830.000000;0.850594
9829.000000;0.850334
9828.000000;0.850459
9827.000000;0.850714
9826.000000;0.850801
9825.000000;0.850729
9824.000000;0.850735
9823.000000;0.850987
9822.000000;0.851401
9821.000000;0.851730
9820.000000;0.851810
9819.000000;0.851694
9818.000000;0.851522
9817.000000;0.851318
9816.000000;0.851020
9815.000000;0.850688
9814.000000;0.850531
9813.000000;0.850660
9812.000000;0.850897
9811.000000;0.850945
9810.000000;0.850715
9809.000000;0.850400
9808.000000;0.850211
9807.000000;0.850137
9806.000000;0.850012
9805.000000;0.849772
9804.000000;0.849554
9803.000000;0.849512
9802.000000;0.849591
9801.000000;0.849589
9800.000000;0.849441
9799.000000;0.849328
9798.000000;0.849393
9797.000000;0.849460
9796.000000;0.849203
9795.000000;0.848634
9794.000000;0.848225
9793.000000;0.848404
9792.000000;0.849022
9791.000000;0.849462
9790.000000;0.849295
9789.000000;0.848698
9788.000000;0.848176
9787.000000;0.848004
9786.000000;0.848064
9785.000000;0.848159
9784.000000;0.848290
9783.000000;0.848520
9782.000000;0.848721
9781.000000;0.848629
9780.000000;0.848198
9779.000000;0.847717
9778.000000;0.847507
9777.000000;0.847577
9776.000000;0.847693
9775.000000;0.847726
9774.000000;0.847764
9773.000000;0.847876
9772.000000;0.847932
9771.000000;0.847749
9770.000000;0.847370
9769.000000;0.847082
9768.000000;0.847135
9767.000000;0.847497
9766.000000;0.847878
9765.000000;0.847979
9764.000000;0.847716
9763.000000;0.847266
9762.000000;0.846917
9761.000000;0.846845
9760.000000;0.846987
9759.000000;0.847113
9758.000000;0.847048
9757.000000;0.846854
9756.000000;0.846754
9755.000000;0.846882
9754.000000;0.847128
9753.000000;0.847297
9752.000000;0.847356
9751.000000;0.847441
9750.000000;0.847590
9749.000000;0.847615
9748.000000;0.847318
9747.000000;0.846738
9746.000000;0.846082
9745.000000;0.845463
9744.000000;0.844878
9743.000000;0.844417
9742.000000;0.844308
9741.000000;0.844617
9740.000000;0.845049
9739.000000;0.845218
9738.000000;0.845091
9737.000000;0.844984
9736.000000;0.845112
9735.000000;0.845305
9734.000000;0.845265
9733.000000;0.844981
9732.000000;0.844710
9731.000000;0.844630
9730.000000;0.844677
9729.000000;0.844761
9728.000000;0.844942
9727.000000;0.845270
9726.000000;0.845587
9725.000000;0.845652
9724.000000;0.845420
9723.000000;0.845061
9722.000000;0.844715
9721.000000;0.844387
9720.000000;0.844091
9719.000000;0.843935
9718.000000;0.843970
9717.000000;0.844064
9716.000000;0.844042
9715.000000;0.843872
9714.000000;0.843624
9713.000000;0.843310
9712.000000;0.842887
9711.000000;0.842449
9710.000000;0.842281
9709.000000;0.842605
9708.000000;0.843306
9707.000000;0.843977
9706.000000;0.844279
9705.000000;0.844227
9704.000000;0.844086
9703.000000;0.843997
9702.000000;0.843821
9701.000000;0.843400
9700.000000;0.842870
9699.000000;0.842558
9698.000000;0.842603
9697.000000;0.842809
9696.000000;0.842910
9695.000000;0.842844
9694.000000;0.842704
9693.000000;0.842551
9692.000000;0.842395
9691.000000;0.842280
9690.000000;0.842260
9689.000000;0.842309
9688.000000;0.842342
9687.000000;0.842290
9686.000000;0.842104
9685.000000;0.841730
9684.000000;0.841210
9683.000000;0.840755
9682.000000;0.840607
9681.000000;0.840788
9680.000000;0.841077
9679.000000;0.841243
9678.000000;0.841242
9677.000000;0.841194
9676.000000;0.841221
9675.000000;0.841316
9674.000000;0.841336
9673.000000;0.841138
9672.000000;0.840732
9671.000000;0.840265
9670.000000;0.839814
9669.000000;0.839310
9668.000000;0.838769
9667.000000;0.838448
9666.000000;0.838610
9665.000000;0.839156
9664.000000;0.839700
9663.000000;0.840004
9662.000000;0.840138
9661.000000;0.840202
9660.000000;0.840106
9659.000000;0.839793
9658.000000;0.839469
9657.000000;0.839422
9656.000000;0.839684
9655.000000;0.840015
9654.000000;0.840175
9653.000000;0.840109
9652.000000;0.839896
9651.000000;0.839664
9650.000000;0.839513
9649.000000;0.839416
9648.000000;0.839216
9647.000000;0.838832
9646.000000;0.838450
9645.000000;0.838375
9644.000000;0.838650
9643.000000;0.838915
9642.000000;0.838735
9641.000000;0.838034
9640.000000;0.837171
9639.000000;0.836601
9638.000000;0.836492
9637.000000;0.836683
9636.000000;0.836968
9635.000000;0.837340
9634.000000;0.837868
9633.000000;0.838414
9632.000000;0.838660
9631.000000;0.838494
9630.000000;0.838232
9629.000000;0.838260
9628.000000;0.838540
9627.000000;0.838616
9626.000000;0.838142
9625.000000;0.837279
9624.000000;0.836530
9623.000000;0.836289
9622.000000;0.836561
9621.000000;0.837000
9620.000000;0.837164
9619.000000;0.836843
9618.000000;0.836214
9617.000000;0.835652
9616.000000;0.835393
9615.000000;0.835397
9614.000000;0.835509
9613.000000;0.835639
9612.000000;0.835772
9611.000000;0.835928
9610.000000;0.836173
9609.000000;0.836540
9608.000000;0.836868
9607.000000;0.836841
9606.000000;0.836335
9605.000000;0.835636
9604.000000;0.835180
9603.000000;0.835105
9602.000000;0.835194
9601.000000;0.835236
9600.000000;0.835259
9599.000000;0.835375
9598.000000;0.835540
9597.000000;0.835592
9596.000000;0.835459
9595.000000;0.835244
9594.000000;0.835127
9593.000000;0.835220
9592.000000;0.835467
9591.000000;0.835648
9590.000000;0.835537
9589.000000;0.835128
9588.000000;0.834674
9587.000000;0.834449
9586.000000;0.834511
9585.000000;0.834722
9584.000000;0.834949
9583.000000;0.835132
9582.000000;0.835180
9581.000000;0.834976
9580.000000;0.834530
9579.000000;0.834025
9578.000000;0.833639
9577.000000;0.833394
9576.000000;0.833260
9575.000000;0.833307
9574.000000;0.833599
9573.000000;0.833982
9572.000000;0.834127
9571.000000;0.833867
9570.000000;0.833389
9569.000000;0.833060
9568.000000;0.833105
9567.000000;0.833464
9566.000000;0.833881
9565.000000;0.834110
9564.000000;0.834098
9563.000000;0.834025
9562.000000;0.834091
9561.000000;0.834228
9560.000000;0.834139
9559.000000;0.833674
9558.000000;0.833068
9557.000000;0.832715
9556.000000;0.832768
9555.000000;0.833098
9554.000000;0.833523
9553.000000;0.833892
9552.000000;0.833987
9551.000000;0.833602
9550.000000;0.832825
9549.000000;0.832094
9548.000000;0.831826
9547.000000;0.832042
9546.000000;0.832416
9545.000000;0.832608
9544.000000;0.832521
9543.000000;0.832307
9542.000000;0.832206
9541.000000;0.832320
9540.000000;0.832447
9539.000000;0.832240
9538.000000;0.831634
9537.000000;0.831043
9536.000000;0.830983
9535.000000;0.831507
9534.000000;0.832106
9533.000000;0.832195
9532.000000;0.831632
9531.000000;0.830780
9530.000000;0.830158
9529.000000;0.830054
9528.000000;0.830353
9527.000000;0.830698
9526.000000;0.830852
9525.000000;0.830901
9524.000000;0.831062
9523.000000;0.831331
9522.000000;0.831469
9521.000000;0.831348
9520.000000;0.831129
9519.000000;0.831018
9518.000000;0.830973
9517.000000;0.830823
9516.000000;0.830584
9515.000000;0.830466
9514.000000;0.830555
9513.000000;0.830696
9512.000000;0.830723
9511.000000;0.830629
9510.000000;0.830432
9509.000000;0.830052
9508.000000;0.829512
9507.000000;0.829136
9506.000000;0.829280
9505.000000;0.829838
9504.000000;0.830249
9503.000000;0.830100
9502.000000;0.829573
9501.000000;0.829165
9500.000000;0.829097
9499.000000;0.829174
9498.000000;0.829138
9497.000000;0.828954
9496.000000;0.828729
9495.000000;0.828542
9494.000000;0.828397
9493.000000;0.828225
9492.000000;0.827907
9491.000000;0.827432
9490.000000;0.827049
9489.000000;0.827094
9488.000000;0.827565
9487.000000;0.828032
9486.000000;0.828090
9485.000000;0.827798
9484.000000;0.827513
9483.000000;0.827394
9482.000000;0.827290
9481.000000;0.827056
9480.000000;0.826778
9479.000000;0.826638
9478.000000;0.826706
9477.000000;0.826928
9476.000000;0.827197
9475.000000;0.827381
9474.000000;0.827380
9473.000000;0.827221
9472.000000;0.827037
9471.000000;0.826902
9470.000000;0.826784
9469.000000;0.826674
9468.000000;0.826656
9467.000000;0.826742
9466.000000;0.826736
9465.000000;0.826440
9464.000000;0.825962
9463.000000;0.825687
9462.000000;0.825880
9461.000000;0.826382
9460.000000;0.826775
9459.000000;0.826800
9458.000000;0.826551
9457.000000;0.826262
9456.000000;0.826020
9455.000000;0.825767
9454.000000;0.825517
9453.000000;0.825429
9452.000000;0.825597
9451.000000;0.825872
9450.000000;0.825988
9449.000000;0.825843
9448.000000;0.825559
9447.000000;0.825291
9446.000000;0.825079
9445.000000;0.824889
9444.000000;0.824701
9443.000000;0.824527
9442.000000;0.824413
9441.000000;0.824445
9440.000000;0.824665
9439.000000;0.824964
9438.000000;0.825132
9437.000000;0.825073
9436.000000;0.824899
9435.000000;0.824750
9434.000000;0.824612
9433.000000;0.824385
9432.000000;0.824070
9431.000000;0.823807
9430.000000;0.823736
9429.000000;0.823884
9428.000000;0.824157
9427.000000;0.824392
9426.000000;0.824456
9425.000000;0.824335
9424.000000;0.824125
9423.000000;0.823903
9422.000000;0.823654
9421.000000;0.823378
9420.000000;0.823177
9419.000000;0.823132
9418.000000;0.823141
9417.000000;0.822981
9416.000000;0.822557
9415.000000;0.822008
9414.000000;0.821574
9413.000000;0.821445
9412.000000;0.821703
9411.000000;0.822262
9410.000000;0.822799
9409.000000;0.822891
9408.000000;0.822404
9407.000000;0.821702
9406.000000;0.821348
9405.000000;0.821567
9404.000000;0.822080
9403.000000;0.822473
9402.000000;0.822611
9401.000000;0.822642
9400.000000;0.822706
9399.000000;0.822799
9398.000000;0.822881
9397.000000;0.822963
9396.000000;0.823029
9395.000000;0.822976
9394.000000;0.822729
9393.000000;0.822352
9392.000000;0.821966
9391.000000;0.821585
9390.000000;0.821133
9389.000000;0.820636
9388.000000;0.820267
9387.000000;0.820145
9386.000000;0.820159
9385.000000;0.820093
9384.000000;0.819917
9383.000000;0.819848
9382.000000;0.820067
9381.000000;0.820428
9380.000000;0.820579
9379.000000;0.820390
9378.000000;0.820164
9377.000000;0.820301
9376.000000;0.820795
9375.000000;0.821212
9374.000000;0.821197
9373.000000;0.820863
9372.000000;0.820579
9371.000000;0.820501
9370.000000;0.820467
9369.000000;0.820308
9368.000000;0.820082
9367.000000;0.819939
9366.000000;0.819928
9365.000000;0.819990
9364.000000;0.820076
9363.000000;0.820173
9362.000000;0.820262
9361.000000;0.820314
9360.000000;0.820303
9359.000000;0.820190
9358.000000;0.819947
9357.000000;0.819633
9356.000000;0.819424
9355.000000;0.819472
9354.000000;0.819739
9353.000000;0.819967
9352.000000;0.819885
9351.000000;0.819457
9350.000000;0.818949
9349.000000;0.818693
9348.000000;0.818761
9347.000000;0.818933
9346.000000;0.819009
9345.000000;0.819080
9344.000000;0.819358
9343.000000;0.819786
9342.000000;0.819993
9341.000000;0.819680
9340.000000;0.818950
9339.000000;0.818213
9338.000000;0.817848
9337.000000;0.817975
9336.000000;0.818407
9335.000000;0.818763
9334.000000;0.818748
9333.000000;0.818407
9332.000000;0.818055
9331.000000;0.817910
9330.000000;0.817905
9329.000000;0.817876
9328.000000;0.817801
9327.000000;0.817728
9326.000000;0.817629
9325.000000;0.817473
9324.000000;0.817359
9323.000000;0.817397
9322.000000;0.817512
9321.000000;0.817523
9320.000000;0.817409
9319.000000;0.817339
9318.000000;0.817427
9317.000000;0.817567
9316.000000;0.817570
9315.000000;0.817361
9314.000000;0.817026
9313.000000;0.816727
9312.000000;0.816582
9311.000000;0.816563
9310.000000;0.816525
9309.000000;0.816405
9308.000000;0.816360
9307.000000;0.816608
9306.000000;0.817119
9305.000000;0.817554
9304.000000;0.817556
9303.000000;0.817072
9302.000000;0.816389
9301.000000;0.815909
9300.000000;0.815858
9299.000000;0.816100
9298.000000;0.816237
9297.000000;0.815959
9296.000000;0.815347
9295.000000;0.814777
9294.000000;0.814535
9293.000000;0.814589
9292.000000;0.814718
9291.000000;0.814759
9290.000000;0.814703
9289.000000;0.814642
9288.000000;0.814709
9287.000000;0.814976
9286.000000;0.815352
9285.000000;0.815588
9284.000000;0.815439
9283.000000;0.814854
9282.000000;0.814048
9281.000000;0.813404
9280.000000;0.813244
9279.000000;0.813570
9278.000000;0.814030
9277.000000;0.814226
9276.000000;0.814090
9275.000000;0.813903
9274.000000;0.813934
9273.000000;0.814167
9272.000000;0.814373
9271.000000;0.814362
9270.000000;0.814112
9269.000000;0.813755
9268.000000;0.813495
9267.000000;0.813476
9266.000000;0.813630
9265.000000;0.813707
9264.000000;0.813525
9263.000000;0.813171
9262.000000;0.812910
9261.000000;0.812933
9260.000000;0.813209
9259.000000;0.813555
9258.000000;0.813802
9257.000000;0.813898
9256.000000;0.813897
9255.000000;0.813857
9254.000000;0.813767
9253.000000;0.813601
9252.000000;0.813399
9251.000000;0.813231
9250.000000;0.813073
9249.000000;0.812849
9248.000000;0.812576
9247.000000;0.812363
9246.000000;0.812225
9245.000000;0.812047
9244.000000;0.811809
9243.000000;0.811715
9242.000000;0.811945
9241.000000;0.812354
9240.000000;0.812575
9239.000000;0.812436
9238.000000;0.812122
9237.000000;0.811905
9236.000000;0.811862
9235.000000;0.811897
9234.000000;0.811929
9233.000000;0.811959
9232.000000;0.812011
9231.000000;0.812104
9230.000000;0.812260
9229.000000;0.812453
9228.000000;0.812558
9227.000000;0.812432
9226.000000;0.812067
9225.000000;0.811614
9224.000000;0.811235
9223.000000;0.810972
9222.000000;0.810786
9221.000000;0.810676
9220.000000;0.810673
9219.000000;0.810719
9218.000000;0.810691
9217.000000;0.810573
9216.000000;0.810543
9215.000000;0.810780
9214.000000;0.811209
9213.000000;0.811542
9212.000000;0.811572
9211.000000;0.811341
9210.000000;0.811021
9209.000000;0.810713
9208.000000;0.810432
9207.000000;0.810184
9206.000000;0.809974
9205.000000;0.809773
9204.000000;0.809564
9203.000000;0.809398
9202.000000;0.809355
9201.000000;0.809448
9200.000000;0.809644
9199.000000;0.809938
9198.000000;0.810331
9197.000000;0.810712
9196.000000;0.810860
9195.000000;0.810640
9194.000000;0.810159
9193.000000;0.809635
9192.000000;0.809166
9191.000000;0.808698
9190.000000;0.808257
9189.000000;0.808064
9188.000000;0.808300
9187.000000;0.808816
9186.000000;0.809224
9185.000000;0.809305
9184.000000;0.809204
9183.000000;0.809146
9182.000000;0.809114
9181.000000;0.808942
9180.000000;0.808628
9179.000000;0.808362
9178.000000;0.808261
9177.000000;0.808268
9176.000000;0.808343
9175.000000;0.808564
9174.000000;0.808935
9173.000000;0.809235
9172.000000;0.809205
9171.000000;0.808825
9170.000000;0.808282
9169.000000;0.807765
9168.000000;0.807396
9167.000000;0.807294
9166.000000;0.807509
9165.000000;0.807888
9164.000000;0.808133
9163.000000;0.808053
9162.000000;0.807689
9161.000000;0.807202
9160.000000;0.806732
9159.000000;0.806400
9158.000000;0.806300
9157.000000;0.806419
9156.000000;0.806621
9155.000000;0.806768
9154.000000;0.806824
9153.000000;0.806791
9152.000000;0.806622
9151.000000;0.806286
9150.000000;0.805894
9149.000000;0.805653
9148.000000;0.805681
9147.000000;0.805896
9146.000000;0.806125
9145.000000;0.806283
9144.000000;0.806419
9143.000000;0.806611
9142.000000;0.806824
9141.000000;0.806903
9140.000000;0.806715
9139.000000;0.806291
9138.000000;0.805822
9137.000000;0.805503
9136.000000;0.805416
9135.000000;0.805537
9134.000000;0.805799
9133.000000;0.806118
9132.000000;0.806376
9131.000000;0.806469
9130.000000;0.806376
9129.000000;0.806158
9128.000000;0.805893
9127.000000;0.805632
9126.000000;0.805405
9125.000000;0.805230
9124.000000;0.805066
9123.000000;0.804827
9122.000000;0.804520
9121.000000;0.804328
9120.000000;0.804473
9119.000000;0.804937
9118.000000;0.805394
9117.000000;0.805484
9116.000000;0.805171
9115.000000;0.804747
9114.000000;0.804491
9113.000000;0.804397
9112.000000;0.804260
9111.000000;0.803963
9110.000000;0.803611
9109.000000;0.803416
9108.000000;0.803508
9107.000000;0.803834
9106.000000;0.804186
9105.000000;0.804303
9104.000000;0.804047
9103.000000;0.803521
9102.000000;0.802997
9101.000000;0.802697
9100.000000;0.802655
9099.000000;0.802778
9098.000000;0.802954
9097.000000;0.803066
9096.000000;0.802995
9095.000000;0.802716
9094.000000;0.802400
9093.000000;0.802294
9092.000000;0.802447
9091.000000;0.802639
9090.000000;0.802647
9089.000000;0.802519
9088.000000;0.802506
9087.000000;0.802743
9086.000000;0.803096
9085.000000;0.803312
9084.000000;0.803239
9083.000000;0.802910
9082.000000;0.802501
9081.000000;0.802246
9080.000000;0.802286
9079.000000;0.802511
9078.000000;0.802600
9077.000000;0.802330
9076.000000;0.801819
9075.000000;0.801413
9074.000000;0.801330
9073.000000;0.801491
9072.000000;0.801662
9071.000000;0.801691
9070.000000;0.801580
9069.000000;0.801427
9068.000000;0.801353
9067.000000;0.801431
9066.000000;0.801607
9065.000000;0.801706
9064.000000;0.801579
9063.000000;0.801241
9062.000000;0.800858
9061.000000;0.800610
9060.000000;0.800595
9059.000000;0.800802
9058.000000;0.801125
9057.000000;0.801393
9056.000000;0.801462
9055.000000;0.801332
9054.000000;0.801156
9053.000000;0.801093
