Criado como novo conjunto de dados;"2706_e01_daniel.spp","94146.7 Secs"
cm-1;Abs
10000.000000;0.859063
9999.000000;0.858260
9998.000000;0.857853
9997.000000;0.858057
9996.000000;0.858546
9995.000000;0.858828
9994.000000;0.858696
9993.000000;0.858440
9992.000000;0.858528
9991.000000;0.859091
9990.000000;0.859711
9989.000000;0.859716
9988.000000;0.858712
9987.000000;0.856900
9986.000000;0.854989
9985.000000;0.853744
9984.000000;0.853481
9983.000000;0.853915
9982.000000;0.854516
9981.000000;0.854992
9980.000000;0.855369
9979.000000;0.855685
9978.000000;0.855851
9977.000000;0.855849
9976.000000;0.855845
9975.000000;0.856003
9974.000000;0.856220
9973.000000;0.856164
9972.000000;0.855603
9971.000000;0.854717
9970.000000;0.854120
9969.000000;0.854438
9968.000000;0.855678
9967.000000;0.857038
9966.000000;0.857558
9965.000000;0.857007
9964.000000;0.855977
9963.000000;0.855158
9962.000000;0.854819
9961.000000;0.854968
9960.000000;0.855551
9959.000000;0.856273
9958.000000;0.856582
9957.000000;0.856205
9956.000000;0.855543
9955.000000;0.855226
9954.000000;0.855399
9953.000000;0.855725
9952.000000;0.855928
9951.000000;0.856013
9950.000000;0.856036
9949.000000;0.855960
9948.000000;0.855752
9947.000000;0.855367
9946.000000;0.854650
9945.000000;0.853527
9944.000000;0.852279
9943.000000;0.851402
9942.000000;0.851171
9941.000000;0.851544
9940.000000;0.852393
9939.000000;0.853537
9938.000000;0.854563
9937.000000;0.854952
9936.000000;0.854543
9935.000000;0.853668
9934.000000;0.852761
9933.000000;0.852017
9932.000000;0.851437
9931.000000;0.850964
9930.000000;0.850512
9929.000000;0.850105
9928.000000;0.850062
9927.000000;0.850742
9926.000000;0.851968
9925.000000;0.852973
9924.000000;0.853120
9923.000000;0.852486
9922.000000;0.851579
9921.000000;0.850715
9920.000000;0.849961
9919.000000;0.849455
9918.000000;0.849415
9917.000000;0.849812
9916.000000;0.850308
9915.000000;0.850575
9914.000000;0.850538
9913.000000;0.850329
9912.000000;0.850158
9911.000000;0.850233
9910.000000;0.850636
9909.000000;0.851223
9908.000000;0.851673
9907.000000;0.851662
9906.000000;0.851036
9905.000000;0.849983
9904.000000;0.849071
9903.000000;0.848930
9902.000000;0.849644
9901.000000;0.850560
9900.000000;0.850891
9899.000000;0.850516
9898.000000;0.850015
9897.000000;0.849937
9896.000000;0.850253
9895.000000;0.850566
9894.000000;0.850621
9893.000000;0.850467
9892.000000;0.850225
9891.000000;0.849870
9890.000000;0.849286
9889.000000;0.848504
9888.000000;0.847817
9887.000000;0.847578
9886.000000;0.847826
9885.000000;0.848172
9884.000000;0.848155
9883.000000;0.847731
9882.000000;0.847333
9881.000000;0.847419
9880.000000;0.848012
9879.000000;0.848692
9878.000000;0.849015
9877.000000;0.848932
9876.000000;0.848779
9875.000000;0.848817
9874.000000;0.848852
9873.000000;0.848436
9872.000000;0.847481
9871.000000;0.846480
9870.000000;0.845998
9869.000000;0.846098
9868.000000;0.846429
9867.000000;0.846724
9866.000000;0.846957
9865.000000;0.847077
9864.000000;0.846928
9863.000000;0.846518
9862.000000;0.846112
9861.000000;0.845931
9860.000000;0.845908
9859.000000;0.845889
9858.000000;0.845917
9857.000000;0.846137
9856.000000;0.846521
9855.000000;0.846831
9854.000000;0.846855
9853.000000;0.846556
9852.000000;0.846003
9851.000000;0.845282
9850.000000;0.844487
9849.000000;0.843774
9848.000000;0.843378
9847.000000;0.843490
9846.000000;0.844030
9845.000000;0.844596
9844.000000;0.844782
9843.000000;0.844600
9842.000000;0.844429
9841.000000;0.844528
9840.000000;0.844787
9839.000000;0.845021
9838.000000;0.845231
9837.000000;0.845398
9836.000000;0.845250
9835.000000;0.844572
9834.000000;0.843670
9833.000000;0.843164
9832.000000;0.843291
9831.000000;0.843686
9830.000000;0.843899
9829.000000;0.843854
9828.000000;0.843673
9827.000000;0.843319
9826.000000;0.842713
9825.000000;0.842050
9824.000000;0.841715
9823.000000;0.841858
9822.000000;0.842270
9821.000000;0.842674
9820.000000;0.842971
9819.000000;0.843140
9818.000000;0.843102
9817.000000;0.842861
9816.000000;0.842681
9815.000000;0.842908
9814.000000;0.843524
9813.000000;0.844000
9812.000000;0.843768
9811.000000;0.842852
9810.000000;0.841944
9809.000000;0.841773
9808.000000;0.842431
9807.000000;0.843352
9806.000000;0.843880
9805.000000;0.843786
9804.000000;0.843284
9803.000000;0.842703
9802.000000;0.842235
9801.000000;0.841912
9800.000000;0.841696
9799.000000;0.841565
9798.000000;0.841554
9797.000000;0.841700
9796.000000;0.841950
9795.000000;0.842159
9794.000000;0.842225
9793.000000;0.842202
9792.000000;0.842199
9791.000000;0.842199
9790.000000;0.842036
9789.000000;0.841606
9788.000000;0.841038
9787.000000;0.840577
9786.000000;0.840316
9785.000000;0.840122
9784.000000;0.839863
9783.000000;0.839617
9782.000000;0.839574
9781.000000;0.839774
9780.000000;0.840056
9779.000000;0.840291
9778.000000;0.840501
9777.000000;0.840687
9776.000000;0.840665
9775.000000;0.840237
9774.000000;0.839473
9773.000000;0.838686
9772.000000;0.838156
9771.000000;0.838017
9770.000000;0.838343
9769.000000;0.839101
9768.000000;0.839982
9767.000000;0.840520
9766.000000;0.840537
9765.000000;0.840338
9764.000000;0.840320
9763.000000;0.840464
9762.000000;0.840398
9761.000000;0.839910
9760.000000;0.839229
9759.000000;0.838797
9758.000000;0.838842
9757.000000;0.839192
9756.000000;0.839432
9755.000000;0.839285
9754.000000;0.838895
9753.000000;0.838700
9752.000000;0.838943
9751.000000;0.839372
9750.000000;0.839524
9749.000000;0.839238
9748.000000;0.838755
9747.000000;0.838339
9746.000000;0.838017
9745.000000;0.837711
9744.000000;0.837448
9743.000000;0.837336
9742.000000;0.837429
9741.000000;0.837703
9740.000000;0.838077
9739.000000;0.838372
9738.000000;0.838307
9737.000000;0.837697
9736.000000;0.836678
9735.000000;0.835709
9734.000000;0.835282
9733.000000;0.835562
9732.000000;0.836241
9731.000000;0.836742
9730.000000;0.836677
9729.000000;0.836153
9728.000000;0.835600
9727.000000;0.835311
9726.000000;0.835214
9725.000000;0.835093
9724.000000;0.834884
9723.000000;0.834707
9722.000000;0.834681
9721.000000;0.834837
9720.000000;0.835176
9719.000000;0.835691
9718.000000;0.836298
9717.000000;0.836812
9716.000000;0.837062
9715.000000;0.837004
9714.000000;0.836721
9713.000000;0.836315
9712.000000;0.835838
9711.000000;0.835350
9710.000000;0.834991
9709.000000;0.834909
9708.000000;0.835074
9707.000000;0.835237
9706.000000;0.835148
9705.000000;0.834817
9704.000000;0.834505
9703.000000;0.834453
9702.000000;0.834679
9701.000000;0.835015
9700.000000;0.835253
9699.000000;0.835248
9698.000000;0.834992
9697.000000;0.834628
9696.000000;0.834342
9695.000000;0.834164
9694.000000;0.833931
9693.000000;0.833501
9692.000000;0.833004
9691.000000;0.832795
9690.000000;0.833116
9689.000000;0.833795
9688.000000;0.834332
9687.000000;0.834343
9686.000000;0.833976
9685.000000;0.833792
9684.000000;0.834194
9683.000000;0.834977
9682.000000;0.835514
9681.000000;0.835345
9680.000000;0.834513
9679.000000;0.833385
9678.000000;0.832324
9677.000000;0.831589
9676.000000;0.831332
9675.000000;0.831510
9674.000000;0.831848
9673.000000;0.832026
9672.000000;0.831938
9671.000000;0.831719
9670.000000;0.831566
9669.000000;0.831573
9668.000000;0.831715
9667.000000;0.831863
9666.000000;0.831849
9665.000000;0.831587
9664.000000;0.831192
9663.000000;0.830928
9662.000000;0.831003
9661.000000;0.831389
9660.000000;0.831828
9659.000000;0.832037
9658.000000;0.831950
9657.000000;0.831783
9656.000000;0.831811
9655.000000;0.832074
9654.000000;0.832357
9653.000000;0.832436
9652.000000;0.832253
9651.000000;0.831825
9650.000000;0.831155
9649.000000;0.830375
9648.000000;0.829831
9647.000000;0.829833
9646.000000;0.830299
9645.000000;0.830785
9644.000000;0.830911
9643.000000;0.830650
9642.000000;0.830237
9641.000000;0.829917
9640.000000;0.829827
9639.000000;0.829942
9638.000000;0.830082
9637.000000;0.830062
9636.000000;0.829892
9635.000000;0.829766
9634.000000;0.829803
9633.000000;0.829932
9632.000000;0.830074
9631.000000;0.830262
9630.000000;0.830463
9629.000000;0.830427
9628.000000;0.829963
9627.000000;0.829297
9626.000000;0.828908
9625.000000;0.828987
9624.000000;0.829250
9623.000000;0.829349
9622.000000;0.829276
9621.000000;0.829224
9620.000000;0.829224
9619.000000;0.829144
9618.000000;0.828961
9617.000000;0.828808
9616.000000;0.828752
9615.000000;0.828676
9614.000000;0.828483
9613.000000;0.828262
9612.000000;0.828163
9611.000000;0.828173
9610.000000;0.828125
9609.000000;0.827900
9608.000000;0.827577
9607.000000;0.827362
9606.000000;0.827405
9605.000000;0.827668
9604.000000;0.827948
9603.000000;0.828052
9602.000000;0.827959
9601.000000;0.827785
9600.000000;0.827623
9599.000000;0.827481
9598.000000;0.827414
9597.000000;0.827579
9596.000000;0.828037
9595.000000;0.828552
9594.000000;0.828726
9593.000000;0.828390
9592.000000;0.827777
9591.000000;0.827263
9590.000000;0.827031
9589.000000;0.827026
9588.000000;0.827142
9587.000000;0.827325
9586.000000;0.827512
9585.000000;0.827573
9584.000000;0.827411
9583.000000;0.827109
9582.000000;0.826908
9581.000000;0.827016
9580.000000;0.827402
9579.000000;0.827761
9578.000000;0.827746
9577.000000;0.827283
9576.000000;0.826693
9575.000000;0.826426
9574.000000;0.826645
9573.000000;0.827070
9572.000000;0.827239
9571.000000;0.826901
9570.000000;0.826152
9569.000000;0.825298
9568.000000;0.824671
9567.000000;0.824509
9566.000000;0.824785
9565.000000;0.825120
9564.000000;0.825043
9563.000000;0.824504
9562.000000;0.823991
9561.000000;0.823954
9560.000000;0.824222
9559.000000;0.824241
9558.000000;0.823874
9557.000000;0.823646
9556.000000;0.824075
9555.000000;0.825003
9554.000000;0.825806
9553.000000;0.826108
9552.000000;0.826049
9551.000000;0.825901
9550.000000;0.825729
9549.000000;0.825467
9548.000000;0.825147
9547.000000;0.824895
9546.000000;0.824779
9545.000000;0.824747
9544.000000;0.824689
9543.000000;0.824540
9542.000000;0.824347
9541.000000;0.824244
9540.000000;0.824302
9539.000000;0.824430
9538.000000;0.824469
9537.000000;0.824371
9536.000000;0.824192
9535.000000;0.823912
9534.000000;0.823398
9533.000000;0.822626
9532.000000;0.821868
9531.000000;0.821532
9530.000000;0.821798
9529.000000;0.822425
9528.000000;0.822948
9527.000000;0.823058
9526.000000;0.822794
9525.000000;0.822397
9524.000000;0.822049
9523.000000;0.821824
9522.000000;0.821806
9521.000000;0.822078
9520.000000;0.822533
9519.000000;0.822843
9518.000000;0.822750
9517.000000;0.822344
9516.000000;0.821936
9515.000000;0.821730
9514.000000;0.821704
9513.000000;0.821755
9512.000000;0.821822
9511.000000;0.821873
9510.000000;0.821903
9509.000000;0.821942
9508.000000;0.821966
9507.000000;0.821858
9506.000000;0.821579
9505.000000;0.821354
9504.000000;0.821480
9503.000000;0.821931
9502.000000;0.822319
9501.000000;0.822311
9500.000000;0.821959
9499.000000;0.821535
9498.000000;0.821199
9497.000000;0.820938
9496.000000;0.820724
9495.000000;0.820564
9494.000000;0.820430
9493.000000;0.820255
9492.000000;0.820009
9491.000000;0.819761
9490.000000;0.819657
9489.000000;0.819805
9488.000000;0.820098
9487.000000;0.820196
9486.000000;0.819852
9485.000000;0.819254
9484.000000;0.818887
9483.000000;0.818962
9482.000000;0.819176
9481.000000;0.819126
9480.000000;0.818809
9479.000000;0.818536
9478.000000;0.818472
9477.000000;0.818524
9476.000000;0.818612
9475.000000;0.818784
9474.000000;0.819032
9473.000000;0.819176
9472.000000;0.819086
9471.000000;0.818875
9470.000000;0.818765
9469.000000;0.818830
9468.000000;0.818954
9467.000000;0.819001
9466.000000;0.818921
9465.000000;0.818711
9464.000000;0.818368
9463.000000;0.817935
9462.000000;0.817546
9461.000000;0.817364
9460.000000;0.817470
9459.000000;0.817811
9458.000000;0.818238
9457.000000;0.818582
9456.000000;0.818706
9455.000000;0.818571
9454.000000;0.818292
9453.000000;0.818083
9452.000000;0.818084
9451.000000;0.818241
9450.000000;0.818375
9449.000000;0.818353
9448.000000;0.818134
9447.000000;0.817746
9446.000000;0.817298
9445.000000;0.816967
9444.000000;0.816852
9443.000000;0.816839
9442.000000;0.816729
9441.000000;0.816497
9440.000000;0.816320
9439.000000;0.816324
9438.000000;0.816418
9437.000000;0.816416
9436.000000;0.816216
9435.000000;0.815836
9434.000000;0.815396
9433.000000;0.815099
9432.000000;0.815109
9431.000000;0.815389
9430.000000;0.815757
9429.000000;0.816111
9428.000000;0.816453
9427.000000;0.816690
9426.000000;0.816618
9425.000000;0.816240
9424.000000;0.815872
9423.000000;0.815757
9422.000000;0.815746
9421.000000;0.815557
9420.000000;0.815218
9419.000000;0.814995
9418.000000;0.814950
9417.000000;0.814866
9416.000000;0.814601
9415.000000;0.814267
9414.000000;0.814020
9413.000000;0.813883
9412.000000;0.813857
9411.000000;0.813974
9410.000000;0.814155
9409.000000;0.814196
9408.000000;0.814028
9407.000000;0.813852
9406.000000;0.813859
9405.000000;0.813957
9404.000000;0.813934
9403.000000;0.813825
9402.000000;0.813909
9401.000000;0.814308
9400.000000;0.814762
9399.000000;0.814893
9398.000000;0.814623
9397.000000;0.814265
9396.000000;0.814186
9395.000000;0.814477
9394.000000;0.814914
9393.000000;0.815202
9392.000000;0.815188
9391.000000;0.814887
9390.000000;0.814394
9389.000000;0.813829
9388.000000;0.813308
9387.000000;0.812928
9386.000000;0.812765
9385.000000;0.812865
9384.000000;0.813174
9383.000000;0.813437
9382.000000;0.813308
9381.000000;0.812688
9380.000000;0.811931
9379.000000;0.811550
9378.000000;0.811727
9377.000000;0.812184
9376.000000;0.812570
9375.000000;0.812826
9374.000000;0.813110
9373.000000;0.813477
9372.000000;0.813762
9371.000000;0.813769
9370.000000;0.813485
9369.000000;0.813094
9368.000000;0.812829
9367.000000;0.812818
9366.000000;0.813022
9365.000000;0.813250
9364.000000;0.813261
9363.000000;0.812906
9362.000000;0.812251
9361.000000;0.811590
9360.000000;0.811241
9359.000000;0.811272
9358.000000;0.811410
9357.000000;0.811305
9356.000000;0.810895
9355.000000;0.810462
9354.000000;0.810316
9353.000000;0.810496
9352.000000;0.810803
9351.000000;0.811036
9350.000000;0.811129
9349.000000;0.811089
9348.000000;0.810933
9347.000000;0.810724
9346.000000;0.810569
9345.000000;0.810516
9344.000000;0.810475
9343.000000;0.810323
9342.000000;0.810084
9341.000000;0.809890
9340.000000;0.809774
9339.000000;0.809593
9338.000000;0.809250
9337.000000;0.808902
9336.000000;0.808829
9335.000000;0.809135
9334.000000;0.809673
9333.000000;0.810238
9332.000000;0.810686
9331.000000;0.810873
9330.000000;0.810674
9329.000000;0.810156
9328.000000;0.809605
9327.000000;0.809290
9326.000000;0.809246
9325.000000;0.809350
9324.000000;0.809507
9323.000000;0.809653
9322.000000;0.809690
9321.000000;0.809564
9320.000000;0.809370
9319.000000;0.809237
9318.000000;0.809148
9317.000000;0.808970
9316.000000;0.808649
9315.000000;0.808278
9314.000000;0.807997
9313.000000;0.807905
9312.000000;0.808050
9311.000000;0.808371
9310.000000;0.808662
9309.000000;0.808743
9308.000000;0.808666
9307.000000;0.808665
9306.000000;0.808883
9305.000000;0.809239
9304.000000;0.809543
9303.000000;0.809628
9302.000000;0.809375
9301.000000;0.808784
9300.000000;0.808058
9299.000000;0.807489
9298.000000;0.807174
9297.000000;0.806962
9296.000000;0.806745
9295.000000;0.806662
9294.000000;0.806911
9293.000000;0.807439
9292.000000;0.807957
9291.000000;0.808224
9290.000000;0.808194
9289.000000;0.807920
9288.000000;0.807445
9287.000000;0.806863
9286.000000;0.806373
9285.000000;0.806163
9284.000000;0.806247
9283.000000;0.806440
9282.000000;0.806519
9281.000000;0.806409
9280.000000;0.806209
9279.000000;0.806077
9278.000000;0.806104
9277.000000;0.806282
9276.000000;0.806536
9275.000000;0.806774
9274.000000;0.806933
9273.000000;0.807008
9272.000000;0.807002
9271.000000;0.806851
9270.000000;0.806463
9269.000000;0.805889
9268.000000;0.805367
9267.000000;0.805116
9266.000000;0.805113
9265.000000;0.805159
9264.000000;0.805124
9263.000000;0.805022
9262.000000;0.804902
9261.000000;0.804796
9260.000000;0.804761
9259.000000;0.804842
9258.000000;0.804960
9257.000000;0.804986
9256.000000;0.804971
9255.000000;0.805137
9254.000000;0.805552
9253.000000;0.805933
9252.000000;0.805928
9251.000000;0.805514
9250.000000;0.805006
9249.000000;0.804689
9248.000000;0.804570
9247.000000;0.804492
9246.000000;0.804374
9245.000000;0.804287
9244.000000;0.804349
9243.000000;0.804560
9242.000000;0.804751
9241.000000;0.804718
9240.000000;0.804435
9239.000000;0.804081
9238.000000;0.803835
9237.000000;0.803699
9236.000000;0.803585
9235.000000;0.803488
9234.000000;0.803483
9233.000000;0.803551
9232.000000;0.803537
9231.000000;0.803326
9230.000000;0.802981
9229.000000;0.802663
9228.000000;0.802478
9227.000000;0.802452
9226.000000;0.802594
9225.000000;0.802889
9224.000000;0.803233
9223.000000;0.803448
9222.000000;0.803417
9221.000000;0.803187
9220.000000;0.802901
9219.000000;0.802648
9218.000000;0.802414
9217.000000;0.802198
9216.000000;0.802105
9215.000000;0.802273
9214.000000;0.802686
9213.000000;0.803149
9212.000000;0.803445
9211.000000;0.803484
9210.000000;0.803273
9209.000000;0.802834
9208.000000;0.802230
9207.000000;0.801635
9206.000000;0.801284
9205.000000;0.801297
9204.000000;0.801587
9203.000000;0.801967
9202.000000;0.802294
9201.000000;0.802502
9200.000000;0.802545
9199.000000;0.802388
9198.000000;0.802075
9197.000000;0.801728
9196.000000;0.801427
9195.000000;0.801124
9194.000000;0.800712
9193.000000;0.800197
9192.000000;0.799736
9191.000000;0.799496
9190.000000;0.799490
9189.000000;0.799601
9188.000000;0.799731
9187.000000;0.799872
9186.000000;0.800046
9185.000000;0.800228
9184.000000;0.800352
9183.000000;0.800362
9182.000000;0.800245
9181.000000;0.800059
9180.000000;0.799928
9179.000000;0.799968
9178.000000;0.800176
9177.000000;0.800428
9176.000000;0.800601
9175.000000;0.800675
9174.000000;0.800696
9173.000000;0.800684
9172.000000;0.800618
9171.000000;0.800498
9170.000000;0.800341
9169.000000;0.800126
9168.000000;0.799817
9167.000000;0.799468
9166.000000;0.799251
9165.000000;0.799284
9164.000000;0.799455
9163.000000;0.799503
9162.000000;0.799316
9161.000000;0.799067
9160.000000;0.799005
9159.000000;0.799130
9158.000000;0.799208
9157.000000;0.799068
9156.000000;0.798795
9155.000000;0.798568
9154.000000;0.798437
9153.000000;0.798337
9152.000000;0.798249
9151.000000;0.798230
9150.000000;0.798293
9149.000000;0.798366
9148.000000;0.798395
9147.000000;0.798405
9146.000000;0.798423
9145.000000;0.798390
9144.000000;0.798214
9143.000000;0.797906
9142.000000;0.797607
9141.000000;0.797502
9140.000000;0.797676
9139.000000;0.798051
9138.000000;0.798432
9137.000000;0.798645
9136.000000;0.798623
9135.000000;0.798394
9134.000000;0.798027
9133.000000;0.797632
9132.000000;0.797366
9131.000000;0.797360
9130.000000;0.797572
9129.000000;0.797766
9128.000000;0.797703
9127.000000;0.797383
9126.000000;0.797085
9125.000000;0.797110
9124.000000;0.797452
9123.000000;0.797781
9122.000000;0.797809
9121.000000;0.797629
9120.000000;0.797569
9119.000000;0.797726
9118.000000;0.797809
9117.000000;0.797541
9116.000000;0.797073
9115.000000;0.796813
9114.000000;0.796908
9113.000000;0.797060
9112.000000;0.796885
9111.000000;0.796335
9110.000000;0.795701
9109.000000;0.795318
9108.000000;0.795289
9107.000000;0.795446
9106.000000;0.795540
9105.000000;0.795482
9104.000000;0.795387
9103.000000;0.795385
9102.000000;0.795440
9101.000000;0.795455
9100.000000;0.795450
9099.000000;0.795493
9098.000000;0.795517
9097.000000;0.795370
9096.000000;0.795072
9095.000000;0.794826
9094.000000;0.794724
9093.000000;0.794637
9092.000000;0.794488
9091.000000;0.794454
9090.000000;0.794723
9089.000000;0.795155
9088.000000;0.795384
9087.000000;0.795244
9086.000000;0.794936
9085.000000;0.794774
9084.000000;0.794861
9083.000000;0.795056
9082.000000;0.795172
9081.000000;0.795158
9080.000000;0.795096
9079.000000;0.795040
9078.000000;0.794885
9077.000000;0.794491
9076.000000;0.793913
9075.000000;0.793423
9074.000000;0.793234
9073.000000;0.793298
9072.000000;0.793426
9071.000000;0.793502
9070.000000;0.793492
9069.000000;0.793351
9068.000000;0.793082
9067.000000;0.792851
9066.000000;0.792868
9065.000000;0.793130
9064.000000;0.793390
9063.000000;0.793428
9062.000000;0.793259
9061.000000;0.793066
9060.000000;0.793001
9059.000000;0.793090
9058.000000;0.793242
9057.000000;0.793303
9056.000000;0.793151
9055.000000;0.792791
9054.000000;0.792379
9053.000000;0.792116
