Criado como novo conjunto de dados;"2706_e01_daniel.spp","70026.0 Secs"
cm-1;Abs
10000.000000;0.770202
9999.000000;0.770428
9998.000000;0.770654
9997.000000;0.770880
9996.000000;0.771106
9995.000000;0.771334
9994.000000;0.771557
9993.000000;0.771789
9992.000000;0.772006
9991.000000;0.772250
9990.000000;0.772442
9989.000000;0.772823
9988.000000;0.773162
9987.000000;0.772894
9986.000000;0.772183
9985.000000;0.771577
9984.000000;0.771458
9983.000000;0.771641
9982.000000;0.771706
9981.000000;0.771491
9980.000000;0.771236
9979.000000;0.771305
9978.000000;0.771768
9977.000000;0.772235
9976.000000;0.772162
9975.000000;0.771412
9974.000000;0.770460
9973.000000;0.769936
9972.000000;0.770005
9971.000000;0.770294
9970.000000;0.770386
9969.000000;0.770200
9968.000000;0.769885
9967.000000;0.769553
9966.000000;0.769285
9965.000000;0.769240
9964.000000;0.769530
9963.000000;0.769964
9962.000000;0.770118
9961.000000;0.769761
9960.000000;0.769118
9959.000000;0.768601
9958.000000;0.768354
9957.000000;0.768192
9956.000000;0.767950
9955.000000;0.767725
9954.000000;0.767723
9953.000000;0.767956
9952.000000;0.768217
9951.000000;0.768313
9950.000000;0.768188
9949.000000;0.767825
9948.000000;0.767208
9947.000000;0.766475
9946.000000;0.765985
9945.000000;0.766026
9944.000000;0.766449
9943.000000;0.766751
9942.000000;0.766604
9941.000000;0.766188
9940.000000;0.765934
9939.000000;0.766070
9938.000000;0.766481
9937.000000;0.766912
9936.000000;0.767135
9935.000000;0.766990
9934.000000;0.766465
9933.000000;0.765778
9932.000000;0.765280
9931.000000;0.765203
9930.000000;0.765523
9929.000000;0.766026
9928.000000;0.766443
9927.000000;0.766594
9926.000000;0.766527
9925.000000;0.766488
9924.000000;0.766617
9923.000000;0.766695
9922.000000;0.766349
9921.000000;0.765566
9920.000000;0.764773
9919.000000;0.764362
9918.000000;0.764301
9917.000000;0.764314
9916.000000;0.764256
9915.000000;0.764155
9914.000000;0.764040
9913.000000;0.763953
9912.000000;0.764034
9911.000000;0.764394
9910.000000;0.764896
9909.000000;0.765236
9908.000000;0.765216
9907.000000;0.764859
9906.000000;0.764318
9905.000000;0.763838
9904.000000;0.763675
9903.000000;0.763820
9902.000000;0.763857
9901.000000;0.763351
9900.000000;0.762431
9899.000000;0.761728
9898.000000;0.761709
9897.000000;0.762254
9896.000000;0.762947
9895.000000;0.763513
9894.000000;0.763837
9893.000000;0.763824
9892.000000;0.763476
9891.000000;0.763000
9890.000000;0.762622
9889.000000;0.762388
9888.000000;0.762283
9887.000000;0.762404
9886.000000;0.762777
9885.000000;0.763118
9884.000000;0.763037
9883.000000;0.762506
9882.000000;0.761877
9881.000000;0.761378
9880.000000;0.760860
9879.000000;0.760129
9878.000000;0.759322
9877.000000;0.758783
9876.000000;0.758698
9875.000000;0.759011
9874.000000;0.759600
9873.000000;0.760348
9872.000000;0.761063
9871.000000;0.761485
9870.000000;0.761436
9869.000000;0.760931
9868.000000;0.760154
9867.000000;0.759406
9866.000000;0.758990
9865.000000;0.758994
9864.000000;0.759177
9863.000000;0.759218
9862.000000;0.759092
9861.000000;0.759097
9860.000000;0.759448
9859.000000;0.759981
9858.000000;0.760342
9857.000000;0.760329
9856.000000;0.759934
9855.000000;0.759186
9854.000000;0.758169
9853.000000;0.757190
9852.000000;0.756684
9851.000000;0.756860
9850.000000;0.757513
9849.000000;0.758234
9848.000000;0.758743
9847.000000;0.758997
9846.000000;0.759066
9845.000000;0.758987
9844.000000;0.758691
9843.000000;0.758067
9842.000000;0.757123
9841.000000;0.756100
9840.000000;0.755338
9839.000000;0.755029
9838.000000;0.755158
9837.000000;0.755637
9836.000000;0.756348
9835.000000;0.757054
9834.000000;0.757467
9833.000000;0.757524
9832.000000;0.757428
9831.000000;0.757324
9830.000000;0.757091
9829.000000;0.756595
9828.000000;0.756015
9827.000000;0.755692
9826.000000;0.755721
9825.000000;0.755893
9824.000000;0.755972
9823.000000;0.755851
9822.000000;0.755501
9821.000000;0.754984
9820.000000;0.754525
9819.000000;0.754346
9818.000000;0.754413
9817.000000;0.754482
9816.000000;0.754393
9815.000000;0.754170
9814.000000;0.753843
9813.000000;0.753413
9812.000000;0.753063
9811.000000;0.753138
9810.000000;0.753749
9809.000000;0.754540
9808.000000;0.755016
9807.000000;0.755008
9806.000000;0.754692
9805.000000;0.754254
9804.000000;0.753726
9803.000000;0.753113
9802.000000;0.752519
9801.000000;0.752102
9800.000000;0.751957
9799.000000;0.752038
9798.000000;0.752170
9797.000000;0.752187
9796.000000;0.752087
9795.000000;0.751981
9794.000000;0.751894
9793.000000;0.751743
9792.000000;0.751560
9791.000000;0.751542
9790.000000;0.751771
9789.000000;0.752008
9788.000000;0.751966
9787.000000;0.751712
9786.000000;0.751590
9785.000000;0.751773
9784.000000;0.752080
9783.000000;0.752262
9782.000000;0.752283
9781.000000;0.752232
9780.000000;0.752112
9779.000000;0.751867
9778.000000;0.751554
9777.000000;0.751351
9776.000000;0.751346
9775.000000;0.751399
9774.000000;0.751271
9773.000000;0.750891
9772.000000;0.750421
9771.000000;0.750039
9770.000000;0.749720
9769.000000;0.749332
9768.000000;0.748908
9767.000000;0.748683
9766.000000;0.748800
9765.000000;0.749094
9764.000000;0.749253
9763.000000;0.749121
9762.000000;0.748788
9761.000000;0.748470
9760.000000;0.748381
9759.000000;0.748636
9758.000000;0.749103
9757.000000;0.749403
9756.000000;0.749220
9755.000000;0.748636
9754.000000;0.748036
9753.000000;0.747664
9752.000000;0.747416
9751.000000;0.747131
9750.000000;0.746917
9749.000000;0.747020
9748.000000;0.747417
9747.000000;0.747697
9746.000000;0.747488
9745.000000;0.746934
9744.000000;0.746613
9743.000000;0.746939
9742.000000;0.747697
9741.000000;0.748263
9740.000000;0.748226
9739.000000;0.747698
9738.000000;0.747044
9737.000000;0.746496
9736.000000;0.746106
9735.000000;0.745889
9734.000000;0.745836
9733.000000;0.745832
9732.000000;0.745734
9731.000000;0.745538
9730.000000;0.745359
9729.000000;0.745271
9728.000000;0.745255
9727.000000;0.745342
9726.000000;0.745648
9725.000000;0.746210
9724.000000;0.746832
9723.000000;0.747173
9722.000000;0.747019
9721.000000;0.746477
9720.000000;0.745878
9719.000000;0.745475
9718.000000;0.745227
9717.000000;0.744929
9716.000000;0.744541
9715.000000;0.744275
9714.000000;0.744314
9713.000000;0.744537
9712.000000;0.744662
9711.000000;0.744587
9710.000000;0.744474
9709.000000;0.744538
9708.000000;0.744867
9707.000000;0.745383
9706.000000;0.745829
9705.000000;0.745826
9704.000000;0.745170
9703.000000;0.744099
9702.000000;0.743140
9701.000000;0.742630
9700.000000;0.742511
9699.000000;0.742582
9698.000000;0.742750
9697.000000;0.742972
9696.000000;0.743131
9695.000000;0.743143
9694.000000;0.743082
9693.000000;0.743083
9692.000000;0.743170
9691.000000;0.743258
9690.000000;0.743281
9689.000000;0.743243
9688.000000;0.743213
9687.000000;0.743279
9686.000000;0.743431
9685.000000;0.743446
9684.000000;0.743052
9683.000000;0.742320
9682.000000;0.741704
9681.000000;0.741545
9680.000000;0.741664
9679.000000;0.741644
9678.000000;0.741388
9677.000000;0.741178
9676.000000;0.741211
9675.000000;0.741381
9674.000000;0.741528
9673.000000;0.741641
9672.000000;0.741704
9671.000000;0.741588
9670.000000;0.741264
9669.000000;0.740950
9668.000000;0.740846
9667.000000;0.740836
9666.000000;0.740644
9665.000000;0.740242
9664.000000;0.739902
9663.000000;0.739861
9662.000000;0.740092
9661.000000;0.740402
9660.000000;0.740618
9659.000000;0.740661
9658.000000;0.740580
9657.000000;0.740548
9656.000000;0.740699
9655.000000;0.740896
9654.000000;0.740800
9653.000000;0.740272
9652.000000;0.739602
9651.000000;0.739214
9650.000000;0.739200
9649.000000;0.739278
9648.000000;0.739198
9647.000000;0.739014
9646.000000;0.738938
9645.000000;0.739024
9644.000000;0.739093
9643.000000;0.738936
9642.000000;0.738517
9641.000000;0.737994
9640.000000;0.737578
9639.000000;0.737392
9638.000000;0.737435
9637.000000;0.737657
9636.000000;0.738017
9635.000000;0.738417
9634.000000;0.738654
9633.000000;0.738551
9632.000000;0.738158
9631.000000;0.737707
9630.000000;0.737329
9629.000000;0.736933
9628.000000;0.736458
9627.000000;0.736111
9626.000000;0.736171
9625.000000;0.736583
9624.000000;0.736910
9623.000000;0.736784
9622.000000;0.736301
9621.000000;0.735878
9620.000000;0.735805
9619.000000;0.736010
9618.000000;0.736240
9617.000000;0.736374
9616.000000;0.736509
9615.000000;0.736769
9614.000000;0.737054
9613.000000;0.737030
9612.000000;0.736434
9611.000000;0.735403
9610.000000;0.734440
9609.000000;0.734016
9608.000000;0.734199
9607.000000;0.734693
9606.000000;0.735157
9605.000000;0.735440
9604.000000;0.735534
9603.000000;0.735439
9602.000000;0.735155
9601.000000;0.734777
9600.000000;0.734508
9599.000000;0.734506
9598.000000;0.734723
9597.000000;0.734945
9596.000000;0.735027
9595.000000;0.735033
9594.000000;0.735100
9593.000000;0.735201
9592.000000;0.735162
9591.000000;0.734911
9590.000000;0.734605
9589.000000;0.734430
9588.000000;0.734382
9587.000000;0.734344
9586.000000;0.734304
9585.000000;0.734351
9584.000000;0.734470
9583.000000;0.734512
9582.000000;0.734394
9581.000000;0.734232
9580.000000;0.734179
9579.000000;0.734200
9578.000000;0.734114
9577.000000;0.733824
9576.000000;0.733443
9575.000000;0.733178
9574.000000;0.733128
9573.000000;0.733187
9572.000000;0.733134
9571.000000;0.732860
9570.000000;0.732527
9569.000000;0.732443
9568.000000;0.732689
9567.000000;0.732921
9566.000000;0.732676
9565.000000;0.731902
9564.000000;0.731061
9563.000000;0.730654
9562.000000;0.730741
9561.000000;0.731005
9560.000000;0.731193
9559.000000;0.731342
9558.000000;0.731568
9557.000000;0.731815
9556.000000;0.731922
9555.000000;0.731872
9554.000000;0.731842
9553.000000;0.731981
9552.000000;0.732197
9551.000000;0.732209
9550.000000;0.731793
9549.000000;0.730995
9548.000000;0.730123
9547.000000;0.729557
9546.000000;0.729505
9545.000000;0.729884
9544.000000;0.730400
9543.000000;0.730755
9542.000000;0.730838
9541.000000;0.730742
9540.000000;0.730623
9539.000000;0.730545
9538.000000;0.730470
9537.000000;0.730371
9536.000000;0.730286
9535.000000;0.730227
9534.000000;0.730091
9533.000000;0.729753
9532.000000;0.729245
9531.000000;0.728757
9530.000000;0.728436
9529.000000;0.728255
9528.000000;0.728126
9527.000000;0.728059
9526.000000;0.728098
9525.000000;0.728167
9524.000000;0.728094
9523.000000;0.727820
9522.000000;0.727481
9521.000000;0.727259
9520.000000;0.727218
9519.000000;0.727327
9518.000000;0.727535
9517.000000;0.727766
9516.000000;0.727910
9515.000000;0.727936
9514.000000;0.727986
9513.000000;0.728224
9512.000000;0.728586
9511.000000;0.728788
9510.000000;0.728620
9509.000000;0.728131
9508.000000;0.727525
9507.000000;0.726970
9506.000000;0.726606
9505.000000;0.726591
9504.000000;0.726953
9503.000000;0.727397
9502.000000;0.727473
9501.000000;0.727035
9500.000000;0.726425
9499.000000;0.726080
9498.000000;0.726073
9497.000000;0.726163
9496.000000;0.726214
9495.000000;0.726343
9494.000000;0.726597
9493.000000;0.726715
9492.000000;0.726389
9491.000000;0.725681
9490.000000;0.725010
9489.000000;0.724713
9488.000000;0.724745
9487.000000;0.724839
9486.000000;0.724833
9485.000000;0.724763
9484.000000;0.724715
9483.000000;0.724707
9482.000000;0.724717
9481.000000;0.724741
9480.000000;0.724769
9479.000000;0.724742
9478.000000;0.724596
9477.000000;0.724369
9476.000000;0.724212
9475.000000;0.724241
9474.000000;0.724383
9473.000000;0.724444
9472.000000;0.724344
9471.000000;0.724215
9470.000000;0.724204
9469.000000;0.724263
9468.000000;0.724230
9467.000000;0.724059
9466.000000;0.723848
9465.000000;0.723627
9464.000000;0.723282
9463.000000;0.722784
9462.000000;0.722344
9461.000000;0.722207
9460.000000;0.722334
9459.000000;0.722434
9458.000000;0.722328
9457.000000;0.722151
9456.000000;0.722160
9455.000000;0.722436
9454.000000;0.722847
9453.000000;0.723217
9452.000000;0.723454
9451.000000;0.723518
9450.000000;0.723393
9449.000000;0.723131
9448.000000;0.722888
9447.000000;0.722815
9446.000000;0.722899
9445.000000;0.722936
9444.000000;0.722720
9443.000000;0.722271
9442.000000;0.721819
9441.000000;0.721558
9440.000000;0.721439
9439.000000;0.721256
9438.000000;0.720917
9437.000000;0.720551
9436.000000;0.720359
9435.000000;0.720424
9434.000000;0.720699
9433.000000;0.721092
9432.000000;0.721472
9431.000000;0.721623
9430.000000;0.721322
9429.000000;0.720564
9428.000000;0.719666
9427.000000;0.719046
9426.000000;0.718867
9425.000000;0.718939
9424.000000;0.718963
9423.000000;0.718840
9422.000000;0.718685
9421.000000;0.718625
9420.000000;0.718660
9419.000000;0.718740
9418.000000;0.718868
9417.000000;0.719047
9416.000000;0.719188
9415.000000;0.719154
9414.000000;0.718920
9413.000000;0.718641
9412.000000;0.718497
9411.000000;0.718488
9410.000000;0.718449
9409.000000;0.718252
9408.000000;0.717978
9407.000000;0.717819
9406.000000;0.717847
9405.000000;0.717928
9404.000000;0.717896
9403.000000;0.717716
9402.000000;0.717445
9401.000000;0.717106
9400.000000;0.716716
9399.000000;0.716415
9398.000000;0.716421
9397.000000;0.716793
9396.000000;0.717335
9395.000000;0.717785
9394.000000;0.718026
9393.000000;0.718062
9392.000000;0.717887
9391.000000;0.717521
9390.000000;0.717134
9389.000000;0.716940
9388.000000;0.716950
9387.000000;0.716917
9386.000000;0.716611
9385.000000;0.716081
9384.000000;0.715619
9383.000000;0.715475
9382.000000;0.715665
9381.000000;0.715988
9380.000000;0.716195
9379.000000;0.716175
9378.000000;0.716009
9377.000000;0.715879
9376.000000;0.715890
9375.000000;0.716003
9374.000000;0.716085
9373.000000;0.716012
9372.000000;0.715755
9371.000000;0.715425
9370.000000;0.715221
9369.000000;0.715244
9368.000000;0.715368
9367.000000;0.715344
9366.000000;0.715055
9365.000000;0.714609
9364.000000;0.714208
9363.000000;0.714024
9362.000000;0.714170
9361.000000;0.714623
9360.000000;0.715130
9359.000000;0.715343
9358.000000;0.715193
9357.000000;0.715007
9356.000000;0.715100
9355.000000;0.715341
9354.000000;0.715306
9353.000000;0.714832
9352.000000;0.714217
9351.000000;0.713850
9350.000000;0.713797
9349.000000;0.713830
9348.000000;0.713742
9347.000000;0.713508
9346.000000;0.713237
9345.000000;0.713039
9344.000000;0.712932
9343.000000;0.712817
9342.000000;0.712601
9341.000000;0.712346
9340.000000;0.712257
9339.000000;0.712468
9338.000000;0.712910
9337.000000;0.713399
9336.000000;0.713759
9335.000000;0.713806
9334.000000;0.713381
9333.000000;0.712546
9332.000000;0.711704
9331.000000;0.711320
9330.000000;0.711483
9329.000000;0.711841
9328.000000;0.711993
9327.000000;0.711854
9326.000000;0.711612
9325.000000;0.711439
9324.000000;0.711355
9323.000000;0.711309
9322.000000;0.711284
9321.000000;0.711292
9320.000000;0.711348
9319.000000;0.711463
9318.000000;0.711631
9317.000000;0.711780
9316.000000;0.711781
9315.000000;0.711545
9314.000000;0.711130
9313.000000;0.710727
9312.000000;0.710513
9311.000000;0.710501
9310.000000;0.710556
9309.000000;0.710545
9308.000000;0.710453
9307.000000;0.710353
9306.000000;0.710294
9305.000000;0.710230
9304.000000;0.710069
9303.000000;0.709785
9302.000000;0.709499
9301.000000;0.709422
9300.000000;0.709658
9299.000000;0.710050
9298.000000;0.710272
9297.000000;0.710134
9296.000000;0.709763
9295.000000;0.709451
9294.000000;0.709360
9293.000000;0.709424
9292.000000;0.709473
9291.000000;0.709394
9290.000000;0.709166
9289.000000;0.708853
9288.000000;0.708565
9287.000000;0.708380
9286.000000;0.708269
9285.000000;0.708153
9284.000000;0.708008
9283.000000;0.707849
9282.000000;0.707629
9281.000000;0.707270
9280.000000;0.706850
9279.000000;0.706623
9278.000000;0.706772
9277.000000;0.707179
9276.000000;0.707549
9275.000000;0.707724
9274.000000;0.707773
9273.000000;0.707792
9272.000000;0.707723
9271.000000;0.707426
9270.000000;0.706886
9269.000000;0.706304
9268.000000;0.705951
9267.000000;0.705945
9266.000000;0.706135
9265.000000;0.706237
9264.000000;0.706084
9263.000000;0.705729
9262.000000;0.705317
9261.000000;0.704944
9260.000000;0.704689
9259.000000;0.704679
9258.000000;0.704987
9257.000000;0.705463
9256.000000;0.705813
9255.000000;0.705878
9254.000000;0.705758
9253.000000;0.705612
9252.000000;0.705438
9251.000000;0.705151
9250.000000;0.704777
9249.000000;0.704469
9248.000000;0.704330
9247.000000;0.704323
9246.000000;0.704381
9245.000000;0.704500
9244.000000;0.704680
9243.000000;0.704845
9242.000000;0.704895
9241.000000;0.704834
9240.000000;0.704776
9239.000000;0.704808
9238.000000;0.704887
9237.000000;0.704892
9236.000000;0.704754
9235.000000;0.704483
9234.000000;0.704132
9233.000000;0.703758
9232.000000;0.703450
9231.000000;0.703303
9230.000000;0.703335
9229.000000;0.703438
9228.000000;0.703472
9227.000000;0.703390
9226.000000;0.703239
9225.000000;0.703066
9224.000000;0.702869
9223.000000;0.702658
9222.000000;0.702513
9221.000000;0.702508
9220.000000;0.702589
9219.000000;0.702559
9218.000000;0.702260
9217.000000;0.701757
9216.000000;0.701320
9215.000000;0.701177
9214.000000;0.701302
9213.000000;0.701475
9212.000000;0.701535
9211.000000;0.701501
9210.000000;0.701457
9209.000000;0.701402
9208.000000;0.701294
9207.000000;0.701160
9206.000000;0.701065
9205.000000;0.701007
9204.000000;0.700925
9203.000000;0.700827
9202.000000;0.700809
9201.000000;0.700941
9200.000000;0.701191
9199.000000;0.701475
9198.000000;0.701709
9197.000000;0.701783
9196.000000;0.701585
9195.000000;0.701121
9194.000000;0.700554
9193.000000;0.700078
9192.000000;0.699769
9191.000000;0.699599
9190.000000;0.699536
9189.000000;0.699580
9188.000000;0.699727
9187.000000;0.699948
9186.000000;0.700187
9185.000000;0.700336
9184.000000;0.700265
9183.000000;0.699945
9182.000000;0.699525
9181.000000;0.699215
9180.000000;0.699105
9179.000000;0.699133
9178.000000;0.699210
9177.000000;0.699289
9176.000000;0.699336
9175.000000;0.699292
9174.000000;0.699109
9173.000000;0.698803
9172.000000;0.698453
9171.000000;0.698166
9170.000000;0.698022
9169.000000;0.698011
9168.000000;0.698044
9167.000000;0.698052
9166.000000;0.698052
9165.000000;0.698077
9164.000000;0.698073
9163.000000;0.697964
9162.000000;0.697811
9161.000000;0.697785
9160.000000;0.697954
9159.000000;0.698148
9158.000000;0.698130
9157.000000;0.697859
9156.000000;0.697546
9155.000000;0.697438
9154.000000;0.697564
9153.000000;0.697722
9152.000000;0.697695
9151.000000;0.697470
9150.000000;0.697211
9149.000000;0.697026
9148.000000;0.696827
9147.000000;0.696494
9146.000000;0.696082
9145.000000;0.695801
9144.000000;0.695782
9143.000000;0.695972
9142.000000;0.696232
9141.000000;0.696429
9140.000000;0.696429
9139.000000;0.696144
9138.000000;0.695668
9137.000000;0.695262
9136.000000;0.695110
9135.000000;0.695155
9134.000000;0.695208
9133.000000;0.695159
9132.000000;0.694999
9131.000000;0.694745
9130.000000;0.694458
9129.000000;0.694279
9128.000000;0.694329
9127.000000;0.694566
9126.000000;0.694832
9125.000000;0.695018
9124.000000;0.695119
9123.000000;0.695136
9122.000000;0.695047
9121.000000;0.694876
9120.000000;0.694691
9119.000000;0.694512
9118.000000;0.694288
9117.000000;0.693990
9116.000000;0.693674
9115.000000;0.693418
9114.000000;0.693263
9113.000000;0.693217
9112.000000;0.693244
9111.000000;0.693243
9110.000000;0.693120
9109.000000;0.692928
9108.000000;0.692849
9107.000000;0.692986
9106.000000;0.693220
9105.000000;0.693330
9104.000000;0.693200
9103.000000;0.692869
9102.000000;0.692447
9101.000000;0.692062
9100.000000;0.691857
9099.000000;0.691931
9098.000000;0.692236
9097.000000;0.692582
9096.000000;0.692774
9095.000000;0.692730
9094.000000;0.692520
9093.000000;0.692308
9092.000000;0.692261
9091.000000;0.692422
9090.000000;0.692660
9089.000000;0.692758
9088.000000;0.692609
9087.000000;0.692308
9086.000000;0.692035
9085.000000;0.691857
9084.000000;0.691677
9083.000000;0.691377
9082.000000;0.690988
9081.000000;0.690680
9080.000000;0.690568
9079.000000;0.690573
9078.000000;0.690510
9077.000000;0.690295
9076.000000;0.690016
9075.000000;0.689797
9074.000000;0.689664
9073.000000;0.689582
9072.000000;0.689557
9071.000000;0.689599
9070.000000;0.689621
9069.000000;0.689482
9068.000000;0.689192
9067.000000;0.688974
9066.000000;0.689035
9065.000000;0.689297
9064.000000;0.689458
9063.000000;0.689324
9062.000000;0.689004
9061.000000;0.688737
9060.000000;0.688623
9059.000000;0.688606
9058.000000;0.688667
9057.000000;0.688877
9056.000000;0.689219
9055.000000;0.689485
9054.000000;0.689455
9053.000000;0.689133
