Criado como novo conjunto de dados;"2706_e01_daniel.spp","2.0 Secs"
cm-1;Abs
10000.000000;0.012336
9999.000000;0.012113
9998.000000;0.011956
9997.000000;0.011834
9996.000000;0.011699
9995.000000;0.011557
9994.000000;0.011431
9993.000000;0.011345
9992.000000;0.011303
9991.000000;0.011322
9990.000000;0.011395
9989.000000;0.011461
9988.000000;0.011441
9987.000000;0.011330
9986.000000;0.011216
9985.000000;0.011190
9984.000000;0.011247
9983.000000;0.011304
9982.000000;0.011303
9981.000000;0.011256
9980.000000;0.011209
9979.000000;0.011198
9978.000000;0.011245
9977.000000;0.011357
9976.000000;0.011511
9975.000000;0.011654
9974.000000;0.011764
9973.000000;0.011873
9972.000000;0.012002
9971.000000;0.012101
9970.000000;0.012092
9969.000000;0.011986
9968.000000;0.011887
9967.000000;0.011878
9966.000000;0.011936
9965.000000;0.011990
9964.000000;0.011995
9963.000000;0.011928
9962.000000;0.011772
9961.000000;0.011560
9960.000000;0.011396
9959.000000;0.011364
9958.000000;0.011437
9957.000000;0.011543
9956.000000;0.011679
9955.000000;0.011875
9954.000000;0.012070
9953.000000;0.012136
9952.000000;0.012057
9951.000000;0.011984
9950.000000;0.012045
9949.000000;0.012176
9948.000000;0.012204
9947.000000;0.012056
9946.000000;0.011829
9945.000000;0.011667
9944.000000;0.011626
9943.000000;0.011651
9942.000000;0.011654
9941.000000;0.011617
9940.000000;0.011626
9939.000000;0.011766
9938.000000;0.011985
9937.000000;0.012112
9936.000000;0.012033
9935.000000;0.011807
9934.000000;0.011572
9933.000000;0.011405
9932.000000;0.011306
9931.000000;0.011268
9930.000000;0.011274
9929.000000;0.011270
9928.000000;0.011228
9927.000000;0.011207
9926.000000;0.011274
9925.000000;0.011391
9924.000000;0.011464
9923.000000;0.011513
9922.000000;0.011667
9921.000000;0.011958
9920.000000;0.012208
9919.000000;0.012219
9918.000000;0.011995
9917.000000;0.011729
9916.000000;0.011594
9915.000000;0.011619
9914.000000;0.011746
9913.000000;0.011917
9912.000000;0.012071
9911.000000;0.012152
9910.000000;0.012156
9909.000000;0.012139
9908.000000;0.012127
9907.000000;0.012052
9906.000000;0.011851
9905.000000;0.011602
9904.000000;0.011477
9903.000000;0.011535
9902.000000;0.011632
9901.000000;0.011588
9900.000000;0.011411
9899.000000;0.011276
9898.000000;0.011318
9897.000000;0.011526
9896.000000;0.011803
9895.000000;0.012041
9894.000000;0.012129
9893.000000;0.012001
9892.000000;0.011733
9891.000000;0.011508
9890.000000;0.011449
9889.000000;0.011521
9888.000000;0.011635
9887.000000;0.011751
9886.000000;0.011831
9885.000000;0.011765
9884.000000;0.011474
9883.000000;0.011059
9882.000000;0.010735
9881.000000;0.010646
9880.000000;0.010786
9879.000000;0.011065
9878.000000;0.011363
9877.000000;0.011538
9876.000000;0.011508
9875.000000;0.011338
9874.000000;0.011173
9873.000000;0.011066
9872.000000;0.010951
9871.000000;0.010793
9870.000000;0.010684
9869.000000;0.010752
9868.000000;0.011028
9867.000000;0.011433
9866.000000;0.011823
9865.000000;0.012058
9864.000000;0.012081
9863.000000;0.011993
9862.000000;0.011973
9861.000000;0.012092
9860.000000;0.012252
9859.000000;0.012326
9858.000000;0.012283
9857.000000;0.012153
9856.000000;0.011955
9855.000000;0.011723
9854.000000;0.011535
9853.000000;0.011432
9852.000000;0.011349
9851.000000;0.011202
9850.000000;0.011008
9849.000000;0.010853
9848.000000;0.010787
9847.000000;0.010805
9846.000000;0.010908
9845.000000;0.011083
9844.000000;0.011264
9843.000000;0.011392
9842.000000;0.011493
9841.000000;0.011615
9840.000000;0.011710
9839.000000;0.011678
9838.000000;0.011533
9837.000000;0.011410
9836.000000;0.011389
9835.000000;0.011404
9834.000000;0.011372
9833.000000;0.011323
9832.000000;0.011302
9831.000000;0.011252
9830.000000;0.011086
9829.000000;0.010841
9828.000000;0.010663
9827.000000;0.010637
9826.000000;0.010721
9825.000000;0.010849
9824.000000;0.011006
9823.000000;0.011168
9822.000000;0.011254
9821.000000;0.011212
9820.000000;0.011107
9819.000000;0.011052
9818.000000;0.011071
9817.000000;0.011097
9816.000000;0.011091
9815.000000;0.011102
9814.000000;0.011163
9813.000000;0.011203
9812.000000;0.011120
9811.000000;0.010951
9810.000000;0.010877
9809.000000;0.011041
9808.000000;0.011375
9807.000000;0.011652
9806.000000;0.011699
9805.000000;0.011510
9804.000000;0.011206
9803.000000;0.010913
9802.000000;0.010718
9801.000000;0.010677
9800.000000;0.010804
9799.000000;0.011053
9798.000000;0.011321
9797.000000;0.011492
9796.000000;0.011484
9795.000000;0.011290
9794.000000;0.011014
9793.000000;0.010828
9792.000000;0.010845
9791.000000;0.011005
9790.000000;0.011138
9789.000000;0.011144
9788.000000;0.011080
9787.000000;0.011046
9786.000000;0.011048
9785.000000;0.011037
9784.000000;0.011040
9783.000000;0.011139
9782.000000;0.011325
9781.000000;0.011447
9780.000000;0.011361
9779.000000;0.011096
9778.000000;0.010823
9777.000000;0.010697
9776.000000;0.010751
9775.000000;0.010915
9774.000000;0.011074
9773.000000;0.011131
9772.000000;0.011063
9771.000000;0.010936
9770.000000;0.010855
9769.000000;0.010891
9768.000000;0.011058
9767.000000;0.011312
9766.000000;0.011555
9765.000000;0.011680
9764.000000;0.011650
9763.000000;0.011528
9762.000000;0.011393
9761.000000;0.011246
9760.000000;0.011062
9759.000000;0.010894
9758.000000;0.010841
9757.000000;0.010909
9756.000000;0.010973
9755.000000;0.010933
9754.000000;0.010854
9753.000000;0.010897
9752.000000;0.011140
9751.000000;0.011499
9750.000000;0.011807
9749.000000;0.011929
9748.000000;0.011831
9747.000000;0.011579
9746.000000;0.011293
9745.000000;0.011077
9744.000000;0.010991
9743.000000;0.011064
9742.000000;0.011289
9741.000000;0.011589
9740.000000;0.011812
9739.000000;0.011818
9738.000000;0.011598
9737.000000;0.011286
9736.000000;0.011043
9735.000000;0.010932
9734.000000;0.010903
9733.000000;0.010891
9732.000000;0.010896
9731.000000;0.010970
9730.000000;0.011131
9729.000000;0.011306
9728.000000;0.011388
9727.000000;0.011339
9726.000000;0.011213
9725.000000;0.011097
9724.000000;0.011042
9723.000000;0.011072
9722.000000;0.011186
9721.000000;0.011340
9720.000000;0.011450
9719.000000;0.011454
9718.000000;0.011371
9717.000000;0.011290
9716.000000;0.011283
9715.000000;0.011328
9714.000000;0.011309
9713.000000;0.011117
9712.000000;0.010772
9711.000000;0.010458
9710.000000;0.010389
9709.000000;0.010612
9708.000000;0.010969
9707.000000;0.011244
9706.000000;0.011348
9705.000000;0.011329
9704.000000;0.011270
9703.000000;0.011198
9702.000000;0.011109
9701.000000;0.011020
9700.000000;0.010976
9699.000000;0.011013
9698.000000;0.011098
9697.000000;0.011132
9696.000000;0.011039
9695.000000;0.010884
9694.000000;0.010839
9693.000000;0.011024
9692.000000;0.011368
9691.000000;0.011675
9690.000000;0.011790
9689.000000;0.011684
9688.000000;0.011425
9687.000000;0.011129
9686.000000;0.010929
9685.000000;0.010920
9684.000000;0.011074
9683.000000;0.011257
9682.000000;0.011349
9681.000000;0.011334
9680.000000;0.011255
9679.000000;0.011134
9678.000000;0.010981
9677.000000;0.010849
9676.000000;0.010823
9675.000000;0.010926
9674.000000;0.011063
9673.000000;0.011092
9672.000000;0.010941
9671.000000;0.010665
9670.000000;0.010388
9669.000000;0.010231
9668.000000;0.010255
9667.000000;0.010432
9666.000000;0.010644
9665.000000;0.010757
9664.000000;0.010729
9663.000000;0.010665
9662.000000;0.010709
9661.000000;0.010903
9660.000000;0.011156
9659.000000;0.011357
9658.000000;0.011469
9657.000000;0.011513
9656.000000;0.011488
9655.000000;0.011386
9654.000000;0.011242
9653.000000;0.011141
9652.000000;0.011145
9651.000000;0.011226
9650.000000;0.011280
9649.000000;0.011208
9648.000000;0.011000
9647.000000;0.010738
9646.000000;0.010536
9645.000000;0.010458
9644.000000;0.010500
9643.000000;0.010622
9642.000000;0.010769
9641.000000;0.010873
9640.000000;0.010881
9639.000000;0.010817
9638.000000;0.010776
9637.000000;0.010833
9636.000000;0.010961
9635.000000;0.011065
9634.000000;0.011093
9633.000000;0.011074
9632.000000;0.011063
9631.000000;0.011076
9630.000000;0.011079
9629.000000;0.011031
9628.000000;0.010940
9627.000000;0.010864
9626.000000;0.010853
9625.000000;0.010888
9624.000000;0.010903
9623.000000;0.010888
9622.000000;0.010913
9621.000000;0.011011
9620.000000;0.011085
9619.000000;0.010994
9618.000000;0.010734
9617.000000;0.010475
9616.000000;0.010412
9615.000000;0.010602
9614.000000;0.010951
9613.000000;0.011293
9612.000000;0.011490
9611.000000;0.011494
9610.000000;0.011366
9609.000000;0.011214
9608.000000;0.011101
9607.000000;0.011030
9606.000000;0.011007
9605.000000;0.011064
9604.000000;0.011183
9603.000000;0.011251
9602.000000;0.011151
9601.000000;0.010902
9600.000000;0.010653
9599.000000;0.010538
9598.000000;0.010567
9597.000000;0.010680
9596.000000;0.010855
9595.000000;0.011107
9594.000000;0.011394
9593.000000;0.011578
9592.000000;0.011553
9591.000000;0.011364
9590.000000;0.011164
9589.000000;0.011048
9588.000000;0.010982
9587.000000;0.010903
9586.000000;0.010830
9585.000000;0.010822
9584.000000;0.010883
9583.000000;0.010943
9582.000000;0.010942
9581.000000;0.010891
9580.000000;0.010848
9579.000000;0.010865
9578.000000;0.010955
9577.000000;0.011078
9576.000000;0.011185
9575.000000;0.011273
9574.000000;0.011392
9573.000000;0.011549
9572.000000;0.011647
9571.000000;0.011571
9570.000000;0.011343
9569.000000;0.011127
9568.000000;0.011049
9567.000000;0.011071
9566.000000;0.011055
9565.000000;0.010945
9564.000000;0.010824
9563.000000;0.010818
9562.000000;0.010971
9561.000000;0.011195
9560.000000;0.011349
9559.000000;0.011354
9558.000000;0.011252
9557.000000;0.011155
9556.000000;0.011141
9555.000000;0.011210
9554.000000;0.011308
9553.000000;0.011353
9552.000000;0.011266
9551.000000;0.011049
9550.000000;0.010837
9549.000000;0.010812
9548.000000;0.011015
9547.000000;0.011276
9546.000000;0.011378
9545.000000;0.011282
9544.000000;0.011147
9543.000000;0.011144
9542.000000;0.011295
9541.000000;0.011471
9540.000000;0.011519
9539.000000;0.011394
9538.000000;0.011188
9537.000000;0.011050
9536.000000;0.011071
9535.000000;0.011220
9534.000000;0.011398
9533.000000;0.011512
9532.000000;0.011531
9531.000000;0.011463
9530.000000;0.011339
9529.000000;0.011189
9528.000000;0.011052
9527.000000;0.010977
9526.000000;0.011003
9525.000000;0.011119
9524.000000;0.011235
9523.000000;0.011243
9522.000000;0.011130
9521.000000;0.010991
9520.000000;0.010918
9519.000000;0.010901
9518.000000;0.010863
9517.000000;0.010780
9516.000000;0.010698
9515.000000;0.010658
9514.000000;0.010634
9513.000000;0.010587
9512.000000;0.010539
9511.000000;0.010567
9510.000000;0.010732
9509.000000;0.011027
9508.000000;0.011385
9507.000000;0.011710
9506.000000;0.011912
9505.000000;0.011933
9504.000000;0.011781
9503.000000;0.011535
9502.000000;0.011306
9501.000000;0.011185
9500.000000;0.011205
9499.000000;0.011345
9498.000000;0.011543
9497.000000;0.011707
9496.000000;0.011754
9495.000000;0.011652
9494.000000;0.011438
9493.000000;0.011177
9492.000000;0.010914
9491.000000;0.010690
9490.000000;0.010582
9489.000000;0.010660
9488.000000;0.010900
9487.000000;0.011172
9486.000000;0.011356
9485.000000;0.011438
9484.000000;0.011484
9483.000000;0.011531
9482.000000;0.011536
9481.000000;0.011432
9480.000000;0.011207
9479.000000;0.010927
9478.000000;0.010693
9477.000000;0.010554
9476.000000;0.010485
9475.000000;0.010429
9474.000000;0.010379
9473.000000;0.010374
9472.000000;0.010428
9471.000000;0.010504
9470.000000;0.010570
9469.000000;0.010646
9468.000000;0.010763
9467.000000;0.010908
9466.000000;0.011038
9465.000000;0.011129
9464.000000;0.011168
9463.000000;0.011140
9462.000000;0.011050
9461.000000;0.010960
9460.000000;0.010945
9459.000000;0.011008
9458.000000;0.011077
9457.000000;0.011087
9456.000000;0.011041
9455.000000;0.010993
9454.000000;0.011004
9453.000000;0.011098
9452.000000;0.011229
9451.000000;0.011299
9450.000000;0.011259
9449.000000;0.011177
9448.000000;0.011162
9447.000000;0.011227
9446.000000;0.011266
9445.000000;0.011202
9444.000000;0.011083
9443.000000;0.011009
9442.000000;0.011013
9441.000000;0.011064
9440.000000;0.011147
9439.000000;0.011277
9438.000000;0.011448
9437.000000;0.011599
9436.000000;0.011646
9435.000000;0.011537
9434.000000;0.011316
9433.000000;0.011123
9432.000000;0.011089
9431.000000;0.011191
9430.000000;0.011243
9429.000000;0.011115
9428.000000;0.010903
9427.000000;0.010819
9426.000000;0.010917
9425.000000;0.011022
9424.000000;0.010949
9423.000000;0.010714
9422.000000;0.010492
9421.000000;0.010420
9420.000000;0.010507
9419.000000;0.010680
9418.000000;0.010846
9417.000000;0.010927
9416.000000;0.010906
9415.000000;0.010845
9414.000000;0.010838
9413.000000;0.010919
9412.000000;0.011043
9411.000000;0.011141
9410.000000;0.011163
9409.000000;0.011084
9408.000000;0.010928
9407.000000;0.010785
9406.000000;0.010753
9405.000000;0.010830
9404.000000;0.010915
9403.000000;0.010939
9402.000000;0.010953
9401.000000;0.011032
9400.000000;0.011144
9399.000000;0.011163
9398.000000;0.011032
9397.000000;0.010847
9396.000000;0.010767
9395.000000;0.010859
9394.000000;0.011048
9393.000000;0.011201
9392.000000;0.011246
9391.000000;0.011228
9390.000000;0.011255
9389.000000;0.011400
9388.000000;0.011618
9387.000000;0.011782
9386.000000;0.011784
9385.000000;0.011619
9384.000000;0.011366
9383.000000;0.011126
9382.000000;0.010960
9381.000000;0.010873
9380.000000;0.010844
9379.000000;0.010862
9378.000000;0.010951
9377.000000;0.011142
9376.000000;0.011410
9375.000000;0.011649
9374.000000;0.011739
9373.000000;0.011650
9372.000000;0.011472
9371.000000;0.011330
9370.000000;0.011272
9369.000000;0.011261
9368.000000;0.011255
9367.000000;0.011271
9366.000000;0.011337
9365.000000;0.011427
9364.000000;0.011465
9363.000000;0.011407
9362.000000;0.011278
9361.000000;0.011127
9360.000000;0.010994
9359.000000;0.010913
9358.000000;0.010916
9357.000000;0.011001
9356.000000;0.011109
9355.000000;0.011175
9354.000000;0.011176
9353.000000;0.011124
9352.000000;0.011029
9351.000000;0.010919
9350.000000;0.010854
9349.000000;0.010877
9348.000000;0.010944
9347.000000;0.010972
9346.000000;0.010953
9345.000000;0.010975
9344.000000;0.011088
9343.000000;0.011219
9342.000000;0.011264
9341.000000;0.011218
9340.000000;0.011174
9339.000000;0.011203
9338.000000;0.011289
9337.000000;0.011385
9336.000000;0.011462
9335.000000;0.011509
9334.000000;0.011503
9333.000000;0.011414
9332.000000;0.011242
9331.000000;0.011047
9330.000000;0.010935
9329.000000;0.010979
9328.000000;0.011138
9327.000000;0.011279
9326.000000;0.011307
9325.000000;0.011265
9324.000000;0.011263
9323.000000;0.011340
9322.000000;0.011434
9321.000000;0.011480
9320.000000;0.011474
9319.000000;0.011437
9318.000000;0.011367
9317.000000;0.011275
9316.000000;0.011215
9315.000000;0.011219
9314.000000;0.011259
9313.000000;0.011291
9312.000000;0.011335
9311.000000;0.011437
9310.000000;0.011572
9309.000000;0.011648
9308.000000;0.011628
9307.000000;0.011591
9306.000000;0.011642
9305.000000;0.011773
9304.000000;0.011867
9303.000000;0.011812
9302.000000;0.011618
9301.000000;0.011404
9300.000000;0.011304
9299.000000;0.011346
9298.000000;0.011427
9297.000000;0.011412
9296.000000;0.011263
9295.000000;0.011069
9294.000000;0.010948
9293.000000;0.010941
9292.000000;0.011021
9291.000000;0.011155
9290.000000;0.011310
9289.000000;0.011440
9288.000000;0.011504
9287.000000;0.011512
9286.000000;0.011510
9285.000000;0.011517
9284.000000;0.011506
9283.000000;0.011454
9282.000000;0.011381
9281.000000;0.011326
9280.000000;0.011305
9279.000000;0.011325
9278.000000;0.011390
9277.000000;0.011484
9276.000000;0.011565
9275.000000;0.011589
9274.000000;0.011553
9273.000000;0.011471
9272.000000;0.011360
9271.000000;0.011237
9270.000000;0.011135
9269.000000;0.011084
9268.000000;0.011084
9267.000000;0.011112
9266.000000;0.011151
9265.000000;0.011188
9264.000000;0.011206
9263.000000;0.011184
9262.000000;0.011114
9261.000000;0.010999
9260.000000;0.010851
9259.000000;0.010727
9258.000000;0.010720
9257.000000;0.010888
9256.000000;0.011174
9255.000000;0.011431
9254.000000;0.011548
9253.000000;0.011521
9252.000000;0.011411
9251.000000;0.011274
9250.000000;0.011142
9249.000000;0.011042
9248.000000;0.010986
9247.000000;0.010950
9246.000000;0.010895
9245.000000;0.010811
9244.000000;0.010736
9243.000000;0.010731
9242.000000;0.010836
9241.000000;0.011034
9240.000000;0.011255
9239.000000;0.011412
9238.000000;0.011452
9237.000000;0.011376
9236.000000;0.011234
9235.000000;0.011098
9234.000000;0.011023
9233.000000;0.011009
9232.000000;0.011020
9231.000000;0.011040
9230.000000;0.011110
9229.000000;0.011277
9228.000000;0.011508
9227.000000;0.011691
9226.000000;0.011736
9225.000000;0.011656
9224.000000;0.011541
9223.000000;0.011457
9222.000000;0.011402
9221.000000;0.011344
9220.000000;0.011283
9219.000000;0.011250
9218.000000;0.011258
9217.000000;0.011266
9216.000000;0.011233
9215.000000;0.011187
9214.000000;0.011207
9213.000000;0.011315
9212.000000;0.011424
9211.000000;0.011414
9210.000000;0.011266
9209.000000;0.011077
9208.000000;0.010957
9207.000000;0.010953
9206.000000;0.011048
9205.000000;0.011189
9204.000000;0.011303
9203.000000;0.011328
9202.000000;0.011256
9201.000000;0.011131
9200.000000;0.011014
9199.000000;0.010958
9198.000000;0.011008
9197.000000;0.011152
9196.000000;0.011298
9195.000000;0.011332
9194.000000;0.011245
9193.000000;0.011149
9192.000000;0.011152
9191.000000;0.011241
9190.000000;0.011324
9189.000000;0.011335
9188.000000;0.011273
9187.000000;0.011173
9186.000000;0.011091
9185.000000;0.011094
9184.000000;0.011213
9183.000000;0.011392
9182.000000;0.011532
9181.000000;0.011592
9180.000000;0.011620
9179.000000;0.011676
9178.000000;0.011765
9177.000000;0.011845
9176.000000;0.011904
9175.000000;0.011970
9174.000000;0.012057
9173.000000;0.012110
9172.000000;0.012041
9171.000000;0.011820
9170.000000;0.011520
9169.000000;0.011250
9168.000000;0.011087
9167.000000;0.011062
9166.000000;0.011170
9165.000000;0.011342
9164.000000;0.011445
9163.000000;0.011387
9162.000000;0.011230
9161.000000;0.011134
9160.000000;0.011175
9159.000000;0.011277
9158.000000;0.011328
9157.000000;0.011322
9156.000000;0.011326
9155.000000;0.011377
9154.000000;0.011456
9153.000000;0.011527
9152.000000;0.011566
9151.000000;0.011559
9150.000000;0.011518
9149.000000;0.011485
9148.000000;0.011477
9147.000000;0.011454
9146.000000;0.011388
9145.000000;0.011320
9144.000000;0.011307
9143.000000;0.011341
9142.000000;0.011354
9141.000000;0.011319
9140.000000;0.011275
9139.000000;0.011267
9138.000000;0.011301
9137.000000;0.011362
9136.000000;0.011437
9135.000000;0.011513
9134.000000;0.011568
9133.000000;0.011579
9132.000000;0.011535
9131.000000;0.011447
9130.000000;0.011360
9129.000000;0.011328
9128.000000;0.011353
9127.000000;0.011377
9126.000000;0.011364
9125.000000;0.011362
9124.000000;0.011439
9123.000000;0.011571
9122.000000;0.011672
9121.000000;0.011701
9120.000000;0.011691
9119.000000;0.011672
9118.000000;0.011640
9117.000000;0.011599
9116.000000;0.011589
9115.000000;0.011626
9114.000000;0.011688
9113.000000;0.011752
9112.000000;0.011822
9111.000000;0.011867
9110.000000;0.011819
9109.000000;0.011658
9108.000000;0.011477
9107.000000;0.011404
9106.000000;0.011475
9105.000000;0.011608
9104.000000;0.011694
9103.000000;0.011694
9102.000000;0.011649
9101.000000;0.011628
9100.000000;0.011652
9099.000000;0.011673
9098.000000;0.011628
9097.000000;0.011513
9096.000000;0.011388
9095.000000;0.011304
9094.000000;0.011259
9093.000000;0.011227
9092.000000;0.011193
9091.000000;0.011162
9090.000000;0.011148
9089.000000;0.011178
9088.000000;0.011283
9087.000000;0.011453
9086.000000;0.011625
9085.000000;0.011727
9084.000000;0.011730
9083.000000;0.011650
9082.000000;0.011531
9081.000000;0.011430
9080.000000;0.011370
9079.000000;0.011320
9078.000000;0.011227
9077.000000;0.011089
9076.000000;0.010976
9075.000000;0.010947
9074.000000;0.010990
9073.000000;0.011057
9072.000000;0.011119
9071.000000;0.011172
9070.000000;0.011205
9069.000000;0.011217
9068.000000;0.011238
9067.000000;0.011303
9066.000000;0.011415
9065.000000;0.011551
9064.000000;0.011690
9063.000000;0.011804
9062.000000;0.011853
9061.000000;0.011816
9060.000000;0.011718
9059.000000;0.011600
9058.000000;0.011484
9057.000000;0.011390
9056.000000;0.011360
9055.000000;0.011428
9054.000000;0.011555
9053.000000;0.011655
