Criado como novo conjunto de dados;"2706_e01_daniel.spp","20163.1 Secs"
cm-1;Abs
10000.000000;0.659595
9999.000000;0.660076
9998.000000;0.660559
9997.000000;0.661041
9996.000000;0.661525
9995.000000;0.662009
9994.000000;0.662492
9993.000000;0.662980
9992.000000;0.663461
9991.000000;0.663956
9990.000000;0.664424
9989.000000;0.665007
9988.000000;0.665686
9987.000000;0.666138
9986.000000;0.666101
9985.000000;0.665447
9984.000000;0.664378
9983.000000;0.663390
9982.000000;0.662964
9981.000000;0.663170
9980.000000;0.663670
9979.000000;0.664052
9978.000000;0.664089
9977.000000;0.663772
9976.000000;0.663288
9975.000000;0.662941
9974.000000;0.662893
9973.000000;0.662968
9972.000000;0.662852
9971.000000;0.662504
9970.000000;0.662162
9969.000000;0.661925
9968.000000;0.661633
9967.000000;0.661264
9966.000000;0.661145
9965.000000;0.661489
9964.000000;0.661970
9963.000000;0.662121
9962.000000;0.662039
9961.000000;0.662228
9960.000000;0.662748
9959.000000;0.663001
9958.000000;0.662609
9957.000000;0.662065
9956.000000;0.662087
9955.000000;0.662625
9954.000000;0.662983
9953.000000;0.662797
9952.000000;0.662394
9951.000000;0.662120
9950.000000;0.661840
9949.000000;0.661331
9948.000000;0.660776
9947.000000;0.660536
9946.000000;0.660636
9945.000000;0.660771
9944.000000;0.660694
9943.000000;0.660378
9942.000000;0.659897
9941.000000;0.659393
9940.000000;0.659113
9939.000000;0.659249
9938.000000;0.659721
9937.000000;0.660236
9936.000000;0.660534
9935.000000;0.660514
9934.000000;0.660210
9933.000000;0.659765
9932.000000;0.659387
9931.000000;0.659214
9930.000000;0.659260
9929.000000;0.659510
9928.000000;0.659926
9927.000000;0.660286
9926.000000;0.660272
9925.000000;0.659914
9924.000000;0.659725
9923.000000;0.660096
9922.000000;0.660722
9921.000000;0.660968
9920.000000;0.660713
9919.000000;0.660442
9918.000000;0.660470
9917.000000;0.660468
9916.000000;0.659968
9915.000000;0.659023
9914.000000;0.658102
9913.000000;0.657497
9912.000000;0.657115
9911.000000;0.656801
9910.000000;0.656609
9909.000000;0.656679
9908.000000;0.656952
9907.000000;0.657158
9906.000000;0.657051
9905.000000;0.656608
9904.000000;0.655993
9903.000000;0.655399
9902.000000;0.654997
9901.000000;0.654950
9900.000000;0.655290
9899.000000;0.655769
9898.000000;0.656014
9897.000000;0.655936
9896.000000;0.655833
9895.000000;0.655968
9894.000000;0.656220
9893.000000;0.656307
9892.000000;0.656168
9891.000000;0.655917
9890.000000;0.655576
9889.000000;0.655122
9888.000000;0.654749
9887.000000;0.654771
9886.000000;0.655199
9885.000000;0.655681
9884.000000;0.655929
9883.000000;0.656003
9882.000000;0.656090
9881.000000;0.656158
9880.000000;0.655972
9879.000000;0.655396
9878.000000;0.654624
9877.000000;0.654118
9876.000000;0.654247
9875.000000;0.654887
9874.000000;0.655465
9873.000000;0.655508
9872.000000;0.655092
9871.000000;0.654597
9870.000000;0.654183
9869.000000;0.653760
9868.000000;0.653390
9867.000000;0.653312
9866.000000;0.653513
9865.000000;0.653629
9864.000000;0.653438
9863.000000;0.653165
9862.000000;0.653077
9861.000000;0.653031
9860.000000;0.652700
9859.000000;0.652085
9858.000000;0.651509
9857.000000;0.651173
9856.000000;0.650994
9855.000000;0.650870
9854.000000;0.650855
9853.000000;0.651004
9852.000000;0.651265
9851.000000;0.651614
9850.000000;0.652133
9849.000000;0.652816
9848.000000;0.653423
9847.000000;0.653712
9846.000000;0.653751
9845.000000;0.653787
9844.000000;0.653804
9843.000000;0.653465
9842.000000;0.652647
9841.000000;0.651816
9840.000000;0.651581
9839.000000;0.651935
9838.000000;0.652268
9837.000000;0.652160
9836.000000;0.651831
9835.000000;0.651648
9834.000000;0.651535
9833.000000;0.651179
9832.000000;0.650586
9831.000000;0.650053
9830.000000;0.649681
9829.000000;0.649294
9828.000000;0.648833
9827.000000;0.648474
9826.000000;0.648291
9825.000000;0.648154
9824.000000;0.648065
9823.000000;0.648269
9822.000000;0.648827
9821.000000;0.649332
9820.000000;0.649337
9819.000000;0.648895
9818.000000;0.648446
9817.000000;0.648273
9816.000000;0.648267
9815.000000;0.648150
9814.000000;0.647761
9813.000000;0.647142
9812.000000;0.646544
9811.000000;0.646308
9810.000000;0.646589
9809.000000;0.647174
9808.000000;0.647650
9807.000000;0.647754
9806.000000;0.647473
9805.000000;0.646907
9804.000000;0.646211
9803.000000;0.645635
9802.000000;0.645416
9801.000000;0.645558
9800.000000;0.645843
9799.000000;0.646107
9798.000000;0.646399
9797.000000;0.646815
9796.000000;0.647243
9795.000000;0.647381
9794.000000;0.646997
9793.000000;0.646185
9792.000000;0.645388
9791.000000;0.645148
9790.000000;0.645739
9789.000000;0.646945
9788.000000;0.648213
9787.000000;0.649034
9786.000000;0.649205
9785.000000;0.648817
9784.000000;0.648132
9783.000000;0.647469
9782.000000;0.647038
9781.000000;0.646766
9780.000000;0.646387
9779.000000;0.645823
9778.000000;0.645376
9777.000000;0.645365
9776.000000;0.645638
9775.000000;0.645702
9774.000000;0.645367
9773.000000;0.645001
9772.000000;0.644988
9771.000000;0.645180
9770.000000;0.645145
9769.000000;0.644839
9768.000000;0.644651
9767.000000;0.644795
9766.000000;0.645014
9765.000000;0.645083
9764.000000;0.645249
9763.000000;0.645818
9762.000000;0.646470
9761.000000;0.646423
9760.000000;0.645436
9759.000000;0.644303
9758.000000;0.644056
9757.000000;0.644819
9756.000000;0.645748
9755.000000;0.646076
9754.000000;0.645902
9753.000000;0.645793
9752.000000;0.645901
9751.000000;0.645885
9750.000000;0.645581
9749.000000;0.645297
9748.000000;0.645280
9747.000000;0.645277
9746.000000;0.644933
9745.000000;0.644359
9744.000000;0.643928
9743.000000;0.643674
9742.000000;0.643360
9741.000000;0.643104
9740.000000;0.643394
9739.000000;0.644288
9738.000000;0.645059
9737.000000;0.644980
9736.000000;0.644185
9735.000000;0.643391
9734.000000;0.642980
9733.000000;0.642799
9732.000000;0.642728
9731.000000;0.642941
9730.000000;0.643483
9729.000000;0.643994
9728.000000;0.644053
9727.000000;0.643624
9726.000000;0.643001
9725.000000;0.642491
9724.000000;0.642300
9723.000000;0.642536
9722.000000;0.643114
9721.000000;0.643708
9720.000000;0.643966
9719.000000;0.643801
9718.000000;0.643393
9717.000000;0.642976
9716.000000;0.642712
9715.000000;0.642701
9714.000000;0.642913
9713.000000;0.643079
9712.000000;0.642840
9711.000000;0.642118
9710.000000;0.641297
9709.000000;0.640882
9708.000000;0.641009
9707.000000;0.641353
9706.000000;0.641513
9705.000000;0.641365
9704.000000;0.641018
9703.000000;0.640595
9702.000000;0.640183
9701.000000;0.639915
9700.000000;0.639901
9699.000000;0.640051
9698.000000;0.640112
9697.000000;0.639941
9696.000000;0.639671
9695.000000;0.639583
9694.000000;0.639863
9693.000000;0.640486
9692.000000;0.641230
9691.000000;0.641777
9690.000000;0.641914
9689.000000;0.641710
9688.000000;0.641440
9687.000000;0.641302
9686.000000;0.641288
9685.000000;0.641328
9684.000000;0.641395
9683.000000;0.641429
9682.000000;0.641285
9681.000000;0.640916
9680.000000;0.640502
9679.000000;0.640273
9678.000000;0.640257
9677.000000;0.640290
9676.000000;0.640236
9675.000000;0.640093
9674.000000;0.639917
9673.000000;0.639738
9672.000000;0.639548
9671.000000;0.639313
9670.000000;0.639020
9669.000000;0.638760
9668.000000;0.638695
9667.000000;0.638850
9666.000000;0.639009
9665.000000;0.638916
9664.000000;0.638577
9663.000000;0.638248
9662.000000;0.638116
9661.000000;0.638078
9660.000000;0.637884
9659.000000;0.637451
9658.000000;0.636981
9657.000000;0.636750
9656.000000;0.636804
9655.000000;0.636909
9654.000000;0.636846
9653.000000;0.636675
9652.000000;0.636604
9651.000000;0.636667
9650.000000;0.636676
9649.000000;0.636499
9648.000000;0.636201
9647.000000;0.635893
9646.000000;0.635634
9645.000000;0.635534
9644.000000;0.635753
9643.000000;0.636236
9642.000000;0.636622
9641.000000;0.636638
9640.000000;0.636499
9639.000000;0.636693
9638.000000;0.637382
9637.000000;0.638195
9636.000000;0.638596
9635.000000;0.638352
9634.000000;0.637652
9633.000000;0.636875
9632.000000;0.636290
9631.000000;0.635919
9630.000000;0.635647
9629.000000;0.635438
9628.000000;0.635341
9627.000000;0.635337
9626.000000;0.635330
9625.000000;0.635358
9624.000000;0.635615
9623.000000;0.636132
9622.000000;0.636617
9621.000000;0.636775
9620.000000;0.636633
9619.000000;0.636348
9618.000000;0.635867
9617.000000;0.635099
9616.000000;0.634309
9615.000000;0.633959
9614.000000;0.634155
9613.000000;0.634536
9612.000000;0.634795
9611.000000;0.634995
9610.000000;0.635251
9609.000000;0.635403
9608.000000;0.635254
9607.000000;0.634960
9606.000000;0.634904
9605.000000;0.635213
9604.000000;0.635599
9603.000000;0.635719
9602.000000;0.635536
9601.000000;0.635292
9600.000000;0.635185
9599.000000;0.635175
9598.000000;0.635102
9597.000000;0.634931
9596.000000;0.634782
9595.000000;0.634675
9594.000000;0.634397
9593.000000;0.633787
9592.000000;0.633106
9591.000000;0.632873
9590.000000;0.633246
9589.000000;0.633730
9588.000000;0.633697
9587.000000;0.633097
9586.000000;0.632461
9585.000000;0.632226
9584.000000;0.632283
9583.000000;0.632281
9582.000000;0.632186
9581.000000;0.632335
9580.000000;0.632927
9579.000000;0.633658
9578.000000;0.633979
9577.000000;0.633662
9576.000000;0.632970
9575.000000;0.632292
9574.000000;0.631766
9573.000000;0.631347
9572.000000;0.631084
9571.000000;0.631115
9570.000000;0.631416
9569.000000;0.631729
9568.000000;0.631828
9567.000000;0.631743
9566.000000;0.631628
9565.000000;0.631507
9564.000000;0.631308
9563.000000;0.631100
9562.000000;0.631096
9561.000000;0.631340
9560.000000;0.631565
9559.000000;0.631517
9558.000000;0.631317
9557.000000;0.631326
9556.000000;0.631671
9555.000000;0.632095
9554.000000;0.632294
9553.000000;0.632222
9552.000000;0.631998
9551.000000;0.631703
9550.000000;0.631394
9549.000000;0.631168
9548.000000;0.631051
9547.000000;0.630920
9546.000000;0.630678
9545.000000;0.630408
9544.000000;0.630228
9543.000000;0.630102
9542.000000;0.629953
9541.000000;0.629854
9540.000000;0.629877
9539.000000;0.629863
9538.000000;0.629600
9537.000000;0.629187
9536.000000;0.628946
9535.000000;0.628985
9534.000000;0.629141
9533.000000;0.629334
9532.000000;0.629660
9531.000000;0.630050
9530.000000;0.630212
9529.000000;0.630066
9528.000000;0.629930
9527.000000;0.630053
9526.000000;0.630235
9525.000000;0.630164
9524.000000;0.629908
9523.000000;0.629753
9522.000000;0.629702
9521.000000;0.629484
9520.000000;0.629014
9519.000000;0.628544
9518.000000;0.628296
9517.000000;0.628183
9516.000000;0.628003
9515.000000;0.627751
9514.000000;0.627612
9513.000000;0.627689
9512.000000;0.627878
9511.000000;0.628023
9510.000000;0.628143
9509.000000;0.628382
9508.000000;0.628709
9507.000000;0.628835
9506.000000;0.628591
9505.000000;0.628242
9504.000000;0.628173
9503.000000;0.628314
9502.000000;0.628225
9501.000000;0.627793
9500.000000;0.627468
9499.000000;0.627622
9498.000000;0.628012
9497.000000;0.628149
9496.000000;0.627949
9495.000000;0.627693
9494.000000;0.627488
9493.000000;0.627168
9492.000000;0.626686
9491.000000;0.626299
9490.000000;0.626267
9489.000000;0.626577
9488.000000;0.627006
9487.000000;0.627350
9486.000000;0.627543
9485.000000;0.627620
9484.000000;0.627588
9483.000000;0.627367
9482.000000;0.626950
9481.000000;0.626580
9480.000000;0.626558
9479.000000;0.626805
9478.000000;0.626867
9477.000000;0.626495
9476.000000;0.625987
9475.000000;0.625763
9474.000000;0.625840
9473.000000;0.625958
9472.000000;0.625989
9471.000000;0.625948
9470.000000;0.625792
9469.000000;0.625537
9468.000000;0.625449
9467.000000;0.625750
9466.000000;0.626191
9465.000000;0.626275
9464.000000;0.625874
9463.000000;0.625334
9462.000000;0.624972
9461.000000;0.624780
9460.000000;0.624628
9459.000000;0.624487
9458.000000;0.624376
9457.000000;0.624303
9456.000000;0.624278
9455.000000;0.624236
9454.000000;0.624033
9453.000000;0.623702
9452.000000;0.623564
9451.000000;0.623802
9450.000000;0.624076
9449.000000;0.623954
9448.000000;0.623617
9447.000000;0.623646
9446.000000;0.624108
9445.000000;0.624395
9444.000000;0.624109
9443.000000;0.623601
9442.000000;0.623371
9441.000000;0.623414
9440.000000;0.623466
9439.000000;0.623523
9438.000000;0.623701
9437.000000;0.623849
9436.000000;0.623726
9435.000000;0.623450
9434.000000;0.623378
9433.000000;0.623603
9432.000000;0.623859
9431.000000;0.623885
9430.000000;0.623630
9429.000000;0.623173
9428.000000;0.622682
9427.000000;0.622425
9426.000000;0.622563
9425.000000;0.622931
9424.000000;0.623186
9423.000000;0.623173
9422.000000;0.622976
9421.000000;0.622678
9420.000000;0.622313
9419.000000;0.622034
9418.000000;0.622050
9417.000000;0.622302
9416.000000;0.622396
9415.000000;0.621990
9414.000000;0.621168
9413.000000;0.620364
9412.000000;0.619978
9411.000000;0.620106
9410.000000;0.620537
9409.000000;0.620946
9408.000000;0.621137
9407.000000;0.621149
9406.000000;0.621123
9405.000000;0.621102
9404.000000;0.621017
9403.000000;0.620844
9402.000000;0.620646
9401.000000;0.620454
9400.000000;0.620236
9399.000000;0.620042
9398.000000;0.620059
9397.000000;0.620405
9396.000000;0.620927
9395.000000;0.621326
9394.000000;0.621464
9393.000000;0.621432
9392.000000;0.621312
9391.000000;0.621014
9390.000000;0.620462
9389.000000;0.619854
9388.000000;0.619530
9387.000000;0.619568
9386.000000;0.619656
9385.000000;0.619500
9384.000000;0.619225
9383.000000;0.619200
9382.000000;0.619491
9381.000000;0.619722
9380.000000;0.619534
9379.000000;0.618977
9378.000000;0.618366
9377.000000;0.617901
9376.000000;0.617631
9375.000000;0.617637
9374.000000;0.617979
9373.000000;0.618488
9372.000000;0.618845
9371.000000;0.618941
9370.000000;0.618964
9369.000000;0.619043
9368.000000;0.619022
9367.000000;0.618739
9366.000000;0.618341
9365.000000;0.618107
9364.000000;0.618047
9363.000000;0.617948
9362.000000;0.617771
9361.000000;0.617700
9360.000000;0.617781
9359.000000;0.617768
9358.000000;0.617508
9357.000000;0.617226
9356.000000;0.617226
9355.000000;0.617463
9354.000000;0.617656
9353.000000;0.617712
9352.000000;0.617776
9351.000000;0.617889
9350.000000;0.617875
9349.000000;0.617617
9348.000000;0.617242
9347.000000;0.616958
9346.000000;0.616865
9345.000000;0.616967
9344.000000;0.617198
9343.000000;0.617408
9342.000000;0.617448
9341.000000;0.617352
9340.000000;0.617269
9339.000000;0.617222
9338.000000;0.617092
9337.000000;0.616880
9336.000000;0.616754
9335.000000;0.616748
9334.000000;0.616662
9333.000000;0.616406
9332.000000;0.616211
9331.000000;0.616294
9330.000000;0.616516
9329.000000;0.616623
9328.000000;0.616638
9327.000000;0.616755
9326.000000;0.616930
9325.000000;0.616919
9324.000000;0.616688
9323.000000;0.616471
9322.000000;0.616396
9321.000000;0.616324
9320.000000;0.616147
9319.000000;0.616005
9318.000000;0.616063
9317.000000;0.616244
9316.000000;0.616330
9315.000000;0.616213
9314.000000;0.615929
9313.000000;0.615549
9312.000000;0.615155
9311.000000;0.614878
9310.000000;0.614846
9309.000000;0.615084
9308.000000;0.615480
9307.000000;0.615839
9306.000000;0.615990
9305.000000;0.615890
9304.000000;0.615649
9303.000000;0.615387
9302.000000;0.615116
9301.000000;0.614816
9300.000000;0.614562
9299.000000;0.614440
9298.000000;0.614350
9297.000000;0.614093
9296.000000;0.613692
9295.000000;0.613479
9294.000000;0.613710
9293.000000;0.614221
9292.000000;0.614578
9291.000000;0.614522
9290.000000;0.614128
9289.000000;0.613590
9288.000000;0.613015
9287.000000;0.612506
9286.000000;0.612288
9285.000000;0.612541
9284.000000;0.613123
9283.000000;0.613599
9282.000000;0.613656
9281.000000;0.613433
9280.000000;0.613304
9279.000000;0.613405
9278.000000;0.613519
9277.000000;0.613444
9276.000000;0.613283
9275.000000;0.613245
9274.000000;0.613308
9273.000000;0.613237
9272.000000;0.612879
9271.000000;0.612278
9270.000000;0.611563
9269.000000;0.610895
9268.000000;0.610484
9267.000000;0.610497
9266.000000;0.610874
9265.000000;0.611343
9264.000000;0.611662
9263.000000;0.611769
9262.000000;0.611733
9261.000000;0.611675
9260.000000;0.611752
9259.000000;0.612066
9258.000000;0.612535
9257.000000;0.612932
9256.000000;0.613109
9255.000000;0.613094
9254.000000;0.612943
9253.000000;0.612660
9252.000000;0.612304
9251.000000;0.612062
9250.000000;0.612054
9249.000000;0.612147
9248.000000;0.612086
9247.000000;0.611799
9246.000000;0.611459
9245.000000;0.611247
9244.000000;0.611162
9243.000000;0.611093
9242.000000;0.610993
9241.000000;0.610910
9240.000000;0.610885
9239.000000;0.610879
9238.000000;0.610815
9237.000000;0.610647
9236.000000;0.610379
9235.000000;0.610043
9234.000000;0.609718
9233.000000;0.609537
9232.000000;0.609613
9231.000000;0.609901
9230.000000;0.610178
9229.000000;0.610219
9228.000000;0.610023
9227.000000;0.609797
9226.000000;0.609702
9225.000000;0.609664
9224.000000;0.609493
9223.000000;0.609174
9222.000000;0.608944
9221.000000;0.609007
9220.000000;0.609271
9219.000000;0.609461
9218.000000;0.609470
9217.000000;0.609453
9216.000000;0.609528
9215.000000;0.609570
9214.000000;0.609430
9213.000000;0.609223
9212.000000;0.609178
9211.000000;0.609281
9210.000000;0.609282
9209.000000;0.609057
9208.000000;0.608725
9207.000000;0.608397
9206.000000;0.608027
9205.000000;0.607623
9204.000000;0.607357
9203.000000;0.607346
9202.000000;0.607471
9201.000000;0.607582
9200.000000;0.607715
9199.000000;0.607952
9198.000000;0.608195
9197.000000;0.608275
9196.000000;0.608166
9195.000000;0.607921
9194.000000;0.607493
9193.000000;0.606867
9192.000000;0.606274
9191.000000;0.606021
9190.000000;0.606120
9189.000000;0.606300
9188.000000;0.606406
9187.000000;0.606546
9186.000000;0.606797
9185.000000;0.606992
9184.000000;0.606929
9183.000000;0.606645
9182.000000;0.606359
9181.000000;0.606258
9180.000000;0.606418
9179.000000;0.606818
9178.000000;0.607299
9177.000000;0.607581
9176.000000;0.607477
9175.000000;0.607096
9174.000000;0.606758
9173.000000;0.606697
9172.000000;0.606856
9171.000000;0.606967
9170.000000;0.606822
9169.000000;0.606476
9168.000000;0.606201
9167.000000;0.606188
9166.000000;0.606338
9165.000000;0.606388
9164.000000;0.606250
9163.000000;0.606110
9162.000000;0.606157
9161.000000;0.606318
9160.000000;0.606352
9159.000000;0.606148
9158.000000;0.605853
9157.000000;0.605680
9156.000000;0.605698
9155.000000;0.605857
9154.000000;0.606135
9153.000000;0.606537
9152.000000;0.606920
9151.000000;0.606978
9150.000000;0.606530
9149.000000;0.605800
9148.000000;0.605257
9147.000000;0.605155
9146.000000;0.605357
9145.000000;0.605615
9144.000000;0.605843
9143.000000;0.606028
9142.000000;0.606060
9141.000000;0.605855
9140.000000;0.605551
9139.000000;0.605376
9138.000000;0.605333
9137.000000;0.605225
9136.000000;0.604974
9135.000000;0.604731
9134.000000;0.604615
9133.000000;0.604538
9132.000000;0.604384
9131.000000;0.604225
9130.000000;0.604210
9129.000000;0.604332
9128.000000;0.604444
9127.000000;0.604435
9126.000000;0.604289
9125.000000;0.603988
9124.000000;0.603521
9123.000000;0.603010
9122.000000;0.602720
9121.000000;0.602823
9120.000000;0.603205
9119.000000;0.603548
9118.000000;0.603612
9117.000000;0.603408
9116.000000;0.603124
9115.000000;0.602943
9114.000000;0.602916
9113.000000;0.602967
9112.000000;0.602972
9111.000000;0.602861
9110.000000;0.602663
9109.000000;0.602441
9108.000000;0.602207
9107.000000;0.601947
9106.000000;0.601721
9105.000000;0.601637
9104.000000;0.601693
9103.000000;0.601761
9102.000000;0.601782
9101.000000;0.601842
9100.000000;0.601968
9099.000000;0.601996
9098.000000;0.601820
9097.000000;0.601650
9096.000000;0.601785
9095.000000;0.602166
9094.000000;0.602431
9093.000000;0.602407
9092.000000;0.602289
9091.000000;0.602265
9090.000000;0.602253
9089.000000;0.602159
9088.000000;0.602133
9087.000000;0.602363
9086.000000;0.602761
9085.000000;0.603056
9084.000000;0.603083
9083.000000;0.602825
9082.000000;0.602344
9081.000000;0.601851
9080.000000;0.601687
9079.000000;0.601996
9078.000000;0.602483
9077.000000;0.602710
9076.000000;0.602564
9075.000000;0.602210
9074.000000;0.601753
9073.000000;0.601204
9072.000000;0.600738
9071.000000;0.600587
9070.000000;0.600657
9069.000000;0.600559
9068.000000;0.600145
9067.000000;0.599750
9066.000000;0.599741
9065.000000;0.600053
9064.000000;0.600356
9063.000000;0.600500
9062.000000;0.600578
9061.000000;0.600645
9060.000000;0.600615
9059.000000;0.600442
9058.000000;0.600228
9057.000000;0.600083
9056.000000;0.600009
9055.000000;0.599956
9054.000000;0.599930
9053.000000;0.599980
