Criado como novo conjunto de dados;"2706_e01_daniel.spp","17642.6 Secs"
cm-1;Abs
10000.000000;0.729226
9999.000000;0.729051
9998.000000;0.729199
9997.000000;0.729298
9996.000000;0.728922
9995.000000;0.728200
9994.000000;0.727547
9993.000000;0.727202
9992.000000;0.727045
9991.000000;0.726970
9990.000000;0.727055
9989.000000;0.727335
9988.000000;0.727579
9987.000000;0.727488
9986.000000;0.727016
9985.000000;0.726383
9984.000000;0.725868
9983.000000;0.725718
9982.000000;0.726099
9981.000000;0.726885
9980.000000;0.727561
9979.000000;0.727591
9978.000000;0.726977
9977.000000;0.726249
9976.000000;0.725868
9975.000000;0.725813
9974.000000;0.725817
9973.000000;0.725800
9972.000000;0.725892
9971.000000;0.726174
9970.000000;0.726541
9969.000000;0.726782
9968.000000;0.726703
9967.000000;0.726252
9966.000000;0.725625
9965.000000;0.725169
9964.000000;0.725045
9963.000000;0.725073
9962.000000;0.725012
9961.000000;0.724902
9960.000000;0.724913
9959.000000;0.724955
9958.000000;0.724704
9957.000000;0.724090
9956.000000;0.723503
9955.000000;0.723378
9954.000000;0.723693
9953.000000;0.724053
9952.000000;0.724198
9951.000000;0.724268
9950.000000;0.724555
9949.000000;0.725106
9948.000000;0.725639
9947.000000;0.725789
9946.000000;0.725445
9945.000000;0.724845
9944.000000;0.724369
9943.000000;0.724197
9942.000000;0.724191
9941.000000;0.724105
9940.000000;0.723854
9939.000000;0.723539
9938.000000;0.723307
9937.000000;0.723261
9936.000000;0.723451
9935.000000;0.723803
9934.000000;0.724063
9933.000000;0.723990
9932.000000;0.723677
9931.000000;0.723514
9930.000000;0.723693
9929.000000;0.723893
9928.000000;0.723640
9927.000000;0.722935
9926.000000;0.722283
9925.000000;0.722060
9924.000000;0.722089
9923.000000;0.721969
9922.000000;0.721651
9921.000000;0.721483
9920.000000;0.721717
9919.000000;0.722189
9918.000000;0.722524
9917.000000;0.722520
9916.000000;0.722259
9915.000000;0.721936
9914.000000;0.721670
9913.000000;0.721474
9912.000000;0.721288
9911.000000;0.721039
9910.000000;0.720717
9909.000000;0.720428
9908.000000;0.720351
9907.000000;0.720581
9906.000000;0.721030
9905.000000;0.721499
9904.000000;0.721826
9903.000000;0.721924
9902.000000;0.721717
9901.000000;0.721153
9900.000000;0.720349
9899.000000;0.719643
9898.000000;0.719384
9897.000000;0.719649
9896.000000;0.720187
9895.000000;0.720619
9894.000000;0.720704
9893.000000;0.720475
9892.000000;0.720200
9891.000000;0.720143
9890.000000;0.720265
9889.000000;0.720222
9888.000000;0.719739
9887.000000;0.718953
9886.000000;0.718262
9885.000000;0.717918
9884.000000;0.717890
9883.000000;0.718053
9882.000000;0.718301
9881.000000;0.718482
9880.000000;0.718475
9879.000000;0.718416
9878.000000;0.718642
9877.000000;0.719259
9876.000000;0.719937
9875.000000;0.720260
9874.000000;0.720165
9873.000000;0.719878
9872.000000;0.719520
9871.000000;0.718985
9870.000000;0.718174
9869.000000;0.717211
9868.000000;0.716391
9867.000000;0.715965
9866.000000;0.715942
9865.000000;0.716083
9864.000000;0.716152
9863.000000;0.716215
9862.000000;0.716569
9861.000000;0.717334
9860.000000;0.718230
9859.000000;0.718838
9858.000000;0.718944
9857.000000;0.718543
9856.000000;0.717712
9855.000000;0.716633
9854.000000;0.715650
9853.000000;0.715074
9852.000000;0.714984
9851.000000;0.715278
9850.000000;0.715804
9849.000000;0.716307
9848.000000;0.716448
9847.000000;0.716110
9846.000000;0.715589
9845.000000;0.715253
9844.000000;0.715089
9843.000000;0.714829
9842.000000;0.714428
9841.000000;0.714138
9840.000000;0.714128
9839.000000;0.714311
9838.000000;0.714573
9837.000000;0.714928
9836.000000;0.715355
9835.000000;0.715710
9834.000000;0.715881
9833.000000;0.715868
9832.000000;0.715654
9831.000000;0.715206
9830.000000;0.714653
9829.000000;0.714284
9828.000000;0.714272
9827.000000;0.714541
9826.000000;0.714970
9825.000000;0.715509
9824.000000;0.716024
9823.000000;0.716216
9822.000000;0.715896
9821.000000;0.715227
9820.000000;0.714564
9819.000000;0.714132
9818.000000;0.713939
9817.000000;0.713905
9816.000000;0.713954
9815.000000;0.714022
9814.000000;0.714033
9813.000000;0.713864
9812.000000;0.713380
9811.000000;0.712668
9810.000000;0.712184
9809.000000;0.712427
9808.000000;0.713340
9807.000000;0.714237
9806.000000;0.714464
9805.000000;0.714015
9804.000000;0.713392
9803.000000;0.713039
9802.000000;0.713064
9801.000000;0.713333
9800.000000;0.713566
9799.000000;0.713431
9798.000000;0.712842
9797.000000;0.712131
9796.000000;0.711735
9795.000000;0.711686
9794.000000;0.711622
9793.000000;0.711312
9792.000000;0.710939
9791.000000;0.710794
9790.000000;0.710909
9789.000000;0.711135
9788.000000;0.711420
9787.000000;0.711793
9786.000000;0.712142
9785.000000;0.712198
9784.000000;0.711826
9783.000000;0.711199
9782.000000;0.710640
9781.000000;0.710326
9780.000000;0.710217
9779.000000;0.710223
9778.000000;0.710340
9777.000000;0.710584
9776.000000;0.710882
9775.000000;0.711089
9774.000000;0.711145
9773.000000;0.711138
9772.000000;0.711181
9771.000000;0.711270
9770.000000;0.711305
9769.000000;0.711246
9768.000000;0.711175
9767.000000;0.711179
9766.000000;0.711188
9765.000000;0.711032
9764.000000;0.710666
9763.000000;0.710280
9762.000000;0.710080
9761.000000;0.710000
9760.000000;0.709733
9759.000000;0.709137
9758.000000;0.708487
9757.000000;0.708231
9756.000000;0.708506
9755.000000;0.708996
9754.000000;0.709247
9753.000000;0.709054
9752.000000;0.708545
9751.000000;0.708012
9750.000000;0.707685
9749.000000;0.707608
9748.000000;0.707646
9747.000000;0.707657
9746.000000;0.707654
9745.000000;0.707774
9744.000000;0.708032
9743.000000;0.708203
9742.000000;0.708034
9741.000000;0.707581
9740.000000;0.707233
9739.000000;0.707334
9738.000000;0.707829
9737.000000;0.708333
9736.000000;0.708539
9735.000000;0.708459
9734.000000;0.708234
9733.000000;0.707879
9732.000000;0.707350
9731.000000;0.706807
9730.000000;0.706582
9729.000000;0.706810
9728.000000;0.707243
9727.000000;0.707501
9726.000000;0.707389
9725.000000;0.706902
9724.000000;0.706129
9723.000000;0.705320
9722.000000;0.704923
9721.000000;0.705254
9720.000000;0.706109
9719.000000;0.706881
9718.000000;0.707091
9717.000000;0.706727
9716.000000;0.706088
9715.000000;0.705501
9714.000000;0.705208
9713.000000;0.705309
9712.000000;0.705704
9711.000000;0.706164
9710.000000;0.706519
9709.000000;0.706721
9708.000000;0.706731
9707.000000;0.706504
9706.000000;0.706148
9705.000000;0.705904
9704.000000;0.705858
9703.000000;0.705810
9702.000000;0.705545
9701.000000;0.705149
9700.000000;0.704924
9699.000000;0.705026
9698.000000;0.705327
9697.000000;0.705600
9696.000000;0.705748
9695.000000;0.705828
9694.000000;0.705919
9693.000000;0.706021
9692.000000;0.706037
9691.000000;0.705871
9690.000000;0.705536
9689.000000;0.705152
9688.000000;0.704840
9687.000000;0.704641
9686.000000;0.704541
9685.000000;0.704511
9684.000000;0.704506
9683.000000;0.704482
9682.000000;0.704436
9681.000000;0.704372
9680.000000;0.704222
9679.000000;0.703907
9678.000000;0.703500
9677.000000;0.703212
9676.000000;0.703138
9675.000000;0.703094
9674.000000;0.702839
9673.000000;0.702404
9672.000000;0.702086
9671.000000;0.702133
9670.000000;0.702514
9669.000000;0.702960
9668.000000;0.703133
9667.000000;0.702815
9666.000000;0.702076
9665.000000;0.701290
9664.000000;0.700879
9663.000000;0.700983
9662.000000;0.701412
9661.000000;0.701886
9660.000000;0.702240
9659.000000;0.702412
9658.000000;0.702382
9657.000000;0.702234
9656.000000;0.702150
9655.000000;0.702227
9654.000000;0.702335
9653.000000;0.702266
9652.000000;0.702017
9651.000000;0.701805
9650.000000;0.701810
9649.000000;0.701982
9648.000000;0.702122
9647.000000;0.702104
9646.000000;0.701943
9645.000000;0.701732
9644.000000;0.701521
9643.000000;0.701295
9642.000000;0.701043
9641.000000;0.700873
9640.000000;0.700965
9639.000000;0.701341
9638.000000;0.701720
9637.000000;0.701745
9636.000000;0.701380
9635.000000;0.700938
9634.000000;0.700692
9633.000000;0.700605
9632.000000;0.700502
9631.000000;0.700339
9630.000000;0.700149
9629.000000;0.699898
9628.000000;0.699601
9627.000000;0.699501
9626.000000;0.699855
9625.000000;0.700521
9624.000000;0.700977
9623.000000;0.700841
9622.000000;0.700246
9621.000000;0.699638
9620.000000;0.699338
9619.000000;0.699348
9618.000000;0.699422
9617.000000;0.699278
9616.000000;0.698852
9615.000000;0.698425
9614.000000;0.698366
9613.000000;0.698714
9612.000000;0.699146
9611.000000;0.699399
9610.000000;0.699543
9609.000000;0.699733
9608.000000;0.699885
9607.000000;0.699785
9606.000000;0.699427
9605.000000;0.699030
9604.000000;0.698775
9603.000000;0.698656
9602.000000;0.698575
9601.000000;0.698452
9600.000000;0.698263
9599.000000;0.698059
9598.000000;0.697933
9597.000000;0.697894
9596.000000;0.697822
9595.000000;0.697626
9594.000000;0.697362
9593.000000;0.697155
9592.000000;0.697076
9591.000000;0.697163
9590.000000;0.697427
9589.000000;0.697742
9588.000000;0.697856
9587.000000;0.697681
9586.000000;0.697462
9585.000000;0.697481
9584.000000;0.697673
9583.000000;0.697726
9582.000000;0.697498
9581.000000;0.697162
9580.000000;0.696944
9579.000000;0.696912
9578.000000;0.696999
9577.000000;0.697049
9576.000000;0.696858
9575.000000;0.696356
9574.000000;0.695785
9573.000000;0.695521
9572.000000;0.695683
9571.000000;0.696039
9570.000000;0.696329
9569.000000;0.696510
9568.000000;0.696648
9567.000000;0.696744
9566.000000;0.696756
9565.000000;0.696683
9564.000000;0.696545
9563.000000;0.696345
9562.000000;0.696106
9561.000000;0.695842
9560.000000;0.695512
9559.000000;0.695121
9558.000000;0.694887
9557.000000;0.695106
9556.000000;0.695735
9555.000000;0.696279
9554.000000;0.696255
9553.000000;0.695695
9552.000000;0.695041
9551.000000;0.694609
9550.000000;0.694341
9549.000000;0.694079
9548.000000;0.693878
9547.000000;0.693936
9546.000000;0.694294
9545.000000;0.694749
9544.000000;0.695084
9543.000000;0.695286
9542.000000;0.695451
9541.000000;0.695536
9540.000000;0.695354
9539.000000;0.694882
9538.000000;0.694425
9537.000000;0.694323
9536.000000;0.694552
9535.000000;0.694739
9534.000000;0.694585
9533.000000;0.694140
9532.000000;0.693663
9531.000000;0.693334
9530.000000;0.693174
9529.000000;0.693118
9528.000000;0.693082
9527.000000;0.692996
9526.000000;0.692859
9525.000000;0.692755
9524.000000;0.692775
9523.000000;0.692929
9522.000000;0.693153
9521.000000;0.693378
9520.000000;0.693547
9519.000000;0.693577
9518.000000;0.693368
9517.000000;0.692892
9516.000000;0.692302
9515.000000;0.691906
9514.000000;0.691927
9513.000000;0.692274
9512.000000;0.692582
9511.000000;0.692543
9510.000000;0.692154
9509.000000;0.691640
9508.000000;0.691217
9507.000000;0.690999
9506.000000;0.691042
9505.000000;0.691350
9504.000000;0.691799
9503.000000;0.692157
9502.000000;0.692220
9501.000000;0.691988
9500.000000;0.691694
9499.000000;0.691643
9498.000000;0.691917
9497.000000;0.692231
9496.000000;0.692188
9495.000000;0.691722
9494.000000;0.691178
9493.000000;0.690886
9492.000000;0.690802
9491.000000;0.690687
9490.000000;0.690517
9489.000000;0.690490
9488.000000;0.690688
9487.000000;0.690923
9486.000000;0.690941
9485.000000;0.690653
9484.000000;0.690150
9483.000000;0.689616
9482.000000;0.689278
9481.000000;0.689276
9480.000000;0.689527
9479.000000;0.689755
9478.000000;0.689715
9477.000000;0.689374
9476.000000;0.688906
9475.000000;0.688585
9474.000000;0.688607
9473.000000;0.688930
9472.000000;0.689258
9471.000000;0.689300
9470.000000;0.689044
9469.000000;0.688731
9468.000000;0.688587
9467.000000;0.688657
9466.000000;0.688871
9465.000000;0.689122
9464.000000;0.689317
9463.000000;0.689426
9462.000000;0.689500
9461.000000;0.689567
9460.000000;0.689539
9459.000000;0.689330
9458.000000;0.689015
9457.000000;0.688746
9456.000000;0.688531
9455.000000;0.688256
9454.000000;0.687928
9453.000000;0.687718
9452.000000;0.687737
9451.000000;0.687901
9450.000000;0.688086
9449.000000;0.688263
9448.000000;0.688415
9447.000000;0.688427
9446.000000;0.688193
9445.000000;0.687796
9444.000000;0.687503
9443.000000;0.687565
9442.000000;0.688018
9441.000000;0.688636
9440.000000;0.689069
9439.000000;0.689083
9438.000000;0.688707
9437.000000;0.688149
9436.000000;0.687585
9435.000000;0.687072
9434.000000;0.686594
9433.000000;0.686128
9432.000000;0.685696
9431.000000;0.685414
9430.000000;0.685443
9429.000000;0.685810
9428.000000;0.686334
9427.000000;0.686799
9426.000000;0.687129
9425.000000;0.687286
9424.000000;0.687114
9423.000000;0.686518
9422.000000;0.685740
9421.000000;0.685247
9420.000000;0.685261
9419.000000;0.685569
9418.000000;0.685840
9417.000000;0.685962
9416.000000;0.686002
9415.000000;0.686003
9414.000000;0.685952
9413.000000;0.685887
9412.000000;0.685899
9411.000000;0.686050
9410.000000;0.686288
9409.000000;0.686448
9408.000000;0.686368
9407.000000;0.686084
9406.000000;0.685842
9405.000000;0.685800
9404.000000;0.685796
9403.000000;0.685558
9402.000000;0.685113
9401.000000;0.684764
9400.000000;0.684655
9399.000000;0.684586
9398.000000;0.684359
9397.000000;0.684084
9396.000000;0.684013
9395.000000;0.684208
9394.000000;0.684524
9393.000000;0.684813
9392.000000;0.684998
9391.000000;0.685037
9390.000000;0.684934
9389.000000;0.684781
9388.000000;0.684684
9387.000000;0.684683
9386.000000;0.684764
9385.000000;0.684868
9384.000000;0.684846
9383.000000;0.684533
9382.000000;0.683955
9381.000000;0.683402
9380.000000;0.683188
9379.000000;0.683358
9378.000000;0.683699
9377.000000;0.683984
9376.000000;0.684123
9375.000000;0.684134
9374.000000;0.684047
9373.000000;0.683874
9372.000000;0.683639
9371.000000;0.683404
9370.000000;0.683246
9369.000000;0.683157
9368.000000;0.683018
9367.000000;0.682758
9366.000000;0.682502
9365.000000;0.682467
9364.000000;0.682695
9363.000000;0.683015
9362.000000;0.683282
9361.000000;0.683491
9360.000000;0.683615
9359.000000;0.683500
9358.000000;0.683040
9357.000000;0.682387
9356.000000;0.681876
9355.000000;0.681751
9354.000000;0.681988
9353.000000;0.682312
9352.000000;0.682362
9351.000000;0.681977
9350.000000;0.681383
9349.000000;0.681013
9348.000000;0.681067
9347.000000;0.681347
9346.000000;0.681549
9345.000000;0.681597
9344.000000;0.681587
9343.000000;0.681541
9342.000000;0.681397
9341.000000;0.681186
9340.000000;0.681065
9339.000000;0.681147
9338.000000;0.681387
9337.000000;0.681632
9336.000000;0.681715
9335.000000;0.681536
9334.000000;0.681129
9333.000000;0.680646
9332.000000;0.680232
9331.000000;0.679933
9330.000000;0.679761
9329.000000;0.679784
9328.000000;0.680042
9327.000000;0.680410
9326.000000;0.680649
9325.000000;0.680608
9324.000000;0.680333
9323.000000;0.680002
9322.000000;0.679784
9321.000000;0.679756
9320.000000;0.679893
9319.000000;0.680125
9318.000000;0.680394
9317.000000;0.680617
9316.000000;0.680637
9315.000000;0.680304
9314.000000;0.679687
9313.000000;0.679126
9312.000000;0.678972
9311.000000;0.679280
9310.000000;0.679780
9309.000000;0.680149
9308.000000;0.680273
9307.000000;0.680270
9306.000000;0.680304
9305.000000;0.680372
9304.000000;0.680280
9303.000000;0.679864
9302.000000;0.679219
9301.000000;0.678642
9300.000000;0.678351
9299.000000;0.678321
9298.000000;0.678386
9297.000000;0.678413
9296.000000;0.678347
9295.000000;0.678207
9294.000000;0.678097
9293.000000;0.678128
9292.000000;0.678271
9291.000000;0.678354
9290.000000;0.678268
9289.000000;0.678087
9288.000000;0.677947
9287.000000;0.677884
9286.000000;0.677879
9285.000000;0.677963
9284.000000;0.678161
9283.000000;0.678373
9282.000000;0.678451
9281.000000;0.678346
9280.000000;0.678125
9279.000000;0.677859
9278.000000;0.677615
9277.000000;0.677484
9276.000000;0.677525
9275.000000;0.677658
9274.000000;0.677717
9273.000000;0.677624
9272.000000;0.677429
9271.000000;0.677205
9270.000000;0.676980
9269.000000;0.676784
9268.000000;0.676656
9267.000000;0.676588
9266.000000;0.676512
9265.000000;0.676405
9264.000000;0.676358
9263.000000;0.676466
9262.000000;0.676677
9261.000000;0.676793
9260.000000;0.676658
9259.000000;0.676336
9258.000000;0.676060
9257.000000;0.675986
9256.000000;0.676042
9255.000000;0.676043
9254.000000;0.675921
9253.000000;0.675751
9252.000000;0.675592
9251.000000;0.675432
9250.000000;0.675290
9249.000000;0.675239
9248.000000;0.675268
9247.000000;0.675245
9246.000000;0.675099
9245.000000;0.674955
9244.000000;0.674962
9243.000000;0.675048
9242.000000;0.675010
9241.000000;0.674806
9240.000000;0.674625
9239.000000;0.674656
9238.000000;0.674871
9237.000000;0.675076
9236.000000;0.675079
9235.000000;0.674818
9234.000000;0.674392
9233.000000;0.674010
9232.000000;0.673857
9231.000000;0.673973
9230.000000;0.674251
9229.000000;0.674555
9228.000000;0.674782
9227.000000;0.674871
9226.000000;0.674822
9225.000000;0.674724
9224.000000;0.674671
9223.000000;0.674638
9222.000000;0.674494
9221.000000;0.674168
9220.000000;0.673755
9219.000000;0.673425
9218.000000;0.673259
9217.000000;0.673198
9216.000000;0.673124
9215.000000;0.672988
9214.000000;0.672869
9213.000000;0.672921
9212.000000;0.673221
9211.000000;0.673651
9210.000000;0.673953
9209.000000;0.673932
9208.000000;0.673605
9207.000000;0.673155
9206.000000;0.672780
9205.000000;0.672583
9204.000000;0.672560
9203.000000;0.672622
9202.000000;0.672652
9201.000000;0.672589
9200.000000;0.672486
9199.000000;0.672451
9198.000000;0.672515
9197.000000;0.672564
9196.000000;0.672418
9195.000000;0.672011
9194.000000;0.671481
9193.000000;0.671095
9192.000000;0.671048
9191.000000;0.671318
9190.000000;0.671683
9189.000000;0.671884
9188.000000;0.671800
9187.000000;0.671510
9186.000000;0.671207
9185.000000;0.671065
9184.000000;0.671136
9183.000000;0.671335
9182.000000;0.671488
9181.000000;0.671451
9180.000000;0.671239
9179.000000;0.671015
9178.000000;0.670939
9177.000000;0.671010
9176.000000;0.671122
9175.000000;0.671225
9174.000000;0.671350
9173.000000;0.671466
9172.000000;0.671432
9171.000000;0.671171
9170.000000;0.670791
9169.000000;0.670457
9168.000000;0.670202
9167.000000;0.669998
9166.000000;0.669901
9165.000000;0.669998
9164.000000;0.670194
9163.000000;0.670255
9162.000000;0.670100
9161.000000;0.669916
9160.000000;0.669886
9159.000000;0.669935
9158.000000;0.669858
9157.000000;0.669636
9156.000000;0.669476
9155.000000;0.669548
9154.000000;0.669795
9153.000000;0.670021
9152.000000;0.670085
9151.000000;0.669987
9150.000000;0.669812
9149.000000;0.669656
9148.000000;0.669569
9147.000000;0.669540
9146.000000;0.669529
9145.000000;0.669514
9144.000000;0.669520
9143.000000;0.669582
9142.000000;0.669672
9141.000000;0.669691
9140.000000;0.669547
9139.000000;0.669254
9138.000000;0.668917
9137.000000;0.668631
9136.000000;0.668424
9135.000000;0.668299
9134.000000;0.668280
9133.000000;0.668368
9132.000000;0.668497
9131.000000;0.668593
9130.000000;0.668646
9129.000000;0.668666
9128.000000;0.668609
9127.000000;0.668422
9126.000000;0.668148
9125.000000;0.667890
9124.000000;0.667688
9123.000000;0.667510
9122.000000;0.667391
9121.000000;0.667457
9120.000000;0.667770
9119.000000;0.668187
9118.000000;0.668465
9117.000000;0.668464
9116.000000;0.668229
9115.000000;0.667916
9114.000000;0.667680
9113.000000;0.667607
9112.000000;0.667672
9111.000000;0.667775
9110.000000;0.667836
9109.000000;0.667844
9108.000000;0.667836
9107.000000;0.667829
9106.000000;0.667802
9105.000000;0.667714
9104.000000;0.667535
9103.000000;0.667288
9102.000000;0.667056
9101.000000;0.666923
9100.000000;0.666898
9099.000000;0.666935
9098.000000;0.667006
9097.000000;0.667119
9096.000000;0.667227
9095.000000;0.667210
9094.000000;0.666990
9093.000000;0.666641
9092.000000;0.666350
9091.000000;0.666260
9090.000000;0.666363
9089.000000;0.666521
9088.000000;0.666594
9087.000000;0.666543
9086.000000;0.666439
9085.000000;0.666355
9084.000000;0.666300
9083.000000;0.666245
9082.000000;0.666181
9081.000000;0.666089
9080.000000;0.665906
9079.000000;0.665615
9078.000000;0.665328
9077.000000;0.665186
9076.000000;0.665168
9075.000000;0.665109
9074.000000;0.664937
9073.000000;0.664769
9072.000000;0.664722
9071.000000;0.664736
9070.000000;0.664688
9069.000000;0.664591
9068.000000;0.664576
9067.000000;0.664704
9066.000000;0.664893
9065.000000;0.665025
9064.000000;0.665042
9063.000000;0.664933
9062.000000;0.664736
9061.000000;0.664551
9060.000000;0.664502
9059.000000;0.664627
9058.000000;0.664823
9057.000000;0.664923
9056.000000;0.664835
9055.000000;0.664605
9054.000000;0.664361
9053.000000;0.664207
