Criado como novo conjunto de dados;"2706_e01_daniel.spp","62465.0 Secs"
cm-1;Abs
10000.000000;0.702541
9999.000000;0.702832
9998.000000;0.703124
9997.000000;0.703415
9996.000000;0.703707
9995.000000;0.703998
9994.000000;0.704291
9993.000000;0.704582
9992.000000;0.704877
9991.000000;0.705068
9990.000000;0.705227
9989.000000;0.705651
9988.000000;0.706306
9987.000000;0.706808
9986.000000;0.706827
9985.000000;0.706231
9984.000000;0.705045
9983.000000;0.703551
9982.000000;0.702276
9981.000000;0.701558
9980.000000;0.701254
9979.000000;0.701113
9978.000000;0.701234
9977.000000;0.701810
9976.000000;0.702550
9975.000000;0.702817
9974.000000;0.702370
9973.000000;0.701647
9972.000000;0.701291
9971.000000;0.701681
9970.000000;0.702863
9969.000000;0.704531
9968.000000;0.706002
9967.000000;0.706603
9966.000000;0.706246
9965.000000;0.705405
9964.000000;0.704502
9963.000000;0.703638
9962.000000;0.702886
9961.000000;0.702423
9960.000000;0.702193
9959.000000;0.701841
9958.000000;0.701203
9957.000000;0.700594
9956.000000;0.700369
9955.000000;0.700464
9954.000000;0.700628
9953.000000;0.700849
9952.000000;0.701208
9951.000000;0.701510
9950.000000;0.701409
9949.000000;0.700877
9948.000000;0.700234
9947.000000;0.699759
9946.000000;0.699517
9945.000000;0.699509
9944.000000;0.699699
9943.000000;0.699870
9942.000000;0.699757
9941.000000;0.699432
9940.000000;0.699327
9939.000000;0.699697
9938.000000;0.700209
9937.000000;0.700242
9936.000000;0.699554
9935.000000;0.698496
9934.000000;0.697548
9933.000000;0.696808
9932.000000;0.696043
9931.000000;0.695190
9930.000000;0.694627
9929.000000;0.694846
9928.000000;0.695949
9927.000000;0.697520
9926.000000;0.698936
9925.000000;0.699764
9924.000000;0.699918
9923.000000;0.699592
9922.000000;0.699085
9921.000000;0.698584
9920.000000;0.698025
9919.000000;0.697207
9918.000000;0.696109
9917.000000;0.695065
9916.000000;0.694552
9915.000000;0.694798
9914.000000;0.695583
9913.000000;0.696389
9912.000000;0.696764
9911.000000;0.696618
9910.000000;0.696223
9909.000000;0.695952
9908.000000;0.696004
9907.000000;0.696327
9906.000000;0.696693
9905.000000;0.696809
9904.000000;0.696461
9903.000000;0.695686
9902.000000;0.694759
9901.000000;0.693940
9900.000000;0.693294
9899.000000;0.692837
9898.000000;0.692721
9897.000000;0.693061
9896.000000;0.693645
9895.000000;0.694073
9894.000000;0.694252
9893.000000;0.694492
9892.000000;0.694979
9891.000000;0.695411
9890.000000;0.695364
9889.000000;0.694882
9888.000000;0.694451
9887.000000;0.694425
9886.000000;0.694667
9885.000000;0.694756
9884.000000;0.694405
9883.000000;0.693659
9882.000000;0.692833
9881.000000;0.692265
9880.000000;0.692067
9879.000000;0.692046
9878.000000;0.691928
9877.000000;0.691655
9876.000000;0.691439
9875.000000;0.691555
9874.000000;0.692117
9873.000000;0.692982
9872.000000;0.693796
9871.000000;0.694179
9870.000000;0.694020
9869.000000;0.693586
9868.000000;0.693279
9867.000000;0.693260
9866.000000;0.693354
9865.000000;0.693260
9864.000000;0.692799
9863.000000;0.692033
9862.000000;0.691295
9861.000000;0.691075
9860.000000;0.691683
9859.000000;0.692894
9858.000000;0.694008
9857.000000;0.694392
9856.000000;0.693972
9855.000000;0.693190
9854.000000;0.692540
9853.000000;0.692193
9852.000000;0.692003
9851.000000;0.691747
9850.000000;0.691345
9849.000000;0.690885
9848.000000;0.690492
9847.000000;0.690194
9846.000000;0.689929
9845.000000;0.689673
9844.000000;0.689503
9843.000000;0.689541
9842.000000;0.689804
9841.000000;0.690138
9840.000000;0.690295
9839.000000;0.690123
9838.000000;0.689704
9837.000000;0.689264
9836.000000;0.688961
9835.000000;0.688819
9834.000000;0.688890
9833.000000;0.689317
9832.000000;0.690070
9831.000000;0.690709
9830.000000;0.690685
9829.000000;0.689957
9828.000000;0.689117
9827.000000;0.688798
9826.000000;0.689069
9825.000000;0.689526
9824.000000;0.689809
9823.000000;0.689847
9822.000000;0.689679
9821.000000;0.689297
9820.000000;0.688751
9819.000000;0.688240
9818.000000;0.687975
9817.000000;0.688023
9816.000000;0.688320
9815.000000;0.688746
9814.000000;0.689103
9813.000000;0.689124
9812.000000;0.688656
9811.000000;0.687861
9810.000000;0.687148
9809.000000;0.686857
9808.000000;0.687014
9807.000000;0.687386
9806.000000;0.687728
9805.000000;0.687971
9804.000000;0.688214
9803.000000;0.688555
9802.000000;0.688916
9801.000000;0.689039
9800.000000;0.688701
9799.000000;0.687936
9798.000000;0.687034
9797.000000;0.686278
9796.000000;0.685731
9795.000000;0.685291
9794.000000;0.684904
9793.000000;0.684620
9792.000000;0.684458
9791.000000;0.684346
9790.000000;0.684283
9789.000000;0.684428
9788.000000;0.684880
9787.000000;0.685369
9786.000000;0.685387
9785.000000;0.684745
9784.000000;0.683906
9783.000000;0.683571
9782.000000;0.683953
9781.000000;0.684600
9780.000000;0.684941
9779.000000;0.684882
9778.000000;0.684775
9777.000000;0.684913
9776.000000;0.685187
9775.000000;0.685233
9774.000000;0.684810
9773.000000;0.684003
9772.000000;0.683152
9771.000000;0.682598
9770.000000;0.682458
9769.000000;0.682592
9768.000000;0.682776
9767.000000;0.682899
9766.000000;0.682994
9765.000000;0.683112
9764.000000;0.683264
9763.000000;0.683477
9762.000000;0.683805
9761.000000;0.684209
9760.000000;0.684494
9759.000000;0.684462
9758.000000;0.684145
9757.000000;0.683789
9756.000000;0.683620
9755.000000;0.683699
9754.000000;0.683985
9753.000000;0.684388
9752.000000;0.684653
9751.000000;0.684364
9750.000000;0.683288
9749.000000;0.681732
9748.000000;0.680354
9747.000000;0.679538
9746.000000;0.679089
9745.000000;0.678648
9744.000000;0.678251
9743.000000;0.678308
9742.000000;0.679037
9741.000000;0.680135
9740.000000;0.681056
9739.000000;0.681526
9738.000000;0.681720
9737.000000;0.681993
9736.000000;0.682505
9735.000000;0.683069
9734.000000;0.683350
9733.000000;0.683213
9732.000000;0.682828
9731.000000;0.682386
9730.000000;0.681834
9729.000000;0.681018
9728.000000;0.680036
9727.000000;0.679215
9726.000000;0.678715
9725.000000;0.678356
9724.000000;0.677947
9723.000000;0.677609
9722.000000;0.677620
9721.000000;0.678045
9720.000000;0.678661
9719.000000;0.679190
9718.000000;0.679499
9717.000000;0.679632
9716.000000;0.679749
9715.000000;0.679961
9714.000000;0.680127
9713.000000;0.679914
9712.000000;0.679231
9711.000000;0.678490
9710.000000;0.678242
9709.000000;0.678584
9708.000000;0.679085
9707.000000;0.679288
9706.000000;0.679118
9705.000000;0.678783
9704.000000;0.678458
9703.000000;0.678165
9702.000000;0.677831
9701.000000;0.677414
9700.000000;0.677016
9699.000000;0.676819
9698.000000;0.676817
9697.000000;0.676685
9696.000000;0.676158
9695.000000;0.675501
9694.000000;0.675315
9693.000000;0.675786
9692.000000;0.676403
9691.000000;0.676572
9690.000000;0.676298
9689.000000;0.676048
9688.000000;0.676089
9687.000000;0.676229
9686.000000;0.676160
9685.000000;0.675833
9684.000000;0.675456
9683.000000;0.675264
9682.000000;0.675319
9681.000000;0.675467
9680.000000;0.675490
9679.000000;0.675320
9678.000000;0.675069
9677.000000;0.674824
9676.000000;0.674542
9675.000000;0.674232
9674.000000;0.674093
9673.000000;0.674291
9672.000000;0.674682
9671.000000;0.674965
9670.000000;0.675091
9669.000000;0.675288
9668.000000;0.675635
9667.000000;0.675811
9666.000000;0.675454
9665.000000;0.674665
9664.000000;0.673976
9663.000000;0.673802
9662.000000;0.674009
9661.000000;0.674095
9660.000000;0.673790
9659.000000;0.673375
9658.000000;0.673337
9657.000000;0.673784
9656.000000;0.674338
9655.000000;0.674608
9654.000000;0.674613
9653.000000;0.674622
9652.000000;0.674693
9651.000000;0.674567
9650.000000;0.674000
9649.000000;0.673078
9648.000000;0.672198
9647.000000;0.671798
9646.000000;0.672061
9645.000000;0.672758
9644.000000;0.673369
9643.000000;0.673479
9642.000000;0.673097
9641.000000;0.672572
9640.000000;0.672223
9639.000000;0.672143
9638.000000;0.672276
9637.000000;0.672538
9636.000000;0.672805
9635.000000;0.672920
9634.000000;0.672787
9633.000000;0.672424
9632.000000;0.671909
9631.000000;0.671311
9630.000000;0.670713
9629.000000;0.670231
9628.000000;0.669980
9627.000000;0.670025
9626.000000;0.670343
9625.000000;0.670795
9624.000000;0.671157
9623.000000;0.671278
9622.000000;0.671194
9621.000000;0.671046
9620.000000;0.670919
9619.000000;0.670830
9618.000000;0.670844
9617.000000;0.671034
9616.000000;0.671336
9615.000000;0.671571
9614.000000;0.671644
9613.000000;0.671620
9612.000000;0.671541
9611.000000;0.671290
9610.000000;0.670723
9609.000000;0.669836
9608.000000;0.668732
9607.000000;0.667534
9606.000000;0.666428
9605.000000;0.665703
9604.000000;0.665575
9603.000000;0.665964
9602.000000;0.666562
9601.000000;0.667140
9600.000000;0.667725
9599.000000;0.668435
9598.000000;0.669224
9597.000000;0.669863
9596.000000;0.670179
9595.000000;0.670251
9594.000000;0.670303
9593.000000;0.670403
9592.000000;0.670360
9591.000000;0.669993
9590.000000;0.669413
9589.000000;0.668898
9588.000000;0.668498
9587.000000;0.667988
9586.000000;0.667274
9585.000000;0.666644
9584.000000;0.666436
9583.000000;0.666591
9582.000000;0.666734
9581.000000;0.666679
9580.000000;0.666628
9579.000000;0.666832
9578.000000;0.667255
9577.000000;0.667663
9576.000000;0.667940
9575.000000;0.668170
9574.000000;0.668456
9573.000000;0.668744
9572.000000;0.668817
9571.000000;0.668463
9570.000000;0.667697
9569.000000;0.666851
9568.000000;0.666332
9567.000000;0.666231
9566.000000;0.666252
9565.000000;0.666093
9564.000000;0.665811
9563.000000;0.665697
9562.000000;0.665850
9561.000000;0.666037
9560.000000;0.665973
9559.000000;0.665611
9558.000000;0.665104
9557.000000;0.664644
9556.000000;0.664398
9555.000000;0.664493
9554.000000;0.664946
9553.000000;0.665619
9552.000000;0.666332
9551.000000;0.666993
9550.000000;0.667576
9549.000000;0.668013
9548.000000;0.668189
9547.000000;0.668022
9546.000000;0.667503
9545.000000;0.666668
9544.000000;0.665630
9543.000000;0.664596
9542.000000;0.663777
9541.000000;0.663273
9540.000000;0.663091
9539.000000;0.663223
9538.000000;0.663590
9537.000000;0.663952
9536.000000;0.664048
9535.000000;0.663897
9534.000000;0.663821
9533.000000;0.664044
9532.000000;0.664367
9531.000000;0.664378
9530.000000;0.663927
9529.000000;0.663237
9528.000000;0.662593
9527.000000;0.662085
9526.000000;0.661731
9525.000000;0.661660
9524.000000;0.662011
9523.000000;0.662696
9522.000000;0.663359
9521.000000;0.663616
9520.000000;0.663305
9519.000000;0.662567
9518.000000;0.661750
9517.000000;0.661222
9516.000000;0.661190
9515.000000;0.661612
9514.000000;0.662256
9513.000000;0.662840
9512.000000;0.663139
9511.000000;0.663054
9510.000000;0.662664
9509.000000;0.662192
9508.000000;0.661834
9507.000000;0.661566
9506.000000;0.661194
9505.000000;0.660633
9504.000000;0.660084
9503.000000;0.659874
9502.000000;0.660131
9501.000000;0.660668
9500.000000;0.661159
9499.000000;0.661387
9498.000000;0.661351
9497.000000;0.661202
9496.000000;0.661111
9495.000000;0.661122
9494.000000;0.661098
9493.000000;0.660847
9492.000000;0.660318
9491.000000;0.659654
9490.000000;0.659065
9489.000000;0.658716
9488.000000;0.658703
9487.000000;0.659036
9486.000000;0.659564
9485.000000;0.660026
9484.000000;0.660258
9483.000000;0.660315
9482.000000;0.660302
9481.000000;0.660146
9480.000000;0.659681
9479.000000;0.658920
9478.000000;0.658137
9477.000000;0.657656
9476.000000;0.657654
9475.000000;0.658141
9474.000000;0.658954
9473.000000;0.659705
9472.000000;0.659910
9471.000000;0.659373
9470.000000;0.658443
9469.000000;0.657772
9468.000000;0.657759
9467.000000;0.658247
9466.000000;0.658739
9465.000000;0.658870
9464.000000;0.658666
9463.000000;0.658387
9462.000000;0.658180
9461.000000;0.657933
9460.000000;0.657482
9459.000000;0.656894
9458.000000;0.656421
9457.000000;0.656178
9456.000000;0.655988
9455.000000;0.655623
9454.000000;0.655109
9453.000000;0.654671
9452.000000;0.654440
9451.000000;0.654377
9450.000000;0.654483
9449.000000;0.654916
9448.000000;0.655749
9447.000000;0.656691
9446.000000;0.657188
9445.000000;0.656920
9444.000000;0.656141
9443.000000;0.655470
9442.000000;0.655326
9441.000000;0.655626
9440.000000;0.656002
9439.000000;0.656224
9438.000000;0.656308
9437.000000;0.656282
9436.000000;0.656029
9435.000000;0.655501
9434.000000;0.654952
9433.000000;0.654786
9432.000000;0.655110
9431.000000;0.655540
9430.000000;0.655568
9429.000000;0.655093
9428.000000;0.654498
9427.000000;0.654189
9426.000000;0.654152
9425.000000;0.654073
9424.000000;0.653814
9423.000000;0.653626
9422.000000;0.653819
9421.000000;0.654365
9420.000000;0.654967
9419.000000;0.655429
9418.000000;0.655787
9417.000000;0.656063
9416.000000;0.656101
9415.000000;0.655775
9414.000000;0.655230
9413.000000;0.654754
9412.000000;0.654440
9411.000000;0.654121
9410.000000;0.653660
9409.000000;0.653187
9408.000000;0.652954
9407.000000;0.653020
9406.000000;0.653149
9405.000000;0.653064
9404.000000;0.652777
9403.000000;0.652608
9402.000000;0.652844
9401.000000;0.653400
9400.000000;0.653893
9399.000000;0.654055
9398.000000;0.654003
9397.000000;0.654044
9396.000000;0.654257
9395.000000;0.654367
9394.000000;0.654054
9393.000000;0.653301
9392.000000;0.652407
9391.000000;0.651686
9390.000000;0.651211
9389.000000;0.650850
9388.000000;0.650469
9387.000000;0.650056
9386.000000;0.649698
9385.000000;0.649526
9384.000000;0.649678
9383.000000;0.650197
9382.000000;0.650906
9381.000000;0.651442
9380.000000;0.651545
9379.000000;0.651290
9378.000000;0.650987
9377.000000;0.650857
9376.000000;0.650895
9375.000000;0.650999
9374.000000;0.651117
9373.000000;0.651200
9372.000000;0.651137
9371.000000;0.650812
9370.000000;0.650239
9369.000000;0.649617
9368.000000;0.649232
9367.000000;0.649241
9366.000000;0.649487
9365.000000;0.649602
9364.000000;0.649401
9363.000000;0.649141
9362.000000;0.649219
9361.000000;0.649645
9360.000000;0.649996
9359.000000;0.649944
9358.000000;0.649617
9357.000000;0.649339
9356.000000;0.649204
9355.000000;0.649101
9354.000000;0.649031
9353.000000;0.649128
9352.000000;0.649380
9351.000000;0.649540
9350.000000;0.649406
9349.000000;0.649086
9348.000000;0.648886
9347.000000;0.648968
9346.000000;0.649168
9345.000000;0.649177
9344.000000;0.648893
9343.000000;0.648559
9342.000000;0.648490
9341.000000;0.648682
9340.000000;0.648810
9339.000000;0.648654
9338.000000;0.648391
9337.000000;0.648342
9336.000000;0.648544
9335.000000;0.648734
9334.000000;0.648703
9333.000000;0.648479
9332.000000;0.648180
9331.000000;0.647874
9330.000000;0.647638
9329.000000;0.647586
9328.000000;0.647705
9327.000000;0.647745
9326.000000;0.647434
9325.000000;0.646791
9324.000000;0.646153
9323.000000;0.645823
9322.000000;0.645752
9321.000000;0.645617
9320.000000;0.645225
9319.000000;0.644784
9318.000000;0.644697
9317.000000;0.645118
9316.000000;0.645791
9315.000000;0.646346
9314.000000;0.646659
9313.000000;0.646840
9312.000000;0.646993
9311.000000;0.647121
9310.000000;0.647227
9309.000000;0.647354
9308.000000;0.647495
9307.000000;0.647532
9306.000000;0.647352
9305.000000;0.646977
9304.000000;0.646554
9303.000000;0.646231
9302.000000;0.646040
9301.000000;0.645899
9300.000000;0.645741
9299.000000;0.645605
9298.000000;0.645566
9297.000000;0.645577
9296.000000;0.645497
9295.000000;0.645308
9294.000000;0.645178
9293.000000;0.645213
9292.000000;0.645254
9291.000000;0.645072
9290.000000;0.644714
9289.000000;0.644483
9288.000000;0.644558
9287.000000;0.644789
9286.000000;0.644892
9285.000000;0.644757
9284.000000;0.644514
9283.000000;0.644353
9282.000000;0.644337
9281.000000;0.644356
9280.000000;0.644237
9279.000000;0.643935
9278.000000;0.643592
9277.000000;0.643403
9276.000000;0.643447
9275.000000;0.643703
9274.000000;0.644125
9273.000000;0.644578
9272.000000;0.644782
9271.000000;0.644486
9270.000000;0.643761
9269.000000;0.642982
9268.000000;0.642459
9267.000000;0.642185
9266.000000;0.641966
9265.000000;0.641694
9264.000000;0.641433
9263.000000;0.641307
9262.000000;0.641350
9261.000000;0.641461
9260.000000;0.641479
9259.000000;0.641353
9258.000000;0.641236
9257.000000;0.641344
9256.000000;0.641731
9255.000000;0.642263
9254.000000;0.642783
9253.000000;0.643197
9252.000000;0.643387
9251.000000;0.643208
9250.000000;0.642650
9249.000000;0.641910
9248.000000;0.641235
9247.000000;0.640728
9246.000000;0.640353
9245.000000;0.640039
9244.000000;0.639758
9243.000000;0.639576
9242.000000;0.639623
9241.000000;0.639953
9240.000000;0.640406
9239.000000;0.640719
9238.000000;0.640786
9237.000000;0.640701
9236.000000;0.640518
9235.000000;0.640137
9234.000000;0.639525
9233.000000;0.638889
9232.000000;0.638504
9231.000000;0.638442
9230.000000;0.638592
9229.000000;0.638859
9228.000000;0.639216
9227.000000;0.639611
9226.000000;0.639918
9225.000000;0.640006
9224.000000;0.639799
9223.000000;0.639360
9222.000000;0.638931
9221.000000;0.638778
9220.000000;0.638862
9219.000000;0.638778
9218.000000;0.638218
9217.000000;0.637417
9216.000000;0.636964
9215.000000;0.637170
9214.000000;0.637805
9213.000000;0.638423
9212.000000;0.638772
9211.000000;0.638830
9210.000000;0.638659
9209.000000;0.638365
9208.000000;0.638105
9207.000000;0.637977
9206.000000;0.637920
9205.000000;0.637766
9204.000000;0.637402
9203.000000;0.636856
9202.000000;0.636281
9201.000000;0.635866
9200.000000;0.635725
9199.000000;0.635827
9198.000000;0.636068
9197.000000;0.636376
9196.000000;0.636679
9195.000000;0.636797
9194.000000;0.636538
9193.000000;0.635976
9192.000000;0.635502
9191.000000;0.635476
9190.000000;0.635858
9189.000000;0.636307
9188.000000;0.636584
9187.000000;0.636727
9186.000000;0.636844
9185.000000;0.636905
9184.000000;0.636842
9183.000000;0.636729
9182.000000;0.636708
9181.000000;0.636730
9180.000000;0.636524
9179.000000;0.635911
9178.000000;0.635098
9177.000000;0.634538
9176.000000;0.634498
9175.000000;0.634833
9174.000000;0.635198
9173.000000;0.635407
9172.000000;0.635506
9171.000000;0.635570
9170.000000;0.635556
9169.000000;0.635400
9168.000000;0.635178
9167.000000;0.635092
9166.000000;0.635289
9165.000000;0.635704
9164.000000;0.636093
9163.000000;0.636218
9162.000000;0.636010
9161.000000;0.635554
9160.000000;0.634955
9159.000000;0.634280
9158.000000;0.633653
9157.000000;0.633285
9156.000000;0.633295
9155.000000;0.633535
9154.000000;0.633689
9153.000000;0.633572
9152.000000;0.633274
9151.000000;0.633012
9150.000000;0.632932
9149.000000;0.633043
9148.000000;0.633228
9147.000000;0.633303
9146.000000;0.633153
9145.000000;0.632878
9144.000000;0.632711
9143.000000;0.632739
9142.000000;0.632783
9141.000000;0.632634
9140.000000;0.632327
9139.000000;0.632097
9138.000000;0.632102
9137.000000;0.632315
9136.000000;0.632619
9135.000000;0.632911
9134.000000;0.633106
9133.000000;0.633176
9132.000000;0.633200
9131.000000;0.633270
9130.000000;0.633323
9129.000000;0.633171
9128.000000;0.632742
9127.000000;0.632224
9126.000000;0.631874
9125.000000;0.631751
9124.000000;0.631703
9123.000000;0.631592
9122.000000;0.631445
9121.000000;0.631373
9120.000000;0.631412
9119.000000;0.631506
9118.000000;0.631610
9117.000000;0.631753
9116.000000;0.631956
9115.000000;0.632117
9114.000000;0.632047
9113.000000;0.631656
9112.000000;0.631073
9111.000000;0.630533
9110.000000;0.630180
9109.000000;0.630010
9108.000000;0.629988
9107.000000;0.630102
9106.000000;0.630285
9105.000000;0.630361
9104.000000;0.630192
9103.000000;0.629837
9102.000000;0.629512
9101.000000;0.629381
9100.000000;0.629425
9099.000000;0.629548
9098.000000;0.629717
9097.000000;0.629971
9096.000000;0.630286
9095.000000;0.630531
9094.000000;0.630570
9093.000000;0.630402
9092.000000;0.630140
9091.000000;0.629886
9090.000000;0.629676
9089.000000;0.629532
9088.000000;0.629476
9087.000000;0.629436
9086.000000;0.629231
9085.000000;0.628762
9084.000000;0.628203
9083.000000;0.627882
9082.000000;0.627949
9081.000000;0.628229
9080.000000;0.628419
9079.000000;0.628365
9078.000000;0.628107
9077.000000;0.627754
9076.000000;0.627400
9075.000000;0.627128
9074.000000;0.627031
9073.000000;0.627163
9072.000000;0.627481
9071.000000;0.627823
9070.000000;0.628002
9069.000000;0.627965
9068.000000;0.627887
9067.000000;0.627995
9066.000000;0.628290
9065.000000;0.628487
9064.000000;0.628301
9063.000000;0.627754
9062.000000;0.627141
9061.000000;0.626753
9060.000000;0.626670
9059.000000;0.626780
9058.000000;0.626914
9057.000000;0.626963
9056.000000;0.626912
9055.000000;0.626783
9054.000000;0.626569
9053.000000;0.626252
