Criado como novo conjunto de dados;"2706_e01_daniel.spp","11342.4 Secs"
cm-1;Abs
10000.000000;0.749517
9999.000000;0.749556
9998.000000;0.749589
9997.000000;0.749632
9996.000000;0.749659
9995.000000;0.749719
9994.000000;0.749681
9993.000000;0.749345
9992.000000;0.749137
9991.000000;0.749374
9990.000000;0.749911
9989.000000;0.750273
9988.000000;0.750251
9987.000000;0.750061
9986.000000;0.749940
9985.000000;0.749804
9984.000000;0.749424
9983.000000;0.748843
9982.000000;0.748433
9981.000000;0.748519
9980.000000;0.749024
9979.000000;0.749514
9978.000000;0.749588
9977.000000;0.749212
9976.000000;0.748655
9975.000000;0.748109
9974.000000;0.747489
9973.000000;0.746699
9972.000000;0.745983
9971.000000;0.745798
9970.000000;0.746320
9969.000000;0.747230
9968.000000;0.748041
9967.000000;0.748480
9966.000000;0.748489
9965.000000;0.748057
9964.000000;0.747279
9963.000000;0.746473
9962.000000;0.746033
9961.000000;0.746117
9960.000000;0.746575
9959.000000;0.747129
9958.000000;0.747529
9957.000000;0.747593
9956.000000;0.747273
9955.000000;0.746759
9954.000000;0.746409
9953.000000;0.746501
9952.000000;0.747037
9951.000000;0.747711
9950.000000;0.748052
9949.000000;0.747706
9948.000000;0.746766
9947.000000;0.745777
9946.000000;0.745299
9945.000000;0.745433
9944.000000;0.745843
9943.000000;0.746164
9942.000000;0.746239
9941.000000;0.746037
9940.000000;0.745611
9939.000000;0.745202
9938.000000;0.745129
9937.000000;0.745423
9936.000000;0.745721
9935.000000;0.745668
9934.000000;0.745294
9933.000000;0.744862
9932.000000;0.744489
9931.000000;0.744128
9930.000000;0.743815
9929.000000;0.743669
9928.000000;0.743649
9927.000000;0.743571
9926.000000;0.743433
9925.000000;0.743542
9924.000000;0.744149
9923.000000;0.745061
9922.000000;0.745774
9921.000000;0.745960
9920.000000;0.745720
9919.000000;0.745336
9918.000000;0.744933
9917.000000;0.744459
9916.000000;0.743935
9915.000000;0.743553
9914.000000;0.743471
9913.000000;0.743585
9912.000000;0.743616
9911.000000;0.743428
9910.000000;0.743156
9909.000000;0.742951
9908.000000;0.742733
9907.000000;0.742296
9906.000000;0.741654
9905.000000;0.741104
9904.000000;0.740933
9903.000000;0.741124
9902.000000;0.741427
9901.000000;0.741641
9900.000000;0.741737
9899.000000;0.741767
9898.000000;0.741766
9897.000000;0.741768
9896.000000;0.741820
9895.000000;0.741922
9894.000000;0.742004
9893.000000;0.742004
9892.000000;0.741936
9891.000000;0.741835
9890.000000;0.741685
9889.000000;0.741490
9888.000000;0.741366
9887.000000;0.741424
9886.000000;0.741546
9885.000000;0.741443
9884.000000;0.741032
9883.000000;0.740653
9882.000000;0.740717
9881.000000;0.741186
9880.000000;0.741579
9879.000000;0.741514
9878.000000;0.741096
9877.000000;0.740708
9876.000000;0.740578
9875.000000;0.740668
9874.000000;0.740847
9873.000000;0.740992
9872.000000;0.740970
9871.000000;0.740673
9870.000000;0.740119
9869.000000;0.739460
9868.000000;0.738899
9867.000000;0.738618
9866.000000;0.738716
9865.000000;0.739103
9864.000000;0.739484
9863.000000;0.739588
9862.000000;0.739432
9861.000000;0.739254
9860.000000;0.739202
9859.000000;0.739205
9858.000000;0.739173
9857.000000;0.739168
9856.000000;0.739283
9855.000000;0.739471
9854.000000;0.739575
9853.000000;0.739493
9852.000000;0.739237
9851.000000;0.738859
9850.000000;0.738407
9849.000000;0.737922
9848.000000;0.737448
9847.000000;0.737098
9846.000000;0.737070
9845.000000;0.737472
9844.000000;0.738064
9843.000000;0.738342
9842.000000;0.738042
9841.000000;0.737460
9840.000000;0.737124
9839.000000;0.737229
9838.000000;0.737550
9837.000000;0.737808
9836.000000;0.737879
9835.000000;0.737673
9834.000000;0.737111
9833.000000;0.736355
9832.000000;0.735820
9831.000000;0.735776
9830.000000;0.736042
9829.000000;0.736222
9828.000000;0.736136
9827.000000;0.735902
9826.000000;0.735697
9825.000000;0.735636
9824.000000;0.735834
9823.000000;0.736356
9822.000000;0.737040
9821.000000;0.737511
9820.000000;0.737474
9819.000000;0.736949
9818.000000;0.736213
9817.000000;0.735578
9816.000000;0.735240
9815.000000;0.735229
9814.000000;0.735391
9813.000000;0.735492
9812.000000;0.735415
9811.000000;0.735277
9810.000000;0.735284
9809.000000;0.735462
9808.000000;0.735572
9807.000000;0.735350
9806.000000;0.734817
9805.000000;0.734306
9804.000000;0.734155
9803.000000;0.734438
9802.000000;0.734998
9801.000000;0.735660
9800.000000;0.736274
9799.000000;0.736645
9798.000000;0.736628
9797.000000;0.736342
9796.000000;0.736108
9795.000000;0.736067
9794.000000;0.736012
9793.000000;0.735705
9792.000000;0.735210
9791.000000;0.734759
9790.000000;0.734417
9789.000000;0.734085
9788.000000;0.733748
9787.000000;0.733479
9786.000000;0.733220
9785.000000;0.732805
9784.000000;0.732260
9783.000000;0.731872
9782.000000;0.731882
9781.000000;0.732262
9780.000000;0.732850
9779.000000;0.733516
9778.000000;0.734104
9777.000000;0.734386
9776.000000;0.734239
9775.000000;0.733792
9774.000000;0.733292
9773.000000;0.732907
9772.000000;0.732705
9771.000000;0.732697
9770.000000;0.732793
9769.000000;0.732802
9768.000000;0.732604
9767.000000;0.732270
9766.000000;0.731934
9765.000000;0.731642
9764.000000;0.731401
9763.000000;0.731291
9762.000000;0.731368
9761.000000;0.731542
9760.000000;0.731677
9759.000000;0.731766
9758.000000;0.731882
9757.000000;0.732004
9756.000000;0.732025
9755.000000;0.731903
9754.000000;0.731677
9753.000000;0.731351
9752.000000;0.730899
9751.000000;0.730388
9750.000000;0.730000
9749.000000;0.729871
9748.000000;0.730004
9747.000000;0.730304
9746.000000;0.730626
9745.000000;0.730789
9744.000000;0.730685
9743.000000;0.730417
9742.000000;0.730248
9741.000000;0.730347
9740.000000;0.730621
9739.000000;0.730820
9738.000000;0.730769
9737.000000;0.730484
9736.000000;0.730136
9735.000000;0.729908
9734.000000;0.729854
9733.000000;0.729870
9732.000000;0.729825
9731.000000;0.729711
9730.000000;0.729647
9729.000000;0.729740
9728.000000;0.729972
9727.000000;0.730200
9726.000000;0.730220
9725.000000;0.729867
9724.000000;0.729153
9723.000000;0.728313
9722.000000;0.727681
9721.000000;0.727502
9720.000000;0.727841
9719.000000;0.728553
9718.000000;0.729270
9717.000000;0.729540
9716.000000;0.729165
9715.000000;0.728440
9714.000000;0.727918
9713.000000;0.727901
9712.000000;0.728239
9711.000000;0.728586
9710.000000;0.728720
9709.000000;0.728620
9708.000000;0.728407
9707.000000;0.728295
9706.000000;0.728443
9705.000000;0.728741
9704.000000;0.728863
9703.000000;0.728627
9702.000000;0.728216
9701.000000;0.727932
9700.000000;0.727826
9699.000000;0.727721
9698.000000;0.727520
9697.000000;0.727317
9696.000000;0.727215
9695.000000;0.727232
9694.000000;0.727416
9693.000000;0.727867
9692.000000;0.728542
9691.000000;0.729139
9690.000000;0.729284
9689.000000;0.728846
9688.000000;0.728030
9687.000000;0.727221
9686.000000;0.726749
9685.000000;0.726690
9684.000000;0.726789
9683.000000;0.726648
9682.000000;0.726106
9681.000000;0.725421
9680.000000;0.724982
9679.000000;0.724896
9678.000000;0.724970
9677.000000;0.725069
9676.000000;0.725258
9675.000000;0.725553
9674.000000;0.725728
9673.000000;0.725580
9672.000000;0.725257
9671.000000;0.725126
9670.000000;0.725323
9669.000000;0.725614
9668.000000;0.725692
9667.000000;0.725460
9666.000000;0.724978
9665.000000;0.724355
9664.000000;0.723787
9663.000000;0.723570
9662.000000;0.723875
9661.000000;0.724558
9660.000000;0.725297
9659.000000;0.725897
9658.000000;0.726357
9657.000000;0.726684
9656.000000;0.726774
9655.000000;0.726519
9654.000000;0.725945
9653.000000;0.725220
9652.000000;0.724546
9651.000000;0.724057
9650.000000;0.723769
9649.000000;0.723604
9648.000000;0.723457
9647.000000;0.723244
9646.000000;0.722916
9645.000000;0.722539
9644.000000;0.722340
9643.000000;0.722539
9642.000000;0.723041
9641.000000;0.723406
9640.000000;0.723266
9639.000000;0.722747
9638.000000;0.722328
9637.000000;0.722314
9636.000000;0.722571
9635.000000;0.722757
9634.000000;0.722678
9633.000000;0.722390
9632.000000;0.722082
9631.000000;0.721921
9630.000000;0.721939
9629.000000;0.722030
9628.000000;0.722087
9627.000000;0.722116
9626.000000;0.722155
9625.000000;0.722133
9624.000000;0.721952
9623.000000;0.721709
9622.000000;0.721663
9621.000000;0.721933
9620.000000;0.722326
9619.000000;0.722545
9618.000000;0.722455
9617.000000;0.722110
9616.000000;0.721667
9615.000000;0.721368
9614.000000;0.721473
9613.000000;0.722032
9612.000000;0.722754
9611.000000;0.723244
9610.000000;0.723338
9609.000000;0.723120
9608.000000;0.722708
9607.000000;0.722182
9606.000000;0.721715
9605.000000;0.721533
9604.000000;0.721660
9603.000000;0.721842
9602.000000;0.721856
9601.000000;0.721801
9600.000000;0.721935
9599.000000;0.722244
9598.000000;0.722375
9597.000000;0.722074
9596.000000;0.721548
9595.000000;0.721245
9594.000000;0.721330
9593.000000;0.721553
9592.000000;0.721646
9591.000000;0.721654
9590.000000;0.721734
9589.000000;0.721785
9588.000000;0.721520
9587.000000;0.720882
9586.000000;0.720184
9585.000000;0.719773
9584.000000;0.719705
9583.000000;0.719831
9582.000000;0.720033
9581.000000;0.720271
9580.000000;0.720481
9579.000000;0.720583
9578.000000;0.720554
9577.000000;0.720420
9576.000000;0.720238
9575.000000;0.720137
9574.000000;0.720282
9573.000000;0.720660
9572.000000;0.720966
9571.000000;0.720886
9570.000000;0.720500
9569.000000;0.720256
9568.000000;0.720478
9567.000000;0.721006
9566.000000;0.721350
9565.000000;0.721160
9564.000000;0.720499
9563.000000;0.719750
9562.000000;0.719307
9561.000000;0.719290
9560.000000;0.719489
9559.000000;0.719568
9558.000000;0.719360
9557.000000;0.718937
9556.000000;0.718434
9555.000000;0.717904
9554.000000;0.717393
9553.000000;0.717038
9552.000000;0.716994
9551.000000;0.717244
9550.000000;0.717584
9549.000000;0.717816
9548.000000;0.717914
9547.000000;0.718021
9546.000000;0.718294
9545.000000;0.718769
9544.000000;0.719315
9543.000000;0.719670
9542.000000;0.719572
9541.000000;0.718949
9540.000000;0.718024
9539.000000;0.717189
9538.000000;0.716739
9537.000000;0.716693
9536.000000;0.716866
9535.000000;0.717042
9534.000000;0.717076
9533.000000;0.716911
9532.000000;0.716626
9531.000000;0.716432
9530.000000;0.716507
9529.000000;0.716787
9528.000000;0.717015
9527.000000;0.717056
9526.000000;0.717053
9525.000000;0.717175
9524.000000;0.717317
9523.000000;0.717192
9522.000000;0.716702
9521.000000;0.716049
9520.000000;0.715468
9519.000000;0.714998
9518.000000;0.714586
9517.000000;0.714309
9516.000000;0.714332
9515.000000;0.714683
9514.000000;0.715159
9513.000000;0.715510
9512.000000;0.715660
9511.000000;0.715731
9510.000000;0.715882
9509.000000;0.716132
9508.000000;0.716359
9507.000000;0.716425
9506.000000;0.716283
9505.000000;0.715956
9504.000000;0.715467
9503.000000;0.714883
9502.000000;0.714394
9501.000000;0.714239
9500.000000;0.714467
9499.000000;0.714828
9498.000000;0.714991
9497.000000;0.714878
9496.000000;0.714716
9495.000000;0.714751
9494.000000;0.714955
9493.000000;0.715043
9492.000000;0.714769
9491.000000;0.714176
9490.000000;0.713576
9489.000000;0.713303
9488.000000;0.713470
9487.000000;0.713913
9486.000000;0.714342
9485.000000;0.714556
9484.000000;0.714556
9483.000000;0.714472
9482.000000;0.714398
9481.000000;0.714297
9480.000000;0.714073
9479.000000;0.713734
9478.000000;0.713437
9477.000000;0.713340
9476.000000;0.713449
9475.000000;0.713637
9474.000000;0.713788
9473.000000;0.713859
9472.000000;0.713824
9471.000000;0.713641
9470.000000;0.713298
9469.000000;0.712857
9468.000000;0.712410
9467.000000;0.712016
9466.000000;0.711722
9465.000000;0.711579
9464.000000;0.711603
9463.000000;0.711749
9462.000000;0.711967
9461.000000;0.712228
9460.000000;0.712458
9459.000000;0.712501
9458.000000;0.712241
9457.000000;0.711760
9456.000000;0.711280
9455.000000;0.710981
9454.000000;0.710931
9453.000000;0.711166
9452.000000;0.711681
9451.000000;0.712310
9450.000000;0.712744
9449.000000;0.712796
9448.000000;0.712596
9447.000000;0.712416
9446.000000;0.712345
9445.000000;0.712243
9444.000000;0.711995
9443.000000;0.711674
9442.000000;0.711430
9441.000000;0.711312
9440.000000;0.711247
9439.000000;0.711153
9438.000000;0.710984
9437.000000;0.710721
9436.000000;0.710374
9435.000000;0.710032
9434.000000;0.709854
9433.000000;0.709959
9432.000000;0.710294
9431.000000;0.710614
9430.000000;0.710662
9429.000000;0.710421
9428.000000;0.710144
9427.000000;0.710091
9426.000000;0.710239
9425.000000;0.710330
9424.000000;0.710199
9423.000000;0.709968
9422.000000;0.709881
9421.000000;0.710029
9420.000000;0.710281
9419.000000;0.710422
9418.000000;0.710329
9417.000000;0.710045
9416.000000;0.709748
9415.000000;0.709611
9414.000000;0.709643
9413.000000;0.709683
9412.000000;0.709584
9411.000000;0.709353
9410.000000;0.709083
9409.000000;0.708843
9408.000000;0.708702
9407.000000;0.708770
9406.000000;0.709059
9405.000000;0.709343
9404.000000;0.709345
9403.000000;0.709078
9402.000000;0.708838
9401.000000;0.708791
9400.000000;0.708754
9399.000000;0.708506
9398.000000;0.708171
9397.000000;0.708105
9396.000000;0.708434
9395.000000;0.708905
9394.000000;0.709173
9393.000000;0.709105
9392.000000;0.708760
9391.000000;0.708264
9390.000000;0.707809
9389.000000;0.707637
9388.000000;0.707846
9387.000000;0.708214
9386.000000;0.708362
9385.000000;0.708122
9384.000000;0.707678
9383.000000;0.707345
9382.000000;0.707278
9381.000000;0.707413
9380.000000;0.707601
9379.000000;0.707722
9378.000000;0.707720
9377.000000;0.707620
9376.000000;0.707503
9375.000000;0.707429
9374.000000;0.707360
9373.000000;0.707207
9372.000000;0.706950
9371.000000;0.706690
9370.000000;0.706571
9369.000000;0.706683
9368.000000;0.707025
9367.000000;0.707500
9366.000000;0.707895
9365.000000;0.707953
9364.000000;0.707562
9363.000000;0.706905
9362.000000;0.706361
9361.000000;0.706205
9360.000000;0.706390
9359.000000;0.706635
9358.000000;0.706687
9357.000000;0.706515
9356.000000;0.706279
9355.000000;0.706165
9354.000000;0.706256
9353.000000;0.706505
9352.000000;0.706782
9351.000000;0.706940
9350.000000;0.706869
9349.000000;0.706557
9348.000000;0.706115
9347.000000;0.705719
9346.000000;0.705481
9345.000000;0.705365
9344.000000;0.705249
9343.000000;0.705083
9342.000000;0.704924
9341.000000;0.704817
9340.000000;0.704688
9339.000000;0.704438
9338.000000;0.704127
9337.000000;0.703959
9336.000000;0.704054
9335.000000;0.704276
9334.000000;0.704362
9333.000000;0.704207
9332.000000;0.703954
9331.000000;0.703839
9330.000000;0.703981
9329.000000;0.704333
9328.000000;0.704747
9327.000000;0.705043
9326.000000;0.705073
9325.000000;0.704803
9324.000000;0.704348
9323.000000;0.703921
9322.000000;0.703724
9321.000000;0.703872
9320.000000;0.704326
9319.000000;0.704862
9318.000000;0.705160
9317.000000;0.705054
9316.000000;0.704684
9315.000000;0.704366
9314.000000;0.704279
9313.000000;0.704351
9312.000000;0.704409
9311.000000;0.704360
9310.000000;0.704195
9309.000000;0.703920
9308.000000;0.703573
9307.000000;0.703275
9306.000000;0.703150
9305.000000;0.703208
9304.000000;0.703331
9303.000000;0.703409
9302.000000;0.703449
9301.000000;0.703549
9300.000000;0.703766
9299.000000;0.704013
9298.000000;0.704072
9297.000000;0.703783
9296.000000;0.703232
9295.000000;0.702740
9294.000000;0.702600
9293.000000;0.702847
9292.000000;0.703256
9291.000000;0.703538
9290.000000;0.703525
9289.000000;0.703249
9288.000000;0.702920
9287.000000;0.702780
9286.000000;0.702891
9285.000000;0.703056
9284.000000;0.703020
9283.000000;0.702739
9282.000000;0.702407
9281.000000;0.702203
9280.000000;0.702105
9279.000000;0.701971
9278.000000;0.701734
9277.000000;0.701470
9276.000000;0.701292
9275.000000;0.701250
9274.000000;0.701294
9273.000000;0.701312
9272.000000;0.701208
9271.000000;0.700975
9270.000000;0.700710
9269.000000;0.700549
9268.000000;0.700573
9267.000000;0.700761
9266.000000;0.701006
9265.000000;0.701185
9264.000000;0.701233
9263.000000;0.701169
9262.000000;0.701031
9261.000000;0.700823
9260.000000;0.700535
9259.000000;0.700207
9258.000000;0.699939
9257.000000;0.699829
9256.000000;0.699909
9255.000000;0.700120
9254.000000;0.700321
9253.000000;0.700375
9252.000000;0.700252
9251.000000;0.700071
9250.000000;0.699971
9249.000000;0.699958
9248.000000;0.699908
9247.000000;0.699714
9246.000000;0.699416
9245.000000;0.699176
9244.000000;0.699158
9243.000000;0.699395
9242.000000;0.699726
9241.000000;0.699909
9240.000000;0.699862
9239.000000;0.699759
9238.000000;0.699796
9237.000000;0.699911
9236.000000;0.699853
9235.000000;0.699520
9234.000000;0.699071
9233.000000;0.698690
9232.000000;0.698394
9231.000000;0.698191
9230.000000;0.698231
9229.000000;0.698622
9228.000000;0.699176
9227.000000;0.699535
9226.000000;0.699579
9225.000000;0.699524
9224.000000;0.699596
9223.000000;0.699734
9222.000000;0.699697
9221.000000;0.699361
9220.000000;0.698815
9219.000000;0.698245
9218.000000;0.697810
9217.000000;0.697614
9216.000000;0.697673
9215.000000;0.697887
9214.000000;0.698091
9213.000000;0.698190
9212.000000;0.698220
9211.000000;0.698259
9210.000000;0.698297
9209.000000;0.698237
9208.000000;0.698011
9207.000000;0.697675
9206.000000;0.697356
9205.000000;0.697136
9204.000000;0.697010
9203.000000;0.696936
9202.000000;0.696900
9201.000000;0.696891
9200.000000;0.696862
9199.000000;0.696741
9198.000000;0.696486
9197.000000;0.696150
9196.000000;0.695880
9195.000000;0.695839
9194.000000;0.696065
9193.000000;0.696408
9192.000000;0.696651
9191.000000;0.696724
9190.000000;0.696749
9189.000000;0.696866
9188.000000;0.697050
9187.000000;0.697153
9186.000000;0.697061
9185.000000;0.696763
9184.000000;0.696303
9183.000000;0.695750
9182.000000;0.695235
9181.000000;0.694937
9180.000000;0.694975
9179.000000;0.695299
9178.000000;0.695697
9177.000000;0.695939
9176.000000;0.695953
9175.000000;0.695864
9174.000000;0.695855
9173.000000;0.695962
9172.000000;0.696046
9171.000000;0.695995
9170.000000;0.695866
9169.000000;0.695792
9168.000000;0.695806
9167.000000;0.695852
9166.000000;0.695915
9165.000000;0.696024
9164.000000;0.696096
9163.000000;0.695924
9162.000000;0.695409
9161.000000;0.694756
9160.000000;0.694325
9159.000000;0.694298
9158.000000;0.694552
9157.000000;0.694814
9156.000000;0.694911
9155.000000;0.694856
9154.000000;0.694764
9153.000000;0.694752
9152.000000;0.694862
9151.000000;0.695056
9150.000000;0.695229
9149.000000;0.695281
9148.000000;0.695183
9147.000000;0.695000
9146.000000;0.694844
9145.000000;0.694780
9144.000000;0.694773
9143.000000;0.694700
9142.000000;0.694455
9141.000000;0.694064
9140.000000;0.693710
9139.000000;0.693599
9138.000000;0.693758
9137.000000;0.693990
9136.000000;0.694079
9135.000000;0.694013
9134.000000;0.693933
9133.000000;0.693903
9132.000000;0.693843
9131.000000;0.693705
9130.000000;0.693577
9129.000000;0.693512
9128.000000;0.693400
9127.000000;0.693119
9126.000000;0.692761
9125.000000;0.692550
9124.000000;0.692574
9123.000000;0.692744
9122.000000;0.692982
9121.000000;0.693292
9120.000000;0.693599
9119.000000;0.693716
9118.000000;0.693550
9117.000000;0.693244
9116.000000;0.693013
9115.000000;0.692927
9114.000000;0.692942
9113.000000;0.693036
9112.000000;0.693200
9111.000000;0.693345
9110.000000;0.693351
9109.000000;0.693204
9108.000000;0.692993
9107.000000;0.692774
9106.000000;0.692530
9105.000000;0.692240
9104.000000;0.691948
9103.000000;0.691735
9102.000000;0.691675
9101.000000;0.691787
9100.000000;0.691985
9099.000000;0.692101
9098.000000;0.692028
9097.000000;0.691830
9096.000000;0.691633
9095.000000;0.691479
9094.000000;0.691331
9093.000000;0.691214
9092.000000;0.691211
9091.000000;0.691304
9090.000000;0.691353
9089.000000;0.691265
9088.000000;0.691130
9087.000000;0.691109
9086.000000;0.691250
9085.000000;0.691452
9084.000000;0.691580
9083.000000;0.691555
9082.000000;0.691383
9081.000000;0.691143
9080.000000;0.690937
9079.000000;0.690817
9078.000000;0.690760
9077.000000;0.690716
9076.000000;0.690647
9075.000000;0.690513
9074.000000;0.690294
9073.000000;0.690050
9072.000000;0.689922
9071.000000;0.689998
9070.000000;0.690190
9069.000000;0.690308
9068.000000;0.690260
9067.000000;0.690131
9066.000000;0.690073
9065.000000;0.690130
9064.000000;0.690197
9063.000000;0.690153
9062.000000;0.690000
9061.000000;0.689864
9060.000000;0.689849
9059.000000;0.689914
9058.000000;0.689920
9057.000000;0.689783
9056.000000;0.689539
9055.000000;0.689285
9054.000000;0.689095
9053.000000;0.688978
