Criado como novo conjunto de dados;"2706_e01_daniel.spp","87486.4 Secs"
cm-1;Abs
10000.000000;0.640695
9999.000000;0.640595
9998.000000;0.640495
9997.000000;0.640396
9996.000000;0.640296
9995.000000;0.640196
9994.000000;0.640096
9993.000000;0.639998
9992.000000;0.639895
9991.000000;0.639802
9990.000000;0.639688
9989.000000;0.639660
9988.000000;0.639718
9987.000000;0.639886
9986.000000;0.640309
9985.000000;0.640884
9984.000000;0.641356
9983.000000;0.641505
9982.000000;0.641320
9981.000000;0.640903
9980.000000;0.640324
9979.000000;0.639667
9978.000000;0.639186
9977.000000;0.639171
9976.000000;0.639562
9975.000000;0.639911
9974.000000;0.639889
9973.000000;0.639676
9972.000000;0.639653
9971.000000;0.639865
9970.000000;0.640057
9969.000000;0.640104
9968.000000;0.640080
9967.000000;0.639964
9966.000000;0.639608
9965.000000;0.639003
9964.000000;0.638343
9963.000000;0.637787
9962.000000;0.637447
9961.000000;0.637549
9960.000000;0.638241
9959.000000;0.639139
9958.000000;0.639456
9957.000000;0.638856
9956.000000;0.637925
9955.000000;0.637523
9954.000000;0.637843
9953.000000;0.638340
9952.000000;0.638480
9951.000000;0.638289
9950.000000;0.638138
9949.000000;0.638183
9948.000000;0.638155
9947.000000;0.637697
9946.000000;0.636878
9945.000000;0.636258
9944.000000;0.636340
9943.000000;0.636992
9942.000000;0.637569
9941.000000;0.637600
9940.000000;0.637194
9939.000000;0.636729
9938.000000;0.636390
9937.000000;0.636152
9936.000000;0.636012
9935.000000;0.636009
9934.000000;0.636074
9933.000000;0.636049
9932.000000;0.635863
9931.000000;0.635581
9930.000000;0.635310
9929.000000;0.635101
9928.000000;0.634934
9927.000000;0.634721
9926.000000;0.634403
9925.000000;0.634106
9924.000000;0.634127
9923.000000;0.634631
9922.000000;0.635389
9921.000000;0.635924
9920.000000;0.635941
9919.000000;0.635563
9918.000000;0.635159
9917.000000;0.635014
9916.000000;0.635148
9915.000000;0.635370
9914.000000;0.635451
9913.000000;0.635294
9912.000000;0.635008
9911.000000;0.634832
9910.000000;0.634952
9909.000000;0.635324
9908.000000;0.635657
9907.000000;0.635620
9906.000000;0.635120
9905.000000;0.634380
9904.000000;0.633718
9903.000000;0.633272
9902.000000;0.632977
9901.000000;0.632729
9900.000000;0.632480
9899.000000;0.632197
9898.000000;0.631867
9897.000000;0.631577
9896.000000;0.631506
9895.000000;0.631744
9894.000000;0.632149
9893.000000;0.632422
9892.000000;0.632347
9891.000000;0.631952
9890.000000;0.631481
9889.000000;0.631213
9888.000000;0.631249
9887.000000;0.631435
9886.000000;0.631506
9885.000000;0.631319
9884.000000;0.630970
9883.000000;0.630682
9882.000000;0.630634
9881.000000;0.630879
9880.000000;0.631392
9879.000000;0.632101
9878.000000;0.632839
9877.000000;0.633320
9876.000000;0.633280
9875.000000;0.632698
9874.000000;0.631846
9873.000000;0.631058
9872.000000;0.630474
9871.000000;0.630056
9870.000000;0.629772
9869.000000;0.629634
9868.000000;0.629595
9867.000000;0.629594
9866.000000;0.629688
9865.000000;0.629977
9864.000000;0.630340
9863.000000;0.630460
9862.000000;0.630221
9861.000000;0.629879
9860.000000;0.629706
9859.000000;0.629658
9858.000000;0.629575
9857.000000;0.629524
9856.000000;0.629660
9855.000000;0.629854
9854.000000;0.629782
9853.000000;0.629390
9852.000000;0.629014
9851.000000;0.628970
9850.000000;0.629237
9849.000000;0.629574
9848.000000;0.629740
9847.000000;0.629558
9846.000000;0.628982
9845.000000;0.628245
9844.000000;0.627792
9843.000000;0.627905
9842.000000;0.628431
9841.000000;0.628941
9840.000000;0.629095
9839.000000;0.628832
9838.000000;0.628330
9837.000000;0.627885
9836.000000;0.627741
9835.000000;0.627943
9834.000000;0.628336
9833.000000;0.628686
9832.000000;0.628762
9831.000000;0.628367
9830.000000;0.627453
9829.000000;0.626268
9828.000000;0.625246
9827.000000;0.624682
9826.000000;0.624557
9825.000000;0.624714
9824.000000;0.625053
9823.000000;0.625482
9822.000000;0.625848
9821.000000;0.626028
9820.000000;0.626044
9819.000000;0.625968
9818.000000;0.625793
9817.000000;0.625483
9816.000000;0.625120
9815.000000;0.624850
9814.000000;0.624718
9813.000000;0.624636
9812.000000;0.624532
9811.000000;0.624441
9810.000000;0.624430
9809.000000;0.624500
9808.000000;0.624603
9807.000000;0.624732
9806.000000;0.624950
9805.000000;0.625278
9804.000000;0.625574
9803.000000;0.625582
9802.000000;0.625180
9801.000000;0.624561
9800.000000;0.624096
9799.000000;0.624005
9798.000000;0.624204
9797.000000;0.624426
9796.000000;0.624417
9795.000000;0.624033
9794.000000;0.623326
9793.000000;0.622617
9792.000000;0.622356
9791.000000;0.622752
9790.000000;0.623558
9789.000000;0.624290
9788.000000;0.624638
9787.000000;0.624594
9786.000000;0.624258
9785.000000;0.623689
9784.000000;0.623006
9783.000000;0.622447
9782.000000;0.622213
9781.000000;0.622272
9780.000000;0.622412
9779.000000;0.622454
9778.000000;0.622372
9777.000000;0.622249
9776.000000;0.622227
9775.000000;0.622483
9774.000000;0.623098
9773.000000;0.623840
9772.000000;0.624228
9771.000000;0.623970
9770.000000;0.623358
9769.000000;0.623022
9768.000000;0.623254
9767.000000;0.623684
9766.000000;0.623726
9765.000000;0.623231
9764.000000;0.622609
9763.000000;0.622339
9762.000000;0.622504
9761.000000;0.622783
9760.000000;0.622785
9759.000000;0.622363
9758.000000;0.621715
9757.000000;0.621204
9756.000000;0.621045
9755.000000;0.621114
9754.000000;0.621085
9753.000000;0.620761
9752.000000;0.620227
9751.000000;0.619714
9750.000000;0.619375
9749.000000;0.619222
9748.000000;0.619193
9747.000000;0.619232
9746.000000;0.619311
9745.000000;0.619394
9744.000000;0.619388
9743.000000;0.619174
9742.000000;0.618773
9741.000000;0.618433
9740.000000;0.618432
9739.000000;0.618763
9738.000000;0.619123
9737.000000;0.619265
9736.000000;0.619251
9735.000000;0.619255
9734.000000;0.619249
9733.000000;0.619045
9732.000000;0.618647
9731.000000;0.618353
9730.000000;0.618471
9729.000000;0.618999
9728.000000;0.619620
9727.000000;0.619914
9726.000000;0.619584
9725.000000;0.618652
9724.000000;0.617510
9723.000000;0.616700
9722.000000;0.616492
9721.000000;0.616720
9720.000000;0.617050
9719.000000;0.617311
9718.000000;0.617481
9717.000000;0.617514
9716.000000;0.617394
9715.000000;0.617306
9714.000000;0.617477
9713.000000;0.617820
9712.000000;0.617955
9711.000000;0.617686
9710.000000;0.617284
9709.000000;0.617131
9708.000000;0.617256
9707.000000;0.617376
9706.000000;0.617289
9705.000000;0.617044
9704.000000;0.616799
9703.000000;0.616691
9702.000000;0.616819
9701.000000;0.617139
9700.000000;0.617378
9699.000000;0.617221
9698.000000;0.616688
9697.000000;0.616182
9696.000000;0.616090
9695.000000;0.616395
9694.000000;0.616713
9693.000000;0.616670
9692.000000;0.616229
9691.000000;0.615706
9690.000000;0.615510
9689.000000;0.615797
9688.000000;0.616337
9687.000000;0.616724
9686.000000;0.616725
9685.000000;0.616419
9684.000000;0.616040
9683.000000;0.615775
9682.000000;0.615671
9681.000000;0.615627
9680.000000;0.615472
9679.000000;0.615130
9678.000000;0.614719
9677.000000;0.614415
9676.000000;0.614242
9675.000000;0.614099
9674.000000;0.613979
9673.000000;0.613991
9672.000000;0.614145
9671.000000;0.614272
9670.000000;0.614233
9669.000000;0.614115
9668.000000;0.614124
9667.000000;0.614330
9666.000000;0.614580
9665.000000;0.614620
9664.000000;0.614293
9663.000000;0.613680
9662.000000;0.613090
9661.000000;0.612845
9660.000000;0.613020
9659.000000;0.613415
9658.000000;0.613777
9657.000000;0.613973
9656.000000;0.613964
9655.000000;0.613734
9654.000000;0.613338
9653.000000;0.612930
9652.000000;0.612653
9651.000000;0.612522
9650.000000;0.612417
9649.000000;0.612198
9648.000000;0.611808
9647.000000;0.611347
9646.000000;0.611038
9645.000000;0.611047
9644.000000;0.611291
9643.000000;0.611498
9642.000000;0.611466
9641.000000;0.611236
9640.000000;0.611011
9639.000000;0.610993
9638.000000;0.611285
9637.000000;0.611831
9636.000000;0.612374
9635.000000;0.612589
9634.000000;0.612352
9633.000000;0.611858
9632.000000;0.611438
9631.000000;0.611252
9630.000000;0.611193
9629.000000;0.611051
9628.000000;0.610772
9627.000000;0.610554
9626.000000;0.610659
9625.000000;0.611087
9624.000000;0.611502
9623.000000;0.611550
9622.000000;0.611188
9621.000000;0.610630
9620.000000;0.610066
9619.000000;0.609583
9618.000000;0.609275
9617.000000;0.609210
9616.000000;0.609317
9615.000000;0.609473
9614.000000;0.609693
9613.000000;0.610025
9612.000000;0.610298
9611.000000;0.610219
9610.000000;0.609769
9609.000000;0.609268
9608.000000;0.608944
9607.000000;0.608701
9606.000000;0.608408
9605.000000;0.608165
9604.000000;0.608106
9603.000000;0.608135
9602.000000;0.608087
9601.000000;0.608028
9600.000000;0.608175
9599.000000;0.608581
9598.000000;0.609070
9597.000000;0.609431
9596.000000;0.609537
9595.000000;0.609334
9594.000000;0.608890
9593.000000;0.608431
9592.000000;0.608195
9591.000000;0.608247
9590.000000;0.608467
9589.000000;0.608661
9588.000000;0.608622
9587.000000;0.608234
9586.000000;0.607645
9585.000000;0.607262
9584.000000;0.607388
9583.000000;0.607866
9582.000000;0.608207
9581.000000;0.608074
9580.000000;0.607575
9579.000000;0.607101
9578.000000;0.606942
9577.000000;0.607048
9576.000000;0.607127
9575.000000;0.606974
9574.000000;0.606722
9573.000000;0.606666
9572.000000;0.606859
9571.000000;0.607021
9570.000000;0.606897
9569.000000;0.606568
9568.000000;0.606300
9567.000000;0.606213
9566.000000;0.606225
9565.000000;0.606220
9564.000000;0.606116
9563.000000;0.605868
9562.000000;0.605529
9561.000000;0.605276
9560.000000;0.605240
9559.000000;0.605348
9558.000000;0.605447
9557.000000;0.605517
9556.000000;0.605648
9555.000000;0.605849
9554.000000;0.605993
9553.000000;0.605940
9552.000000;0.605663
9551.000000;0.605270
9550.000000;0.604974
9549.000000;0.604941
9548.000000;0.605095
9547.000000;0.605159
9546.000000;0.604981
9545.000000;0.604724
9544.000000;0.604650
9543.000000;0.604802
9542.000000;0.605033
9541.000000;0.605225
9540.000000;0.605330
9539.000000;0.605270
9538.000000;0.605021
9537.000000;0.604762
9536.000000;0.604747
9535.000000;0.605000
9534.000000;0.605250
9533.000000;0.605218
9532.000000;0.604889
9531.000000;0.604479
9530.000000;0.604215
9529.000000;0.604143
9528.000000;0.604100
9527.000000;0.603919
9526.000000;0.603664
9525.000000;0.603589
9524.000000;0.603794
9523.000000;0.604034
9522.000000;0.603980
9521.000000;0.603576
9520.000000;0.603036
9519.000000;0.602562
9518.000000;0.602233
9517.000000;0.602095
9516.000000;0.602173
9515.000000;0.602394
9514.000000;0.602632
9513.000000;0.602843
9512.000000;0.603056
9511.000000;0.603238
9510.000000;0.603279
9509.000000;0.603108
9508.000000;0.602735
9507.000000;0.602222
9506.000000;0.601700
9505.000000;0.601365
9504.000000;0.601328
9503.000000;0.601481
9502.000000;0.601626
9501.000000;0.601700
9500.000000;0.601778
9499.000000;0.601859
9498.000000;0.601812
9497.000000;0.601543
9496.000000;0.601134
9495.000000;0.600780
9494.000000;0.600647
9493.000000;0.600725
9492.000000;0.600809
9491.000000;0.600676
9490.000000;0.600370
9489.000000;0.600203
9488.000000;0.600361
9487.000000;0.600646
9486.000000;0.600741
9485.000000;0.600648
9484.000000;0.600639
9483.000000;0.600824
9482.000000;0.601001
9481.000000;0.600924
9480.000000;0.600534
9479.000000;0.599912
9478.000000;0.599219
9477.000000;0.598722
9476.000000;0.598670
9475.000000;0.599044
9474.000000;0.599516
9473.000000;0.599740
9472.000000;0.599594
9471.000000;0.599147
9470.000000;0.598546
9469.000000;0.598019
9468.000000;0.597819
9467.000000;0.598024
9466.000000;0.598432
9465.000000;0.598732
9464.000000;0.598748
9463.000000;0.598509
9462.000000;0.598172
9461.000000;0.597925
9460.000000;0.597875
9459.000000;0.597995
9458.000000;0.598168
9457.000000;0.598298
9456.000000;0.598321
9455.000000;0.598165
9454.000000;0.597807
9453.000000;0.597380
9452.000000;0.597097
9451.000000;0.597049
9450.000000;0.597136
9449.000000;0.597218
9448.000000;0.597213
9447.000000;0.597067
9446.000000;0.596755
9445.000000;0.596363
9444.000000;0.596064
9443.000000;0.595978
9442.000000;0.596109
9441.000000;0.596426
9440.000000;0.596872
9439.000000;0.597278
9438.000000;0.597426
9437.000000;0.597301
9436.000000;0.597160
9435.000000;0.597244
9434.000000;0.597463
9433.000000;0.597485
9432.000000;0.597116
9431.000000;0.596519
9430.000000;0.596049
9429.000000;0.595899
9428.000000;0.595909
9427.000000;0.595713
9426.000000;0.595131
9425.000000;0.594395
9424.000000;0.593945
9423.000000;0.594003
9422.000000;0.594405
9421.000000;0.594834
9420.000000;0.595099
9419.000000;0.595183
9418.000000;0.595140
9417.000000;0.595057
9416.000000;0.595027
9415.000000;0.595072
9414.000000;0.595102
9413.000000;0.595035
9412.000000;0.594916
9411.000000;0.594885
9410.000000;0.595026
9409.000000;0.595282
9408.000000;0.595511
9407.000000;0.595604
9406.000000;0.595571
9405.000000;0.595516
9404.000000;0.595531
9403.000000;0.595606
9402.000000;0.595659
9401.000000;0.595613
9400.000000;0.595423
9399.000000;0.595079
9398.000000;0.594667
9397.000000;0.594373
9396.000000;0.594315
9395.000000;0.594380
9394.000000;0.594346
9393.000000;0.594154
9392.000000;0.593941
9391.000000;0.593802
9390.000000;0.593667
9389.000000;0.593479
9388.000000;0.593321
9387.000000;0.593272
9386.000000;0.593251
9385.000000;0.593113
9384.000000;0.592849
9383.000000;0.592590
9382.000000;0.592465
9381.000000;0.592543
9380.000000;0.592845
9379.000000;0.593268
9378.000000;0.593536
9377.000000;0.593394
9376.000000;0.592877
9375.000000;0.592295
9374.000000;0.591940
9373.000000;0.591869
9372.000000;0.591962
9371.000000;0.592068
9370.000000;0.592065
9369.000000;0.591876
9368.000000;0.591535
9367.000000;0.591194
9366.000000;0.591008
9365.000000;0.590989
9364.000000;0.591019
9363.000000;0.590985
9362.000000;0.590860
9361.000000;0.590668
9360.000000;0.590432
9359.000000;0.590196
9358.000000;0.590061
9357.000000;0.590144
9356.000000;0.590458
9355.000000;0.590857
9354.000000;0.591126
9353.000000;0.591159
9352.000000;0.591039
9351.000000;0.590916
9350.000000;0.590834
9349.000000;0.590710
9348.000000;0.590490
9347.000000;0.590276
9346.000000;0.590226
9345.000000;0.590357
9344.000000;0.590499
9343.000000;0.590498
9342.000000;0.590364
9341.000000;0.590191
9340.000000;0.589985
9339.000000;0.589704
9338.000000;0.589430
9337.000000;0.589357
9336.000000;0.589540
9335.000000;0.589747
9334.000000;0.589684
9333.000000;0.589316
9332.000000;0.588884
9331.000000;0.588649
9330.000000;0.588684
9329.000000;0.588888
9328.000000;0.589078
9327.000000;0.589079
9326.000000;0.588830
9325.000000;0.588477
9324.000000;0.588284
9323.000000;0.588399
9322.000000;0.588707
9321.000000;0.588967
9320.000000;0.589047
9319.000000;0.589005
9318.000000;0.588957
9317.000000;0.588929
9316.000000;0.588844
9315.000000;0.588618
9314.000000;0.588274
9313.000000;0.587930
9312.000000;0.587698
9311.000000;0.587593
9310.000000;0.587562
9309.000000;0.587568
9308.000000;0.587603
9307.000000;0.587649
9306.000000;0.587658
9305.000000;0.587583
9304.000000;0.587395
9303.000000;0.587067
9302.000000;0.586615
9301.000000;0.586180
9300.000000;0.585987
9299.000000;0.586164
9298.000000;0.586587
9297.000000;0.586974
9296.000000;0.587126
9295.000000;0.587039
9294.000000;0.586823
9293.000000;0.586565
9292.000000;0.586314
9291.000000;0.586139
9290.000000;0.586126
9289.000000;0.586289
9288.000000;0.586523
9287.000000;0.586650
9286.000000;0.586534
9285.000000;0.586180
9284.000000;0.585732
9283.000000;0.585389
9282.000000;0.585251
9281.000000;0.585239
9280.000000;0.585195
9279.000000;0.585073
9278.000000;0.585000
9277.000000;0.585090
9276.000000;0.585247
9275.000000;0.585239
9274.000000;0.584994
9273.000000;0.584724
9272.000000;0.584701
9271.000000;0.584960
9270.000000;0.585290
9269.000000;0.585518
9268.000000;0.585685
9267.000000;0.585903
9266.000000;0.586125
9265.000000;0.586163
9264.000000;0.585937
9263.000000;0.585589
9262.000000;0.585310
9261.000000;0.585131
9260.000000;0.584963
9259.000000;0.584763
9258.000000;0.584568
9257.000000;0.584384
9256.000000;0.584176
9255.000000;0.583980
9254.000000;0.583896
9253.000000;0.583907
9252.000000;0.583818
9251.000000;0.583487
9250.000000;0.583049
9249.000000;0.582773
9248.000000;0.582760
9247.000000;0.582875
9246.000000;0.582959
9245.000000;0.582961
9244.000000;0.582879
9243.000000;0.582707
9242.000000;0.582518
9241.000000;0.582465
9240.000000;0.582638
9239.000000;0.582969
9238.000000;0.583311
9237.000000;0.583559
9236.000000;0.583658
9235.000000;0.583573
9234.000000;0.583318
9233.000000;0.582981
9232.000000;0.582672
9231.000000;0.582458
9230.000000;0.582338
9229.000000;0.582245
9228.000000;0.582104
9227.000000;0.581941
9226.000000;0.581914
9225.000000;0.582109
9224.000000;0.582332
9223.000000;0.582243
9222.000000;0.581758
9221.000000;0.581192
9220.000000;0.580909
9219.000000;0.580952
9218.000000;0.581081
9217.000000;0.581094
9216.000000;0.580981
9215.000000;0.580847
9214.000000;0.580794
9213.000000;0.580866
9212.000000;0.581013
9211.000000;0.581119
9210.000000;0.581110
9209.000000;0.581008
9208.000000;0.580846
9207.000000;0.580625
9206.000000;0.580401
9205.000000;0.580300
9204.000000;0.580338
9203.000000;0.580338
9202.000000;0.580159
9201.000000;0.579923
9200.000000;0.579852
9199.000000;0.579930
9198.000000;0.579943
9197.000000;0.579819
9196.000000;0.579707
9195.000000;0.579691
9194.000000;0.579641
9193.000000;0.579448
9192.000000;0.579236
9191.000000;0.579189
9190.000000;0.579290
9189.000000;0.579380
9188.000000;0.579406
9187.000000;0.579452
9186.000000;0.579555
9185.000000;0.579627
9184.000000;0.579581
9183.000000;0.579434
9182.000000;0.579256
9181.000000;0.579081
9180.000000;0.578896
9179.000000;0.578702
9178.000000;0.578570
9177.000000;0.578609
9176.000000;0.578845
9175.000000;0.579118
9174.000000;0.579200
9173.000000;0.579041
9172.000000;0.578836
9171.000000;0.578753
9170.000000;0.578682
9169.000000;0.578387
9168.000000;0.577868
9167.000000;0.577428
9166.000000;0.577316
9165.000000;0.577461
9164.000000;0.577621
9163.000000;0.577683
9162.000000;0.577713
9161.000000;0.577762
9160.000000;0.577775
9159.000000;0.577679
9158.000000;0.577475
9157.000000;0.577219
9156.000000;0.576994
9155.000000;0.576903
9154.000000;0.577001
9153.000000;0.577193
9152.000000;0.577288
9151.000000;0.577207
9150.000000;0.577092
9149.000000;0.577131
9148.000000;0.577318
9147.000000;0.577434
9146.000000;0.577274
9145.000000;0.576835
9144.000000;0.576316
9143.000000;0.575956
9142.000000;0.575870
9141.000000;0.575975
9140.000000;0.576050
9139.000000;0.575915
9138.000000;0.575585
9137.000000;0.575263
9136.000000;0.575161
9135.000000;0.575321
9134.000000;0.575591
9133.000000;0.575785
9132.000000;0.575852
9131.000000;0.575885
9130.000000;0.575958
9129.000000;0.576027
9128.000000;0.576012
9127.000000;0.575945
9126.000000;0.575927
9125.000000;0.575954
9124.000000;0.575885
9123.000000;0.575631
9122.000000;0.575313
9121.000000;0.575151
9120.000000;0.575234
9119.000000;0.575456
9118.000000;0.575621
9117.000000;0.575565
9116.000000;0.575254
9115.000000;0.574846
9114.000000;0.574608
9113.000000;0.574683
9112.000000;0.574928
9111.000000;0.575067
9110.000000;0.574987
9109.000000;0.574801
9108.000000;0.574660
9107.000000;0.574589
9106.000000;0.574507
9105.000000;0.574328
9104.000000;0.574017
9103.000000;0.573634
9102.000000;0.573309
9101.000000;0.573136
9100.000000;0.573080
9099.000000;0.573049
9098.000000;0.573013
9097.000000;0.572988
9096.000000;0.572945
9095.000000;0.572835
9094.000000;0.572696
9093.000000;0.572624
9092.000000;0.572616
9091.000000;0.572576
9090.000000;0.572498
9089.000000;0.572530
9088.000000;0.572784
9087.000000;0.573155
9086.000000;0.573401
9085.000000;0.573367
9084.000000;0.573072
9083.000000;0.572655
9082.000000;0.572287
9081.000000;0.572088
9080.000000;0.572051
9079.000000;0.572053
9078.000000;0.571964
9077.000000;0.571753
9076.000000;0.571490
9075.000000;0.571272
9074.000000;0.571169
9073.000000;0.571177
9072.000000;0.571219
9071.000000;0.571228
9070.000000;0.571223
9069.000000;0.571273
9068.000000;0.571392
9067.000000;0.571535
9066.000000;0.571680
9065.000000;0.571836
9064.000000;0.571950
9063.000000;0.571932
9062.000000;0.571765
9061.000000;0.571528
9060.000000;0.571289
9059.000000;0.571059
9058.000000;0.570861
9057.000000;0.570729
9056.000000;0.570626
9055.000000;0.570480
9054.000000;0.570328
9053.000000;0.570310
