Criado como novo conjunto de dados;"2706_e01_daniel.spp","42124.5 Secs"
cm-1;Abs
10000.000000;0.828535
9999.000000;0.827235
9998.000000;0.825967
9997.000000;0.824635
9996.000000;0.823771
9995.000000;0.824093
9994.000000;0.825208
9993.000000;0.825993
9992.000000;0.825642
9991.000000;0.824393
9990.000000;0.823124
9989.000000;0.822441
9988.000000;0.822332
9987.000000;0.822470
9986.000000;0.822578
9985.000000;0.822531
9984.000000;0.822353
9983.000000;0.822201
9982.000000;0.822249
9981.000000;0.822503
9980.000000;0.822829
9979.000000;0.823117
9978.000000;0.823280
9977.000000;0.823115
9976.000000;0.822402
9975.000000;0.821324
9974.000000;0.820599
9973.000000;0.820922
9972.000000;0.822225
9971.000000;0.823635
9970.000000;0.824292
9969.000000;0.824103
9968.000000;0.823604
9967.000000;0.823215
9966.000000;0.822864
9965.000000;0.822309
9964.000000;0.821565
9963.000000;0.820866
9962.000000;0.820355
9961.000000;0.820010
9960.000000;0.819830
9959.000000;0.819895
9958.000000;0.820190
9957.000000;0.820497
9956.000000;0.820545
9955.000000;0.820223
9954.000000;0.819646
9953.000000;0.819117
9952.000000;0.819037
9951.000000;0.819671
9950.000000;0.820839
9949.000000;0.821911
9948.000000;0.822304
9947.000000;0.822010
9946.000000;0.821508
9945.000000;0.821189
9944.000000;0.821017
9943.000000;0.820767
9942.000000;0.820374
9941.000000;0.819929
9940.000000;0.819455
9939.000000;0.818913
9938.000000;0.818384
9937.000000;0.818065
9936.000000;0.818062
9935.000000;0.818273
9934.000000;0.818508
9933.000000;0.818626
9932.000000;0.818550
9931.000000;0.818286
9930.000000;0.818000
9929.000000;0.817978
9928.000000;0.818394
9927.000000;0.819119
9926.000000;0.819786
9925.000000;0.820012
9924.000000;0.819610
9923.000000;0.818718
9922.000000;0.817777
9921.000000;0.817258
9920.000000;0.817279
9919.000000;0.817549
9918.000000;0.817733
9917.000000;0.817784
9916.000000;0.817811
9915.000000;0.817828
9914.000000;0.817804
9913.000000;0.817852
9912.000000;0.818111
9911.000000;0.818494
9910.000000;0.818735
9909.000000;0.818664
9908.000000;0.818286
9907.000000;0.817655
9906.000000;0.816897
9905.000000;0.816333
9904.000000;0.816252
9903.000000;0.816490
9902.000000;0.816517
9901.000000;0.816083
9900.000000;0.815554
9899.000000;0.815438
9898.000000;0.815772
9897.000000;0.816197
9896.000000;0.816433
9895.000000;0.816442
9894.000000;0.816223
9893.000000;0.815729
9892.000000;0.815013
9891.000000;0.814284
9890.000000;0.813786
9889.000000;0.813694
9888.000000;0.814035
9887.000000;0.814576
9886.000000;0.814876
9885.000000;0.814665
9884.000000;0.814150
9883.000000;0.813798
9882.000000;0.813836
9881.000000;0.814126
9880.000000;0.814448
9879.000000;0.814700
9878.000000;0.814798
9877.000000;0.814619
9876.000000;0.814140
9875.000000;0.813531
9874.000000;0.813008
9873.000000;0.812680
9872.000000;0.812588
9871.000000;0.812730
9870.000000;0.812972
9869.000000;0.813082
9868.000000;0.812965
9867.000000;0.812772
9866.000000;0.812690
9865.000000;0.812733
9864.000000;0.812830
9863.000000;0.813016
9862.000000;0.813361
9861.000000;0.813753
9860.000000;0.813906
9859.000000;0.813616
9858.000000;0.812941
9857.000000;0.812128
9856.000000;0.811473
9855.000000;0.811239
9854.000000;0.811537
9853.000000;0.812173
9852.000000;0.812684
9851.000000;0.812662
9850.000000;0.812090
9849.000000;0.811326
9848.000000;0.810776
9847.000000;0.810608
9846.000000;0.810753
9845.000000;0.811034
9844.000000;0.811238
9843.000000;0.811159
9842.000000;0.810734
9841.000000;0.810176
9840.000000;0.809840
9839.000000;0.809902
9838.000000;0.810209
9837.000000;0.810454
9836.000000;0.810447
9835.000000;0.810195
9834.000000;0.809826
9833.000000;0.809497
9832.000000;0.809306
9831.000000;0.809212
9830.000000;0.809092
9829.000000;0.808932
9828.000000;0.808870
9827.000000;0.808961
9826.000000;0.809039
9825.000000;0.808959
9824.000000;0.808867
9823.000000;0.809013
9822.000000;0.809338
9821.000000;0.809498
9820.000000;0.809331
9819.000000;0.809055
9818.000000;0.808922
9817.000000;0.808868
9816.000000;0.808659
9815.000000;0.808249
9814.000000;0.807838
9813.000000;0.807671
9812.000000;0.807875
9811.000000;0.808379
9810.000000;0.808871
9809.000000;0.808944
9808.000000;0.808468
9807.000000;0.807748
9806.000000;0.807187
9805.000000;0.806857
9804.000000;0.806535
9803.000000;0.806096
9802.000000;0.805677
9801.000000;0.805455
9800.000000;0.805452
9799.000000;0.805610
9798.000000;0.805889
9797.000000;0.806207
9796.000000;0.806404
9795.000000;0.806371
9794.000000;0.806177
9793.000000;0.805995
9792.000000;0.805937
9791.000000;0.805994
9790.000000;0.806088
9789.000000;0.806143
9788.000000;0.806140
9787.000000;0.806139
9786.000000;0.806192
9785.000000;0.806214
9784.000000;0.806015
9783.000000;0.805554
9782.000000;0.805098
9781.000000;0.805025
9780.000000;0.805435
9779.000000;0.805986
9778.000000;0.806186
9777.000000;0.805853
9776.000000;0.805265
9775.000000;0.804820
9774.000000;0.804609
9773.000000;0.804364
9772.000000;0.803861
9771.000000;0.803283
9770.000000;0.803093
9769.000000;0.803554
9768.000000;0.804431
9767.000000;0.805176
9766.000000;0.805404
9765.000000;0.805201
9764.000000;0.804975
9763.000000;0.805013
9762.000000;0.805178
9761.000000;0.805083
9760.000000;0.804571
9759.000000;0.803907
9758.000000;0.803453
9757.000000;0.803272
9756.000000;0.803187
9755.000000;0.803089
9754.000000;0.802964
9753.000000;0.802670
9752.000000;0.802010
9751.000000;0.801120
9750.000000;0.800529
9749.000000;0.800637
9748.000000;0.801263
9747.000000;0.801868
9746.000000;0.802111
9745.000000;0.802024
9744.000000;0.801760
9743.000000;0.801431
9742.000000;0.801197
9741.000000;0.801291
9740.000000;0.801801
9739.000000;0.802515
9738.000000;0.803041
9737.000000;0.803082
9736.000000;0.802616
9735.000000;0.801900
9734.000000;0.801262
9733.000000;0.800842
9732.000000;0.800532
9731.000000;0.800232
9730.000000;0.800065
9729.000000;0.800217
9728.000000;0.800584
9727.000000;0.800778
9726.000000;0.800509
9725.000000;0.799841
9724.000000;0.799009
9723.000000;0.798177
9722.000000;0.797458
9721.000000;0.797050
9720.000000;0.797141
9719.000000;0.797716
9718.000000;0.798543
9717.000000;0.799365
9716.000000;0.800015
9715.000000;0.800392
9714.000000;0.800426
9713.000000;0.800149
9712.000000;0.799746
9711.000000;0.799483
9710.000000;0.799538
9709.000000;0.799865
9708.000000;0.800208
9707.000000;0.800277
9706.000000;0.799961
9705.000000;0.799392
9704.000000;0.798804
9703.000000;0.798353
9702.000000;0.798057
9701.000000;0.797884
9700.000000;0.797843
9699.000000;0.797990
9698.000000;0.798342
9697.000000;0.798816
9696.000000;0.799252
9695.000000;0.799510
9694.000000;0.799533
9693.000000;0.799324
9692.000000;0.798935
9691.000000;0.798509
9690.000000;0.798252
9689.000000;0.798247
9688.000000;0.798304
9687.000000;0.798121
9686.000000;0.797614
9685.000000;0.797019
9684.000000;0.796630
9683.000000;0.796523
9682.000000;0.796588
9681.000000;0.796696
9680.000000;0.796770
9679.000000;0.796791
9678.000000;0.796826
9677.000000;0.797002
9676.000000;0.797331
9675.000000;0.797618
9674.000000;0.797682
9673.000000;0.797606
9672.000000;0.797614
9671.000000;0.797713
9670.000000;0.797652
9669.000000;0.797308
9668.000000;0.796926
9667.000000;0.796822
9666.000000;0.796954
9665.000000;0.796992
9664.000000;0.796742
9663.000000;0.796314
9662.000000;0.795874
9661.000000;0.795437
9660.000000;0.795003
9659.000000;0.794747
9658.000000;0.794884
9657.000000;0.795375
9656.000000;0.795891
9655.000000;0.796077
9654.000000;0.795825
9653.000000;0.795306
9652.000000;0.794782
9651.000000;0.794356
9650.000000;0.793901
9649.000000;0.793271
9648.000000;0.792626
9647.000000;0.792422
9646.000000;0.792936
9645.000000;0.793861
9644.000000;0.794579
9643.000000;0.794821
9642.000000;0.794859
9641.000000;0.794999
9640.000000;0.795126
9639.000000;0.794941
9638.000000;0.794473
9637.000000;0.794084
9636.000000;0.794009
9635.000000;0.794121
9634.000000;0.794184
9633.000000;0.794150
9632.000000;0.794076
9631.000000;0.793860
9630.000000;0.793266
9629.000000;0.792250
9628.000000;0.791169
9627.000000;0.790564
9626.000000;0.790701
9625.000000;0.791381
9624.000000;0.792193
9623.000000;0.792851
9622.000000;0.793232
9621.000000;0.793195
9620.000000;0.792648
9619.000000;0.791831
9618.000000;0.791288
9617.000000;0.791391
9616.000000;0.791990
9615.000000;0.792642
9614.000000;0.793084
9613.000000;0.793342
9612.000000;0.793493
9611.000000;0.793559
9610.000000;0.793559
9609.000000;0.793465
9608.000000;0.793134
9607.000000;0.792501
9606.000000;0.791846
9605.000000;0.791620
9604.000000;0.791921
9603.000000;0.792319
9602.000000;0.792313
9601.000000;0.791846
9600.000000;0.791281
9599.000000;0.791000
9598.000000;0.791157
9597.000000;0.791673
9596.000000;0.792286
9595.000000;0.792628
9594.000000;0.792411
9593.000000;0.791634
9592.000000;0.790612
9591.000000;0.789816
9590.000000;0.789631
9589.000000;0.790128
9588.000000;0.790979
9587.000000;0.791669
9586.000000;0.791869
9585.000000;0.791630
9584.000000;0.791195
9583.000000;0.790736
9582.000000;0.790307
9581.000000;0.789961
9580.000000;0.789781
9579.000000;0.789778
9578.000000;0.789823
9577.000000;0.789738
9576.000000;0.789479
9575.000000;0.789211
9574.000000;0.789161
9573.000000;0.789349
9572.000000;0.789530
9571.000000;0.789482
9570.000000;0.789298
9569.000000;0.789224
9568.000000;0.789232
9567.000000;0.788955
9566.000000;0.788175
9565.000000;0.787205
9564.000000;0.786626
9563.000000;0.786689
9562.000000;0.787120
9561.000000;0.787489
9560.000000;0.787649
9559.000000;0.787765
9558.000000;0.787994
9557.000000;0.788238
9556.000000;0.788253
9555.000000;0.787931
9554.000000;0.787410
9553.000000;0.786897
9552.000000;0.786507
9551.000000;0.786317
9550.000000;0.786448
9549.000000;0.786893
9548.000000;0.787330
9547.000000;0.787352
9546.000000;0.786940
9545.000000;0.786527
9544.000000;0.786494
9543.000000;0.786798
9542.000000;0.787148
9541.000000;0.787359
9540.000000;0.787360
9539.000000;0.787038
9538.000000;0.786364
9537.000000;0.785624
9536.000000;0.785253
9535.000000;0.785387
9534.000000;0.785745
9533.000000;0.785975
9532.000000;0.785975
9531.000000;0.785827
9530.000000;0.785601
9529.000000;0.785348
9528.000000;0.785199
9527.000000;0.785280
9526.000000;0.785547
9525.000000;0.785794
9524.000000;0.785856
9523.000000;0.785763
9522.000000;0.785658
9521.000000;0.785599
9520.000000;0.785486
9519.000000;0.785178
9518.000000;0.784688
9517.000000;0.784206
9516.000000;0.783927
9515.000000;0.783857
9514.000000;0.783818
9513.000000;0.783637
9512.000000;0.783324
9511.000000;0.783047
9510.000000;0.782948
9509.000000;0.783025
9508.000000;0.783194
9507.000000;0.783432
9506.000000;0.783769
9505.000000;0.784143
9504.000000;0.784349
9503.000000;0.784206
9502.000000;0.783745
9501.000000;0.783192
9500.000000;0.782788
9499.000000;0.782667
9498.000000;0.782835
9497.000000;0.783173
9496.000000;0.783495
9495.000000;0.783690
9494.000000;0.783796
9493.000000;0.783878
9492.000000;0.783893
9491.000000;0.783782
9490.000000;0.783627
9489.000000;0.783571
9488.000000;0.783559
9487.000000;0.783333
9486.000000;0.782746
9485.000000;0.782002
9484.000000;0.781501
9483.000000;0.781493
9482.000000;0.781880
9481.000000;0.782316
9480.000000;0.782489
9479.000000;0.782373
9478.000000;0.782207
9477.000000;0.782170
9476.000000;0.782166
9475.000000;0.782008
9474.000000;0.781752
9473.000000;0.781628
9472.000000;0.781655
9471.000000;0.781557
9470.000000;0.781143
9469.000000;0.780591
9468.000000;0.780249
9467.000000;0.780273
9466.000000;0.780541
9465.000000;0.780787
9464.000000;0.780745
9463.000000;0.780327
9462.000000;0.779774
9461.000000;0.779473
9460.000000;0.779550
9459.000000;0.779761
9458.000000;0.779881
9457.000000;0.779987
9456.000000;0.780192
9455.000000;0.780321
9454.000000;0.780121
9453.000000;0.779685
9452.000000;0.779386
9451.000000;0.779414
9450.000000;0.779611
9449.000000;0.779755
9448.000000;0.779784
9447.000000;0.779745
9446.000000;0.779729
9445.000000;0.779862
9444.000000;0.780168
9443.000000;0.780403
9442.000000;0.780237
9441.000000;0.779673
9440.000000;0.779089
9439.000000;0.778778
9438.000000;0.778649
9437.000000;0.778468
9436.000000;0.778224
9435.000000;0.778081
9434.000000;0.778100
9433.000000;0.778187
9432.000000;0.778252
9431.000000;0.778276
9430.000000;0.778237
9429.000000;0.778124
9428.000000;0.778034
9427.000000;0.778107
9426.000000;0.778327
9425.000000;0.778440
9424.000000;0.778171
9423.000000;0.777522
9422.000000;0.776827
9421.000000;0.776485
9420.000000;0.776621
9419.000000;0.776996
9418.000000;0.777256
9417.000000;0.777245
9416.000000;0.777064
9415.000000;0.776881
9414.000000;0.776757
9413.000000;0.776676
9412.000000;0.776636
9411.000000;0.776654
9410.000000;0.776704
9409.000000;0.776736
9408.000000;0.776723
9407.000000;0.776669
9406.000000;0.776571
9405.000000;0.776408
9404.000000;0.776141
9403.000000;0.775733
9402.000000;0.775199
9401.000000;0.774679
9400.000000;0.774398
9399.000000;0.774469
9398.000000;0.774753
9397.000000;0.774988
9396.000000;0.775063
9395.000000;0.775079
9394.000000;0.775104
9393.000000;0.775027
9392.000000;0.774740
9391.000000;0.774404
9390.000000;0.774357
9389.000000;0.774729
9388.000000;0.775271
9387.000000;0.775607
9386.000000;0.775582
9385.000000;0.775306
9384.000000;0.774949
9383.000000;0.774604
9382.000000;0.774283
9381.000000;0.773951
9380.000000;0.773580
9379.000000;0.773229
9378.000000;0.773058
9377.000000;0.773172
9376.000000;0.773462
9375.000000;0.773697
9374.000000;0.773772
9373.000000;0.773775
9372.000000;0.773822
9371.000000;0.773915
9370.000000;0.773984
9369.000000;0.773990
9368.000000;0.773946
9367.000000;0.773892
9366.000000;0.773878
9365.000000;0.773908
9364.000000;0.773898
9363.000000;0.773744
9362.000000;0.773456
9361.000000;0.773160
9360.000000;0.772935
9359.000000;0.772739
9358.000000;0.772526
9357.000000;0.772364
9356.000000;0.772354
9355.000000;0.772464
9354.000000;0.772511
9353.000000;0.772333
9352.000000;0.771971
9351.000000;0.771672
9350.000000;0.771682
9349.000000;0.771993
9348.000000;0.772352
9347.000000;0.772533
9346.000000;0.772554
9345.000000;0.772552
9344.000000;0.772542
9343.000000;0.772426
9342.000000;0.772198
9341.000000;0.771938
9340.000000;0.771628
9339.000000;0.771186
9338.000000;0.770715
9337.000000;0.770489
9336.000000;0.770576
9335.000000;0.770660
9334.000000;0.770421
9333.000000;0.769967
9332.000000;0.769712
9331.000000;0.769885
9330.000000;0.770339
9329.000000;0.770777
9328.000000;0.771024
9327.000000;0.771069
9326.000000;0.771003
9325.000000;0.770941
9324.000000;0.770898
9323.000000;0.770733
9322.000000;0.770334
9321.000000;0.769842
9320.000000;0.769578
9319.000000;0.769695
9318.000000;0.770002
9317.000000;0.770193
9316.000000;0.770168
9315.000000;0.770059
9314.000000;0.769993
9313.000000;0.769935
9312.000000;0.769788
9311.000000;0.769569
9310.000000;0.769429
9309.000000;0.769499
9308.000000;0.769772
9307.000000;0.770136
9306.000000;0.770453
9305.000000;0.770567
9304.000000;0.770329
9303.000000;0.769735
9302.000000;0.769029
9301.000000;0.768533
9300.000000;0.768353
9299.000000;0.768335
9298.000000;0.768323
9297.000000;0.768321
9296.000000;0.768361
9295.000000;0.768356
9294.000000;0.768200
9293.000000;0.767947
9292.000000;0.767745
9291.000000;0.767647
9290.000000;0.767586
9289.000000;0.767516
9288.000000;0.767471
9287.000000;0.767474
9286.000000;0.767459
9285.000000;0.767343
9284.000000;0.767132
9283.000000;0.766943
9282.000000;0.766896
9281.000000;0.766963
9280.000000;0.766950
9279.000000;0.766718
9278.000000;0.766383
9277.000000;0.766205
9276.000000;0.766274
9275.000000;0.766420
9274.000000;0.766483
9273.000000;0.766493
9272.000000;0.766527
9271.000000;0.766504
9270.000000;0.766303
9269.000000;0.765994
9268.000000;0.765781
9267.000000;0.765765
9266.000000;0.765862
9265.000000;0.765942
9264.000000;0.765933
9263.000000;0.765823
9262.000000;0.765654
9261.000000;0.765515
9260.000000;0.765439
9259.000000;0.765344
9258.000000;0.765145
9257.000000;0.764889
9256.000000;0.764675
9255.000000;0.764502
9254.000000;0.764313
9253.000000;0.764143
9252.000000;0.764079
9251.000000;0.764090
9250.000000;0.764050
9249.000000;0.763940
9248.000000;0.763908
9247.000000;0.764061
9246.000000;0.764336
9245.000000;0.764608
9244.000000;0.764829
9243.000000;0.764996
9242.000000;0.765068
9241.000000;0.765003
9240.000000;0.764828
9239.000000;0.764611
9238.000000;0.764408
9237.000000;0.764240
9236.000000;0.764103
9235.000000;0.763948
9234.000000;0.763710
9233.000000;0.763410
9232.000000;0.763189
9231.000000;0.763205
9230.000000;0.763489
9229.000000;0.763901
9228.000000;0.764203
9227.000000;0.764199
9226.000000;0.763867
9225.000000;0.763396
9224.000000;0.763054
9223.000000;0.762982
9222.000000;0.763095
9221.000000;0.763164
9220.000000;0.762996
9219.000000;0.762577
9218.000000;0.762101
9217.000000;0.761828
9216.000000;0.761857
9215.000000;0.762038
9214.000000;0.762156
9213.000000;0.762163
9212.000000;0.762172
9211.000000;0.762234
9210.000000;0.762242
9209.000000;0.762078
9208.000000;0.761773
9207.000000;0.761472
9206.000000;0.761286
9205.000000;0.761229
9204.000000;0.761246
9203.000000;0.761240
9202.000000;0.761125
9201.000000;0.760894
9200.000000;0.760639
9199.000000;0.760435
9198.000000;0.760229
9197.000000;0.759924
9196.000000;0.759564
9195.000000;0.759382
9194.000000;0.759560
9193.000000;0.760001
9192.000000;0.760365
9191.000000;0.760362
9190.000000;0.759961
9189.000000;0.759356
9188.000000;0.758812
9187.000000;0.758573
9186.000000;0.758798
9185.000000;0.759443
9184.000000;0.760229
9183.000000;0.760838
9182.000000;0.761173
9181.000000;0.761352
9180.000000;0.761440
9179.000000;0.761336
9178.000000;0.760973
9177.000000;0.760514
9176.000000;0.760231
9175.000000;0.760204
9174.000000;0.760259
9173.000000;0.760170
9172.000000;0.759843
9171.000000;0.759337
9170.000000;0.758793
9169.000000;0.758375
9168.000000;0.758195
9167.000000;0.758228
9166.000000;0.758339
9165.000000;0.758414
9164.000000;0.758429
9163.000000;0.758392
9162.000000;0.758284
9161.000000;0.758101
9160.000000;0.757920
9159.000000;0.757837
9158.000000;0.757845
9157.000000;0.757832
9156.000000;0.757728
9155.000000;0.757602
9154.000000;0.757555
9153.000000;0.757559
9152.000000;0.757531
9151.000000;0.757532
9150.000000;0.757735
9149.000000;0.758121
9148.000000;0.758352
9147.000000;0.758116
9146.000000;0.757531
9145.000000;0.757028
9144.000000;0.756862
9143.000000;0.756907
9142.000000;0.756914
9141.000000;0.756786
9140.000000;0.756550
9139.000000;0.756239
9138.000000;0.755935
9137.000000;0.755781
9136.000000;0.755810
9135.000000;0.755855
9134.000000;0.755742
9133.000000;0.755528
9132.000000;0.755401
9131.000000;0.755407
9130.000000;0.755413
9129.000000;0.755309
9128.000000;0.755128
9127.000000;0.754941
9126.000000;0.754765
9125.000000;0.754605
9124.000000;0.754508
9123.000000;0.754524
9122.000000;0.754653
9121.000000;0.754853
9120.000000;0.755075
9119.000000;0.755259
9118.000000;0.755323
9117.000000;0.755211
9116.000000;0.754973
9115.000000;0.754795
9114.000000;0.754855
9113.000000;0.755115
9112.000000;0.755296
9111.000000;0.755139
9110.000000;0.754699
9109.000000;0.754278
9108.000000;0.754086
9107.000000;0.754058
9106.000000;0.754023
9105.000000;0.753909
9104.000000;0.753747
9103.000000;0.753602
9102.000000;0.753566
9101.000000;0.753715
9100.000000;0.753965
9099.000000;0.754081
9098.000000;0.753915
9097.000000;0.753568
9096.000000;0.753233
9095.000000;0.752986
9094.000000;0.752824
9093.000000;0.752774
9092.000000;0.752823
9091.000000;0.752818
9090.000000;0.752648
9089.000000;0.752469
9088.000000;0.752548
9087.000000;0.752896
9086.000000;0.753235
9085.000000;0.753353
9084.000000;0.753334
9083.000000;0.753359
9082.000000;0.753410
9081.000000;0.753281
9080.000000;0.752819
9079.000000;0.752088
9078.000000;0.751333
9077.000000;0.750806
9076.000000;0.750596
9075.000000;0.750606
9074.000000;0.750710
9073.000000;0.750895
9072.000000;0.751187
9071.000000;0.751472
9070.000000;0.751537
9069.000000;0.751305
9068.000000;0.750940
9067.000000;0.750687
9066.000000;0.750658
9065.000000;0.750812
9064.000000;0.751057
9063.000000;0.751325
9062.000000;0.751592
9061.000000;0.751851
9060.000000;0.752022
9059.000000;0.751923
9058.000000;0.751416
9057.000000;0.750632
9056.000000;0.749953
9055.000000;0.749709
9054.000000;0.749913
9053.000000;0.750322
