Criado como novo conjunto de dados;"2706_e01_daniel.spp","28083.2 Secs"
cm-1;Abs
10000.000000;0.764441
9999.000000;0.763281
9998.000000;0.762226
9997.000000;0.761760
9996.000000;0.762085
9995.000000;0.762823
9994.000000;0.763403
9993.000000;0.763501
9992.000000;0.763130
9991.000000;0.762466
9990.000000;0.761821
9989.000000;0.761544
9988.000000;0.761769
9987.000000;0.762265
9986.000000;0.762635
9985.000000;0.762588
9984.000000;0.762027
9983.000000;0.761077
9982.000000;0.760124
9981.000000;0.759584
9980.000000;0.759490
9979.000000;0.759430
9978.000000;0.759060
9977.000000;0.758521
9976.000000;0.758202
9975.000000;0.758246
9974.000000;0.758503
9973.000000;0.758856
9972.000000;0.759360
9971.000000;0.760080
9970.000000;0.760965
9969.000000;0.761849
9968.000000;0.762434
9967.000000;0.762352
9966.000000;0.761505
9965.000000;0.760343
9964.000000;0.759555
9963.000000;0.759403
9962.000000;0.759511
9961.000000;0.759382
9960.000000;0.758939
9959.000000;0.758431
9958.000000;0.757990
9957.000000;0.757526
9956.000000;0.757025
9955.000000;0.756708
9954.000000;0.756797
9953.000000;0.757252
9952.000000;0.757831
9951.000000;0.758325
9950.000000;0.758623
9949.000000;0.758610
9948.000000;0.758167
9947.000000;0.757306
9946.000000;0.756226
9945.000000;0.755195
9944.000000;0.754428
9943.000000;0.754097
9942.000000;0.754324
9941.000000;0.755095
9940.000000;0.756217
9939.000000;0.757427
9938.000000;0.758530
9937.000000;0.759379
9936.000000;0.759788
9935.000000;0.759551
9934.000000;0.758605
9933.000000;0.757209
9932.000000;0.755945
9931.000000;0.755431
9930.000000;0.755851
9929.000000;0.756731
9928.000000;0.757357
9927.000000;0.757518
9926.000000;0.757674
9925.000000;0.758266
9924.000000;0.759036
9923.000000;0.759269
9922.000000;0.758627
9921.000000;0.757485
9920.000000;0.756430
9919.000000;0.755685
9918.000000;0.755141
9917.000000;0.754707
9916.000000;0.754424
9915.000000;0.754312
9914.000000;0.754293
9913.000000;0.754295
9912.000000;0.754353
9911.000000;0.754572
9910.000000;0.755016
9909.000000;0.755615
9908.000000;0.756150
9907.000000;0.756367
9906.000000;0.756182
9905.000000;0.755779
9904.000000;0.755412
9903.000000;0.755096
9902.000000;0.754579
9901.000000;0.753699
9900.000000;0.752682
9899.000000;0.751960
9898.000000;0.751719
9897.000000;0.751766
9896.000000;0.751864
9895.000000;0.752023
9894.000000;0.752358
9893.000000;0.752798
9892.000000;0.753107
9891.000000;0.753149
9890.000000;0.752955
9889.000000;0.752557
9888.000000;0.751975
9887.000000;0.751373
9886.000000;0.751034
9885.000000;0.751112
9884.000000;0.751533
9883.000000;0.752165
9882.000000;0.752904
9881.000000;0.753554
9880.000000;0.753830
9879.000000;0.753615
9878.000000;0.753083
9877.000000;0.752469
9876.000000;0.751843
9875.000000;0.751241
9874.000000;0.750843
9873.000000;0.750834
9872.000000;0.751134
9871.000000;0.751449
9870.000000;0.751525
9869.000000;0.751266
9868.000000;0.750684
9867.000000;0.749912
9866.000000;0.749247
9865.000000;0.749004
9864.000000;0.749249
9863.000000;0.749745
9862.000000;0.750174
9861.000000;0.750392
9860.000000;0.750494
9859.000000;0.750678
9858.000000;0.751026
9857.000000;0.751383
9856.000000;0.751512
9855.000000;0.751356
9854.000000;0.751081
9853.000000;0.750825
9852.000000;0.750544
9851.000000;0.750154
9850.000000;0.749693
9849.000000;0.749260
9848.000000;0.748917
9847.000000;0.748756
9846.000000;0.748903
9845.000000;0.749281
9844.000000;0.749497
9843.000000;0.749190
9842.000000;0.748487
9841.000000;0.747907
9840.000000;0.747763
9839.000000;0.747841
9838.000000;0.747745
9837.000000;0.747401
9836.000000;0.747114
9835.000000;0.747148
9834.000000;0.747434
9833.000000;0.747716
9832.000000;0.747880
9831.000000;0.748014
9830.000000;0.748162
9829.000000;0.748190
9828.000000;0.747989
9827.000000;0.747711
9826.000000;0.747640
9825.000000;0.747866
9824.000000;0.748220
9823.000000;0.748484
9822.000000;0.748555
9821.000000;0.748439
9820.000000;0.748236
9819.000000;0.748100
9818.000000;0.748068
9817.000000;0.747976
9816.000000;0.747700
9815.000000;0.747384
9814.000000;0.747202
9813.000000;0.746981
9812.000000;0.746399
9811.000000;0.745563
9810.000000;0.744989
9809.000000;0.744930
9808.000000;0.745072
9807.000000;0.745070
9806.000000;0.745010
9805.000000;0.745095
9804.000000;0.745211
9803.000000;0.745137
9802.000000;0.744970
9801.000000;0.744970
9800.000000;0.745134
9799.000000;0.745234
9798.000000;0.745180
9797.000000;0.745041
9796.000000;0.744792
9795.000000;0.744344
9794.000000;0.743792
9793.000000;0.743355
9792.000000;0.743065
9791.000000;0.742770
9790.000000;0.742453
9789.000000;0.742313
9788.000000;0.742499
9787.000000;0.742918
9786.000000;0.743348
9785.000000;0.743637
9784.000000;0.743779
9783.000000;0.743888
9782.000000;0.744058
9781.000000;0.744170
9780.000000;0.743960
9779.000000;0.743386
9778.000000;0.742804
9777.000000;0.742593
9776.000000;0.742743
9775.000000;0.743008
9774.000000;0.743326
9773.000000;0.743766
9772.000000;0.744149
9771.000000;0.744090
9770.000000;0.743501
9769.000000;0.742780
9768.000000;0.742354
9767.000000;0.742229
9766.000000;0.742109
9765.000000;0.741820
9764.000000;0.741495
9763.000000;0.741396
9762.000000;0.741659
9761.000000;0.742160
9760.000000;0.742622
9759.000000;0.742839
9758.000000;0.742801
9757.000000;0.742605
9756.000000;0.742329
9755.000000;0.742049
9754.000000;0.741857
9753.000000;0.741744
9752.000000;0.741554
9751.000000;0.741185
9750.000000;0.740781
9749.000000;0.740617
9748.000000;0.740803
9747.000000;0.741208
9746.000000;0.741574
9745.000000;0.741632
9744.000000;0.741204
9743.000000;0.740386
9742.000000;0.739603
9741.000000;0.739313
9740.000000;0.739614
9739.000000;0.740157
9738.000000;0.740418
9737.000000;0.740061
9736.000000;0.739186
9735.000000;0.738311
9734.000000;0.737975
9733.000000;0.738250
9732.000000;0.738722
9731.000000;0.739028
9730.000000;0.739249
9729.000000;0.739643
9728.000000;0.740157
9727.000000;0.740438
9726.000000;0.740253
9725.000000;0.739702
9724.000000;0.739090
9723.000000;0.738720
9722.000000;0.738734
9721.000000;0.739010
9720.000000;0.739264
9719.000000;0.739388
9718.000000;0.739542
9717.000000;0.739797
9716.000000;0.739856
9715.000000;0.739394
9714.000000;0.738549
9713.000000;0.737839
9712.000000;0.737617
9711.000000;0.737844
9710.000000;0.738272
9709.000000;0.738628
9708.000000;0.738666
9707.000000;0.738323
9706.000000;0.737841
9705.000000;0.737519
9704.000000;0.737365
9703.000000;0.737143
9702.000000;0.736746
9701.000000;0.736323
9700.000000;0.736066
9699.000000;0.736064
9698.000000;0.736322
9697.000000;0.736720
9696.000000;0.736970
9695.000000;0.736844
9694.000000;0.736465
9693.000000;0.736220
9692.000000;0.736370
9691.000000;0.736869
9690.000000;0.737489
9689.000000;0.737958
9688.000000;0.738071
9687.000000;0.737873
9686.000000;0.737684
9685.000000;0.737704
9684.000000;0.737672
9683.000000;0.737171
9682.000000;0.736246
9681.000000;0.735440
9680.000000;0.735196
9679.000000;0.735460
9678.000000;0.735886
9677.000000;0.736170
9676.000000;0.736160
9675.000000;0.735869
9674.000000;0.735460
9673.000000;0.735066
9672.000000;0.734644
9671.000000;0.734150
9670.000000;0.733824
9669.000000;0.733990
9668.000000;0.734553
9667.000000;0.734976
9666.000000;0.734882
9665.000000;0.734445
9664.000000;0.734075
9663.000000;0.733964
9662.000000;0.734040
9661.000000;0.734162
9660.000000;0.734177
9659.000000;0.733932
9658.000000;0.733419
9657.000000;0.732864
9656.000000;0.732565
9655.000000;0.732690
9654.000000;0.733218
9653.000000;0.733970
9652.000000;0.734645
9651.000000;0.734956
9650.000000;0.734814
9649.000000;0.734338
9648.000000;0.733722
9647.000000;0.733145
9646.000000;0.732771
9645.000000;0.732680
9644.000000;0.732782
9643.000000;0.732906
9642.000000;0.732952
9641.000000;0.732887
9640.000000;0.732675
9639.000000;0.732356
9638.000000;0.732104
9637.000000;0.732035
9636.000000;0.732017
9635.000000;0.731897
9634.000000;0.731828
9633.000000;0.732084
9632.000000;0.732568
9631.000000;0.732793
9630.000000;0.732428
9629.000000;0.731638
9628.000000;0.730821
9627.000000;0.730263
9626.000000;0.730110
9625.000000;0.730406
9624.000000;0.730988
9623.000000;0.731499
9622.000000;0.731671
9621.000000;0.731527
9620.000000;0.731256
9619.000000;0.731003
9618.000000;0.730818
9617.000000;0.730654
9616.000000;0.730396
9615.000000;0.730005
9614.000000;0.729649
9613.000000;0.729537
9612.000000;0.729644
9611.000000;0.729761
9610.000000;0.729780
9609.000000;0.729722
9608.000000;0.729518
9607.000000;0.729106
9606.000000;0.728738
9605.000000;0.728837
9604.000000;0.729403
9603.000000;0.729879
9602.000000;0.729785
9601.000000;0.729247
9600.000000;0.728699
9599.000000;0.728334
9598.000000;0.728076
9597.000000;0.727899
9596.000000;0.727867
9595.000000;0.727955
9594.000000;0.728075
9593.000000;0.728214
9592.000000;0.728381
9591.000000;0.728464
9590.000000;0.728336
9589.000000;0.728063
9588.000000;0.727838
9587.000000;0.727771
9586.000000;0.727859
9585.000000;0.728102
9584.000000;0.728486
9583.000000;0.728870
9582.000000;0.729031
9581.000000;0.728853
9580.000000;0.728438
9579.000000;0.728047
9578.000000;0.727928
9577.000000;0.728131
9576.000000;0.728442
9575.000000;0.728593
9574.000000;0.728546
9573.000000;0.728468
9572.000000;0.728429
9571.000000;0.728318
9570.000000;0.728098
9569.000000;0.727917
9568.000000;0.727823
9567.000000;0.727599
9566.000000;0.727090
9565.000000;0.726541
9564.000000;0.726341
9563.000000;0.726526
9562.000000;0.726750
9561.000000;0.726704
9560.000000;0.726375
9559.000000;0.725902
9558.000000;0.725399
9557.000000;0.724995
9556.000000;0.724875
9555.000000;0.725187
9554.000000;0.725889
9553.000000;0.726706
9552.000000;0.727233
9551.000000;0.727192
9550.000000;0.726681
9549.000000;0.726122
9548.000000;0.725877
9547.000000;0.725956
9546.000000;0.726137
9545.000000;0.726264
9544.000000;0.726311
9543.000000;0.726242
9542.000000;0.726014
9541.000000;0.725704
9540.000000;0.725486
9539.000000;0.725457
9538.000000;0.725547
9537.000000;0.725622
9536.000000;0.725594
9535.000000;0.725429
9534.000000;0.725153
9533.000000;0.724851
9532.000000;0.724616
9531.000000;0.724492
9530.000000;0.724481
9529.000000;0.724578
9528.000000;0.724717
9527.000000;0.724746
9526.000000;0.724528
9525.000000;0.724099
9524.000000;0.723656
9523.000000;0.723394
9522.000000;0.723388
9521.000000;0.723577
9520.000000;0.723786
9519.000000;0.723816
9518.000000;0.723610
9517.000000;0.723327
9516.000000;0.723188
9515.000000;0.723231
9514.000000;0.723299
9513.000000;0.723229
9512.000000;0.723000
9511.000000;0.722702
9510.000000;0.722447
9509.000000;0.722315
9508.000000;0.722299
9507.000000;0.722281
9506.000000;0.722141
9505.000000;0.721909
9504.000000;0.721748
9503.000000;0.721758
9502.000000;0.721846
9501.000000;0.721846
9500.000000;0.721722
9499.000000;0.721612
9498.000000;0.721670
9497.000000;0.721896
9496.000000;0.722109
9495.000000;0.722067
9494.000000;0.721661
9493.000000;0.721006
9492.000000;0.720393
9491.000000;0.720149
9490.000000;0.720470
9489.000000;0.721275
9488.000000;0.722142
9487.000000;0.722526
9486.000000;0.722184
9485.000000;0.721428
9484.000000;0.720831
9483.000000;0.720684
9482.000000;0.720806
9481.000000;0.720878
9480.000000;0.720817
9479.000000;0.720740
9478.000000;0.720695
9477.000000;0.720621
9476.000000;0.720545
9475.000000;0.720625
9474.000000;0.720917
9473.000000;0.721187
9472.000000;0.721092
9471.000000;0.720536
9470.000000;0.719806
9469.000000;0.719331
9468.000000;0.719315
9467.000000;0.719580
9466.000000;0.719742
9465.000000;0.719559
9464.000000;0.719110
9463.000000;0.718635
9462.000000;0.718256
9461.000000;0.717927
9460.000000;0.717634
9459.000000;0.717516
9458.000000;0.717712
9457.000000;0.718166
9456.000000;0.718695
9455.000000;0.719166
9454.000000;0.719533
9453.000000;0.719740
9452.000000;0.719718
9451.000000;0.719479
9450.000000;0.719123
9449.000000;0.718750
9448.000000;0.718440
9447.000000;0.718284
9446.000000;0.718326
9445.000000;0.718457
9444.000000;0.718506
9443.000000;0.718464
9442.000000;0.718499
9441.000000;0.718699
9440.000000;0.718904
9439.000000;0.718875
9438.000000;0.718555
9437.000000;0.718093
9436.000000;0.717683
9435.000000;0.717446
9434.000000;0.717397
9433.000000;0.717440
9432.000000;0.717429
9431.000000;0.717300
9430.000000;0.717130
9429.000000;0.717009
9428.000000;0.716914
9427.000000;0.716765
9426.000000;0.716561
9425.000000;0.716383
9424.000000;0.716287
9423.000000;0.716263
9422.000000;0.716290
9421.000000;0.716368
9420.000000;0.716497
9419.000000;0.716622
9418.000000;0.716637
9417.000000;0.716461
9416.000000;0.716152
9415.000000;0.715893
9414.000000;0.715813
9413.000000;0.715828
9412.000000;0.715760
9411.000000;0.715585
9410.000000;0.715444
9409.000000;0.715416
9408.000000;0.715419
9407.000000;0.715372
9406.000000;0.715302
9405.000000;0.715216
9404.000000;0.714995
9403.000000;0.714572
9402.000000;0.714128
9401.000000;0.713958
9400.000000;0.714170
9399.000000;0.714577
9398.000000;0.714853
9397.000000;0.714774
9396.000000;0.714376
9395.000000;0.713941
9394.000000;0.713743
9393.000000;0.713760
9392.000000;0.713728
9391.000000;0.713535
9390.000000;0.713406
9389.000000;0.713565
9388.000000;0.713870
9387.000000;0.713972
9386.000000;0.713774
9385.000000;0.713535
9384.000000;0.713519
9383.000000;0.713724
9382.000000;0.713954
9381.000000;0.714023
9380.000000;0.713859
9379.000000;0.713535
9378.000000;0.713267
9377.000000;0.713274
9376.000000;0.713589
9375.000000;0.714003
9374.000000;0.714221
9373.000000;0.714052
9372.000000;0.713514
9371.000000;0.712819
9370.000000;0.712230
9369.000000;0.711866
9368.000000;0.711660
9367.000000;0.711514
9366.000000;0.711451
9365.000000;0.711562
9364.000000;0.711854
9363.000000;0.712212
9362.000000;0.712484
9361.000000;0.712532
9360.000000;0.712291
9359.000000;0.711856
9358.000000;0.711460
9357.000000;0.711296
9356.000000;0.711369
9355.000000;0.711572
9354.000000;0.711799
9353.000000;0.711922
9352.000000;0.711760
9351.000000;0.711260
9350.000000;0.710652
9349.000000;0.710268
9348.000000;0.710214
9347.000000;0.710336
9346.000000;0.710445
9345.000000;0.710468
9344.000000;0.710372
9343.000000;0.710139
9342.000000;0.709847
9341.000000;0.709682
9340.000000;0.709786
9339.000000;0.710151
9338.000000;0.710649
9337.000000;0.711106
9336.000000;0.711366
9335.000000;0.711361
9334.000000;0.711130
9333.000000;0.710753
9332.000000;0.710290
9331.000000;0.709838
9330.000000;0.709555
9329.000000;0.709516
9328.000000;0.709579
9327.000000;0.709516
9326.000000;0.709283
9325.000000;0.709063
9324.000000;0.709052
9323.000000;0.709288
9322.000000;0.709670
9321.000000;0.710045
9320.000000;0.710271
9319.000000;0.710294
9318.000000;0.710175
9317.000000;0.709980
9316.000000;0.709673
9315.000000;0.709194
9314.000000;0.708607
9313.000000;0.708061
9312.000000;0.707658
9311.000000;0.707426
9310.000000;0.707401
9309.000000;0.707606
9308.000000;0.707959
9307.000000;0.708300
9306.000000;0.708506
9305.000000;0.708507
9304.000000;0.708252
9303.000000;0.707799
9302.000000;0.707402
9301.000000;0.707333
9300.000000;0.707572
9299.000000;0.707813
9298.000000;0.707804
9297.000000;0.707578
9296.000000;0.707327
9295.000000;0.707173
9294.000000;0.707129
9293.000000;0.707161
9292.000000;0.707210
9291.000000;0.707219
9290.000000;0.707187
9289.000000;0.707159
9288.000000;0.707131
9287.000000;0.707010
9286.000000;0.706731
9285.000000;0.706375
9284.000000;0.706139
9283.000000;0.706192
9282.000000;0.706525
9281.000000;0.706932
9280.000000;0.707136
9279.000000;0.707014
9278.000000;0.706687
9277.000000;0.706367
9276.000000;0.706165
9275.000000;0.706064
9274.000000;0.706030
9273.000000;0.706036
9272.000000;0.706019
9271.000000;0.705890
9270.000000;0.705624
9269.000000;0.705293
9268.000000;0.705019
9267.000000;0.704923
9266.000000;0.705051
9265.000000;0.705301
9264.000000;0.705487
9263.000000;0.705506
9262.000000;0.705395
9261.000000;0.705194
9260.000000;0.704887
9259.000000;0.704565
9258.000000;0.704475
9257.000000;0.704741
9256.000000;0.705138
9255.000000;0.705312
9254.000000;0.705164
9253.000000;0.704871
9252.000000;0.704597
9251.000000;0.704383
9250.000000;0.704253
9249.000000;0.704199
9248.000000;0.704093
9247.000000;0.703839
9246.000000;0.703586
9245.000000;0.703565
9244.000000;0.703726
9243.000000;0.703778
9242.000000;0.703621
9241.000000;0.703483
9240.000000;0.703537
9239.000000;0.703654
9238.000000;0.703666
9237.000000;0.703632
9236.000000;0.703671
9235.000000;0.703724
9234.000000;0.703666
9233.000000;0.703530
9232.000000;0.703438
9231.000000;0.703424
9230.000000;0.703472
9229.000000;0.703601
9228.000000;0.703748
9227.000000;0.703675
9226.000000;0.703217
9225.000000;0.702555
9224.000000;0.702048
9223.000000;0.701819
9222.000000;0.701695
9221.000000;0.701526
9220.000000;0.701363
9219.000000;0.701312
9218.000000;0.701376
9217.000000;0.701514
9216.000000;0.701704
9215.000000;0.701894
9214.000000;0.702001
9213.000000;0.702021
9212.000000;0.702037
9211.000000;0.702054
9210.000000;0.701921
9209.000000;0.701510
9208.000000;0.700925
9207.000000;0.700464
9206.000000;0.700371
9205.000000;0.700657
9204.000000;0.701116
9203.000000;0.701464
9202.000000;0.701526
9201.000000;0.701343
9200.000000;0.701123
9199.000000;0.701058
9198.000000;0.701182
9197.000000;0.701382
9196.000000;0.701479
9195.000000;0.701292
9194.000000;0.700751
9193.000000;0.700049
9192.000000;0.699630
9191.000000;0.699838
9190.000000;0.700536
9189.000000;0.701151
9188.000000;0.701194
9187.000000;0.700695
9186.000000;0.700091
9185.000000;0.699762
9184.000000;0.699758
9183.000000;0.699894
9182.000000;0.699995
9181.000000;0.700028
9180.000000;0.700106
9179.000000;0.700372
9178.000000;0.700810
9177.000000;0.701187
9176.000000;0.701247
9175.000000;0.700971
9174.000000;0.700556
9173.000000;0.700137
9172.000000;0.699652
9171.000000;0.699027
9170.000000;0.698384
9169.000000;0.697973
9168.000000;0.697912
9167.000000;0.698090
9166.000000;0.698263
9165.000000;0.698228
9164.000000;0.697944
9163.000000;0.697556
9162.000000;0.697281
9161.000000;0.697206
9160.000000;0.697234
9159.000000;0.697229
9158.000000;0.697167
9157.000000;0.697106
9156.000000;0.697074
9155.000000;0.697071
9154.000000;0.697124
9153.000000;0.697260
9152.000000;0.697441
9151.000000;0.697573
9150.000000;0.697582
9149.000000;0.697445
9148.000000;0.697179
9147.000000;0.696856
9146.000000;0.696598
9145.000000;0.696490
9144.000000;0.696513
9143.000000;0.696582
9142.000000;0.696621
9141.000000;0.696575
9140.000000;0.696420
9139.000000;0.696194
9138.000000;0.695992
9137.000000;0.695896
9136.000000;0.695939
9135.000000;0.696153
9134.000000;0.696552
9133.000000;0.697012
9132.000000;0.697277
9131.000000;0.697167
9130.000000;0.696740
9129.000000;0.696197
9128.000000;0.695693
9127.000000;0.695321
9126.000000;0.695166
9125.000000;0.695252
9124.000000;0.695450
9123.000000;0.695580
9122.000000;0.695584
9121.000000;0.695540
9120.000000;0.695530
9119.000000;0.695578
9118.000000;0.695677
9117.000000;0.695767
9116.000000;0.695731
9115.000000;0.695507
9114.000000;0.695196
9113.000000;0.694956
9112.000000;0.694804
9111.000000;0.694626
9110.000000;0.694394
9109.000000;0.694251
9108.000000;0.694335
9107.000000;0.694578
9106.000000;0.694726
9105.000000;0.694556
9104.000000;0.694095
9103.000000;0.693643
9102.000000;0.693538
9101.000000;0.693835
9100.000000;0.694258
9099.000000;0.694499
9098.000000;0.694487
9097.000000;0.694324
9096.000000;0.694085
9095.000000;0.693810
9094.000000;0.693610
9093.000000;0.693586
9092.000000;0.693676
9091.000000;0.693727
9090.000000;0.693725
9089.000000;0.693783
9088.000000;0.693904
9087.000000;0.693929
9086.000000;0.693762
9085.000000;0.693508
9084.000000;0.693300
9083.000000;0.693131
9082.000000;0.692908
9081.000000;0.692583
9080.000000;0.692174
9079.000000;0.691746
9078.000000;0.691445
9077.000000;0.691427
9076.000000;0.691677
9075.000000;0.691944
9074.000000;0.691999
9073.000000;0.691883
9072.000000;0.691817
9071.000000;0.691902
9070.000000;0.692044
9069.000000;0.692159
9068.000000;0.692303
9067.000000;0.692526
9066.000000;0.692717
9065.000000;0.692692
9064.000000;0.692420
9063.000000;0.692067
9062.000000;0.691817
9061.000000;0.691733
9060.000000;0.691797
9059.000000;0.691990
9058.000000;0.692236
9057.000000;0.692357
9056.000000;0.692200
9055.000000;0.691823
9054.000000;0.691444
9053.000000;0.691199
