Criado como novo conjunto de dados;"2706_e01_daniel.spp","57425.1 Secs"
cm-1;Abs
10000.000000;0.830716
9999.000000;0.830414
9998.000000;0.830114
9997.000000;0.829812
9996.000000;0.829514
9995.000000;0.829207
9994.000000;0.828932
9993.000000;0.828867
9992.000000;0.829100
9991.000000;0.829501
9990.000000;0.829787
9989.000000;0.829724
9988.000000;0.829307
9987.000000;0.828708
9986.000000;0.828074
9985.000000;0.827368
9984.000000;0.826459
9983.000000;0.825408
9982.000000;0.824637
9981.000000;0.824663
9980.000000;0.825576
9979.000000;0.826863
9978.000000;0.827888
9977.000000;0.828480
9976.000000;0.828881
9975.000000;0.829237
9974.000000;0.829390
9973.000000;0.829161
9972.000000;0.828591
9971.000000;0.827838
9970.000000;0.827069
9969.000000;0.826513
9968.000000;0.826383
9967.000000;0.826604
9966.000000;0.826810
9965.000000;0.826742
9964.000000;0.826512
9963.000000;0.826395
9962.000000;0.826481
9961.000000;0.826631
9960.000000;0.826603
9959.000000;0.826186
9958.000000;0.825382
9957.000000;0.824555
9956.000000;0.824181
9955.000000;0.824319
9954.000000;0.824543
9953.000000;0.824500
9952.000000;0.824334
9951.000000;0.824417
9950.000000;0.824845
9949.000000;0.825393
9948.000000;0.825765
9947.000000;0.825713
9946.000000;0.825089
9945.000000;0.824071
9944.000000;0.823192
9943.000000;0.822888
9942.000000;0.823080
9941.000000;0.823369
9940.000000;0.823512
9939.000000;0.823527
9938.000000;0.823490
9937.000000;0.823490
9936.000000;0.823645
9935.000000;0.823919
9934.000000;0.823989
9933.000000;0.823612
9932.000000;0.823022
9931.000000;0.822682
9930.000000;0.822687
9929.000000;0.822743
9928.000000;0.822713
9927.000000;0.822795
9926.000000;0.823080
9925.000000;0.823286
9924.000000;0.823125
9923.000000;0.822716
9922.000000;0.822421
9921.000000;0.822377
9920.000000;0.822406
9919.000000;0.822293
9918.000000;0.822006
9917.000000;0.821665
9916.000000;0.821384
9915.000000;0.821187
9914.000000;0.821095
9913.000000;0.821207
9912.000000;0.821582
9911.000000;0.822028
9910.000000;0.822195
9909.000000;0.821990
9908.000000;0.821733
9907.000000;0.821727
9906.000000;0.821840
9905.000000;0.821738
9904.000000;0.821420
9903.000000;0.821223
9902.000000;0.821317
9901.000000;0.821471
9900.000000;0.821371
9899.000000;0.820948
9898.000000;0.820362
9897.000000;0.819882
9896.000000;0.819764
9895.000000;0.820026
9894.000000;0.820296
9893.000000;0.820147
9892.000000;0.819646
9891.000000;0.819309
9890.000000;0.819467
9889.000000;0.819909
9888.000000;0.820255
9887.000000;0.820383
9886.000000;0.820320
9885.000000;0.819996
9884.000000;0.819430
9883.000000;0.818978
9882.000000;0.819026
9881.000000;0.819434
9880.000000;0.819577
9879.000000;0.819040
9878.000000;0.818099
9877.000000;0.817427
9876.000000;0.817437
9875.000000;0.817994
9874.000000;0.818651
9873.000000;0.819030
9872.000000;0.818986
9871.000000;0.818540
9870.000000;0.817809
9869.000000;0.817011
9868.000000;0.816432
9867.000000;0.816277
9866.000000;0.816515
9865.000000;0.816916
9864.000000;0.817224
9863.000000;0.817288
9862.000000;0.817072
9861.000000;0.816641
9860.000000;0.816128
9859.000000;0.815686
9858.000000;0.815433
9857.000000;0.815468
9856.000000;0.815828
9855.000000;0.816366
9854.000000;0.816754
9853.000000;0.816740
9852.000000;0.816398
9851.000000;0.816023
9850.000000;0.815833
9849.000000;0.815881
9848.000000;0.816196
9847.000000;0.816770
9846.000000;0.817370
9845.000000;0.817579
9844.000000;0.817198
9843.000000;0.816490
9842.000000;0.815906
9841.000000;0.815595
9840.000000;0.815323
9839.000000;0.814833
9838.000000;0.814173
9837.000000;0.813659
9836.000000;0.813567
9835.000000;0.813931
9834.000000;0.814565
9833.000000;0.815202
9832.000000;0.815572
9831.000000;0.815460
9830.000000;0.814856
9829.000000;0.814043
9828.000000;0.813414
9827.000000;0.813116
9826.000000;0.812971
9825.000000;0.812797
9824.000000;0.812643
9823.000000;0.812631
9822.000000;0.812740
9821.000000;0.812926
9820.000000;0.813271
9819.000000;0.813773
9818.000000;0.814110
9817.000000;0.813925
9816.000000;0.813335
9815.000000;0.812838
9814.000000;0.812658
9813.000000;0.812514
9812.000000;0.812186
9811.000000;0.811984
9810.000000;0.812378
9809.000000;0.813307
9808.000000;0.814115
9807.000000;0.814186
9806.000000;0.813458
9805.000000;0.812351
9804.000000;0.811368
9803.000000;0.810812
9802.000000;0.810720
9801.000000;0.810957
9800.000000;0.811333
9799.000000;0.811684
9798.000000;0.811901
9797.000000;0.811952
9796.000000;0.811870
9795.000000;0.811671
9794.000000;0.811311
9793.000000;0.810794
9792.000000;0.810286
9791.000000;0.809970
9790.000000;0.809808
9789.000000;0.809594
9788.000000;0.809297
9787.000000;0.809168
9786.000000;0.809406
9785.000000;0.809876
9784.000000;0.810259
9783.000000;0.810381
9782.000000;0.810268
9781.000000;0.809999
9780.000000;0.809656
9779.000000;0.809345
9778.000000;0.809090
9777.000000;0.808764
9776.000000;0.808283
9775.000000;0.807844
9774.000000;0.807770
9773.000000;0.808091
9772.000000;0.808477
9771.000000;0.808650
9770.000000;0.808709
9769.000000;0.808909
9768.000000;0.809244
9767.000000;0.809451
9766.000000;0.809379
9765.000000;0.809142
9764.000000;0.808892
9763.000000;0.808628
9762.000000;0.808328
9761.000000;0.808122
9760.000000;0.808141
9759.000000;0.808254
9758.000000;0.808170
9757.000000;0.807838
9756.000000;0.807563
9755.000000;0.807627
9754.000000;0.807944
9753.000000;0.808197
9752.000000;0.808182
9751.000000;0.807895
9750.000000;0.807414
9749.000000;0.806910
9748.000000;0.806683
9747.000000;0.806934
9746.000000;0.807496
9745.000000;0.807980
9744.000000;0.808222
9743.000000;0.808370
9742.000000;0.808495
9741.000000;0.808385
9740.000000;0.807894
9739.000000;0.807274
9738.000000;0.806939
9737.000000;0.806961
9736.000000;0.807024
9735.000000;0.806834
9734.000000;0.806413
9733.000000;0.805974
9732.000000;0.805681
9731.000000;0.805574
9730.000000;0.805627
9729.000000;0.805752
9728.000000;0.805814
9727.000000;0.805726
9726.000000;0.805554
9725.000000;0.805472
9724.000000;0.805578
9723.000000;0.805751
9722.000000;0.805720
9721.000000;0.805326
9720.000000;0.804694
9719.000000;0.804137
9718.000000;0.803891
9717.000000;0.803984
9716.000000;0.804292
9715.000000;0.804636
9714.000000;0.804845
9713.000000;0.804824
9712.000000;0.804639
9711.000000;0.804468
9710.000000;0.804451
9709.000000;0.804616
9708.000000;0.804946
9707.000000;0.805394
9706.000000;0.805760
9705.000000;0.805711
9704.000000;0.805085
9703.000000;0.804162
9702.000000;0.803489
9701.000000;0.803375
9700.000000;0.803632
9699.000000;0.803857
9698.000000;0.803868
9697.000000;0.803795
9696.000000;0.803782
9695.000000;0.803761
9694.000000;0.803578
9693.000000;0.803263
9692.000000;0.803034
9691.000000;0.803033
9690.000000;0.803153
9689.000000;0.803170
9688.000000;0.802972
9687.000000;0.802612
9686.000000;0.802227
9685.000000;0.801982
9684.000000;0.801990
9683.000000;0.802185
9682.000000;0.802312
9681.000000;0.802172
9680.000000;0.801862
9679.000000;0.801640
9678.000000;0.801563
9677.000000;0.801408
9676.000000;0.800998
9675.000000;0.800470
9674.000000;0.800115
9673.000000;0.800052
9672.000000;0.800133
9671.000000;0.800156
9670.000000;0.800098
9669.000000;0.800128
9668.000000;0.800362
9667.000000;0.800636
9666.000000;0.800634
9665.000000;0.800328
9664.000000;0.800128
9663.000000;0.800382
9662.000000;0.800789
9661.000000;0.800648
9660.000000;0.799768
9659.000000;0.798819
9658.000000;0.798565
9657.000000;0.798995
9656.000000;0.799461
9655.000000;0.799523
9654.000000;0.799361
9653.000000;0.799353
9652.000000;0.799564
9651.000000;0.799746
9650.000000;0.799649
9649.000000;0.799202
9648.000000;0.798505
9647.000000;0.797793
9646.000000;0.797355
9645.000000;0.797357
9644.000000;0.797690
9643.000000;0.798022
9642.000000;0.798037
9641.000000;0.797701
9640.000000;0.797293
9639.000000;0.797147
9638.000000;0.797323
9637.000000;0.797575
9636.000000;0.797643
9635.000000;0.797497
9634.000000;0.797265
9633.000000;0.797047
9632.000000;0.796917
9631.000000;0.796998
9630.000000;0.797359
9629.000000;0.797832
9628.000000;0.798095
9627.000000;0.797972
9626.000000;0.797529
9625.000000;0.796906
9624.000000;0.796187
9623.000000;0.795520
9622.000000;0.795164
9621.000000;0.795308
9620.000000;0.795868
9619.000000;0.796547
9618.000000;0.797044
9617.000000;0.797203
9616.000000;0.797047
9615.000000;0.796750
9614.000000;0.796522
9613.000000;0.796430
9612.000000;0.796356
9611.000000;0.796182
9610.000000;0.795936
9609.000000;0.795678
9608.000000;0.795347
9607.000000;0.794875
9606.000000;0.794404
9605.000000;0.794228
9604.000000;0.794439
9603.000000;0.794794
9602.000000;0.794993
9601.000000;0.794999
9600.000000;0.794994
9599.000000;0.795069
9598.000000;0.795115
9597.000000;0.795023
9596.000000;0.794877
9595.000000;0.794863
9594.000000;0.795020
9593.000000;0.795155
9592.000000;0.795037
9591.000000;0.794658
9590.000000;0.794274
9589.000000;0.794165
9588.000000;0.794375
9587.000000;0.794724
9586.000000;0.795034
9585.000000;0.795272
9584.000000;0.795448
9583.000000;0.795472
9582.000000;0.795221
9581.000000;0.794728
9580.000000;0.794199
9579.000000;0.793799
9578.000000;0.793505
9577.000000;0.793194
9576.000000;0.792823
9575.000000;0.792481
9574.000000;0.792272
9573.000000;0.792196
9572.000000;0.792125
9571.000000;0.791912
9570.000000;0.791576
9569.000000;0.791388
9568.000000;0.791661
9567.000000;0.792384
9566.000000;0.793121
9565.000000;0.793393
9564.000000;0.793144
9563.000000;0.792746
9562.000000;0.792565
9561.000000;0.792656
9560.000000;0.792876
9559.000000;0.793147
9558.000000;0.793467
9557.000000;0.793762
9556.000000;0.793854
9555.000000;0.793629
9554.000000;0.793173
9553.000000;0.792736
9552.000000;0.792553
9551.000000;0.792686
9550.000000;0.792948
9549.000000;0.793005
9548.000000;0.792624
9547.000000;0.791895
9546.000000;0.791163
9545.000000;0.790711
9544.000000;0.790529
9543.000000;0.790429
9542.000000;0.790301
9541.000000;0.790164
9540.000000;0.789982
9539.000000;0.789632
9538.000000;0.789164
9537.000000;0.788959
9536.000000;0.789415
9535.000000;0.790457
9534.000000;0.791481
9533.000000;0.791883
9532.000000;0.791574
9531.000000;0.790932
9530.000000;0.790376
9529.000000;0.790064
9528.000000;0.789925
9527.000000;0.789812
9526.000000;0.789627
9525.000000;0.789369
9524.000000;0.789108
9523.000000;0.788904
9522.000000;0.788769
9521.000000;0.788706
9520.000000;0.788708
9519.000000;0.788656
9518.000000;0.788340
9517.000000;0.787721
9516.000000;0.787127
9515.000000;0.787026
9514.000000;0.787518
9513.000000;0.788169
9512.000000;0.788407
9511.000000;0.788049
9510.000000;0.787415
9509.000000;0.786963
9508.000000;0.786900
9507.000000;0.787112
9506.000000;0.787379
9505.000000;0.787604
9504.000000;0.787825
9503.000000;0.788047
9502.000000;0.788164
9501.000000;0.788097
9500.000000;0.787918
9499.000000;0.787773
9498.000000;0.787703
9497.000000;0.787651
9496.000000;0.787619
9495.000000;0.787683
9494.000000;0.787824
9493.000000;0.787864
9492.000000;0.787678
9491.000000;0.787373
9490.000000;0.787162
9489.000000;0.787080
9488.000000;0.786931
9487.000000;0.786555
9486.000000;0.786093
9485.000000;0.785896
9484.000000;0.786161
9483.000000;0.786691
9482.000000;0.787063
9481.000000;0.787037
9480.000000;0.786746
9479.000000;0.786481
9478.000000;0.786347
9477.000000;0.786217
9476.000000;0.785968
9475.000000;0.785656
9474.000000;0.785445
9473.000000;0.785403
9472.000000;0.785415
9471.000000;0.785269
9470.000000;0.784872
9469.000000;0.784399
9468.000000;0.784217
9467.000000;0.784565
9466.000000;0.785315
9465.000000;0.786081
9464.000000;0.786544
9463.000000;0.786630
9462.000000;0.786415
9461.000000;0.785992
9460.000000;0.785470
9459.000000;0.785004
9458.000000;0.784732
9457.000000;0.784658
9456.000000;0.784635
9455.000000;0.784494
9454.000000;0.784222
9453.000000;0.784003
9452.000000;0.784030
9451.000000;0.784234
9450.000000;0.784307
9449.000000;0.784038
9448.000000;0.783568
9447.000000;0.783206
9446.000000;0.783049
9445.000000;0.782928
9444.000000;0.782700
9443.000000;0.782454
9442.000000;0.782391
9441.000000;0.782621
9440.000000;0.783091
9439.000000;0.783618
9438.000000;0.783949
9437.000000;0.783914
9436.000000;0.783562
9435.000000;0.783099
9434.000000;0.782652
9433.000000;0.782177
9432.000000;0.781625
9431.000000;0.781085
9430.000000;0.780732
9429.000000;0.780698
9428.000000;0.781004
9427.000000;0.781545
9426.000000;0.782088
9425.000000;0.782394
9424.000000;0.782367
9423.000000;0.782063
9422.000000;0.781583
9421.000000;0.781087
9420.000000;0.780855
9419.000000;0.781097
9418.000000;0.781631
9417.000000;0.781939
9416.000000;0.781692
9415.000000;0.781093
9414.000000;0.780597
9413.000000;0.780432
9412.000000;0.780543
9411.000000;0.780843
9410.000000;0.781293
9409.000000;0.781758
9408.000000;0.782011
9407.000000;0.781926
9406.000000;0.781563
9405.000000;0.781070
9404.000000;0.780569
9403.000000;0.780153
9402.000000;0.779879
9401.000000;0.779752
9400.000000;0.779751
9399.000000;0.779861
9398.000000;0.780019
9397.000000;0.780110
9396.000000;0.780078
9395.000000;0.780001
9394.000000;0.779956
9393.000000;0.779881
9392.000000;0.779672
9391.000000;0.779399
9390.000000;0.779283
9389.000000;0.779453
9388.000000;0.779799
9387.000000;0.780077
9386.000000;0.780082
9385.000000;0.779753
9384.000000;0.779210
9383.000000;0.778688
9382.000000;0.778356
9381.000000;0.778194
9380.000000;0.778099
9379.000000;0.778067
9378.000000;0.778170
9377.000000;0.778373
9376.000000;0.778526
9375.000000;0.778542
9374.000000;0.778487
9373.000000;0.778449
9372.000000;0.778396
9371.000000;0.778219
9370.000000;0.777857
9369.000000;0.777360
9368.000000;0.776872
9367.000000;0.776548
9366.000000;0.776439
9365.000000;0.776450
9364.000000;0.776460
9363.000000;0.776455
9362.000000;0.776477
9361.000000;0.776497
9360.000000;0.776439
9359.000000;0.776321
9358.000000;0.776241
9357.000000;0.776226
9356.000000;0.776223
9355.000000;0.776231
9354.000000;0.776296
9353.000000;0.776351
9352.000000;0.776205
9351.000000;0.775836
9350.000000;0.775523
9349.000000;0.775560
9348.000000;0.775890
9347.000000;0.776183
9346.000000;0.776247
9345.000000;0.776189
9344.000000;0.776152
9343.000000;0.776046
9342.000000;0.775681
9341.000000;0.775079
9340.000000;0.774524
9339.000000;0.774268
9338.000000;0.774276
9337.000000;0.774330
9336.000000;0.774305
9335.000000;0.774270
9334.000000;0.774320
9333.000000;0.774429
9332.000000;0.774520
9331.000000;0.774586
9330.000000;0.774670
9329.000000;0.774747
9328.000000;0.774720
9327.000000;0.774520
9326.000000;0.774170
9325.000000;0.773769
9324.000000;0.773460
9323.000000;0.773390
9322.000000;0.773611
9321.000000;0.774013
9320.000000;0.774399
9319.000000;0.774636
9318.000000;0.774701
9317.000000;0.774604
9316.000000;0.774323
9315.000000;0.773843
9314.000000;0.773220
9313.000000;0.772624
9312.000000;0.772323
9311.000000;0.772515
9310.000000;0.773089
9309.000000;0.773607
9308.000000;0.773672
9307.000000;0.773323
9306.000000;0.772953
9305.000000;0.772844
9304.000000;0.772911
9303.000000;0.772930
9302.000000;0.772847
9301.000000;0.772769
9300.000000;0.772754
9299.000000;0.772737
9298.000000;0.772607
9297.000000;0.772285
9296.000000;0.771780
9295.000000;0.771236
9294.000000;0.770893
9293.000000;0.770915
9292.000000;0.771238
9291.000000;0.771643
9290.000000;0.771935
9289.000000;0.772030
9288.000000;0.771945
9287.000000;0.771768
9286.000000;0.771618
9285.000000;0.771535
9284.000000;0.771403
9283.000000;0.771087
9282.000000;0.770655
9281.000000;0.770396
9280.000000;0.770551
9279.000000;0.771042
9278.000000;0.771508
9277.000000;0.771624
9276.000000;0.771367
9275.000000;0.770955
9274.000000;0.770581
9273.000000;0.770265
9272.000000;0.769988
9271.000000;0.769842
9270.000000;0.769956
9269.000000;0.770289
9268.000000;0.770593
9267.000000;0.770644
9266.000000;0.770444
9265.000000;0.770192
9264.000000;0.770069
9263.000000;0.770080
9262.000000;0.770061
9261.000000;0.769848
9260.000000;0.769468
9259.000000;0.769148
9258.000000;0.769095
9257.000000;0.769281
9256.000000;0.769497
9255.000000;0.769574
9254.000000;0.769489
9253.000000;0.769300
9252.000000;0.769106
9251.000000;0.769049
9250.000000;0.769191
9249.000000;0.769349
9248.000000;0.769216
9247.000000;0.768696
9246.000000;0.768017
9245.000000;0.767483
9244.000000;0.767224
9243.000000;0.767270
9242.000000;0.767637
9241.000000;0.768221
9240.000000;0.768717
9239.000000;0.768872
9238.000000;0.768733
9237.000000;0.768502
9236.000000;0.768230
9235.000000;0.767829
9234.000000;0.767357
9233.000000;0.767057
9232.000000;0.767085
9231.000000;0.767344
9230.000000;0.767617
9229.000000;0.767741
9228.000000;0.767635
9227.000000;0.767318
9226.000000;0.766937
9225.000000;0.766671
9224.000000;0.766543
9223.000000;0.766443
9222.000000;0.766326
9221.000000;0.766268
9220.000000;0.766280
9219.000000;0.766226
9218.000000;0.766017
9217.000000;0.765739
9216.000000;0.765522
9215.000000;0.765368
9214.000000;0.765246
9213.000000;0.765194
9212.000000;0.765220
9211.000000;0.765175
9210.000000;0.764913
9209.000000;0.764547
9208.000000;0.764370
9207.000000;0.764514
9206.000000;0.764818
9205.000000;0.765060
9204.000000;0.765204
9203.000000;0.765352
9202.000000;0.765526
9201.000000;0.765591
9200.000000;0.765383
9199.000000;0.764909
9198.000000;0.764396
9197.000000;0.764130
9196.000000;0.764196
9195.000000;0.764402
9194.000000;0.764489
9193.000000;0.764391
9192.000000;0.764226
9191.000000;0.764101
9190.000000;0.764020
9189.000000;0.763982
9188.000000;0.764025
9187.000000;0.764137
9186.000000;0.764211
9185.000000;0.764191
9184.000000;0.764169
9183.000000;0.764264
9182.000000;0.764436
9181.000000;0.764516
9180.000000;0.764400
9179.000000;0.764133
9178.000000;0.763787
9177.000000;0.763381
9176.000000;0.762982
9175.000000;0.762794
9174.000000;0.762994
9173.000000;0.763476
9172.000000;0.763866
9171.000000;0.763871
9170.000000;0.763568
9169.000000;0.763255
9168.000000;0.763079
9167.000000;0.762921
9166.000000;0.762661
9165.000000;0.762398
9164.000000;0.762308
9163.000000;0.762370
9162.000000;0.762359
9161.000000;0.762128
9160.000000;0.761772
9159.000000;0.761497
9158.000000;0.761409
9157.000000;0.761487
9156.000000;0.761677
9155.000000;0.761933
9154.000000;0.762171
9153.000000;0.762270
9152.000000;0.762149
9151.000000;0.761862
9150.000000;0.761587
9149.000000;0.761482
9148.000000;0.761526
9147.000000;0.761532
9146.000000;0.761363
9145.000000;0.761110
9144.000000;0.760983
9143.000000;0.761018
9142.000000;0.761019
9141.000000;0.760827
9140.000000;0.760560
9139.000000;0.760478
9138.000000;0.760669
9137.000000;0.760963
9136.000000;0.761140
9135.000000;0.761135
9134.000000;0.761013
9133.000000;0.760833
9132.000000;0.760596
9131.000000;0.760299
9130.000000;0.759970
9129.000000;0.759642
9128.000000;0.759307
9127.000000;0.758939
9126.000000;0.758565
9125.000000;0.758297
9124.000000;0.758255
9123.000000;0.758423
9122.000000;0.758660
9121.000000;0.758868
9120.000000;0.759104
9119.000000;0.759472
9118.000000;0.759932
9117.000000;0.760286
9116.000000;0.760345
9115.000000;0.760084
9114.000000;0.759630
9113.000000;0.759174
9112.000000;0.758878
9111.000000;0.758762
9110.000000;0.758657
9109.000000;0.758337
9108.000000;0.757754
9107.000000;0.757146
9106.000000;0.756858
9105.000000;0.757046
9104.000000;0.757517
9103.000000;0.757855
9102.000000;0.757746
9101.000000;0.757263
9100.000000;0.756815
9099.000000;0.756752
9098.000000;0.757019
9097.000000;0.757244
9096.000000;0.757160
9095.000000;0.756845
9094.000000;0.756552
9093.000000;0.756423
9092.000000;0.756426
9091.000000;0.756449
9090.000000;0.756363
9089.000000;0.756090
9088.000000;0.755738
9087.000000;0.755602
9086.000000;0.755894
9085.000000;0.756482
9084.000000;0.757005
9083.000000;0.757247
9082.000000;0.757284
9081.000000;0.757250
9080.000000;0.757106
9079.000000;0.756732
9078.000000;0.756162
9077.000000;0.755608
9076.000000;0.755279
9075.000000;0.755236
9074.000000;0.755382
9073.000000;0.755536
9072.000000;0.755541
9071.000000;0.755377
9070.000000;0.755190
9069.000000;0.755139
9068.000000;0.755226
9067.000000;0.755303
9066.000000;0.755256
9065.000000;0.755107
9064.000000;0.754915
9063.000000;0.754658
9062.000000;0.754294
9061.000000;0.753925
9060.000000;0.753773
9059.000000;0.753930
9058.000000;0.754226
9057.000000;0.754416
9056.000000;0.754455
9055.000000;0.754477
9054.000000;0.754520
9053.000000;0.754436
