Criado como novo conjunto de dados;"2706_e01_daniel.spp","45724.7 Secs"
cm-1;Abs
10000.000000;1.107167
9999.000000;1.107171
9998.000000;1.107230
9997.000000;1.107169
9996.000000;1.107754
9995.000000;1.109247
9994.000000;1.110704
9993.000000;1.111306
9992.000000;1.110749
9991.000000;1.109563
9990.000000;1.108479
9989.000000;1.107805
9988.000000;1.107363
9987.000000;1.106916
9986.000000;1.106399
9985.000000;1.105746
9984.000000;1.104846
9983.000000;1.103832
9982.000000;1.103151
9981.000000;1.103110
9980.000000;1.103497
9979.000000;1.103839
9978.000000;1.103902
9977.000000;1.103738
9976.000000;1.103421
9975.000000;1.103055
9974.000000;1.102983
9973.000000;1.103610
9972.000000;1.104908
9971.000000;1.106318
9970.000000;1.107231
9969.000000;1.107429
9968.000000;1.107033
9967.000000;1.106262
9966.000000;1.105377
9965.000000;1.104655
9964.000000;1.104203
9963.000000;1.103817
9962.000000;1.103189
9961.000000;1.102261
9960.000000;1.101321
9959.000000;1.100769
9958.000000;1.100827
9957.000000;1.101400
9956.000000;1.102152
9955.000000;1.102778
9954.000000;1.103267
9953.000000;1.103879
9952.000000;1.104855
9951.000000;1.106115
9950.000000;1.107211
9949.000000;1.107608
9948.000000;1.107112
9947.000000;1.106054
9946.000000;1.104972
9945.000000;1.104049
9944.000000;1.102992
9943.000000;1.101627
9942.000000;1.100407
9941.000000;1.100038
9940.000000;1.100611
9939.000000;1.101416
9938.000000;1.101696
9937.000000;1.101421
9936.000000;1.101204
9935.000000;1.101578
9934.000000;1.102459
9933.000000;1.103187
9932.000000;1.103032
9931.000000;1.101811
9930.000000;1.100145
9929.000000;1.098973
9928.000000;1.098719
9927.000000;1.099042
9926.000000;1.099415
9925.000000;1.099694
9924.000000;1.099962
9923.000000;1.100121
9922.000000;1.100014
9921.000000;1.099808
9920.000000;1.099824
9919.000000;1.100029
9918.000000;1.100074
9917.000000;1.099904
9916.000000;1.099924
9915.000000;1.100355
9914.000000;1.100800
9913.000000;1.100711
9912.000000;1.100105
9911.000000;1.099493
9910.000000;1.099269
9909.000000;1.099461
9908.000000;1.099964
9907.000000;1.100645
9906.000000;1.101189
9905.000000;1.101191
9904.000000;1.100577
9903.000000;1.099790
9902.000000;1.099410
9901.000000;1.099637
9900.000000;1.100196
9899.000000;1.100662
9898.000000;1.100820
9897.000000;1.100750
9896.000000;1.100632
9895.000000;1.100531
9894.000000;1.100412
9893.000000;1.100332
9892.000000;1.100439
9891.000000;1.100664
9890.000000;1.100591
9889.000000;1.099877
9888.000000;1.098706
9887.000000;1.097599
9886.000000;1.096808
9885.000000;1.096198
9884.000000;1.095688
9883.000000;1.095445
9882.000000;1.095533
9881.000000;1.095711
9880.000000;1.095819
9879.000000;1.096092
9878.000000;1.096778
9877.000000;1.097634
9876.000000;1.098115
9875.000000;1.097970
9874.000000;1.097393
9873.000000;1.096669
9872.000000;1.096003
9871.000000;1.095671
9870.000000;1.095921
9869.000000;1.096570
9868.000000;1.096984
9867.000000;1.096741
9866.000000;1.096144
9865.000000;1.095842
9864.000000;1.096055
9863.000000;1.096427
9862.000000;1.096621
9861.000000;1.096771
9860.000000;1.097194
9859.000000;1.097846
9858.000000;1.098287
9857.000000;1.098180
9856.000000;1.097589
9855.000000;1.096752
9854.000000;1.095762
9853.000000;1.094654
9852.000000;1.093654
9851.000000;1.093109
9850.000000;1.093130
9849.000000;1.093467
9848.000000;1.093748
9847.000000;1.093768
9846.000000;1.093586
9845.000000;1.093505
9844.000000;1.093932
9843.000000;1.095058
9842.000000;1.096540
9841.000000;1.097614
9840.000000;1.097611
9839.000000;1.096359
9838.000000;1.094240
9837.000000;1.092103
9836.000000;1.091000
9835.000000;1.091519
9834.000000;1.093054
9833.000000;1.094064
9832.000000;1.093465
9831.000000;1.091729
9830.000000;1.090299
9829.000000;1.090107
9828.000000;1.090931
9827.000000;1.091985
9826.000000;1.092701
9825.000000;1.092883
9824.000000;1.092502
9823.000000;1.091662
9822.000000;1.090686
9821.000000;1.090012
9820.000000;1.089902
9819.000000;1.090241
9818.000000;1.090604
9817.000000;1.090604
9816.000000;1.090273
9815.000000;1.090053
9814.000000;1.090343
9813.000000;1.091099
9812.000000;1.091939
9811.000000;1.092552
9810.000000;1.092846
9809.000000;1.092796
9808.000000;1.092329
9807.000000;1.091420
9806.000000;1.090240
9805.000000;1.089207
9804.000000;1.088841
9803.000000;1.089385
9802.000000;1.090437
9801.000000;1.091134
9800.000000;1.090940
9799.000000;1.090191
9798.000000;1.089650
9797.000000;1.089631
9796.000000;1.089769
9795.000000;1.089644
9794.000000;1.089351
9793.000000;1.089338
9792.000000;1.089789
9791.000000;1.090318
9790.000000;1.090293
9789.000000;1.089499
9788.000000;1.088404
9787.000000;1.087662
9786.000000;1.087392
9785.000000;1.087198
9784.000000;1.086911
9783.000000;1.086912
9782.000000;1.087463
9781.000000;1.088078
9780.000000;1.088015
9779.000000;1.087217
9778.000000;1.086304
9777.000000;1.085752
9776.000000;1.085588
9775.000000;1.085832
9774.000000;1.086618
9773.000000;1.087677
9772.000000;1.088290
9771.000000;1.088120
9770.000000;1.087692
9769.000000;1.087691
9768.000000;1.088107
9767.000000;1.088422
9766.000000;1.088419
9765.000000;1.088375
9764.000000;1.088534
9763.000000;1.088785
9762.000000;1.088874
9761.000000;1.088658
9760.000000;1.088143
9759.000000;1.087442
9758.000000;1.086731
9757.000000;1.086112
9756.000000;1.085567
9755.000000;1.085147
9754.000000;1.085045
9753.000000;1.085308
9752.000000;1.085560
9751.000000;1.085335
9750.000000;1.084700
9749.000000;1.084284
9748.000000;1.084546
9747.000000;1.085229
9746.000000;1.085682
9745.000000;1.085596
9744.000000;1.085237
9743.000000;1.085008
9742.000000;1.084982
9741.000000;1.084971
9740.000000;1.084883
9739.000000;1.084830
9738.000000;1.084871
9737.000000;1.084828
9736.000000;1.084493
9735.000000;1.083933
9734.000000;1.083439
9733.000000;1.083180
9732.000000;1.083027
9731.000000;1.082747
9730.000000;1.082290
9729.000000;1.081824
9728.000000;1.081554
9727.000000;1.081566
9726.000000;1.081794
9725.000000;1.082104
9724.000000;1.082410
9723.000000;1.082721
9722.000000;1.083084
9721.000000;1.083481
9720.000000;1.083795
9719.000000;1.083852
9718.000000;1.083543
9717.000000;1.082982
9716.000000;1.082557
9715.000000;1.082624
9714.000000;1.083068
9713.000000;1.083322
9712.000000;1.083029
9711.000000;1.082549
9710.000000;1.082538
9709.000000;1.083078
9708.000000;1.083527
9707.000000;1.083313
9706.000000;1.082592
9705.000000;1.081975
9704.000000;1.081788
9703.000000;1.081814
9702.000000;1.081642
9701.000000;1.081115
9700.000000;1.080418
9699.000000;1.079847
9698.000000;1.079502
9697.000000;1.079246
9696.000000;1.078988
9695.000000;1.078927
9694.000000;1.079345
9693.000000;1.080180
9692.000000;1.081033
9691.000000;1.081648
9690.000000;1.082129
9689.000000;1.082599
9688.000000;1.082884
9687.000000;1.082770
9686.000000;1.082368
9685.000000;1.081954
9684.000000;1.081530
9683.000000;1.080865
9682.000000;1.079963
9681.000000;1.079209
9680.000000;1.078945
9679.000000;1.079051
9678.000000;1.079103
9677.000000;1.078882
9676.000000;1.078600
9675.000000;1.078614
9674.000000;1.078974
9673.000000;1.079335
9672.000000;1.079353
9671.000000;1.079103
9670.000000;1.078952
9669.000000;1.079019
9668.000000;1.078952
9667.000000;1.078398
9666.000000;1.077547
9665.000000;1.076993
9664.000000;1.077078
9663.000000;1.077556
9662.000000;1.077923
9661.000000;1.077896
9660.000000;1.077529
9659.000000;1.077045
9658.000000;1.076693
9657.000000;1.076645
9656.000000;1.076893
9655.000000;1.077228
9654.000000;1.077433
9653.000000;1.077450
9652.000000;1.077323
9651.000000;1.077080
9650.000000;1.076792
9649.000000;1.076634
9648.000000;1.076714
9647.000000;1.076818
9646.000000;1.076578
9645.000000;1.075961
9644.000000;1.075408
9643.000000;1.075330
9642.000000;1.075652
9641.000000;1.076012
9640.000000;1.076218
9639.000000;1.076281
9638.000000;1.076105
9637.000000;1.075522
9636.000000;1.074672
9635.000000;1.074014
9634.000000;1.073832
9633.000000;1.073991
9632.000000;1.074284
9631.000000;1.074740
9630.000000;1.075365
9629.000000;1.075792
9628.000000;1.075566
9627.000000;1.074773
9626.000000;1.074086
9625.000000;1.074088
9624.000000;1.074726
9623.000000;1.075457
9622.000000;1.075828
9621.000000;1.075821
9620.000000;1.075673
9619.000000;1.075414
9618.000000;1.074741
9617.000000;1.073476
9616.000000;1.072096
9615.000000;1.071501
9614.000000;1.072102
9613.000000;1.073348
9612.000000;1.074311
9611.000000;1.074588
9610.000000;1.074419
9609.000000;1.074120
9608.000000;1.073752
9607.000000;1.073281
9606.000000;1.072731
9605.000000;1.072158
9604.000000;1.071688
9603.000000;1.071539
9602.000000;1.071771
9601.000000;1.072072
9600.000000;1.072065
9599.000000;1.071826
9598.000000;1.071784
9597.000000;1.072128
9596.000000;1.072652
9595.000000;1.073183
9594.000000;1.073766
9593.000000;1.074267
9592.000000;1.074226
9591.000000;1.073401
9590.000000;1.072202
9589.000000;1.071336
9588.000000;1.071178
9587.000000;1.071638
9586.000000;1.072383
9585.000000;1.072993
9584.000000;1.073118
9583.000000;1.072766
9582.000000;1.072298
9581.000000;1.071967
9580.000000;1.071657
9579.000000;1.071262
9578.000000;1.071039
9577.000000;1.071278
9576.000000;1.071829
9575.000000;1.072305
9574.000000;1.072611
9573.000000;1.072836
9572.000000;1.072771
9571.000000;1.072050
9570.000000;1.070853
9569.000000;1.069982
9568.000000;1.070011
9567.000000;1.070670
9566.000000;1.071271
9565.000000;1.071446
9564.000000;1.071204
9563.000000;1.070545
9562.000000;1.069468
9561.000000;1.068345
9560.000000;1.067886
9559.000000;1.068515
9558.000000;1.069870
9557.000000;1.071055
9556.000000;1.071386
9555.000000;1.070886
9554.000000;1.070082
9553.000000;1.069455
9552.000000;1.069122
9551.000000;1.068989
9550.000000;1.068992
9549.000000;1.069105
9548.000000;1.069196
9547.000000;1.069038
9546.000000;1.068514
9545.000000;1.067768
9544.000000;1.067182
9543.000000;1.067203
9542.000000;1.068064
9541.000000;1.069501
9540.000000;1.070753
9539.000000;1.071052
9538.000000;1.070270
9537.000000;1.069015
9536.000000;1.068036
9535.000000;1.067597
9534.000000;1.067449
9533.000000;1.067270
9532.000000;1.067006
9531.000000;1.066819
9530.000000;1.066863
9529.000000;1.067136
9528.000000;1.067465
9527.000000;1.067610
9526.000000;1.067411
9525.000000;1.066933
9524.000000;1.066461
9523.000000;1.066306
9522.000000;1.066528
9521.000000;1.066824
9520.000000;1.066714
9519.000000;1.065935
9518.000000;1.064711
9517.000000;1.063608
9516.000000;1.063087
9515.000000;1.063170
9514.000000;1.063485
9513.000000;1.063574
9512.000000;1.063231
9511.000000;1.062655
9510.000000;1.062349
9509.000000;1.062734
9508.000000;1.063717
9507.000000;1.064654
9506.000000;1.064913
9505.000000;1.064522
9504.000000;1.064141
9503.000000;1.064306
9502.000000;1.064828
9501.000000;1.065098
9500.000000;1.064914
9499.000000;1.064750
9498.000000;1.065083
9497.000000;1.065714
9496.000000;1.065985
9495.000000;1.065607
9494.000000;1.064933
9493.000000;1.064372
9492.000000;1.063830
9491.000000;1.063006
9490.000000;1.062054
9489.000000;1.061583
9488.000000;1.061926
9487.000000;1.062671
9486.000000;1.063046
9485.000000;1.062696
9484.000000;1.061950
9483.000000;1.061415
9482.000000;1.061441
9481.000000;1.061912
9480.000000;1.062401
9479.000000;1.062497
9478.000000;1.062096
9477.000000;1.061480
9476.000000;1.061095
9475.000000;1.061198
9474.000000;1.061648
9473.000000;1.062025
9472.000000;1.062015
9471.000000;1.061731
9470.000000;1.061645
9469.000000;1.062089
9468.000000;1.062837
9467.000000;1.063266
9466.000000;1.062996
9465.000000;1.062280
9464.000000;1.061703
9463.000000;1.061632
9462.000000;1.061998
9461.000000;1.062439
9460.000000;1.062512
9459.000000;1.061948
9458.000000;1.060980
9457.000000;1.060307
9456.000000;1.060436
9455.000000;1.061071
9454.000000;1.061434
9453.000000;1.061226
9452.000000;1.060913
9451.000000;1.060947
9450.000000;1.061090
9449.000000;1.060802
9448.000000;1.060028
9447.000000;1.059251
9446.000000;1.058885
9445.000000;1.058982
9444.000000;1.059453
9443.000000;1.060170
9442.000000;1.060815
9441.000000;1.060974
9440.000000;1.060558
9439.000000;1.059911
9438.000000;1.059402
9437.000000;1.059089
9436.000000;1.058880
9435.000000;1.058782
9434.000000;1.058810
9433.000000;1.058786
9432.000000;1.058481
9431.000000;1.057936
9430.000000;1.057493
9429.000000;1.057464
9428.000000;1.057824
9427.000000;1.058222
9426.000000;1.058295
9425.000000;1.058026
9424.000000;1.057757
9423.000000;1.057775
9422.000000;1.057949
9421.000000;1.057928
9420.000000;1.057647
9419.000000;1.057403
9418.000000;1.057379
9417.000000;1.057367
9416.000000;1.057128
9415.000000;1.056791
9414.000000;1.056671
9413.000000;1.056813
9412.000000;1.056957
9411.000000;1.056892
9410.000000;1.056602
9409.000000;1.056113
9408.000000;1.055458
9407.000000;1.054845
9406.000000;1.054611
9405.000000;1.054887
9404.000000;1.055424
9403.000000;1.055864
9402.000000;1.056103
9401.000000;1.056301
9400.000000;1.056590
9399.000000;1.056880
9398.000000;1.056944
9397.000000;1.056650
9396.000000;1.056128
9395.000000;1.055705
9394.000000;1.055628
9393.000000;1.055825
9392.000000;1.055976
9391.000000;1.055842
9390.000000;1.055504
9389.000000;1.055247
9388.000000;1.055228
9387.000000;1.055298
9386.000000;1.055153
9385.000000;1.054636
9384.000000;1.053919
9383.000000;1.053386
9382.000000;1.053317
9381.000000;1.053640
9380.000000;1.054005
9379.000000;1.054127
9378.000000;1.054060
9377.000000;1.054065
9376.000000;1.054233
9375.000000;1.054346
9374.000000;1.054185
9373.000000;1.053892
9372.000000;1.053849
9371.000000;1.054199
9370.000000;1.054649
9369.000000;1.054830
9368.000000;1.054682
9367.000000;1.054363
9366.000000;1.053916
9365.000000;1.053288
9364.000000;1.052630
9363.000000;1.052298
9362.000000;1.052476
9361.000000;1.052935
9360.000000;1.053275
9359.000000;1.053305
9358.000000;1.053143
9357.000000;1.053074
9356.000000;1.053349
9355.000000;1.053978
9354.000000;1.054613
9353.000000;1.054767
9352.000000;1.054260
9351.000000;1.053373
9350.000000;1.052491
9349.000000;1.051746
9348.000000;1.051114
9347.000000;1.050702
9346.000000;1.050717
9345.000000;1.051182
9344.000000;1.051831
9343.000000;1.052295
9342.000000;1.052308
9341.000000;1.051818
9340.000000;1.051051
9339.000000;1.050438
9338.000000;1.050299
9337.000000;1.050595
9336.000000;1.051072
9335.000000;1.051584
9334.000000;1.052110
9333.000000;1.052508
9332.000000;1.052512
9331.000000;1.052058
9330.000000;1.051404
9329.000000;1.050808
9328.000000;1.050273
9327.000000;1.049724
9326.000000;1.049284
9325.000000;1.049142
9324.000000;1.049258
9323.000000;1.049418
9322.000000;1.049565
9321.000000;1.049822
9320.000000;1.050175
9319.000000;1.050349
9318.000000;1.050173
9317.000000;1.049876
9316.000000;1.049819
9315.000000;1.050017
9314.000000;1.050152
9313.000000;1.050029
9312.000000;1.049806
9311.000000;1.049700
9310.000000;1.049657
9309.000000;1.049445
9308.000000;1.048934
9307.000000;1.048192
9306.000000;1.047400
9305.000000;1.046768
9304.000000;1.046446
9303.000000;1.046368
9302.000000;1.046302
9301.000000;1.046158
9300.000000;1.046167
9299.000000;1.046584
9298.000000;1.047301
9297.000000;1.047965
9296.000000;1.048413
9295.000000;1.048739
9294.000000;1.048927
9293.000000;1.048729
9292.000000;1.048043
9291.000000;1.047179
9290.000000;1.046534
9289.000000;1.046177
9288.000000;1.045939
9287.000000;1.045782
9286.000000;1.045868
9285.000000;1.046245
9284.000000;1.046669
9283.000000;1.046812
9282.000000;1.046592
9281.000000;1.046247
9280.000000;1.046108
9279.000000;1.046319
9278.000000;1.046753
9277.000000;1.047164
9276.000000;1.047380
9275.000000;1.047338
9274.000000;1.047042
9273.000000;1.046598
9272.000000;1.046211
9271.000000;1.045998
9270.000000;1.045813
9269.000000;1.045426
9268.000000;1.044889
9267.000000;1.044532
9266.000000;1.044531
9265.000000;1.044656
9264.000000;1.044547
9263.000000;1.044100
9262.000000;1.043493
9261.000000;1.042986
9260.000000;1.042825
9259.000000;1.043194
9258.000000;1.044056
9257.000000;1.045096
9256.000000;1.045958
9255.000000;1.046492
9254.000000;1.046694
9253.000000;1.046507
9252.000000;1.045872
9251.000000;1.044953
9250.000000;1.044134
9249.000000;1.043737
9248.000000;1.043759
9247.000000;1.043865
9246.000000;1.043648
9245.000000;1.042992
9244.000000;1.042257
9243.000000;1.041999
9242.000000;1.042414
9241.000000;1.043146
9240.000000;1.043707
9239.000000;1.043983
9238.000000;1.044186
9237.000000;1.044445
9236.000000;1.044620
9235.000000;1.044511
9234.000000;1.044073
9233.000000;1.043415
9232.000000;1.042718
9231.000000;1.042179
9230.000000;1.041931
9229.000000;1.041951
9228.000000;1.042075
9227.000000;1.042116
9226.000000;1.041972
9225.000000;1.041684
9224.000000;1.041422
9223.000000;1.041365
9222.000000;1.041537
9221.000000;1.041798
9220.000000;1.042002
9219.000000;1.042094
9218.000000;1.042050
9217.000000;1.041854
9216.000000;1.041594
9215.000000;1.041440
9214.000000;1.041448
9213.000000;1.041472
9212.000000;1.041343
9211.000000;1.041004
9210.000000;1.040449
9209.000000;1.039725
9208.000000;1.039112
9207.000000;1.039043
9206.000000;1.039620
9205.000000;1.040398
9204.000000;1.040880
9203.000000;1.041052
9202.000000;1.041171
9201.000000;1.041195
9200.000000;1.040834
9199.000000;1.040128
9198.000000;1.039572
9197.000000;1.039562
9196.000000;1.039990
9195.000000;1.040481
9194.000000;1.040777
9193.000000;1.040774
9192.000000;1.040466
9191.000000;1.040039
9190.000000;1.039839
9189.000000;1.040046
9188.000000;1.040436
9187.000000;1.040600
9186.000000;1.040319
9185.000000;1.039680
9184.000000;1.038938
9183.000000;1.038384
9182.000000;1.038193
9181.000000;1.038263
9180.000000;1.038267
9179.000000;1.038000
9178.000000;1.037641
9177.000000;1.037558
9176.000000;1.037870
9175.000000;1.038297
9174.000000;1.038437
9173.000000;1.038129
9172.000000;1.037546
9171.000000;1.037001
9170.000000;1.036697
9169.000000;1.036630
9168.000000;1.036666
9167.000000;1.036674
9166.000000;1.036573
9165.000000;1.036360
9164.000000;1.036167
9163.000000;1.036226
9162.000000;1.036625
9161.000000;1.037113
9160.000000;1.037293
9159.000000;1.037066
9158.000000;1.036725
9157.000000;1.036596
9156.000000;1.036694
9155.000000;1.036824
9154.000000;1.036866
9153.000000;1.036831
9152.000000;1.036734
9151.000000;1.036557
9150.000000;1.036335
9149.000000;1.036155
9148.000000;1.036035
9147.000000;1.035895
9146.000000;1.035654
9145.000000;1.035316
9144.000000;1.034929
9143.000000;1.034522
9142.000000;1.034091
9141.000000;1.033652
9140.000000;1.033275
9139.000000;1.033069
9138.000000;1.033121
9137.000000;1.033444
9136.000000;1.033970
9135.000000;1.034564
9134.000000;1.035017
9133.000000;1.035090
9132.000000;1.034670
9131.000000;1.033921
9130.000000;1.033214
9129.000000;1.032838
9128.000000;1.032798
9127.000000;1.032928
9126.000000;1.033135
9125.000000;1.033411
9124.000000;1.033646
9123.000000;1.033599
9122.000000;1.033170
9121.000000;1.032614
9120.000000;1.032326
9119.000000;1.032422
9118.000000;1.032673
9117.000000;1.032843
9116.000000;1.032965
9115.000000;1.033176
9114.000000;1.033432
9113.000000;1.033533
9112.000000;1.033386
9111.000000;1.033102
9110.000000;1.032831
9109.000000;1.032650
9108.000000;1.032617
9107.000000;1.032769
9106.000000;1.033018
9105.000000;1.033136
9104.000000;1.032927
9103.000000;1.032376
9102.000000;1.031638
9101.000000;1.030963
9100.000000;1.030620
9099.000000;1.030719
9098.000000;1.031056
9097.000000;1.031263
9096.000000;1.031200
9095.000000;1.031085
9094.000000;1.031158
9093.000000;1.031367
9092.000000;1.031505
9091.000000;1.031566
9090.000000;1.031746
9089.000000;1.032147
9088.000000;1.032616
9087.000000;1.032908
9086.000000;1.032877
9085.000000;1.032517
9084.000000;1.031909
9083.000000;1.031191
9082.000000;1.030528
9081.000000;1.030074
9080.000000;1.029941
9079.000000;1.030131
9078.000000;1.030440
9077.000000;1.030525
9076.000000;1.030187
9075.000000;1.029580
9074.000000;1.029048
9073.000000;1.028788
9072.000000;1.028754
9071.000000;1.028844
9070.000000;1.029037
9069.000000;1.029312
9068.000000;1.029571
9067.000000;1.029706
9066.000000;1.029721
9065.000000;1.029705
9064.000000;1.029704
9063.000000;1.029643
9062.000000;1.029402
9061.000000;1.028970
9060.000000;1.028509
9059.000000;1.028234
9058.000000;1.028225
9057.000000;1.028370
9056.000000;1.028476
9055.000000;1.028391
9054.000000;1.028058
9053.000000;1.027555
