Criado como novo conjunto de dados;"2706_e01_daniel.spp","78846.2 Secs"
cm-1;Abs
10000.000000;0.803974
9999.000000;0.803707
9998.000000;0.803398
9997.000000;0.803178
9996.000000;0.802492
9995.000000;0.801257
9994.000000;0.800340
9993.000000;0.799964
9992.000000;0.799428
9991.000000;0.798285
9990.000000;0.797247
9989.000000;0.797019
9988.000000;0.797232
9987.000000;0.797244
9986.000000;0.797177
9985.000000;0.797258
9984.000000;0.796926
9983.000000;0.795688
9982.000000;0.794307
9981.000000;0.794026
9980.000000;0.795031
9979.000000;0.796591
9978.000000;0.798299
9977.000000;0.800139
9976.000000;0.801656
9975.000000;0.802208
9974.000000;0.801951
9973.000000;0.801577
9972.000000;0.801144
9971.000000;0.800132
9970.000000;0.798641
9969.000000;0.797601
9968.000000;0.797634
9967.000000;0.798407
9966.000000;0.799170
9965.000000;0.799351
9964.000000;0.798621
9963.000000;0.797079
9962.000000;0.795469
9961.000000;0.794624
9960.000000;0.794622
9959.000000;0.794860
9958.000000;0.794881
9957.000000;0.794692
9956.000000;0.794355
9955.000000;0.793853
9954.000000;0.793364
9953.000000;0.793189
9952.000000;0.793400
9951.000000;0.793883
9950.000000;0.794548
9949.000000;0.795111
9948.000000;0.795002
9947.000000;0.794077
9946.000000;0.793215
9945.000000;0.793475
9944.000000;0.794757
9943.000000;0.795916
9942.000000;0.796162
9941.000000;0.795713
9940.000000;0.795066
9939.000000;0.794439
9938.000000;0.794064
9937.000000;0.794287
9936.000000;0.794985
9935.000000;0.795374
9934.000000;0.794819
9933.000000;0.793600
9932.000000;0.792608
9931.000000;0.792489
9930.000000;0.793187
9929.000000;0.794055
9928.000000;0.794273
9927.000000;0.793401
9926.000000;0.791743
9925.000000;0.790149
9924.000000;0.789447
9923.000000;0.789987
9922.000000;0.791478
9921.000000;0.793084
9920.000000;0.793897
9919.000000;0.793631
9918.000000;0.792799
9917.000000;0.792042
9916.000000;0.791491
9915.000000;0.790960
9914.000000;0.790442
9913.000000;0.790064
9912.000000;0.789766
9911.000000;0.789409
9910.000000;0.789120
9909.000000;0.789190
9908.000000;0.789698
9907.000000;0.790473
9906.000000;0.791302
9905.000000;0.791945
9904.000000;0.792103
9903.000000;0.791668
9902.000000;0.790903
9901.000000;0.790155
9900.000000;0.789552
9899.000000;0.789171
9898.000000;0.789219
9897.000000;0.789718
9896.000000;0.790230
9895.000000;0.790221
9894.000000;0.789572
9893.000000;0.788523
9892.000000;0.787362
9891.000000;0.786427
9890.000000;0.786085
9889.000000;0.786316
9888.000000;0.786569
9887.000000;0.786425
9886.000000;0.786184
9885.000000;0.786424
9884.000000;0.787227
9883.000000;0.788207
9882.000000;0.789052
9881.000000;0.789595
9880.000000;0.789575
9879.000000;0.788883
9878.000000;0.787946
9877.000000;0.787375
9876.000000;0.787303
9875.000000;0.787407
9874.000000;0.787449
9873.000000;0.787415
9872.000000;0.787291
9871.000000;0.787155
9870.000000;0.787331
9869.000000;0.787980
9868.000000;0.788660
9867.000000;0.788687
9866.000000;0.787846
9865.000000;0.786387
9864.000000;0.784566
9863.000000;0.782774
9862.000000;0.781843
9861.000000;0.782474
9860.000000;0.784275
9859.000000;0.785968
9858.000000;0.786644
9857.000000;0.786339
9856.000000;0.785379
9855.000000;0.783898
9854.000000;0.782261
9853.000000;0.781265
9852.000000;0.781426
9851.000000;0.782357
9850.000000;0.783215
9849.000000;0.783547
9848.000000;0.783436
9847.000000;0.783091
9846.000000;0.782673
9845.000000;0.782425
9844.000000;0.782621
9843.000000;0.783301
9842.000000;0.784178
9841.000000;0.784844
9840.000000;0.785076
9839.000000;0.784986
9838.000000;0.784837
9837.000000;0.784679
9836.000000;0.784308
9835.000000;0.783661
9834.000000;0.783062
9833.000000;0.782805
9832.000000;0.782680
9831.000000;0.782240
9830.000000;0.781426
9829.000000;0.780543
9828.000000;0.779703
9827.000000;0.778784
9826.000000;0.777958
9825.000000;0.777729
9824.000000;0.778214
9823.000000;0.778823
9822.000000;0.779014
9821.000000;0.779005
9820.000000;0.779310
9819.000000;0.779813
9818.000000;0.779863
9817.000000;0.779268
9816.000000;0.778675
9815.000000;0.778790
9814.000000;0.779583
9813.000000;0.780549
9812.000000;0.781532
9811.000000;0.782863
9810.000000;0.784657
9809.000000;0.786288
9808.000000;0.786833
9807.000000;0.786012
9806.000000;0.784460
9805.000000;0.783060
9804.000000;0.782171
9803.000000;0.781507
9802.000000;0.780649
9801.000000;0.779580
9800.000000;0.778685
9799.000000;0.778295
9798.000000;0.778293
9797.000000;0.778235
9796.000000;0.777792
9795.000000;0.776976
9794.000000;0.775989
9793.000000;0.775113
9792.000000;0.774753
9791.000000;0.775257
9790.000000;0.776452
9789.000000;0.777569
9788.000000;0.777937
9787.000000;0.777646
9786.000000;0.777288
9785.000000;0.777220
9784.000000;0.777417
9783.000000;0.777858
9782.000000;0.778529
9781.000000;0.779054
9780.000000;0.778868
9779.000000;0.777958
9778.000000;0.776995
9777.000000;0.776559
9776.000000;0.776556
9775.000000;0.776586
9774.000000;0.776468
9773.000000;0.776152
9772.000000;0.775484
9771.000000;0.774503
9770.000000;0.773705
9769.000000;0.773612
9768.000000;0.774161
9767.000000;0.774786
9766.000000;0.775047
9765.000000;0.774970
9764.000000;0.774874
9763.000000;0.775079
9762.000000;0.775691
9761.000000;0.776417
9760.000000;0.776685
9759.000000;0.776223
9758.000000;0.775474
9757.000000;0.775201
9756.000000;0.775692
9755.000000;0.776534
9754.000000;0.777086
9753.000000;0.776945
9752.000000;0.776023
9751.000000;0.774529
9750.000000;0.772953
9749.000000;0.771900
9748.000000;0.771693
9747.000000;0.772120
9746.000000;0.772626
9745.000000;0.772772
9744.000000;0.772581
9743.000000;0.772486
9742.000000;0.772909
9741.000000;0.773822
9740.000000;0.774719
9739.000000;0.775027
9738.000000;0.774566
9737.000000;0.773636
9736.000000;0.772792
9735.000000;0.772531
9734.000000;0.773010
9733.000000;0.773880
9732.000000;0.774447
9731.000000;0.774198
9730.000000;0.773225
9729.000000;0.772113
9728.000000;0.771427
9727.000000;0.771351
9726.000000;0.771710
9725.000000;0.772206
9724.000000;0.772586
9723.000000;0.772673
9722.000000;0.772372
9721.000000;0.771731
9720.000000;0.770984
9719.000000;0.770423
9718.000000;0.770183
9717.000000;0.770234
9716.000000;0.770563
9715.000000;0.771155
9714.000000;0.771712
9713.000000;0.771661
9712.000000;0.770753
9711.000000;0.769554
9710.000000;0.769030
9709.000000;0.769584
9708.000000;0.770682
9707.000000;0.771446
9706.000000;0.771447
9705.000000;0.770911
9704.000000;0.770324
9703.000000;0.769971
9702.000000;0.769817
9701.000000;0.769707
9700.000000;0.769583
9699.000000;0.769417
9698.000000;0.769034
9697.000000;0.768263
9696.000000;0.767307
9695.000000;0.766700
9694.000000;0.766688
9693.000000;0.766946
9692.000000;0.767103
9691.000000;0.767248
9690.000000;0.767591
9689.000000;0.767942
9688.000000;0.767994
9687.000000;0.767894
9686.000000;0.767969
9685.000000;0.767994
9684.000000;0.767384
9683.000000;0.766190
9682.000000;0.765263
9681.000000;0.765275
9680.000000;0.766043
9679.000000;0.766981
9678.000000;0.767718
9677.000000;0.768056
9676.000000;0.767840
9675.000000;0.767267
9674.000000;0.766949
9673.000000;0.767256
9672.000000;0.767817
9671.000000;0.768008
9670.000000;0.767722
9669.000000;0.767309
9668.000000;0.766973
9667.000000;0.766675
9666.000000;0.766463
9665.000000;0.766483
9664.000000;0.766644
9663.000000;0.766633
9662.000000;0.766308
9661.000000;0.765825
9660.000000;0.765355
9659.000000;0.764937
9658.000000;0.764664
9657.000000;0.764757
9656.000000;0.765282
9655.000000;0.765919
9654.000000;0.766191
9653.000000;0.765947
9652.000000;0.765512
9651.000000;0.765345
9650.000000;0.765577
9649.000000;0.765888
9648.000000;0.765842
9647.000000;0.765299
9646.000000;0.764516
9645.000000;0.763915
9644.000000;0.763821
9643.000000;0.764296
9642.000000;0.765058
9641.000000;0.765555
9640.000000;0.765307
9639.000000;0.764342
9638.000000;0.763231
9637.000000;0.762593
9636.000000;0.762587
9635.000000;0.762859
9634.000000;0.762938
9633.000000;0.762666
9632.000000;0.762272
9631.000000;0.762103
9630.000000;0.762345
9629.000000;0.762946
9628.000000;0.763668
9627.000000;0.764091
9626.000000;0.763792
9625.000000;0.762806
9624.000000;0.761826
9623.000000;0.761630
9622.000000;0.762239
9621.000000;0.762893
9620.000000;0.762946
9619.000000;0.762502
9618.000000;0.762078
9617.000000;0.761962
9616.000000;0.762118
9615.000000;0.762348
9614.000000;0.762291
9613.000000;0.761598
9612.000000;0.760460
9611.000000;0.759670
9610.000000;0.759777
9609.000000;0.760392
9608.000000;0.760710
9607.000000;0.760495
9606.000000;0.760100
9605.000000;0.759748
9604.000000;0.759345
9603.000000;0.758941
9602.000000;0.758822
9601.000000;0.759061
9600.000000;0.759409
9599.000000;0.759695
9598.000000;0.759977
9597.000000;0.760275
9596.000000;0.760523
9595.000000;0.760831
9594.000000;0.761400
9593.000000;0.762099
9592.000000;0.762466
9591.000000;0.762214
9590.000000;0.761454
9589.000000;0.760395
9588.000000;0.759209
9587.000000;0.758227
9586.000000;0.757838
9585.000000;0.758080
9584.000000;0.758601
9583.000000;0.759067
9582.000000;0.759275
9581.000000;0.758943
9580.000000;0.757885
9579.000000;0.756532
9578.000000;0.755733
9577.000000;0.755833
9576.000000;0.756319
9575.000000;0.756555
9574.000000;0.756462
9573.000000;0.756272
9572.000000;0.756035
9571.000000;0.755740
9570.000000;0.755569
9569.000000;0.755676
9568.000000;0.755911
9567.000000;0.756097
9566.000000;0.756342
9565.000000;0.756732
9564.000000;0.756975
9563.000000;0.756770
9562.000000;0.756384
9561.000000;0.756401
9560.000000;0.756904
9559.000000;0.757321
9558.000000;0.757199
9557.000000;0.756798
9556.000000;0.756719
9555.000000;0.757095
9554.000000;0.757436
9553.000000;0.757249
9552.000000;0.756626
9551.000000;0.756076
9550.000000;0.755877
9549.000000;0.755823
9548.000000;0.755574
9547.000000;0.755005
9546.000000;0.754121
9545.000000;0.752961
9544.000000;0.751839
9543.000000;0.751356
9542.000000;0.751788
9541.000000;0.752612
9540.000000;0.753032
9539.000000;0.752897
9538.000000;0.752714
9537.000000;0.752851
9536.000000;0.753214
9535.000000;0.753653
9534.000000;0.754120
9533.000000;0.754300
9532.000000;0.753689
9531.000000;0.752375
9530.000000;0.751311
9529.000000;0.751402
9528.000000;0.752535
9527.000000;0.753792
9526.000000;0.754427
9525.000000;0.754389
9524.000000;0.754067
9523.000000;0.753887
9522.000000;0.754109
9521.000000;0.754678
9520.000000;0.755164
9519.000000;0.755008
9518.000000;0.753969
9517.000000;0.752382
9516.000000;0.751029
9515.000000;0.750627
9514.000000;0.751215
9513.000000;0.752012
9512.000000;0.752107
9511.000000;0.751379
9510.000000;0.750563
9509.000000;0.750394
9508.000000;0.750959
9507.000000;0.751872
9506.000000;0.752687
9505.000000;0.752984
9504.000000;0.752421
9503.000000;0.751105
9502.000000;0.749732
9501.000000;0.749046
9500.000000;0.749196
9499.000000;0.749755
9498.000000;0.750245
9497.000000;0.750479
9496.000000;0.750476
9495.000000;0.750352
9494.000000;0.750296
9493.000000;0.750444
9492.000000;0.750628
9491.000000;0.750415
9490.000000;0.749545
9489.000000;0.748355
9488.000000;0.747592
9487.000000;0.747725
9486.000000;0.748468
9485.000000;0.749106
9484.000000;0.749234
9483.000000;0.749013
9482.000000;0.748748
9481.000000;0.748511
9480.000000;0.748311
9479.000000;0.748317
9478.000000;0.748621
9477.000000;0.748980
9476.000000;0.749103
9475.000000;0.749073
9474.000000;0.749184
9473.000000;0.749475
9472.000000;0.749753
9471.000000;0.749950
9470.000000;0.750089
9469.000000;0.749992
9468.000000;0.749471
9467.000000;0.748755
9466.000000;0.748323
9465.000000;0.748279
9464.000000;0.748292
9463.000000;0.748149
9462.000000;0.747944
9461.000000;0.747697
9460.000000;0.747291
9459.000000;0.746846
9458.000000;0.746646
9457.000000;0.746530
9456.000000;0.745897
9455.000000;0.744623
9454.000000;0.743477
9453.000000;0.743254
9452.000000;0.743867
9451.000000;0.744689
9450.000000;0.745396
9449.000000;0.746010
9448.000000;0.746408
9447.000000;0.746382
9446.000000;0.746148
9445.000000;0.746254
9444.000000;0.746873
9443.000000;0.747529
9442.000000;0.747662
9441.000000;0.747232
9440.000000;0.746673
9439.000000;0.746432
9438.000000;0.746636
9437.000000;0.746999
9436.000000;0.747007
9435.000000;0.746370
9434.000000;0.745356
9433.000000;0.744528
9432.000000;0.744165
9431.000000;0.744095
9430.000000;0.744079
9429.000000;0.744127
9428.000000;0.744315
9427.000000;0.744504
9426.000000;0.744465
9425.000000;0.744226
9424.000000;0.744061
9423.000000;0.744080
9422.000000;0.744030
9421.000000;0.743662
9420.000000;0.743149
9419.000000;0.742939
9418.000000;0.743193
9417.000000;0.743589
9416.000000;0.743716
9415.000000;0.743435
9414.000000;0.742796
9413.000000;0.741897
9412.000000;0.741054
9411.000000;0.740842
9410.000000;0.741546
9409.000000;0.742642
9408.000000;0.743188
9407.000000;0.742781
9406.000000;0.741840
9405.000000;0.740936
9404.000000;0.740223
9403.000000;0.739669
9402.000000;0.739417
9401.000000;0.739631
9400.000000;0.740150
9399.000000;0.740598
9398.000000;0.740795
9397.000000;0.740840
9396.000000;0.740824
9395.000000;0.740679
9394.000000;0.740365
9393.000000;0.740062
9392.000000;0.740061
9391.000000;0.740442
9390.000000;0.740927
9389.000000;0.741116
9388.000000;0.740897
9387.000000;0.740522
9386.000000;0.740279
9385.000000;0.740225
9384.000000;0.740312
9383.000000;0.740585
9382.000000;0.740997
9381.000000;0.741158
9380.000000;0.740613
9379.000000;0.739444
9378.000000;0.738323
9377.000000;0.737854
9376.000000;0.738057
9375.000000;0.738545
9374.000000;0.738982
9373.000000;0.739221
9372.000000;0.739190
9371.000000;0.738921
9370.000000;0.738646
9369.000000;0.738654
9368.000000;0.738962
9367.000000;0.739214
9366.000000;0.738983
9365.000000;0.738217
9364.000000;0.737332
9363.000000;0.736831
9362.000000;0.736836
9361.000000;0.737068
9360.000000;0.737255
9359.000000;0.737419
9358.000000;0.737674
9357.000000;0.737943
9356.000000;0.738064
9355.000000;0.738033
9354.000000;0.737938
9353.000000;0.737746
9352.000000;0.737425
9351.000000;0.737228
9350.000000;0.737505
9349.000000;0.738161
9348.000000;0.738591
9347.000000;0.738301
9346.000000;0.737434
9345.000000;0.736534
9344.000000;0.736012
9343.000000;0.736001
9342.000000;0.736519
9341.000000;0.737437
9340.000000;0.738287
9339.000000;0.738420
9338.000000;0.737550
9337.000000;0.736056
9336.000000;0.734619
9335.000000;0.733629
9334.000000;0.733031
9333.000000;0.732700
9332.000000;0.732723
9331.000000;0.733182
9330.000000;0.733819
9329.000000;0.734212
9328.000000;0.734324
9327.000000;0.734569
9326.000000;0.735211
9325.000000;0.735893
9324.000000;0.735960
9323.000000;0.735159
9322.000000;0.733885
9321.000000;0.732826
9320.000000;0.732525
9319.000000;0.733129
9318.000000;0.734296
9317.000000;0.735373
9316.000000;0.735876
9315.000000;0.735795
9314.000000;0.735364
9313.000000;0.734717
9312.000000;0.733949
9311.000000;0.733316
9310.000000;0.733036
9309.000000;0.732948
9308.000000;0.732699
9307.000000;0.732294
9306.000000;0.732164
9305.000000;0.732604
9304.000000;0.733373
9303.000000;0.733962
9302.000000;0.734092
9301.000000;0.733862
9300.000000;0.733580
9299.000000;0.733511
9298.000000;0.733693
9297.000000;0.733879
9296.000000;0.733758
9295.000000;0.733283
9294.000000;0.732741
9293.000000;0.732474
9292.000000;0.732576
9291.000000;0.732853
9290.000000;0.732965
9289.000000;0.732656
9288.000000;0.731971
9287.000000;0.731312
9286.000000;0.731167
9285.000000;0.731712
9284.000000;0.732637
9283.000000;0.733347
9282.000000;0.733361
9281.000000;0.732656
9280.000000;0.731721
9279.000000;0.731183
9278.000000;0.731304
9277.000000;0.731842
9276.000000;0.732374
9275.000000;0.732585
9274.000000;0.732278
9273.000000;0.731395
9272.000000;0.730255
9271.000000;0.729522
9270.000000;0.729573
9269.000000;0.730006
9268.000000;0.730053
9267.000000;0.729435
9266.000000;0.728537
9265.000000;0.727839
9264.000000;0.727528
9263.000000;0.727639
9262.000000;0.728166
9261.000000;0.728902
9260.000000;0.729464
9259.000000;0.729655
9258.000000;0.729607
9257.000000;0.729511
9256.000000;0.729418
9255.000000;0.729385
9254.000000;0.729495
9253.000000;0.729611
9252.000000;0.729360
9251.000000;0.728591
9250.000000;0.727669
9249.000000;0.727108
9248.000000;0.727039
9247.000000;0.727211
9246.000000;0.727362
9245.000000;0.727405
9244.000000;0.727339
9243.000000;0.727237
9242.000000;0.727268
9241.000000;0.727517
9240.000000;0.727782
9239.000000;0.727745
9238.000000;0.727409
9237.000000;0.727159
9236.000000;0.727309
9235.000000;0.727700
9234.000000;0.727885
9233.000000;0.727625
9232.000000;0.727112
9231.000000;0.726744
9230.000000;0.726766
9229.000000;0.727120
9228.000000;0.727507
9227.000000;0.727581
9226.000000;0.727189
9225.000000;0.726481
9224.000000;0.725780
9223.000000;0.725361
9222.000000;0.725391
9221.000000;0.725930
9220.000000;0.726769
9219.000000;0.727281
9218.000000;0.726804
9217.000000;0.725392
9216.000000;0.723981
9215.000000;0.723518
9214.000000;0.724049
9213.000000;0.724813
9212.000000;0.725095
9211.000000;0.724739
9210.000000;0.723982
9209.000000;0.723167
9208.000000;0.722651
9207.000000;0.722651
9206.000000;0.723064
9205.000000;0.723581
9204.000000;0.723985
9203.000000;0.724142
9202.000000;0.723870
9201.000000;0.723181
9200.000000;0.722585
9199.000000;0.722714
9198.000000;0.723547
9197.000000;0.724391
9196.000000;0.724735
9195.000000;0.724726
9194.000000;0.724690
9193.000000;0.724646
9192.000000;0.724540
9191.000000;0.724491
9190.000000;0.724491
9189.000000;0.724197
9188.000000;0.723412
9187.000000;0.722510
9186.000000;0.722030
9185.000000;0.722040
9184.000000;0.722189
9183.000000;0.722204
9182.000000;0.722067
9181.000000;0.721874
9180.000000;0.721767
9179.000000;0.721857
9178.000000;0.721999
9177.000000;0.721884
9176.000000;0.721507
9175.000000;0.721268
9174.000000;0.721400
9173.000000;0.721634
9172.000000;0.721703
9171.000000;0.721804
9170.000000;0.722178
9169.000000;0.722594
9168.000000;0.722670
9167.000000;0.722429
9166.000000;0.722091
9165.000000;0.721635
9164.000000;0.721058
9163.000000;0.720760
9162.000000;0.721060
9161.000000;0.721541
9160.000000;0.721520
9159.000000;0.721032
9158.000000;0.720684
9157.000000;0.720624
9156.000000;0.720383
9155.000000;0.719809
9154.000000;0.719402
9153.000000;0.719493
9152.000000;0.719714
9151.000000;0.719607
9150.000000;0.719265
9149.000000;0.719053
9148.000000;0.719063
9147.000000;0.719173
9146.000000;0.719286
9145.000000;0.719227
9144.000000;0.718727
9143.000000;0.717847
9142.000000;0.717144
9141.000000;0.717136
9140.000000;0.717745
9139.000000;0.718505
9138.000000;0.719093
9137.000000;0.719425
9136.000000;0.719444
9135.000000;0.719159
9134.000000;0.718801
9133.000000;0.718660
9132.000000;0.718749
9131.000000;0.718808
9130.000000;0.718600
9129.000000;0.718117
9128.000000;0.717542
9127.000000;0.717109
9126.000000;0.716945
9125.000000;0.716976
9124.000000;0.717039
9123.000000;0.717112
9122.000000;0.717269
9121.000000;0.717390
9120.000000;0.717122
9119.000000;0.716312
9118.000000;0.715326
9117.000000;0.714774
9116.000000;0.714938
9115.000000;0.715559
9114.000000;0.716124
9113.000000;0.716257
9112.000000;0.715905
9111.000000;0.715313
9110.000000;0.714849
9109.000000;0.714774
9108.000000;0.715108
9107.000000;0.715659
9106.000000;0.716146
9105.000000;0.716346
9104.000000;0.716231
9103.000000;0.716018
9102.000000;0.715999
9101.000000;0.716243
9100.000000;0.716530
9099.000000;0.716617
9098.000000;0.716489
9097.000000;0.716261
9096.000000;0.715908
9095.000000;0.715266
9094.000000;0.714353
9093.000000;0.713524
9092.000000;0.713155
9091.000000;0.713207
9090.000000;0.713286
9089.000000;0.713147
9088.000000;0.712954
9087.000000;0.712953
9086.000000;0.713100
9085.000000;0.713190
9084.000000;0.713190
9083.000000;0.713171
9082.000000;0.713023
9081.000000;0.712583
9080.000000;0.712025
9079.000000;0.711789
9078.000000;0.712054
9077.000000;0.712570
9076.000000;0.713065
9075.000000;0.713471
9074.000000;0.713647
9073.000000;0.713281
9072.000000;0.712347
9071.000000;0.711366
9070.000000;0.710877
9069.000000;0.710859
9068.000000;0.710949
9067.000000;0.711039
9066.000000;0.711307
9065.000000;0.711780
9064.000000;0.712208
9063.000000;0.712382
9062.000000;0.712309
9061.000000;0.712066
9060.000000;0.711701
9059.000000;0.711313
9058.000000;0.711050
9057.000000;0.711002
9056.000000;0.711157
9055.000000;0.711402
9054.000000;0.711518
9053.000000;0.711321
