Criado como novo conjunto de dados;"2706_e01_daniel.spp","86226.6 Secs"
cm-1;Abs
10000.000000;0.811954
9999.000000;0.811858
9998.000000;0.811762
9997.000000;0.811666
9996.000000;0.811571
9995.000000;0.811474
9994.000000;0.811380
9993.000000;0.811280
9992.000000;0.811196
9991.000000;0.810729
9990.000000;0.810294
9989.000000;0.810309
9988.000000;0.810763
9987.000000;0.811336
9986.000000;0.811725
9985.000000;0.811859
9984.000000;0.811879
9983.000000;0.811915
9982.000000;0.811861
9981.000000;0.811468
9980.000000;0.810703
9979.000000;0.809888
9978.000000;0.809403
9977.000000;0.809397
9976.000000;0.809853
9975.000000;0.810701
9974.000000;0.811631
9973.000000;0.811985
9972.000000;0.811216
9971.000000;0.809566
9970.000000;0.808042
9969.000000;0.807558
9968.000000;0.808141
9967.000000;0.809023
9966.000000;0.809464
9965.000000;0.809399
9964.000000;0.809234
9963.000000;0.809168
9962.000000;0.808981
9961.000000;0.808521
9960.000000;0.808092
9959.000000;0.808066
9958.000000;0.808286
9957.000000;0.808216
9956.000000;0.807692
9955.000000;0.807110
9954.000000;0.806811
9953.000000;0.806668
9952.000000;0.806474
9951.000000;0.806372
9950.000000;0.806599
9949.000000;0.807001
9948.000000;0.807117
9947.000000;0.806677
9946.000000;0.805827
9945.000000;0.804965
9944.000000;0.804527
9943.000000;0.804758
9942.000000;0.805445
9941.000000;0.805927
9940.000000;0.805634
9939.000000;0.804659
9938.000000;0.803663
9937.000000;0.803258
9936.000000;0.803534
9935.000000;0.804110
9934.000000;0.804470
9933.000000;0.804346
9932.000000;0.803905
9931.000000;0.803554
9930.000000;0.803440
9929.000000;0.803234
9928.000000;0.802562
9927.000000;0.801592
9926.000000;0.800964
9925.000000;0.801124
9924.000000;0.801874
9923.000000;0.802633
9922.000000;0.803046
9921.000000;0.803216
9920.000000;0.803345
9919.000000;0.803321
9918.000000;0.802841
9917.000000;0.801896
9916.000000;0.800923
9915.000000;0.800361
9914.000000;0.800233
9913.000000;0.800360
9912.000000;0.800760
9911.000000;0.801544
9910.000000;0.802473
9909.000000;0.803019
9908.000000;0.802895
9907.000000;0.802279
9906.000000;0.801501
9905.000000;0.800822
9904.000000;0.800512
9903.000000;0.800713
9902.000000;0.801125
9901.000000;0.801211
9900.000000;0.800881
9899.000000;0.800586
9898.000000;0.800605
9897.000000;0.800672
9896.000000;0.800575
9895.000000;0.800635
9894.000000;0.801167
9893.000000;0.801824
9892.000000;0.801995
9891.000000;0.801625
9890.000000;0.801170
9889.000000;0.800878
9888.000000;0.800618
9887.000000;0.800318
9886.000000;0.800073
9885.000000;0.799827
9884.000000;0.799407
9883.000000;0.798953
9882.000000;0.798876
9881.000000;0.799219
9880.000000;0.799427
9879.000000;0.798993
9878.000000;0.798104
9877.000000;0.797425
9876.000000;0.797397
9875.000000;0.797906
9874.000000;0.798500
9873.000000;0.798746
9872.000000;0.798451
9871.000000;0.797756
9870.000000;0.797099
9869.000000;0.797002
9868.000000;0.797663
9867.000000;0.798656
9866.000000;0.799141
9865.000000;0.798624
9864.000000;0.797547
9863.000000;0.796898
9862.000000;0.797162
9861.000000;0.797884
9860.000000;0.798313
9859.000000;0.798181
9858.000000;0.797684
9857.000000;0.797026
9856.000000;0.796334
9855.000000;0.795815
9854.000000;0.795602
9853.000000;0.795528
9852.000000;0.795369
9851.000000;0.795245
9850.000000;0.795472
9849.000000;0.796075
9848.000000;0.796734
9847.000000;0.797180
9846.000000;0.797339
9845.000000;0.797139
9844.000000;0.796546
9843.000000;0.795807
9842.000000;0.795291
9841.000000;0.795031
9840.000000;0.794751
9839.000000;0.794417
9838.000000;0.794373
9837.000000;0.794744
9836.000000;0.795065
9835.000000;0.794828
9834.000000;0.794185
9833.000000;0.793766
9832.000000;0.793879
9831.000000;0.794195
9830.000000;0.794224
9829.000000;0.793867
9828.000000;0.793402
9827.000000;0.793106
9826.000000;0.793011
9825.000000;0.793001
9824.000000;0.792991
9823.000000;0.792960
9822.000000;0.792871
9821.000000;0.792695
9820.000000;0.792516
9819.000000;0.792470
9818.000000;0.792508
9817.000000;0.792363
9816.000000;0.791900
9815.000000;0.791415
9814.000000;0.791382
9813.000000;0.791918
9812.000000;0.792645
9811.000000;0.793101
9810.000000;0.793143
9809.000000;0.792938
9808.000000;0.792704
9807.000000;0.792545
9806.000000;0.792426
9805.000000;0.792223
9804.000000;0.791832
9803.000000;0.791295
9802.000000;0.790790
9801.000000;0.790485
9800.000000;0.790417
9799.000000;0.790477
9798.000000;0.790496
9797.000000;0.790375
9796.000000;0.790211
9795.000000;0.790243
9794.000000;0.790556
9793.000000;0.790860
9792.000000;0.790696
9791.000000;0.789896
9790.000000;0.788799
9789.000000;0.787980
9788.000000;0.787813
9787.000000;0.788249
9786.000000;0.788933
9785.000000;0.789499
9784.000000;0.789807
9783.000000;0.789904
9782.000000;0.789804
9781.000000;0.789431
9780.000000;0.788842
9779.000000;0.788368
9778.000000;0.788384
9777.000000;0.788916
9776.000000;0.789594
9775.000000;0.789978
9774.000000;0.789876
9773.000000;0.789386
9772.000000;0.788776
9771.000000;0.788321
9770.000000;0.788138
9769.000000;0.788142
9768.000000;0.788195
9767.000000;0.788275
9766.000000;0.788423
9765.000000;0.788567
9764.000000;0.788532
9763.000000;0.788226
9762.000000;0.787750
9761.000000;0.787291
9760.000000;0.786945
9759.000000;0.786618
9758.000000;0.786092
9757.000000;0.785281
9756.000000;0.784491
9755.000000;0.784288
9754.000000;0.784910
9753.000000;0.785869
9752.000000;0.786331
9751.000000;0.785952
9750.000000;0.785159
9749.000000;0.784589
9748.000000;0.784450
9747.000000;0.784520
9746.000000;0.784592
9745.000000;0.784708
9744.000000;0.784962
9743.000000;0.785259
9742.000000;0.785353
9741.000000;0.785104
9740.000000;0.784629
9739.000000;0.784189
9738.000000;0.783941
9737.000000;0.783842
9736.000000;0.783752
9735.000000;0.783582
9734.000000;0.783355
9733.000000;0.783203
9732.000000;0.783311
9731.000000;0.783788
9730.000000;0.784507
9729.000000;0.785132
9728.000000;0.785371
9727.000000;0.785197
9726.000000;0.784797
9725.000000;0.784351
9724.000000;0.783909
9723.000000;0.783418
9722.000000;0.782853
9721.000000;0.782325
9720.000000;0.782084
9719.000000;0.782282
9718.000000;0.782712
9717.000000;0.782897
9716.000000;0.782570
9715.000000;0.781982
9714.000000;0.781619
9713.000000;0.781690
9712.000000;0.782021
9711.000000;0.782338
9710.000000;0.782488
9709.000000;0.782431
9708.000000;0.782221
9707.000000;0.782021
9706.000000;0.781986
9705.000000;0.782058
9704.000000;0.781995
9703.000000;0.781668
9702.000000;0.781259
9701.000000;0.781076
9700.000000;0.781225
9699.000000;0.781506
9698.000000;0.781615
9697.000000;0.781414
9696.000000;0.781052
9695.000000;0.780834
9694.000000;0.780961
9693.000000;0.781373
9692.000000;0.781823
9691.000000;0.782058
9690.000000;0.781927
9689.000000;0.781412
9688.000000;0.780669
9687.000000;0.779996
9686.000000;0.779674
9685.000000;0.779791
9684.000000;0.780225
9683.000000;0.780749
9682.000000;0.781078
9681.000000;0.780921
9680.000000;0.780153
9679.000000;0.779009
9678.000000;0.777980
9677.000000;0.777450
9676.000000;0.777424
9675.000000;0.777611
9674.000000;0.777733
9673.000000;0.777736
9672.000000;0.777755
9671.000000;0.777921
9670.000000;0.778212
9669.000000;0.778444
9668.000000;0.778383
9667.000000;0.777919
9666.000000;0.777189
9665.000000;0.776556
9664.000000;0.776398
9663.000000;0.776788
9662.000000;0.777369
9661.000000;0.777653
9660.000000;0.777481
9659.000000;0.777156
9658.000000;0.777087
9657.000000;0.777381
9656.000000;0.777811
9655.000000;0.778060
9654.000000;0.777934
9653.000000;0.777449
9652.000000;0.776829
9651.000000;0.776373
9650.000000;0.776219
9649.000000;0.776240
9648.000000;0.776229
9647.000000;0.776152
9646.000000;0.776122
9645.000000;0.776167
9644.000000;0.776151
9643.000000;0.775958
9642.000000;0.775651
9641.000000;0.775408
9640.000000;0.775324
9639.000000;0.775329
9638.000000;0.775277
9637.000000;0.775120
9636.000000;0.774948
9635.000000;0.774862
9634.000000;0.774834
9633.000000;0.774767
9632.000000;0.774657
9631.000000;0.774574
9630.000000;0.774491
9629.000000;0.774260
9628.000000;0.773840
9627.000000;0.773434
9626.000000;0.773287
9625.000000;0.773430
9624.000000;0.773691
9623.000000;0.773870
9622.000000;0.773812
9621.000000;0.773444
9620.000000;0.772894
9619.000000;0.772489
9618.000000;0.772460
9617.000000;0.772672
9616.000000;0.772803
9615.000000;0.772754
9614.000000;0.772690
9613.000000;0.772693
9612.000000;0.772623
9611.000000;0.772360
9610.000000;0.771994
9609.000000;0.771671
9608.000000;0.771429
9607.000000;0.771306
9606.000000;0.771446
9605.000000;0.771918
9604.000000;0.772520
9603.000000;0.772929
9602.000000;0.773007
9601.000000;0.772839
9600.000000;0.772522
9599.000000;0.772075
9598.000000;0.771565
9597.000000;0.771151
9596.000000;0.770963
9595.000000;0.770990
9594.000000;0.771107
9593.000000;0.771155
9592.000000;0.771029
9591.000000;0.770770
9590.000000;0.770543
9589.000000;0.770442
9588.000000;0.770333
9587.000000;0.770041
9586.000000;0.769664
9585.000000;0.769534
9584.000000;0.769786
9583.000000;0.770144
9582.000000;0.770237
9581.000000;0.770016
9580.000000;0.769721
9579.000000;0.769561
9578.000000;0.769548
9577.000000;0.769606
9576.000000;0.769657
9575.000000;0.769656
9574.000000;0.769642
9573.000000;0.769729
9572.000000;0.769910
9571.000000;0.769939
9570.000000;0.769587
9569.000000;0.768969
9568.000000;0.768438
9567.000000;0.768182
9566.000000;0.768124
9565.000000;0.768174
9564.000000;0.768310
9563.000000;0.768379
9562.000000;0.768150
9561.000000;0.767671
9560.000000;0.767313
9559.000000;0.767294
9558.000000;0.767430
9557.000000;0.767529
9556.000000;0.767744
9555.000000;0.768229
9554.000000;0.768685
9553.000000;0.768638
9552.000000;0.768078
9551.000000;0.767454
9550.000000;0.767086
9549.000000;0.766928
9548.000000;0.766897
9547.000000;0.767046
9546.000000;0.767317
9545.000000;0.767450
9544.000000;0.767318
9543.000000;0.767099
9542.000000;0.766967
9541.000000;0.766850
9540.000000;0.766646
9539.000000;0.766449
9538.000000;0.766345
9537.000000;0.766165
9536.000000;0.765714
9535.000000;0.765146
9534.000000;0.764833
9533.000000;0.764855
9532.000000;0.764855
9531.000000;0.764471
9530.000000;0.763772
9529.000000;0.763162
9528.000000;0.762968
9527.000000;0.763210
9526.000000;0.763696
9525.000000;0.764216
9524.000000;0.764596
9523.000000;0.764702
9522.000000;0.764522
9521.000000;0.764224
9520.000000;0.764012
9519.000000;0.763874
9518.000000;0.763574
9517.000000;0.763008
9516.000000;0.762438
9515.000000;0.762263
9514.000000;0.762561
9513.000000;0.763005
9512.000000;0.763196
9511.000000;0.762996
9510.000000;0.762556
9509.000000;0.762171
9508.000000;0.762100
9507.000000;0.762376
9506.000000;0.762740
9505.000000;0.762848
9504.000000;0.762592
9503.000000;0.762152
9502.000000;0.761768
9501.000000;0.761583
9500.000000;0.761677
9499.000000;0.762061
9498.000000;0.762565
9497.000000;0.762875
9496.000000;0.762799
9495.000000;0.762397
9494.000000;0.761833
9493.000000;0.761224
9492.000000;0.760708
9491.000000;0.760522
9490.000000;0.760810
9489.000000;0.761373
9488.000000;0.761748
9487.000000;0.761611
9486.000000;0.761085
9485.000000;0.760651
9484.000000;0.760695
9483.000000;0.761129
9482.000000;0.761449
9481.000000;0.761253
9480.000000;0.760655
9479.000000;0.760114
9478.000000;0.759926
9477.000000;0.760011
9476.000000;0.760174
9475.000000;0.760333
9474.000000;0.760437
9473.000000;0.760337
9472.000000;0.759938
9471.000000;0.759382
9470.000000;0.758954
9469.000000;0.758808
9468.000000;0.758888
9467.000000;0.759070
9466.000000;0.759295
9465.000000;0.759563
9464.000000;0.759883
9463.000000;0.760239
9462.000000;0.760550
9461.000000;0.760665
9460.000000;0.760454
9459.000000;0.759946
9458.000000;0.759352
9457.000000;0.758908
9456.000000;0.758669
9455.000000;0.758482
9454.000000;0.758211
9453.000000;0.757949
9452.000000;0.757928
9451.000000;0.758212
9450.000000;0.758575
9449.000000;0.758721
9448.000000;0.758527
9447.000000;0.758034
9446.000000;0.757350
9445.000000;0.756663
9444.000000;0.756232
9443.000000;0.756180
9442.000000;0.756361
9441.000000;0.756551
9440.000000;0.756705
9439.000000;0.756883
9438.000000;0.757024
9437.000000;0.757006
9436.000000;0.756866
9435.000000;0.756757
9434.000000;0.756690
9433.000000;0.756557
9432.000000;0.756388
9431.000000;0.756331
9430.000000;0.756356
9429.000000;0.756236
9428.000000;0.755904
9427.000000;0.755594
9426.000000;0.755520
9425.000000;0.755580
9424.000000;0.755539
9423.000000;0.755342
9422.000000;0.755131
9421.000000;0.755044
9420.000000;0.755125
9419.000000;0.755340
9418.000000;0.755556
9417.000000;0.755570
9416.000000;0.755257
9415.000000;0.754648
9414.000000;0.753887
9413.000000;0.753190
9412.000000;0.752845
9411.000000;0.753031
9410.000000;0.753573
9409.000000;0.754015
9408.000000;0.754034
9407.000000;0.753683
9406.000000;0.753192
9405.000000;0.752705
9404.000000;0.752341
9403.000000;0.752292
9402.000000;0.752650
9401.000000;0.753215
9400.000000;0.753637
9399.000000;0.753712
9398.000000;0.753470
9397.000000;0.753064
9396.000000;0.752719
9395.000000;0.752664
9394.000000;0.752936
9393.000000;0.753286
9392.000000;0.753419
9391.000000;0.753311
9390.000000;0.753169
9389.000000;0.753086
9388.000000;0.752889
9387.000000;0.752376
9386.000000;0.751626
9385.000000;0.750988
9384.000000;0.750778
9383.000000;0.750967
9382.000000;0.751217
9381.000000;0.751261
9380.000000;0.751195
9379.000000;0.751311
9378.000000;0.751632
9377.000000;0.751812
9376.000000;0.751548
9375.000000;0.750955
9374.000000;0.750421
9373.000000;0.750202
9372.000000;0.750285
9371.000000;0.750526
9370.000000;0.750745
9369.000000;0.750743
9368.000000;0.750431
9367.000000;0.749981
9366.000000;0.749729
9365.000000;0.749829
9364.000000;0.750094
9363.000000;0.750213
9362.000000;0.750077
9361.000000;0.749839
9360.000000;0.749687
9359.000000;0.749635
9358.000000;0.749574
9357.000000;0.749473
9356.000000;0.749432
9355.000000;0.749533
9354.000000;0.749694
9353.000000;0.749743
9352.000000;0.749602
9351.000000;0.749343
9350.000000;0.749096
9349.000000;0.748947
9348.000000;0.748867
9347.000000;0.748704
9346.000000;0.748325
9345.000000;0.747845
9344.000000;0.747591
9343.000000;0.747705
9342.000000;0.747893
9341.000000;0.747770
9340.000000;0.747377
9339.000000;0.747126
9338.000000;0.747257
9337.000000;0.747607
9336.000000;0.747939
9335.000000;0.748204
9334.000000;0.748365
9333.000000;0.748230
9332.000000;0.747699
9331.000000;0.747026
9330.000000;0.746622
9329.000000;0.746648
9328.000000;0.746901
9327.000000;0.747054
9326.000000;0.746921
9325.000000;0.746596
9324.000000;0.746407
9323.000000;0.746629
9322.000000;0.747141
9321.000000;0.747466
9320.000000;0.747250
9319.000000;0.746587
9318.000000;0.745821
9317.000000;0.745198
9316.000000;0.744832
9315.000000;0.744812
9314.000000;0.745104
9313.000000;0.745445
9312.000000;0.745568
9311.000000;0.745509
9310.000000;0.745525
9309.000000;0.745713
9308.000000;0.745916
9307.000000;0.745986
9306.000000;0.745957
9305.000000;0.745901
9304.000000;0.745785
9303.000000;0.745539
9302.000000;0.745167
9301.000000;0.744756
9300.000000;0.744421
9299.000000;0.744265
9298.000000;0.744292
9297.000000;0.744341
9296.000000;0.744213
9295.000000;0.743911
9294.000000;0.743660
9293.000000;0.743615
9292.000000;0.743648
9291.000000;0.743540
9290.000000;0.743333
9289.000000;0.743341
9288.000000;0.743753
9287.000000;0.744341
9286.000000;0.744653
9285.000000;0.744474
9284.000000;0.743996
9283.000000;0.743560
9282.000000;0.743334
9281.000000;0.743281
9280.000000;0.743298
9279.000000;0.743280
9278.000000;0.743134
9277.000000;0.742854
9276.000000;0.742561
9275.000000;0.742358
9274.000000;0.742185
9273.000000;0.741908
9272.000000;0.741530
9271.000000;0.741189
9270.000000;0.740946
9269.000000;0.740722
9268.000000;0.740481
9267.000000;0.740363
9266.000000;0.740556
9265.000000;0.741076
9264.000000;0.741700
9263.000000;0.742083
9262.000000;0.741983
9261.000000;0.741467
9260.000000;0.740882
9259.000000;0.740548
9258.000000;0.740476
9257.000000;0.740472
9256.000000;0.740421
9255.000000;0.740328
9254.000000;0.740166
9253.000000;0.739884
9252.000000;0.739595
9251.000000;0.739520
9250.000000;0.739689
9249.000000;0.739889
9248.000000;0.739982
9247.000000;0.740075
9246.000000;0.740265
9245.000000;0.740409
9244.000000;0.740314
9243.000000;0.740017
9242.000000;0.739718
9241.000000;0.739528
9240.000000;0.739435
9239.000000;0.739428
9238.000000;0.739526
9237.000000;0.739698
9236.000000;0.739875
9235.000000;0.740003
9234.000000;0.740022
9233.000000;0.739874
9232.000000;0.739609
9231.000000;0.739393
9230.000000;0.739304
9229.000000;0.739224
9228.000000;0.739017
9227.000000;0.738744
9226.000000;0.738569
9225.000000;0.738516
9224.000000;0.738451
9223.000000;0.738253
9222.000000;0.737908
9221.000000;0.737477
9220.000000;0.737109
9219.000000;0.737027
9218.000000;0.737338
9217.000000;0.737840
9216.000000;0.738153
9215.000000;0.738085
9214.000000;0.737785
9213.000000;0.737528
9212.000000;0.737450
9211.000000;0.737496
9210.000000;0.737513
9209.000000;0.737340
9208.000000;0.736895
9207.000000;0.736292
9206.000000;0.735826
9205.000000;0.735733
9204.000000;0.735956
9203.000000;0.736182
9202.000000;0.736176
9201.000000;0.736015
9200.000000;0.735957
9199.000000;0.736107
9198.000000;0.736309
9197.000000;0.736344
9196.000000;0.736140
9195.000000;0.735775
9194.000000;0.735379
9193.000000;0.735106
9192.000000;0.735050
9191.000000;0.735102
9190.000000;0.734986
9189.000000;0.734590
9188.000000;0.734151
9187.000000;0.733985
9186.000000;0.734119
9185.000000;0.734378
9184.000000;0.734702
9183.000000;0.735124
9182.000000;0.735475
9181.000000;0.735452
9180.000000;0.735038
9179.000000;0.734577
9178.000000;0.734338
9177.000000;0.734272
9176.000000;0.734295
9175.000000;0.734498
9174.000000;0.734874
9173.000000;0.735082
9172.000000;0.734793
9171.000000;0.734164
9170.000000;0.733702
9169.000000;0.733700
9168.000000;0.734014
9167.000000;0.734327
9166.000000;0.734434
9165.000000;0.734284
9164.000000;0.733969
9163.000000;0.733673
9162.000000;0.733495
9161.000000;0.733308
9160.000000;0.732935
9159.000000;0.732443
9158.000000;0.732115
9157.000000;0.732121
9156.000000;0.732329
9155.000000;0.732457
9154.000000;0.732311
9153.000000;0.731897
9152.000000;0.731420
9151.000000;0.731169
9150.000000;0.731294
9149.000000;0.731623
9148.000000;0.731825
9147.000000;0.731765
9146.000000;0.731632
9145.000000;0.731660
9144.000000;0.731829
9143.000000;0.731914
9142.000000;0.731754
9141.000000;0.731391
9140.000000;0.730963
9139.000000;0.730578
9138.000000;0.730329
9137.000000;0.730360
9136.000000;0.730763
9135.000000;0.731378
9134.000000;0.731789
9133.000000;0.731672
9132.000000;0.731124
9131.000000;0.730526
9130.000000;0.730080
9129.000000;0.729638
9128.000000;0.729056
9127.000000;0.728539
9126.000000;0.728457
9125.000000;0.728881
9124.000000;0.729464
9123.000000;0.729784
9122.000000;0.729698
9121.000000;0.729361
9120.000000;0.729026
9119.000000;0.728864
9118.000000;0.728876
9117.000000;0.728902
9116.000000;0.728794
9115.000000;0.728596
9114.000000;0.728534
9113.000000;0.728754
9112.000000;0.729109
9111.000000;0.729271
9110.000000;0.729062
9109.000000;0.728662
9108.000000;0.728425
9107.000000;0.728512
9106.000000;0.728719
9105.000000;0.728699
9104.000000;0.728316
9103.000000;0.727764
9102.000000;0.727351
9101.000000;0.727236
9100.000000;0.727363
9099.000000;0.727548
9098.000000;0.727619
9097.000000;0.727538
9096.000000;0.727436
9095.000000;0.727486
9094.000000;0.727687
9093.000000;0.727809
9092.000000;0.727631
9091.000000;0.727218
9090.000000;0.726901
9089.000000;0.726973
9088.000000;0.727416
9087.000000;0.727945
9086.000000;0.728274
9085.000000;0.728303
9084.000000;0.728073
9083.000000;0.727636
9082.000000;0.727064
9081.000000;0.726507
9080.000000;0.726129
9079.000000;0.725933
9078.000000;0.725769
9077.000000;0.725551
9076.000000;0.725371
9075.000000;0.725322
9074.000000;0.725337
9073.000000;0.725321
9072.000000;0.725328
9071.000000;0.725446
9070.000000;0.725581
9069.000000;0.725541
9068.000000;0.725329
9067.000000;0.725151
9066.000000;0.725113
9065.000000;0.725110
9064.000000;0.725040
9063.000000;0.724950
9062.000000;0.724889
9061.000000;0.724774
9060.000000;0.724527
9059.000000;0.724247
9058.000000;0.724111
9057.000000;0.724172
9056.000000;0.724315
9055.000000;0.724384
9054.000000;0.724301
9053.000000;0.724121
