Criado como novo conjunto de dados;"2706_e01_daniel.spp","16562.8 Secs"
cm-1;Abs
10000.000000;0.693588
9999.000000;0.692721
9998.000000;0.691851
9997.000000;0.690989
9996.000000;0.690138
9995.000000;0.689528
9994.000000;0.689255
9993.000000;0.689172
9992.000000;0.689269
9991.000000;0.689630
9990.000000;0.690160
9989.000000;0.690487
9988.000000;0.690342
9987.000000;0.689893
9986.000000;0.689556
9985.000000;0.689509
9984.000000;0.689564
9983.000000;0.689531
9982.000000;0.689502
9981.000000;0.689642
9980.000000;0.689834
9979.000000;0.689749
9978.000000;0.689282
9977.000000;0.688747
9976.000000;0.688526
9975.000000;0.688643
9974.000000;0.688815
9973.000000;0.688859
9972.000000;0.688859
9971.000000;0.688912
9970.000000;0.688914
9969.000000;0.688729
9968.000000;0.688452
9967.000000;0.688328
9966.000000;0.688427
9965.000000;0.688546
9964.000000;0.688447
9963.000000;0.688105
9962.000000;0.687719
9961.000000;0.687526
9960.000000;0.687631
9959.000000;0.687914
9958.000000;0.688122
9957.000000;0.688086
9956.000000;0.687843
9955.000000;0.687509
9954.000000;0.687077
9953.000000;0.686485
9952.000000;0.685838
9951.000000;0.685411
9950.000000;0.685393
9949.000000;0.685718
9948.000000;0.686192
9947.000000;0.686636
9946.000000;0.686880
9945.000000;0.686796
9944.000000;0.686462
9943.000000;0.686189
9942.000000;0.686257
9941.000000;0.686668
9940.000000;0.687214
9939.000000;0.687686
9938.000000;0.687928
9937.000000;0.687820
9936.000000;0.687391
9935.000000;0.686903
9934.000000;0.686620
9933.000000;0.686498
9932.000000;0.686245
9931.000000;0.685710
9930.000000;0.685052
9929.000000;0.684492
9928.000000;0.684075
9927.000000;0.683757
9926.000000;0.683600
9925.000000;0.683728
9924.000000;0.684150
9923.000000;0.684716
9922.000000;0.685233
9921.000000;0.685554
9920.000000;0.685581
9919.000000;0.685296
9918.000000;0.684809
9917.000000;0.684311
9916.000000;0.683937
9915.000000;0.683686
9914.000000;0.683501
9913.000000;0.683377
9912.000000;0.683385
9911.000000;0.683576
9910.000000;0.683869
9909.000000;0.684048
9908.000000;0.683934
9907.000000;0.683586
9906.000000;0.683300
9905.000000;0.683313
9904.000000;0.683538
9903.000000;0.683629
9902.000000;0.683350
9901.000000;0.682814
9900.000000;0.682319
9899.000000;0.682056
9898.000000;0.682025
9897.000000;0.682179
9896.000000;0.682455
9895.000000;0.682657
9894.000000;0.682491
9893.000000;0.681844
9892.000000;0.680981
9891.000000;0.680337
9890.000000;0.680145
9889.000000;0.680314
9888.000000;0.680615
9887.000000;0.680866
9886.000000;0.680955
9885.000000;0.680853
9884.000000;0.680664
9883.000000;0.680569
9882.000000;0.680635
9881.000000;0.680759
9880.000000;0.680833
9879.000000;0.680874
9878.000000;0.680915
9877.000000;0.680843
9876.000000;0.680505
9875.000000;0.679946
9874.000000;0.679441
9873.000000;0.679242
9872.000000;0.679346
9871.000000;0.679567
9870.000000;0.679773
9869.000000;0.679987
9868.000000;0.680274
9867.000000;0.680574
9866.000000;0.680713
9865.000000;0.680571
9864.000000;0.680180
9863.000000;0.679654
9862.000000;0.679107
9861.000000;0.678704
9860.000000;0.678683
9859.000000;0.679156
9858.000000;0.679887
9857.000000;0.680405
9856.000000;0.680423
9855.000000;0.680069
9854.000000;0.679661
9853.000000;0.679357
9852.000000;0.679125
9851.000000;0.678916
9850.000000;0.678723
9849.000000;0.678524
9848.000000;0.678329
9847.000000;0.678290
9846.000000;0.678591
9845.000000;0.679204
9844.000000;0.679836
9843.000000;0.680176
9842.000000;0.680105
9841.000000;0.679667
9840.000000;0.678961
9839.000000;0.678151
9838.000000;0.677468
9837.000000;0.677045
9836.000000;0.676775
9835.000000;0.676450
9834.000000;0.676050
9833.000000;0.675788
9832.000000;0.675844
9831.000000;0.676149
9830.000000;0.676490
9829.000000;0.676756
9828.000000;0.676975
9827.000000;0.677164
9826.000000;0.677268
9825.000000;0.677273
9824.000000;0.677257
9823.000000;0.677249
9822.000000;0.677119
9821.000000;0.676718
9820.000000;0.676112
9819.000000;0.675571
9818.000000;0.675337
9817.000000;0.675446
9816.000000;0.675752
9815.000000;0.676044
9814.000000;0.676135
9813.000000;0.675969
9812.000000;0.675715
9811.000000;0.675670
9810.000000;0.675954
9809.000000;0.676370
9808.000000;0.676618
9807.000000;0.676636
9806.000000;0.676615
9805.000000;0.676701
9804.000000;0.676786
9803.000000;0.676640
9802.000000;0.676182
9801.000000;0.675588
9800.000000;0.675122
9799.000000;0.674903
9798.000000;0.674833
9797.000000;0.674742
9796.000000;0.674550
9795.000000;0.674284
9794.000000;0.673985
9793.000000;0.673685
9792.000000;0.673470
9791.000000;0.673444
9790.000000;0.673586
9789.000000;0.673725
9788.000000;0.673742
9787.000000;0.673722
9786.000000;0.673811
9785.000000;0.673974
9784.000000;0.674024
9783.000000;0.673902
9782.000000;0.673766
9781.000000;0.673764
9780.000000;0.673825
9779.000000;0.673797
9778.000000;0.673678
9777.000000;0.673593
9776.000000;0.673560
9775.000000;0.673455
9774.000000;0.673230
9773.000000;0.673045
9772.000000;0.673055
9771.000000;0.673171
9770.000000;0.673171
9769.000000;0.673044
9768.000000;0.673024
9767.000000;0.673231
9766.000000;0.673443
9765.000000;0.673395
9764.000000;0.673163
9763.000000;0.673053
9762.000000;0.673130
9761.000000;0.673108
9760.000000;0.672774
9759.000000;0.672295
9758.000000;0.671984
9757.000000;0.671908
9756.000000;0.671919
9755.000000;0.671937
9754.000000;0.672002
9753.000000;0.672089
9752.000000;0.672085
9751.000000;0.671991
9750.000000;0.671950
9749.000000;0.672022
9748.000000;0.672044
9747.000000;0.671820
9746.000000;0.671358
9745.000000;0.670838
9744.000000;0.670429
9743.000000;0.670214
9742.000000;0.670225
9741.000000;0.670456
9740.000000;0.670823
9739.000000;0.671166
9738.000000;0.671293
9737.000000;0.671047
9736.000000;0.670413
9735.000000;0.669611
9734.000000;0.669013
9733.000000;0.668866
9732.000000;0.669102
9731.000000;0.669462
9730.000000;0.669782
9729.000000;0.670087
9728.000000;0.670434
9727.000000;0.670749
9726.000000;0.670866
9725.000000;0.670720
9724.000000;0.670420
9723.000000;0.670136
9722.000000;0.669932
9721.000000;0.669740
9720.000000;0.669497
9719.000000;0.669271
9718.000000;0.669227
9717.000000;0.669461
9716.000000;0.669900
9715.000000;0.670332
9714.000000;0.670510
9713.000000;0.670277
9712.000000;0.669702
9711.000000;0.669098
9710.000000;0.668831
9709.000000;0.669019
9708.000000;0.669425
9707.000000;0.669665
9706.000000;0.669510
9705.000000;0.668994
9704.000000;0.668328
9703.000000;0.667779
9702.000000;0.667543
9701.000000;0.667631
9700.000000;0.667863
9699.000000;0.668047
9698.000000;0.668157
9697.000000;0.668277
9696.000000;0.668407
9695.000000;0.668434
9694.000000;0.668290
9693.000000;0.668056
9692.000000;0.667866
9691.000000;0.667784
9690.000000;0.667813
9689.000000;0.667942
9688.000000;0.668120
9687.000000;0.668242
9686.000000;0.668211
9685.000000;0.668003
9684.000000;0.667634
9683.000000;0.667165
9682.000000;0.666749
9681.000000;0.666596
9680.000000;0.666767
9679.000000;0.667048
9678.000000;0.667121
9677.000000;0.666859
9676.000000;0.666391
9675.000000;0.665924
9674.000000;0.665612
9673.000000;0.665560
9672.000000;0.665801
9671.000000;0.666201
9670.000000;0.666514
9669.000000;0.666595
9668.000000;0.666513
9667.000000;0.666396
9666.000000;0.666268
9665.000000;0.666092
9664.000000;0.665903
9663.000000;0.665775
9662.000000;0.665703
9661.000000;0.665604
9660.000000;0.665432
9659.000000;0.665210
9658.000000;0.664988
9657.000000;0.664815
9656.000000;0.664767
9655.000000;0.664887
9654.000000;0.665101
9653.000000;0.665255
9652.000000;0.665255
9651.000000;0.665125
9650.000000;0.664900
9649.000000;0.664564
9648.000000;0.664152
9647.000000;0.663826
9646.000000;0.663761
9645.000000;0.663959
9644.000000;0.664257
9643.000000;0.664518
9642.000000;0.664721
9641.000000;0.664839
9640.000000;0.664741
9639.000000;0.664331
9638.000000;0.663777
9637.000000;0.663439
9636.000000;0.663507
9635.000000;0.663769
9634.000000;0.663840
9633.000000;0.663598
9632.000000;0.663286
9631.000000;0.663192
9630.000000;0.663348
9629.000000;0.663587
9628.000000;0.663778
9627.000000;0.663883
9626.000000;0.663854
9625.000000;0.663622
9624.000000;0.663251
9623.000000;0.662985
9622.000000;0.663054
9621.000000;0.663450
9620.000000;0.663914
9619.000000;0.664152
9618.000000;0.664045
9617.000000;0.663695
9616.000000;0.663319
9615.000000;0.663087
9614.000000;0.663026
9613.000000;0.663030
9612.000000;0.662978
9611.000000;0.662836
9610.000000;0.662641
9609.000000;0.662394
9608.000000;0.662041
9607.000000;0.661617
9606.000000;0.661352
9605.000000;0.661485
9604.000000;0.661914
9603.000000;0.662185
9602.000000;0.661957
9601.000000;0.661419
9600.000000;0.661091
9599.000000;0.661208
9598.000000;0.661498
9597.000000;0.661588
9596.000000;0.661457
9595.000000;0.661358
9594.000000;0.661429
9593.000000;0.661570
9592.000000;0.661644
9591.000000;0.661647
9590.000000;0.661629
9589.000000;0.661578
9588.000000;0.661420
9587.000000;0.661095
9586.000000;0.660647
9585.000000;0.660239
9584.000000;0.660053
9583.000000;0.660092
9582.000000;0.660143
9581.000000;0.660026
9580.000000;0.659849
9579.000000;0.659874
9578.000000;0.660142
9577.000000;0.660382
9576.000000;0.660371
9575.000000;0.660256
9574.000000;0.660375
9573.000000;0.660805
9572.000000;0.661196
9571.000000;0.661093
9570.000000;0.660391
9569.000000;0.659455
9568.000000;0.658812
9567.000000;0.658714
9566.000000;0.658992
9565.000000;0.659293
9564.000000;0.659416
9563.000000;0.659421
9562.000000;0.659477
9561.000000;0.659680
9560.000000;0.659994
9559.000000;0.660266
9558.000000;0.660307
9557.000000;0.660040
9556.000000;0.659592
9555.000000;0.659174
9554.000000;0.658876
9553.000000;0.658633
9552.000000;0.658412
9551.000000;0.658312
9550.000000;0.658429
9549.000000;0.658699
9548.000000;0.658946
9547.000000;0.659049
9546.000000;0.658981
9545.000000;0.658769
9544.000000;0.658493
9543.000000;0.658302
9542.000000;0.658319
9541.000000;0.658484
9540.000000;0.658557
9539.000000;0.658335
9538.000000;0.657862
9537.000000;0.657423
9536.000000;0.657315
9535.000000;0.657618
9534.000000;0.658122
9533.000000;0.658463
9532.000000;0.658352
9531.000000;0.657756
9530.000000;0.656909
9529.000000;0.656172
9528.000000;0.655842
9527.000000;0.656003
9526.000000;0.656495
9525.000000;0.656999
9524.000000;0.657212
9523.000000;0.657013
9522.000000;0.656518
9521.000000;0.655995
9520.000000;0.655679
9519.000000;0.655638
9518.000000;0.655776
9517.000000;0.655941
9516.000000;0.656028
9515.000000;0.656003
9514.000000;0.655891
9513.000000;0.655756
9512.000000;0.655658
9511.000000;0.655628
9510.000000;0.655702
9509.000000;0.655948
9508.000000;0.656360
9507.000000;0.656737
9506.000000;0.656790
9505.000000;0.656449
9504.000000;0.655986
9503.000000;0.655731
9502.000000;0.655747
9501.000000;0.655872
9500.000000;0.655976
9499.000000;0.656037
9498.000000;0.655995
9497.000000;0.655740
9496.000000;0.655295
9495.000000;0.654845
9494.000000;0.654520
9493.000000;0.654263
9492.000000;0.653968
9491.000000;0.653670
9490.000000;0.653508
9489.000000;0.653570
9488.000000;0.653837
9487.000000;0.654218
9486.000000;0.654573
9485.000000;0.654762
9484.000000;0.654741
9483.000000;0.654591
9482.000000;0.654407
9481.000000;0.654202
9480.000000;0.653944
9479.000000;0.653633
9478.000000;0.653303
9477.000000;0.653009
9476.000000;0.652852
9475.000000;0.652949
9474.000000;0.653295
9473.000000;0.653682
9472.000000;0.653869
9471.000000;0.653812
9470.000000;0.653672
9469.000000;0.653605
9468.000000;0.653628
9467.000000;0.653667
9466.000000;0.653659
9465.000000;0.653558
9464.000000;0.653319
9463.000000;0.652951
9462.000000;0.652580
9461.000000;0.652388
9460.000000;0.652426
9459.000000;0.652519
9458.000000;0.652414
9457.000000;0.652063
9456.000000;0.651696
9455.000000;0.651561
9454.000000;0.651663
9453.000000;0.651797
9452.000000;0.651799
9451.000000;0.651646
9450.000000;0.651379
9449.000000;0.651077
9448.000000;0.650912
9447.000000;0.651072
9446.000000;0.651503
9445.000000;0.651876
9444.000000;0.651901
9443.000000;0.651639
9442.000000;0.651409
9441.000000;0.651436
9440.000000;0.651680
9439.000000;0.651944
9438.000000;0.652061
9437.000000;0.651952
9436.000000;0.651616
9435.000000;0.651118
9434.000000;0.650585
9433.000000;0.650169
9432.000000;0.649990
9431.000000;0.650030
9430.000000;0.650113
9429.000000;0.650070
9428.000000;0.649928
9427.000000;0.649885
9426.000000;0.650047
9425.000000;0.650285
9424.000000;0.650387
9423.000000;0.650290
9422.000000;0.650087
9421.000000;0.649907
9420.000000;0.649824
9419.000000;0.649840
9418.000000;0.649848
9417.000000;0.649711
9416.000000;0.649435
9415.000000;0.649240
9414.000000;0.649334
9413.000000;0.649674
9412.000000;0.650019
9411.000000;0.650170
9410.000000;0.650086
9409.000000;0.649822
9408.000000;0.649507
9407.000000;0.649338
9406.000000;0.649451
9405.000000;0.649756
9404.000000;0.650014
9403.000000;0.650082
9402.000000;0.650012
9401.000000;0.649915
9400.000000;0.649824
9399.000000;0.649734
9398.000000;0.649658
9397.000000;0.649608
9396.000000;0.649569
9395.000000;0.649510
9394.000000;0.649377
9393.000000;0.649100
9392.000000;0.648700
9391.000000;0.648366
9390.000000;0.648312
9389.000000;0.648533
9388.000000;0.648800
9387.000000;0.648905
9386.000000;0.648831
9385.000000;0.648651
9384.000000;0.648389
9383.000000;0.648054
9382.000000;0.647719
9381.000000;0.647480
9380.000000;0.647371
9379.000000;0.647394
9378.000000;0.647554
9377.000000;0.647810
9376.000000;0.648042
9375.000000;0.648148
9374.000000;0.648130
9373.000000;0.648016
9372.000000;0.647762
9371.000000;0.647327
9370.000000;0.646819
9369.000000;0.646457
9368.000000;0.646363
9367.000000;0.646468
9366.000000;0.646608
9365.000000;0.646673
9364.000000;0.646630
9363.000000;0.646511
9362.000000;0.646396
9361.000000;0.646358
9360.000000;0.646371
9359.000000;0.646315
9358.000000;0.646119
9357.000000;0.645877
9356.000000;0.645762
9355.000000;0.645832
9354.000000;0.645972
9353.000000;0.646047
9352.000000;0.646052
9351.000000;0.646073
9350.000000;0.646150
9349.000000;0.646219
9348.000000;0.646189
9347.000000;0.646047
9346.000000;0.645881
9345.000000;0.645817
9344.000000;0.645927
9343.000000;0.646153
9342.000000;0.646330
9341.000000;0.646316
9340.000000;0.646118
9339.000000;0.645870
9338.000000;0.645686
9337.000000;0.645572
9336.000000;0.645480
9335.000000;0.645382
9334.000000;0.645258
9333.000000;0.645075
9332.000000;0.644843
9331.000000;0.644662
9330.000000;0.644661
9329.000000;0.644849
9328.000000;0.645077
9327.000000;0.645158
9326.000000;0.645008
9325.000000;0.644689
9324.000000;0.644342
9323.000000;0.644083
9322.000000;0.643940
9321.000000;0.643875
9320.000000;0.643857
9319.000000;0.643904
9318.000000;0.644032
9317.000000;0.644211
9316.000000;0.644375
9315.000000;0.644467
9314.000000;0.644443
9313.000000;0.644267
9312.000000;0.643969
9311.000000;0.643675
9310.000000;0.643547
9309.000000;0.643663
9308.000000;0.643958
9307.000000;0.644270
9306.000000;0.644431
9305.000000;0.644352
9304.000000;0.644062
9303.000000;0.643680
9302.000000;0.643337
9301.000000;0.643142
9300.000000;0.643186
9299.000000;0.643473
9298.000000;0.643826
9297.000000;0.643960
9296.000000;0.643739
9295.000000;0.643341
9294.000000;0.643072
9293.000000;0.643053
9292.000000;0.643162
9291.000000;0.643247
9290.000000;0.643283
9289.000000;0.643305
9288.000000;0.643283
9287.000000;0.643139
9286.000000;0.642843
9285.000000;0.642482
9284.000000;0.642251
9283.000000;0.642310
9282.000000;0.642594
9281.000000;0.642794
9280.000000;0.642646
9279.000000;0.642242
9278.000000;0.641936
9277.000000;0.641914
9276.000000;0.641988
9275.000000;0.641874
9274.000000;0.641566
9273.000000;0.641303
9272.000000;0.641252
9271.000000;0.641346
9270.000000;0.641430
9269.000000;0.641439
9268.000000;0.641398
9267.000000;0.641336
9266.000000;0.641275
9265.000000;0.641263
9264.000000;0.641343
9263.000000;0.641469
9262.000000;0.641500
9261.000000;0.641333
9260.000000;0.641027
9259.000000;0.640755
9258.000000;0.640612
9257.000000;0.640541
9256.000000;0.640456
9255.000000;0.640380
9254.000000;0.640391
9253.000000;0.640466
9252.000000;0.640500
9251.000000;0.640460
9250.000000;0.640418
9249.000000;0.640409
9248.000000;0.640343
9247.000000;0.640118
9246.000000;0.639756
9245.000000;0.639391
9244.000000;0.639187
9243.000000;0.639253
9242.000000;0.639574
9241.000000;0.639972
9240.000000;0.640202
9239.000000;0.640153
9238.000000;0.639920
9237.000000;0.639655
9236.000000;0.639425
9235.000000;0.639244
9234.000000;0.639135
9233.000000;0.639085
9232.000000;0.639042
9231.000000;0.639036
9230.000000;0.639209
9229.000000;0.639609
9228.000000;0.640001
9227.000000;0.640038
9226.000000;0.639603
9225.000000;0.638898
9224.000000;0.638232
9223.000000;0.637814
9222.000000;0.637723
9221.000000;0.637918
9220.000000;0.638218
9219.000000;0.638402
9218.000000;0.638398
9217.000000;0.638310
9216.000000;0.638254
9215.000000;0.638235
9214.000000;0.638213
9213.000000;0.638192
9212.000000;0.638188
9211.000000;0.638167
9210.000000;0.638071
9209.000000;0.637858
9208.000000;0.637522
9207.000000;0.637135
9206.000000;0.636884
9205.000000;0.636933
9204.000000;0.637206
9203.000000;0.637404
9202.000000;0.637331
9201.000000;0.637107
9200.000000;0.636967
9199.000000;0.636946
9198.000000;0.636914
9197.000000;0.636846
9196.000000;0.636878
9195.000000;0.637079
9194.000000;0.637308
9193.000000;0.637369
9192.000000;0.637215
9191.000000;0.636952
9190.000000;0.636736
9189.000000;0.636696
9188.000000;0.636872
9187.000000;0.637148
9186.000000;0.637303
9185.000000;0.637215
9184.000000;0.636965
9183.000000;0.636700
9182.000000;0.636459
9181.000000;0.636211
9180.000000;0.636001
9179.000000;0.635937
9178.000000;0.636032
9177.000000;0.636181
9176.000000;0.636293
9175.000000;0.636372
9174.000000;0.636430
9173.000000;0.636436
9172.000000;0.636379
9171.000000;0.636307
9170.000000;0.636229
9169.000000;0.636058
9168.000000;0.635742
9167.000000;0.635399
9166.000000;0.635214
9165.000000;0.635196
9164.000000;0.635166
9163.000000;0.635005
9162.000000;0.634823
9161.000000;0.634797
9160.000000;0.634933
9159.000000;0.635061
9158.000000;0.635055
9157.000000;0.634956
9156.000000;0.634853
9155.000000;0.634758
9154.000000;0.634643
9153.000000;0.634563
9152.000000;0.634613
9151.000000;0.634785
9150.000000;0.634924
9149.000000;0.634879
9148.000000;0.634656
9147.000000;0.634392
9146.000000;0.634202
9145.000000;0.634115
9144.000000;0.634110
9143.000000;0.634151
9142.000000;0.634173
9141.000000;0.634099
9140.000000;0.633908
9139.000000;0.633663
9138.000000;0.633451
9137.000000;0.633333
9136.000000;0.633345
9135.000000;0.633503
9134.000000;0.633748
9133.000000;0.633945
9132.000000;0.633997
9131.000000;0.633944
9130.000000;0.633893
9129.000000;0.633860
9128.000000;0.633760
9127.000000;0.633559
9126.000000;0.633357
9125.000000;0.633273
9124.000000;0.633297
9123.000000;0.633299
9122.000000;0.633171
9121.000000;0.632928
9120.000000;0.632686
9119.000000;0.632565
9118.000000;0.632601
9117.000000;0.632722
9116.000000;0.632826
9115.000000;0.632864
9114.000000;0.632867
9113.000000;0.632875
9112.000000;0.632882
9111.000000;0.632852
9110.000000;0.632749
9109.000000;0.632557
9108.000000;0.632298
9107.000000;0.632060
9106.000000;0.631949
9105.000000;0.631981
9104.000000;0.632028
9103.000000;0.631943
9102.000000;0.631719
9101.000000;0.631491
9100.000000;0.631394
9099.000000;0.631459
9098.000000;0.631620
9097.000000;0.631775
9096.000000;0.631818
9095.000000;0.631693
9094.000000;0.631460
9093.000000;0.631274
9092.000000;0.631258
9091.000000;0.631397
9090.000000;0.631567
9089.000000;0.631657
9088.000000;0.631652
9087.000000;0.631614
9086.000000;0.631604
9085.000000;0.631620
9084.000000;0.631601
9083.000000;0.631497
9082.000000;0.631348
9081.000000;0.631256
9080.000000;0.631252
9079.000000;0.631226
9078.000000;0.631030
9077.000000;0.630651
9076.000000;0.630235
9075.000000;0.629939
9074.000000;0.629804
9073.000000;0.629784
9072.000000;0.629844
9071.000000;0.629984
9070.000000;0.630175
9069.000000;0.630331
9068.000000;0.630363
9067.000000;0.630247
9066.000000;0.630039
9065.000000;0.629843
9064.000000;0.629738
9063.000000;0.629732
9062.000000;0.629767
9061.000000;0.629778
9060.000000;0.629742
9059.000000;0.629660
9058.000000;0.629529
9057.000000;0.629374
9056.000000;0.629276
9055.000000;0.629297
9054.000000;0.629384
9053.000000;0.629417
