Criado como novo conjunto de dados;"2706_e01_daniel.spp","24483.0 Secs"
cm-1;Abs
10000.000000;0.790228
9999.000000;0.789544
9998.000000;0.789153
9997.000000;0.789114
9996.000000;0.789380
9995.000000;0.789793
9994.000000;0.790054
9993.000000;0.789899
9992.000000;0.789396
9991.000000;0.788935
9990.000000;0.788838
9989.000000;0.789021
9988.000000;0.789138
9987.000000;0.788968
9986.000000;0.788585
9985.000000;0.788239
9984.000000;0.788158
9983.000000;0.788401
9982.000000;0.788772
9981.000000;0.788909
9980.000000;0.788613
9979.000000;0.788087
9978.000000;0.787731
9977.000000;0.787722
9976.000000;0.787918
9975.000000;0.788169
9974.000000;0.788495
9973.000000;0.788894
9972.000000;0.789151
9971.000000;0.789047
9970.000000;0.788651
9969.000000;0.788253
9968.000000;0.788035
9967.000000;0.787942
9966.000000;0.787875
9965.000000;0.787833
9964.000000;0.787839
9963.000000;0.787838
9962.000000;0.787736
9961.000000;0.787496
9960.000000;0.787168
9959.000000;0.786868
9958.000000;0.786756
9957.000000;0.786948
9956.000000;0.787413
9955.000000;0.787971
9954.000000;0.788411
9953.000000;0.788600
9952.000000;0.788521
9951.000000;0.788319
9950.000000;0.788275
9949.000000;0.788551
9948.000000;0.788895
9947.000000;0.788750
9946.000000;0.787798
9945.000000;0.786281
9944.000000;0.784701
9943.000000;0.783348
9942.000000;0.782323
9941.000000;0.781850
9940.000000;0.782245
9939.000000;0.783475
9938.000000;0.785020
9937.000000;0.786289
9936.000000;0.787083
9935.000000;0.787548
9934.000000;0.787825
9933.000000;0.787866
9932.000000;0.787523
9931.000000;0.786698
9930.000000;0.785479
9929.000000;0.784178
9928.000000;0.783168
9927.000000;0.782611
9926.000000;0.782421
9925.000000;0.782471
9924.000000;0.782707
9923.000000;0.783025
9922.000000;0.783253
9921.000000;0.783357
9920.000000;0.783508
9919.000000;0.783795
9918.000000;0.784066
9917.000000;0.784170
9916.000000;0.784202
9915.000000;0.784280
9914.000000;0.784240
9913.000000;0.783807
9912.000000;0.783009
9911.000000;0.782175
9910.000000;0.781553
9909.000000;0.781130
9908.000000;0.780812
9907.000000;0.780580
9906.000000;0.780489
9905.000000;0.780654
9904.000000;0.781175
9903.000000;0.781895
9902.000000;0.782323
9901.000000;0.782056
9900.000000;0.781268
9899.000000;0.780546
9898.000000;0.780265
9897.000000;0.780348
9896.000000;0.780597
9895.000000;0.780938
9894.000000;0.781294
9893.000000;0.781526
9892.000000;0.781624
9891.000000;0.781742
9890.000000;0.781919
9889.000000;0.781997
9888.000000;0.781897
9887.000000;0.781706
9886.000000;0.781376
9885.000000;0.780643
9884.000000;0.779493
9883.000000;0.778458
9882.000000;0.778171
9881.000000;0.778728
9880.000000;0.779693
9879.000000;0.780587
9878.000000;0.781189
9877.000000;0.781465
9876.000000;0.781463
9875.000000;0.781268
9874.000000;0.780919
9873.000000;0.780368
9872.000000;0.779622
9871.000000;0.778836
9870.000000;0.778192
9869.000000;0.777770
9868.000000;0.777650
9867.000000;0.777959
9866.000000;0.778653
9865.000000;0.779383
9864.000000;0.779823
9863.000000;0.780065
9862.000000;0.780410
9861.000000;0.780834
9860.000000;0.780909
9859.000000;0.780309
9858.000000;0.779160
9857.000000;0.777856
9856.000000;0.776725
9855.000000;0.775962
9854.000000;0.775692
9853.000000;0.775898
9852.000000;0.776362
9851.000000;0.776829
9850.000000;0.777234
9849.000000;0.777682
9848.000000;0.778195
9847.000000;0.778563
9846.000000;0.778522
9845.000000;0.778096
9844.000000;0.777659
9843.000000;0.777558
9842.000000;0.777692
9841.000000;0.777588
9840.000000;0.776934
9839.000000;0.775930
9838.000000;0.775088
9837.000000;0.774791
9836.000000;0.775083
9835.000000;0.775721
9834.000000;0.776291
9833.000000;0.776403
9832.000000;0.775966
9831.000000;0.775277
9830.000000;0.774770
9829.000000;0.774676
9828.000000;0.774906
9827.000000;0.775179
9826.000000;0.775222
9825.000000;0.774961
9824.000000;0.774621
9823.000000;0.774551
9822.000000;0.774862
9821.000000;0.775308
9820.000000;0.775563
9819.000000;0.775511
9818.000000;0.775210
9817.000000;0.774772
9816.000000;0.774421
9815.000000;0.774478
9814.000000;0.775024
9813.000000;0.775696
9812.000000;0.776038
9811.000000;0.776018
9810.000000;0.775943
9809.000000;0.775950
9808.000000;0.775848
9807.000000;0.775487
9806.000000;0.775008
9805.000000;0.774621
9804.000000;0.774327
9803.000000;0.774020
9802.000000;0.773719
9801.000000;0.773559
9800.000000;0.773603
9799.000000;0.773732
9798.000000;0.773735
9797.000000;0.773468
9796.000000;0.772960
9795.000000;0.772386
9794.000000;0.771916
9793.000000;0.771636
9792.000000;0.771610
9791.000000;0.771894
9790.000000;0.772372
9789.000000;0.772685
9788.000000;0.772494
9787.000000;0.771831
9786.000000;0.771088
9785.000000;0.770680
9784.000000;0.770801
9783.000000;0.771408
9782.000000;0.772257
9781.000000;0.772975
9780.000000;0.773252
9779.000000;0.773050
9778.000000;0.772570
9777.000000;0.772039
9776.000000;0.771615
9775.000000;0.771407
9774.000000;0.771415
9773.000000;0.771454
9772.000000;0.771319
9771.000000;0.771053
9770.000000;0.770898
9769.000000;0.770985
9768.000000;0.771207
9767.000000;0.771398
9766.000000;0.771483
9765.000000;0.771417
9764.000000;0.771158
9763.000000;0.770757
9762.000000;0.770298
9761.000000;0.769723
9760.000000;0.768892
9759.000000;0.767926
9758.000000;0.767291
9757.000000;0.767358
9756.000000;0.767970
9755.000000;0.768595
9754.000000;0.768869
9753.000000;0.768858
9752.000000;0.768785
9751.000000;0.768678
9750.000000;0.768387
9749.000000;0.767919
9748.000000;0.767594
9747.000000;0.767739
9746.000000;0.768245
9745.000000;0.768592
9744.000000;0.768433
9743.000000;0.768024
9742.000000;0.767919
9741.000000;0.768311
9740.000000;0.768875
9739.000000;0.769192
9738.000000;0.769085
9737.000000;0.768562
9736.000000;0.767756
9735.000000;0.767002
9734.000000;0.766713
9733.000000;0.766981
9732.000000;0.767457
9731.000000;0.767774
9730.000000;0.767948
9729.000000;0.768198
9728.000000;0.768513
9727.000000;0.768591
9726.000000;0.768173
9725.000000;0.767273
9724.000000;0.766132
9723.000000;0.765080
9722.000000;0.764419
9721.000000;0.764252
9720.000000;0.764418
9719.000000;0.764675
9718.000000;0.764995
9717.000000;0.765565
9716.000000;0.766520
9715.000000;0.767704
9714.000000;0.768709
9713.000000;0.769132
9712.000000;0.768843
9711.000000;0.768058
9710.000000;0.767146
9709.000000;0.766338
9708.000000;0.765673
9707.000000;0.765189
9706.000000;0.765004
9705.000000;0.765133
9704.000000;0.765348
9703.000000;0.765386
9702.000000;0.765260
9701.000000;0.765220
9700.000000;0.765430
9699.000000;0.765799
9698.000000;0.766105
9697.000000;0.766196
9696.000000;0.766085
9695.000000;0.765924
9694.000000;0.765860
9693.000000;0.765857
9692.000000;0.765733
9691.000000;0.765419
9690.000000;0.765086
9689.000000;0.764893
9688.000000;0.764719
9687.000000;0.764352
9686.000000;0.763860
9685.000000;0.763540
9684.000000;0.763487
9683.000000;0.763449
9682.000000;0.763206
9681.000000;0.762870
9680.000000;0.762674
9679.000000;0.762636
9678.000000;0.762608
9677.000000;0.762571
9676.000000;0.762682
9675.000000;0.763028
9674.000000;0.763505
9673.000000;0.763932
9672.000000;0.764170
9671.000000;0.764106
9670.000000;0.763659
9669.000000;0.762905
9668.000000;0.762144
9667.000000;0.761721
9666.000000;0.761741
9665.000000;0.762005
9664.000000;0.762250
9663.000000;0.762421
9662.000000;0.762655
9661.000000;0.762994
9660.000000;0.763241
9659.000000;0.763188
9658.000000;0.762948
9657.000000;0.762880
9656.000000;0.763157
9655.000000;0.763517
9654.000000;0.763557
9653.000000;0.763191
9652.000000;0.762688
9651.000000;0.762302
9650.000000;0.762025
9649.000000;0.761735
9648.000000;0.761434
9647.000000;0.761248
9646.000000;0.761251
9645.000000;0.761388
9644.000000;0.761532
9643.000000;0.761530
9642.000000;0.761274
9641.000000;0.760833
9640.000000;0.760484
9639.000000;0.760454
9638.000000;0.760607
9637.000000;0.760527
9636.000000;0.760017
9635.000000;0.759380
9634.000000;0.759087
9633.000000;0.759232
9632.000000;0.759529
9631.000000;0.759776
9630.000000;0.760085
9629.000000;0.760547
9628.000000;0.760901
9627.000000;0.760751
9626.000000;0.760063
9625.000000;0.759236
9624.000000;0.758685
9623.000000;0.758491
9622.000000;0.758490
9621.000000;0.758525
9620.000000;0.758546
9619.000000;0.758556
9618.000000;0.758585
9617.000000;0.758662
9616.000000;0.758764
9615.000000;0.758826
9614.000000;0.758845
9613.000000;0.758903
9612.000000;0.759010
9611.000000;0.759013
9610.000000;0.758777
9609.000000;0.758418
9608.000000;0.758192
9607.000000;0.758176
9606.000000;0.758231
9605.000000;0.758286
9604.000000;0.758442
9603.000000;0.758694
9602.000000;0.758754
9601.000000;0.758384
9600.000000;0.757789
9599.000000;0.757435
9598.000000;0.757493
9597.000000;0.757709
9596.000000;0.757834
9595.000000;0.757918
9594.000000;0.758088
9593.000000;0.758252
9592.000000;0.758257
9591.000000;0.758157
9590.000000;0.758106
9589.000000;0.758062
9588.000000;0.757857
9587.000000;0.757544
9586.000000;0.757424
9585.000000;0.757633
9584.000000;0.757906
9583.000000;0.757885
9582.000000;0.757528
9581.000000;0.757083
9580.000000;0.756727
9579.000000;0.756395
9578.000000;0.755963
9577.000000;0.755511
9576.000000;0.755342
9575.000000;0.755726
9574.000000;0.756591
9573.000000;0.757478
9572.000000;0.757866
9571.000000;0.757616
9570.000000;0.757040
9569.000000;0.756551
9568.000000;0.756299
9567.000000;0.756157
9566.000000;0.755963
9565.000000;0.755666
9564.000000;0.755307
9563.000000;0.754957
9562.000000;0.754682
9561.000000;0.754510
9560.000000;0.754457
9559.000000;0.754560
9558.000000;0.754831
9557.000000;0.755132
9556.000000;0.755202
9555.000000;0.754926
9554.000000;0.754530
9553.000000;0.754387
9552.000000;0.754647
9551.000000;0.755141
9550.000000;0.755638
9549.000000;0.756048
9548.000000;0.756343
9547.000000;0.756407
9546.000000;0.756085
9545.000000;0.755376
9544.000000;0.754502
9543.000000;0.753811
9542.000000;0.753554
9541.000000;0.753721
9540.000000;0.754032
9539.000000;0.754157
9538.000000;0.753968
9537.000000;0.753592
9536.000000;0.753241
9535.000000;0.753073
9534.000000;0.753183
9533.000000;0.753591
9532.000000;0.754121
9531.000000;0.754410
9530.000000;0.754181
9529.000000;0.753523
9528.000000;0.752816
9527.000000;0.752369
9526.000000;0.752228
9525.000000;0.752308
9524.000000;0.752580
9523.000000;0.753039
9522.000000;0.753547
9521.000000;0.753853
9520.000000;0.753764
9519.000000;0.753269
9518.000000;0.752503
9517.000000;0.751683
9516.000000;0.751071
9515.000000;0.750895
9514.000000;0.751189
9513.000000;0.751706
9512.000000;0.752091
9511.000000;0.752168
9510.000000;0.752034
9509.000000;0.751866
9508.000000;0.751727
9507.000000;0.751580
9506.000000;0.751407
9505.000000;0.751203
9504.000000;0.750898
9503.000000;0.750410
9502.000000;0.749831
9501.000000;0.749484
9500.000000;0.749695
9499.000000;0.750482
9498.000000;0.751478
9497.000000;0.752164
9496.000000;0.752237
9495.000000;0.751810
9494.000000;0.751271
9493.000000;0.750913
9492.000000;0.750688
9491.000000;0.750362
9490.000000;0.749882
9489.000000;0.749508
9488.000000;0.749518
9487.000000;0.749867
9486.000000;0.750225
9485.000000;0.750314
9484.000000;0.750121
9483.000000;0.749780
9482.000000;0.749358
9481.000000;0.748851
9480.000000;0.748308
9479.000000;0.747842
9478.000000;0.747518
9477.000000;0.747321
9476.000000;0.747280
9475.000000;0.747529
9474.000000;0.748148
9473.000000;0.748954
9472.000000;0.749566
9471.000000;0.749742
9470.000000;0.749579
9469.000000;0.749350
9468.000000;0.749189
9467.000000;0.749016
9466.000000;0.748729
9465.000000;0.748368
9464.000000;0.748071
9463.000000;0.747937
9462.000000;0.747970
9461.000000;0.748105
9460.000000;0.748262
9459.000000;0.748399
9458.000000;0.748516
9457.000000;0.748566
9456.000000;0.748420
9455.000000;0.747998
9454.000000;0.747459
9453.000000;0.747115
9452.000000;0.747118
9451.000000;0.747290
9450.000000;0.747354
9449.000000;0.747252
9448.000000;0.747149
9447.000000;0.747183
9446.000000;0.747324
9445.000000;0.747465
9444.000000;0.747520
9443.000000;0.747421
9442.000000;0.747146
9441.000000;0.746808
9440.000000;0.746633
9439.000000;0.746752
9438.000000;0.747044
9437.000000;0.747226
9436.000000;0.747109
9435.000000;0.746740
9434.000000;0.746341
9433.000000;0.746119
9432.000000;0.746105
9431.000000;0.746149
9430.000000;0.746080
9429.000000;0.745868
9428.000000;0.745627
9427.000000;0.745472
9426.000000;0.745426
9425.000000;0.745447
9424.000000;0.745485
9423.000000;0.745477
9422.000000;0.745362
9421.000000;0.745158
9420.000000;0.745000
9419.000000;0.745008
9418.000000;0.745128
9417.000000;0.745162
9416.000000;0.744998
9415.000000;0.744750
9414.000000;0.744650
9413.000000;0.744789
9412.000000;0.745022
9411.000000;0.745105
9410.000000;0.744935
9409.000000;0.744624
9408.000000;0.744374
9407.000000;0.744298
9406.000000;0.744355
9405.000000;0.744430
9404.000000;0.744468
9403.000000;0.744531
9402.000000;0.744734
9401.000000;0.745108
9400.000000;0.745497
9399.000000;0.745645
9398.000000;0.745426
9397.000000;0.744972
9396.000000;0.744556
9395.000000;0.744322
9394.000000;0.744157
9393.000000;0.743817
9392.000000;0.743207
9391.000000;0.742547
9390.000000;0.742262
9389.000000;0.742609
9388.000000;0.743372
9387.000000;0.743977
9386.000000;0.743996
9385.000000;0.743540
9384.000000;0.743079
9383.000000;0.742902
9382.000000;0.742846
9381.000000;0.742574
9380.000000;0.742017
9379.000000;0.741474
9378.000000;0.741308
9377.000000;0.741595
9376.000000;0.742089
9375.000000;0.742492
9374.000000;0.742726
9373.000000;0.742912
9372.000000;0.743103
9371.000000;0.743136
9370.000000;0.742809
9369.000000;0.742137
9368.000000;0.741375
9367.000000;0.740817
9366.000000;0.740650
9365.000000;0.740917
9364.000000;0.741478
9363.000000;0.742009
9362.000000;0.742215
9361.000000;0.742098
9360.000000;0.741906
9359.000000;0.741789
9358.000000;0.741622
9357.000000;0.741236
9356.000000;0.740713
9355.000000;0.740295
9354.000000;0.740087
9353.000000;0.739976
9352.000000;0.739832
9351.000000;0.739696
9350.000000;0.739725
9349.000000;0.740001
9348.000000;0.740414
9347.000000;0.740727
9346.000000;0.740773
9345.000000;0.740611
9344.000000;0.740466
9343.000000;0.740500
9342.000000;0.740692
9341.000000;0.740900
9340.000000;0.740960
9339.000000;0.740730
9338.000000;0.740177
9337.000000;0.739496
9336.000000;0.739038
9335.000000;0.738995
9334.000000;0.739214
9333.000000;0.739401
9332.000000;0.739447
9331.000000;0.739465
9330.000000;0.739567
9329.000000;0.739702
9328.000000;0.739714
9327.000000;0.739462
9326.000000;0.738918
9325.000000;0.738255
9324.000000;0.737780
9323.000000;0.737675
9322.000000;0.737807
9321.000000;0.737897
9320.000000;0.737875
9319.000000;0.737950
9318.000000;0.738309
9317.000000;0.738866
9316.000000;0.739356
9315.000000;0.739576
9314.000000;0.739519
9313.000000;0.739323
9312.000000;0.739154
9311.000000;0.739076
9310.000000;0.739005
9309.000000;0.738808
9308.000000;0.738456
9307.000000;0.738047
9306.000000;0.737703
9305.000000;0.737496
9304.000000;0.737440
9303.000000;0.737475
9302.000000;0.737489
9301.000000;0.737420
9300.000000;0.737357
9299.000000;0.737433
9298.000000;0.737609
9297.000000;0.737676
9296.000000;0.737485
9295.000000;0.737099
9294.000000;0.736670
9293.000000;0.736297
9292.000000;0.736052
9291.000000;0.736022
9290.000000;0.736221
9289.000000;0.736513
9288.000000;0.736724
9287.000000;0.736827
9286.000000;0.736915
9285.000000;0.737016
9284.000000;0.737020
9283.000000;0.736809
9282.000000;0.736396
9281.000000;0.735924
9280.000000;0.735545
9279.000000;0.735321
9278.000000;0.735213
9277.000000;0.735151
9276.000000;0.735094
9275.000000;0.735057
9274.000000;0.735091
9273.000000;0.735259
9272.000000;0.735568
9271.000000;0.735887
9270.000000;0.735980
9269.000000;0.735701
9268.000000;0.735177
9267.000000;0.734707
9266.000000;0.734496
9265.000000;0.734514
9264.000000;0.734627
9263.000000;0.734740
9262.000000;0.734795
9261.000000;0.734754
9260.000000;0.734658
9259.000000;0.734649
9258.000000;0.734831
9257.000000;0.735134
9256.000000;0.735355
9255.000000;0.735308
9254.000000;0.734923
9253.000000;0.734277
9252.000000;0.733587
9251.000000;0.733136
9250.000000;0.733079
9249.000000;0.733321
9248.000000;0.733602
9247.000000;0.733708
9246.000000;0.733593
9245.000000;0.733367
9244.000000;0.733204
9243.000000;0.733202
9242.000000;0.733281
9241.000000;0.733263
9240.000000;0.733108
9239.000000;0.732988
9238.000000;0.733051
9237.000000;0.733182
9236.000000;0.733150
9235.000000;0.732943
9234.000000;0.732781
9233.000000;0.732796
9232.000000;0.732876
9231.000000;0.732888
9230.000000;0.732899
9229.000000;0.733026
9228.000000;0.733191
9227.000000;0.733194
9226.000000;0.733007
9225.000000;0.732820
9224.000000;0.732777
9223.000000;0.732786
9222.000000;0.732654
9221.000000;0.732339
9220.000000;0.731977
9219.000000;0.731730
9218.000000;0.731648
9217.000000;0.731677
9216.000000;0.731715
9215.000000;0.731688
9214.000000;0.731592
9213.000000;0.731498
9212.000000;0.731481
9211.000000;0.731533
9210.000000;0.731550
9209.000000;0.731407
9208.000000;0.731074
9207.000000;0.730665
9206.000000;0.730368
9205.000000;0.730302
9204.000000;0.730396
9203.000000;0.730436
9202.000000;0.730253
9201.000000;0.729885
9200.000000;0.729551
9199.000000;0.729485
9198.000000;0.729768
9197.000000;0.730266
9196.000000;0.730713
9195.000000;0.730901
9194.000000;0.730831
9193.000000;0.730650
9192.000000;0.730443
9191.000000;0.730151
9190.000000;0.729737
9189.000000;0.729325
9188.000000;0.729077
9187.000000;0.728993
9186.000000;0.728966
9185.000000;0.728994
9184.000000;0.729166
9183.000000;0.729444
9182.000000;0.729628
9181.000000;0.729608
9180.000000;0.729489
9179.000000;0.729388
9178.000000;0.729278
9177.000000;0.729127
9176.000000;0.729055
9175.000000;0.729156
9174.000000;0.729268
9173.000000;0.729123
9172.000000;0.728706
9171.000000;0.728295
9170.000000;0.728143
9169.000000;0.728262
9168.000000;0.728542
9167.000000;0.728899
9166.000000;0.729258
9165.000000;0.729508
9164.000000;0.729551
9163.000000;0.729367
9162.000000;0.728992
9161.000000;0.728525
9160.000000;0.728124
9159.000000;0.727921
9158.000000;0.727900
9157.000000;0.727942
9156.000000;0.727971
9155.000000;0.727972
9154.000000;0.727883
9153.000000;0.727626
9152.000000;0.727263
9151.000000;0.726971
9150.000000;0.726835
9149.000000;0.726781
9148.000000;0.726768
9147.000000;0.726881
9146.000000;0.727140
9145.000000;0.727363
9144.000000;0.727358
9143.000000;0.727155
9142.000000;0.726921
9141.000000;0.726753
9140.000000;0.726686
9139.000000;0.726796
9138.000000;0.727095
9137.000000;0.727367
9136.000000;0.727294
9135.000000;0.726821
9134.000000;0.726228
9133.000000;0.725813
9132.000000;0.725597
9131.000000;0.725416
9130.000000;0.725184
9129.000000;0.724988
9128.000000;0.724959
9127.000000;0.725141
9126.000000;0.725459
9125.000000;0.725776
9124.000000;0.725958
9123.000000;0.725949
9122.000000;0.725797
9121.000000;0.725627
9120.000000;0.725551
9119.000000;0.725582
9118.000000;0.725625
9117.000000;0.725573
9116.000000;0.725415
9115.000000;0.725213
9114.000000;0.725001
9113.000000;0.724765
9112.000000;0.724538
9111.000000;0.724437
9110.000000;0.724538
9109.000000;0.724778
9108.000000;0.725022
9107.000000;0.725207
9106.000000;0.725330
9105.000000;0.725350
9104.000000;0.725197
9103.000000;0.724874
9102.000000;0.724492
9101.000000;0.724171
9100.000000;0.723942
9099.000000;0.723753
9098.000000;0.723562
9097.000000;0.723412
9096.000000;0.723411
9095.000000;0.723597
9094.000000;0.723820
9093.000000;0.723826
9092.000000;0.723516
9091.000000;0.723085
9090.000000;0.722853
9089.000000;0.722986
9088.000000;0.723410
9087.000000;0.723908
9086.000000;0.724253
9085.000000;0.724308
9084.000000;0.724098
9083.000000;0.723769
9082.000000;0.723414
9081.000000;0.722975
9080.000000;0.722384
9079.000000;0.721757
9078.000000;0.721329
9077.000000;0.721228
9076.000000;0.721394
9075.000000;0.721690
9074.000000;0.721994
9073.000000;0.722206
9072.000000;0.722294
9071.000000;0.722344
9070.000000;0.722466
9069.000000;0.722615
9068.000000;0.722608
9067.000000;0.722330
9066.000000;0.721842
9065.000000;0.721254
9064.000000;0.720629
9063.000000;0.720070
9062.000000;0.719790
9061.000000;0.719969
9060.000000;0.720552
9059.000000;0.721260
9058.000000;0.721803
9057.000000;0.722059
9056.000000;0.722096
9055.000000;0.722076
9054.000000;0.722101
9053.000000;0.722120
