Criado como novo conjunto de dados;"2706_e01_daniel.spp","15663.1 Secs"
cm-1;Abs
10000.000000;0.803052
9999.000000;0.802508
9998.000000;0.802085
9997.000000;0.801959
9996.000000;0.802310
9995.000000;0.803010
9994.000000;0.803572
9993.000000;0.803494
9992.000000;0.802672
9991.000000;0.801470
9990.000000;0.800417
9989.000000;0.799867
9988.000000;0.799880
9987.000000;0.800291
9986.000000;0.800791
9985.000000;0.801045
9984.000000;0.800905
9983.000000;0.800523
9982.000000;0.800164
9981.000000;0.799887
9980.000000;0.799541
9979.000000;0.799108
9978.000000;0.798894
9977.000000;0.799222
9976.000000;0.799974
9975.000000;0.800602
9974.000000;0.800624
9973.000000;0.800061
9972.000000;0.799389
9971.000000;0.799131
9970.000000;0.799485
9969.000000;0.800233
9968.000000;0.800927
9967.000000;0.801212
9966.000000;0.801020
9965.000000;0.800526
9964.000000;0.799932
9963.000000;0.799300
9962.000000;0.798585
9961.000000;0.797802
9960.000000;0.797176
9959.000000;0.797025
9958.000000;0.797431
9957.000000;0.798066
9956.000000;0.798473
9955.000000;0.798501
9954.000000;0.798334
9953.000000;0.798149
9952.000000;0.797937
9951.000000;0.797716
9950.000000;0.797648
9949.000000;0.797797
9948.000000;0.797937
9947.000000;0.797816
9946.000000;0.797493
9945.000000;0.797259
9944.000000;0.797283
9943.000000;0.797460
9942.000000;0.797579
9941.000000;0.797484
9940.000000;0.797145
9939.000000;0.796711
9938.000000;0.796460
9937.000000;0.796577
9936.000000;0.796976
9935.000000;0.797412
9934.000000;0.797691
9933.000000;0.797696
9932.000000;0.797335
9931.000000;0.796606
9930.000000;0.795657
9929.000000;0.794695
9928.000000;0.793904
9927.000000;0.793522
9926.000000;0.793789
9925.000000;0.794600
9924.000000;0.795356
9923.000000;0.795448
9922.000000;0.794884
9921.000000;0.794227
9920.000000;0.793941
9919.000000;0.793988
9918.000000;0.794037
9917.000000;0.793864
9916.000000;0.793523
9915.000000;0.793291
9914.000000;0.793438
9913.000000;0.793908
9912.000000;0.794280
9911.000000;0.794251
9910.000000;0.794095
9909.000000;0.794382
9908.000000;0.795236
9907.000000;0.796112
9906.000000;0.796383
9905.000000;0.795929
9904.000000;0.795090
9903.000000;0.794252
9902.000000;0.793618
9901.000000;0.793236
9900.000000;0.793071
9899.000000;0.793073
9898.000000;0.793220
9897.000000;0.793459
9896.000000;0.793631
9895.000000;0.793577
9894.000000;0.793316
9893.000000;0.792981
9892.000000;0.792607
9891.000000;0.792157
9890.000000;0.791748
9889.000000;0.791607
9888.000000;0.791751
9887.000000;0.791905
9886.000000;0.791872
9885.000000;0.791795
9884.000000;0.791892
9883.000000;0.792040
9882.000000;0.791832
9881.000000;0.791050
9880.000000;0.789950
9879.000000;0.789064
9878.000000;0.788771
9877.000000;0.789049
9876.000000;0.789598
9875.000000;0.790172
9874.000000;0.790753
9873.000000;0.791386
9872.000000;0.791937
9871.000000;0.792118
9870.000000;0.791740
9869.000000;0.790856
9868.000000;0.789720
9867.000000;0.788740
9866.000000;0.788372
9865.000000;0.788819
9864.000000;0.789748
9863.000000;0.790485
9862.000000;0.790623
9861.000000;0.790364
9860.000000;0.790218
9859.000000;0.790457
9858.000000;0.790896
9857.000000;0.791139
9856.000000;0.790976
9855.000000;0.790580
9854.000000;0.790327
9853.000000;0.790377
9852.000000;0.790466
9851.000000;0.790182
9850.000000;0.789407
9849.000000;0.788411
9848.000000;0.787590
9847.000000;0.787193
9846.000000;0.787239
9845.000000;0.787511
9844.000000;0.787670
9843.000000;0.787553
9842.000000;0.787377
9841.000000;0.787502
9840.000000;0.788005
9839.000000;0.788623
9838.000000;0.789085
9837.000000;0.789314
9836.000000;0.789307
9835.000000;0.789055
9834.000000;0.788663
9833.000000;0.788341
9832.000000;0.788175
9831.000000;0.788062
9830.000000;0.787933
9829.000000;0.787846
9828.000000;0.787778
9827.000000;0.787490
9826.000000;0.786815
9825.000000;0.785967
9824.000000;0.785391
9823.000000;0.785313
9822.000000;0.785547
9821.000000;0.785755
9820.000000;0.785786
9819.000000;0.785717
9818.000000;0.785630
9817.000000;0.785434
9816.000000;0.785012
9815.000000;0.784505
9814.000000;0.784279
9813.000000;0.784483
9812.000000;0.784799
9811.000000;0.784824
9810.000000;0.784622
9809.000000;0.784618
9808.000000;0.784962
9807.000000;0.785266
9806.000000;0.785088
9805.000000;0.784465
9804.000000;0.783833
9803.000000;0.783557
9802.000000;0.783688
9801.000000;0.784066
9800.000000;0.784520
9799.000000;0.784958
9798.000000;0.785347
9797.000000;0.785607
9796.000000;0.785594
9795.000000;0.785266
9794.000000;0.784853
9793.000000;0.784717
9792.000000;0.784996
9791.000000;0.785480
9790.000000;0.785835
9789.000000;0.785828
9788.000000;0.785370
9787.000000;0.784533
9786.000000;0.783605
9785.000000;0.782971
9784.000000;0.782837
9783.000000;0.783116
9782.000000;0.783578
9781.000000;0.783989
9780.000000;0.784120
9779.000000;0.783840
9778.000000;0.783301
9777.000000;0.782883
9776.000000;0.782829
9775.000000;0.783028
9774.000000;0.783205
9773.000000;0.783178
9772.000000;0.782892
9771.000000;0.782368
9770.000000;0.781787
9769.000000;0.781470
9768.000000;0.781606
9767.000000;0.782022
9766.000000;0.782329
9765.000000;0.782265
9764.000000;0.781831
9763.000000;0.781197
9762.000000;0.780572
9761.000000;0.780105
9760.000000;0.779822
9759.000000;0.779675
9758.000000;0.779658
9757.000000;0.779755
9756.000000;0.779775
9755.000000;0.779434
9754.000000;0.778753
9753.000000;0.778216
9752.000000;0.778321
9751.000000;0.779033
9750.000000;0.779859
9749.000000;0.780434
9748.000000;0.780827
9747.000000;0.781215
9746.000000;0.781458
9745.000000;0.781191
9744.000000;0.780339
9743.000000;0.779380
9742.000000;0.778997
9741.000000;0.779457
9740.000000;0.780386
9739.000000;0.781142
9738.000000;0.781340
9737.000000;0.781028
9736.000000;0.780488
9735.000000;0.779991
9734.000000;0.779680
9733.000000;0.779519
9732.000000;0.779343
9731.000000;0.779057
9730.000000;0.778804
9729.000000;0.778827
9728.000000;0.779153
9727.000000;0.779531
9726.000000;0.779677
9725.000000;0.779502
9724.000000;0.779107
9723.000000;0.778671
9722.000000;0.778361
9721.000000;0.778229
9720.000000;0.778161
9719.000000;0.778039
9718.000000;0.777929
9717.000000;0.777997
9716.000000;0.778241
9715.000000;0.778475
9714.000000;0.778586
9713.000000;0.778620
9712.000000;0.778583
9711.000000;0.778377
9710.000000;0.778022
9709.000000;0.777759
9708.000000;0.777781
9707.000000;0.777987
9706.000000;0.778118
9705.000000;0.778042
9704.000000;0.777782
9703.000000;0.777386
9702.000000;0.776902
9701.000000;0.776446
9700.000000;0.776170
9699.000000;0.776165
9698.000000;0.776401
9697.000000;0.776689
9696.000000;0.776720
9695.000000;0.776326
9694.000000;0.775768
9693.000000;0.775558
9692.000000;0.775896
9691.000000;0.776437
9690.000000;0.776773
9689.000000;0.776959
9688.000000;0.777337
9687.000000;0.777929
9686.000000;0.778304
9685.000000;0.778096
9684.000000;0.777447
9683.000000;0.776845
9682.000000;0.776652
9681.000000;0.776844
9680.000000;0.777109
9679.000000;0.777093
9678.000000;0.776630
9677.000000;0.775847
9676.000000;0.775079
9675.000000;0.774649
9674.000000;0.774652
9673.000000;0.774909
9672.000000;0.775135
9671.000000;0.775199
9670.000000;0.775203
9669.000000;0.775305
9668.000000;0.775502
9667.000000;0.775648
9666.000000;0.775614
9665.000000;0.775342
9664.000000;0.774812
9663.000000;0.774124
9662.000000;0.773565
9661.000000;0.773406
9660.000000;0.773575
9659.000000;0.773719
9658.000000;0.773625
9657.000000;0.773431
9656.000000;0.773333
9655.000000;0.773296
9654.000000;0.773175
9653.000000;0.772990
9652.000000;0.772900
9651.000000;0.773009
9650.000000;0.773311
9649.000000;0.773714
9648.000000;0.774012
9647.000000;0.773967
9646.000000;0.773576
9645.000000;0.773157
9644.000000;0.772975
9643.000000;0.772922
9642.000000;0.772733
9641.000000;0.772416
9640.000000;0.772193
9639.000000;0.772099
9638.000000;0.771928
9637.000000;0.771622
9636.000000;0.771409
9635.000000;0.771444
9634.000000;0.771541
9633.000000;0.771425
9632.000000;0.771112
9631.000000;0.770859
9630.000000;0.770851
9629.000000;0.771084
9628.000000;0.771490
9627.000000;0.771978
9626.000000;0.772387
9625.000000;0.772542
9624.000000;0.772394
9623.000000;0.772038
9622.000000;0.771567
9621.000000;0.771038
9620.000000;0.770578
9619.000000;0.770386
9618.000000;0.770527
9617.000000;0.770800
9616.000000;0.770951
9615.000000;0.770975
9614.000000;0.771091
9613.000000;0.771401
9612.000000;0.771697
9611.000000;0.771678
9610.000000;0.771281
9609.000000;0.770687
9608.000000;0.770084
9607.000000;0.769573
9606.000000;0.769270
9605.000000;0.769305
9604.000000;0.769632
9603.000000;0.769933
9602.000000;0.769855
9601.000000;0.769346
9600.000000;0.768717
9599.000000;0.768350
9598.000000;0.768385
9597.000000;0.768672
9596.000000;0.768974
9595.000000;0.769162
9594.000000;0.769233
9593.000000;0.769206
9592.000000;0.769069
9591.000000;0.768858
9590.000000;0.768704
9589.000000;0.768715
9588.000000;0.768837
9587.000000;0.768894
9586.000000;0.768775
9585.000000;0.768531
9584.000000;0.768297
9583.000000;0.768167
9582.000000;0.768136
9581.000000;0.768110
9580.000000;0.767967
9579.000000;0.767705
9578.000000;0.767507
9577.000000;0.767597
9576.000000;0.767972
9575.000000;0.768350
9574.000000;0.768410
9573.000000;0.768091
9572.000000;0.767631
9571.000000;0.767340
9570.000000;0.767350
9569.000000;0.767545
9568.000000;0.767726
9567.000000;0.767819
9566.000000;0.767892
9565.000000;0.767991
9564.000000;0.768054
9563.000000;0.768035
9562.000000;0.767978
9561.000000;0.767876
9560.000000;0.767583
9559.000000;0.767048
9558.000000;0.766514
9557.000000;0.766270
9556.000000;0.766238
9555.000000;0.766068
9554.000000;0.765627
9553.000000;0.765164
9552.000000;0.764897
9551.000000;0.764746
9550.000000;0.764605
9549.000000;0.764639
9548.000000;0.765055
9547.000000;0.765738
9546.000000;0.766313
9545.000000;0.766542
9544.000000;0.766469
9543.000000;0.766240
9542.000000;0.765961
9541.000000;0.765723
9540.000000;0.765605
9539.000000;0.765622
9538.000000;0.765738
9537.000000;0.765908
9536.000000;0.766039
9535.000000;0.765954
9534.000000;0.765548
9533.000000;0.764937
9532.000000;0.764354
9531.000000;0.763943
9530.000000;0.763717
9529.000000;0.763658
9528.000000;0.763700
9527.000000;0.763690
9526.000000;0.763553
9525.000000;0.763452
9524.000000;0.763589
9523.000000;0.763839
9522.000000;0.763838
9521.000000;0.763485
9520.000000;0.763113
9519.000000;0.763021
9518.000000;0.763049
9517.000000;0.762843
9516.000000;0.762432
9515.000000;0.762235
9514.000000;0.762525
9513.000000;0.763092
9512.000000;0.763536
9511.000000;0.763721
9510.000000;0.763798
9509.000000;0.763894
9508.000000;0.763948
9507.000000;0.763841
9506.000000;0.763573
9505.000000;0.763242
9504.000000;0.762941
9503.000000;0.762723
9502.000000;0.762640
9501.000000;0.762723
9500.000000;0.762892
9499.000000;0.762957
9498.000000;0.762775
9497.000000;0.762393
9496.000000;0.762009
9495.000000;0.761773
9494.000000;0.761678
9493.000000;0.761634
9492.000000;0.761623
9491.000000;0.761704
9490.000000;0.761895
9489.000000;0.762082
9488.000000;0.762095
9487.000000;0.761861
9486.000000;0.761452
9485.000000;0.761019
9484.000000;0.760680
9483.000000;0.760455
9482.000000;0.760283
9481.000000;0.760114
9480.000000;0.760005
9479.000000;0.760069
9478.000000;0.760301
9477.000000;0.760486
9476.000000;0.760369
9475.000000;0.759932
9474.000000;0.759447
9473.000000;0.759217
9472.000000;0.759309
9471.000000;0.759556
9470.000000;0.759795
9469.000000;0.760018
9468.000000;0.760303
9467.000000;0.760614
9466.000000;0.760713
9465.000000;0.760326
9464.000000;0.759460
9463.000000;0.758512
9462.000000;0.757985
9461.000000;0.758060
9460.000000;0.758488
9459.000000;0.758910
9458.000000;0.759170
9457.000000;0.759297
9456.000000;0.759321
9455.000000;0.759252
9454.000000;0.759185
9453.000000;0.759255
9452.000000;0.759458
9451.000000;0.759601
9450.000000;0.759498
9449.000000;0.759140
9448.000000;0.758682
9447.000000;0.758315
9446.000000;0.758160
9445.000000;0.758217
9444.000000;0.758383
9443.000000;0.758540
9442.000000;0.758631
9441.000000;0.758627
9440.000000;0.758466
9439.000000;0.758123
9438.000000;0.757728
9437.000000;0.757486
9436.000000;0.757438
9435.000000;0.757399
9434.000000;0.757195
9433.000000;0.756894
9432.000000;0.756720
9431.000000;0.756796
9430.000000;0.757057
9429.000000;0.757356
9428.000000;0.757560
9427.000000;0.757547
9426.000000;0.757241
9425.000000;0.756709
9424.000000;0.756176
9423.000000;0.755859
9422.000000;0.755824
9421.000000;0.756019
9420.000000;0.756386
9419.000000;0.756870
9418.000000;0.757339
9417.000000;0.757628
9416.000000;0.757669
9415.000000;0.757518
9414.000000;0.757221
9413.000000;0.756740
9412.000000;0.756096
9411.000000;0.755467
9410.000000;0.755048
9409.000000;0.754852
9408.000000;0.754782
9407.000000;0.754846
9406.000000;0.755116
9405.000000;0.755492
9404.000000;0.755698
9403.000000;0.755618
9402.000000;0.755450
9401.000000;0.755415
9400.000000;0.755453
9399.000000;0.755347
9398.000000;0.755049
9397.000000;0.754700
9396.000000;0.754390
9395.000000;0.754097
9394.000000;0.753870
9393.000000;0.753860
9392.000000;0.754114
9391.000000;0.754454
9390.000000;0.754650
9389.000000;0.754631
9388.000000;0.754487
9387.000000;0.754326
9386.000000;0.754206
9385.000000;0.754135
9384.000000;0.754077
9383.000000;0.753975
9382.000000;0.753803
9381.000000;0.753581
9380.000000;0.753344
9379.000000;0.753130
9378.000000;0.753018
9377.000000;0.753095
9376.000000;0.753354
9375.000000;0.753628
9374.000000;0.753688
9373.000000;0.753414
9372.000000;0.752890
9371.000000;0.752366
9370.000000;0.752116
9369.000000;0.752264
9368.000000;0.752692
9367.000000;0.753116
9366.000000;0.753272
9365.000000;0.753084
9364.000000;0.752680
9363.000000;0.752271
9362.000000;0.751992
9361.000000;0.751850
9360.000000;0.751796
9359.000000;0.751829
9358.000000;0.751985
9357.000000;0.752236
9356.000000;0.752450
9355.000000;0.752510
9354.000000;0.752416
9353.000000;0.752257
9352.000000;0.752118
9351.000000;0.752047
9350.000000;0.752063
9349.000000;0.752140
9348.000000;0.752190
9347.000000;0.752136
9346.000000;0.751973
9345.000000;0.751759
9344.000000;0.751541
9343.000000;0.751329
9342.000000;0.751112
9341.000000;0.750906
9340.000000;0.750790
9339.000000;0.750879
9338.000000;0.751160
9337.000000;0.751389
9336.000000;0.751277
9335.000000;0.750844
9334.000000;0.750468
9333.000000;0.750471
9332.000000;0.750764
9331.000000;0.750997
9330.000000;0.751004
9329.000000;0.750926
9328.000000;0.750931
9327.000000;0.750980
9326.000000;0.750896
9325.000000;0.750548
9324.000000;0.749945
9323.000000;0.749226
9322.000000;0.748597
9321.000000;0.748221
9320.000000;0.748147
9319.000000;0.748363
9318.000000;0.748839
9317.000000;0.749449
9316.000000;0.749901
9315.000000;0.749922
9314.000000;0.749531
9313.000000;0.749015
9312.000000;0.748626
9311.000000;0.748398
9310.000000;0.748285
9309.000000;0.748315
9308.000000;0.748537
9307.000000;0.748890
9306.000000;0.749249
9305.000000;0.749526
9304.000000;0.749682
9303.000000;0.749669
9302.000000;0.749456
9301.000000;0.749096
9300.000000;0.748707
9299.000000;0.748382
9298.000000;0.748136
9297.000000;0.747928
9296.000000;0.747723
9295.000000;0.747540
9294.000000;0.747444
9293.000000;0.747481
9292.000000;0.747612
9291.000000;0.747754
9290.000000;0.747865
9289.000000;0.747944
9288.000000;0.747948
9287.000000;0.747797
9286.000000;0.747503
9285.000000;0.747221
9284.000000;0.747095
9283.000000;0.747065
9282.000000;0.746909
9281.000000;0.746509
9280.000000;0.746029
9279.000000;0.745791
9278.000000;0.745970
9277.000000;0.746448
9276.000000;0.746931
9275.000000;0.747173
9274.000000;0.747091
9273.000000;0.746736
9272.000000;0.746237
9271.000000;0.745767
9270.000000;0.745468
9269.000000;0.745376
9268.000000;0.745435
9267.000000;0.745593
9266.000000;0.745808
9265.000000;0.745997
9264.000000;0.746048
9263.000000;0.745950
9262.000000;0.745816
9261.000000;0.745728
9260.000000;0.745650
9259.000000;0.745538
9258.000000;0.745459
9257.000000;0.745495
9256.000000;0.745602
9255.000000;0.745660
9254.000000;0.745630
9253.000000;0.745553
9252.000000;0.745419
9251.000000;0.745157
9250.000000;0.744781
9249.000000;0.744432
9248.000000;0.744243
9247.000000;0.744225
9246.000000;0.744309
9245.000000;0.744432
9244.000000;0.744531
9243.000000;0.744529
9242.000000;0.744384
9241.000000;0.744170
9240.000000;0.744039
9239.000000;0.744088
9238.000000;0.744259
9237.000000;0.744390
9236.000000;0.744394
9235.000000;0.744334
9234.000000;0.744307
9233.000000;0.744276
9232.000000;0.744106
9231.000000;0.743779
9230.000000;0.743470
9229.000000;0.743355
9228.000000;0.743420
9227.000000;0.743519
9226.000000;0.743569
9225.000000;0.743597
9224.000000;0.743637
9223.000000;0.743663
9222.000000;0.743627
9221.000000;0.743527
9220.000000;0.743413
9219.000000;0.743329
9218.000000;0.743244
9217.000000;0.743057
9216.000000;0.742749
9215.000000;0.742491
9214.000000;0.742490
9213.000000;0.742720
9212.000000;0.742919
9211.000000;0.742910
9210.000000;0.742787
9209.000000;0.742704
9208.000000;0.742641
9207.000000;0.742522
9206.000000;0.742427
9205.000000;0.742489
9204.000000;0.742649
9203.000000;0.742704
9202.000000;0.742590
9201.000000;0.742431
9200.000000;0.742306
9199.000000;0.742169
9198.000000;0.742008
9197.000000;0.741927
9196.000000;0.741978
9195.000000;0.742048
9194.000000;0.741992
9193.000000;0.741791
9192.000000;0.741523
9191.000000;0.741248
9190.000000;0.740999
9189.000000;0.740812
9188.000000;0.740719
9187.000000;0.740708
9186.000000;0.740742
9185.000000;0.740767
9184.000000;0.740692
9183.000000;0.740424
9182.000000;0.739968
9181.000000;0.739480
9180.000000;0.739194
9179.000000;0.739273
9178.000000;0.739704
9177.000000;0.740292
9176.000000;0.740764
9175.000000;0.740925
9174.000000;0.740759
9173.000000;0.740388
9172.000000;0.739978
9171.000000;0.739665
9170.000000;0.739505
9169.000000;0.739439
9168.000000;0.739363
9167.000000;0.739257
9166.000000;0.739186
9165.000000;0.739154
9164.000000;0.739047
9163.000000;0.738795
9162.000000;0.738518
9161.000000;0.738410
9160.000000;0.738524
9159.000000;0.738735
9158.000000;0.738899
9157.000000;0.738945
9156.000000;0.738900
9155.000000;0.738880
9154.000000;0.739007
9153.000000;0.739220
9152.000000;0.739262
9151.000000;0.738971
9150.000000;0.738516
9149.000000;0.738187
9148.000000;0.738036
9147.000000;0.737895
9146.000000;0.737706
9145.000000;0.737606
9144.000000;0.737645
9143.000000;0.737639
9142.000000;0.737401
9141.000000;0.736999
9140.000000;0.736682
9139.000000;0.736650
9138.000000;0.736932
9137.000000;0.737378
9136.000000;0.737721
9135.000000;0.737761
9134.000000;0.737576
9133.000000;0.737454
9132.000000;0.737559
9131.000000;0.737722
9130.000000;0.737653
9129.000000;0.737262
9128.000000;0.736713
9127.000000;0.736235
9126.000000;0.735974
9125.000000;0.735980
9124.000000;0.736223
9123.000000;0.736579
9122.000000;0.736884
9121.000000;0.737023
9120.000000;0.736990
9119.000000;0.736873
9118.000000;0.736779
9117.000000;0.736730
9116.000000;0.736633
9115.000000;0.736397
9114.000000;0.736088
9113.000000;0.735890
9112.000000;0.735888
9111.000000;0.735944
9110.000000;0.735852
9109.000000;0.735589
9108.000000;0.735339
9107.000000;0.735275
9106.000000;0.735376
9105.000000;0.735483
9104.000000;0.735517
9103.000000;0.735561
9102.000000;0.735707
9101.000000;0.735885
9100.000000;0.735941
9099.000000;0.735860
9098.000000;0.735785
9097.000000;0.735785
9096.000000;0.735733
9095.000000;0.735500
9094.000000;0.735165
9093.000000;0.734915
9092.000000;0.734827
9091.000000;0.734859
9090.000000;0.734990
9089.000000;0.735206
9088.000000;0.735378
9087.000000;0.735336
9086.000000;0.735081
9085.000000;0.734790
9084.000000;0.734596
9083.000000;0.734467
9082.000000;0.734336
9081.000000;0.734215
9080.000000;0.734127
9079.000000;0.734036
9078.000000;0.733908
9077.000000;0.733760
9076.000000;0.733607
9075.000000;0.733426
9074.000000;0.733226
9073.000000;0.733068
9072.000000;0.732973
9071.000000;0.732888
9070.000000;0.732766
9069.000000;0.732641
9068.000000;0.732566
9067.000000;0.732544
9066.000000;0.732540
9065.000000;0.732524
9064.000000;0.732455
9063.000000;0.732300
9062.000000;0.732093
9061.000000;0.731947
9060.000000;0.731954
9059.000000;0.732122
9058.000000;0.732396
9057.000000;0.732682
9056.000000;0.732850
9055.000000;0.732799
9054.000000;0.732564
9053.000000;0.732294
