Criado como novo conjunto de dados;"2706_e01_daniel.spp","71105.7 Secs"
cm-1;Abs
10000.000000;0.815717
9999.000000;0.815453
9998.000000;0.815198
9997.000000;0.814922
9996.000000;0.814773
9995.000000;0.814824
9994.000000;0.814749
9993.000000;0.814162
9992.000000;0.813149
9991.000000;0.812406
9990.000000;0.812603
9989.000000;0.813734
9988.000000;0.815163
9987.000000;0.816203
9986.000000;0.816512
9985.000000;0.816086
9984.000000;0.815147
9983.000000;0.814107
9982.000000;0.813399
9981.000000;0.813168
9980.000000;0.813168
9979.000000;0.813052
9978.000000;0.812726
9977.000000;0.812338
9976.000000;0.812048
9975.000000;0.811923
9974.000000;0.811996
9973.000000;0.812291
9972.000000;0.812786
9971.000000;0.813444
9970.000000;0.814224
9969.000000;0.814948
9968.000000;0.815217
9967.000000;0.814683
9966.000000;0.813486
9965.000000;0.812243
9964.000000;0.811511
9963.000000;0.811342
9962.000000;0.811424
9961.000000;0.811531
9960.000000;0.811697
9959.000000;0.811988
9958.000000;0.812255
9957.000000;0.812195
9956.000000;0.811690
9955.000000;0.811038
9954.000000;0.810774
9953.000000;0.811181
9952.000000;0.811996
9951.000000;0.812670
9950.000000;0.812866
9949.000000;0.812603
9948.000000;0.812013
9947.000000;0.811203
9946.000000;0.810395
9945.000000;0.809901
9944.000000;0.809777
9943.000000;0.809679
9942.000000;0.809264
9941.000000;0.808623
9940.000000;0.808183
9939.000000;0.808283
9938.000000;0.808945
9937.000000;0.809921
9936.000000;0.810768
9935.000000;0.811012
9934.000000;0.810489
9933.000000;0.809534
9932.000000;0.808658
9931.000000;0.808044
9930.000000;0.807516
9929.000000;0.806945
9928.000000;0.806477
9927.000000;0.806291
9926.000000;0.806303
9925.000000;0.806228
9924.000000;0.805944
9923.000000;0.805679
9922.000000;0.805786
9921.000000;0.806311
9920.000000;0.806887
9919.000000;0.807137
9918.000000;0.807118
9917.000000;0.807178
9916.000000;0.807401
9915.000000;0.807456
9914.000000;0.807100
9913.000000;0.806607
9912.000000;0.806488
9911.000000;0.806932
9910.000000;0.807667
9909.000000;0.808300
9908.000000;0.808611
9907.000000;0.808575
9906.000000;0.808273
9905.000000;0.807792
9904.000000;0.807115
9903.000000;0.806200
9902.000000;0.805208
9901.000000;0.804457
9900.000000;0.804054
9899.000000;0.803740
9898.000000;0.803287
9897.000000;0.802891
9896.000000;0.802925
9895.000000;0.803410
9894.000000;0.803979
9893.000000;0.804278
9892.000000;0.804220
9891.000000;0.803933
9890.000000;0.803663
9889.000000;0.803653
9888.000000;0.803873
9887.000000;0.803909
9886.000000;0.803388
9885.000000;0.802475
9884.000000;0.801709
9883.000000;0.801378
9882.000000;0.801332
9881.000000;0.801379
9880.000000;0.801561
9879.000000;0.801920
9878.000000;0.802241
9877.000000;0.802241
9876.000000;0.801910
9875.000000;0.801523
9874.000000;0.801336
9873.000000;0.801310
9872.000000;0.801149
9871.000000;0.800637
9870.000000;0.799951
9869.000000;0.799541
9868.000000;0.799641
9867.000000;0.800024
9866.000000;0.800339
9865.000000;0.800527
9864.000000;0.800738
9863.000000;0.801001
9862.000000;0.801201
9861.000000;0.801302
9860.000000;0.801312
9859.000000;0.801132
9858.000000;0.800732
9857.000000;0.800441
9856.000000;0.800706
9855.000000;0.801468
9854.000000;0.802063
9853.000000;0.801892
9852.000000;0.801045
9851.000000;0.800143
9850.000000;0.799707
9849.000000;0.799774
9848.000000;0.800008
9847.000000;0.800063
9846.000000;0.799835
9845.000000;0.799427
9844.000000;0.798932
9843.000000;0.798386
9842.000000;0.797955
9841.000000;0.797947
9840.000000;0.798425
9839.000000;0.798948
9838.000000;0.798969
9837.000000;0.798463
9836.000000;0.797915
9835.000000;0.797702
9834.000000;0.797704
9833.000000;0.797532
9832.000000;0.796947
9831.000000;0.796078
9830.000000;0.795389
9829.000000;0.795380
9828.000000;0.796101
9827.000000;0.796970
9826.000000;0.797319
9825.000000;0.797100
9824.000000;0.796818
9823.000000;0.796804
9822.000000;0.796871
9821.000000;0.796734
9820.000000;0.796425
9819.000000;0.796141
9818.000000;0.795913
9817.000000;0.795634
9816.000000;0.795303
9815.000000;0.795073
9814.000000;0.795101
9813.000000;0.795389
9812.000000;0.795711
9811.000000;0.795760
9810.000000;0.795463
9809.000000;0.795140
9808.000000;0.795182
9807.000000;0.795591
9806.000000;0.796023
9805.000000;0.796205
9804.000000;0.796105
9803.000000;0.795705
9802.000000;0.794944
9801.000000;0.793990
9800.000000;0.793300
9799.000000;0.793220
9798.000000;0.793648
9797.000000;0.794212
9796.000000;0.794637
9795.000000;0.794878
9794.000000;0.795022
9793.000000;0.795185
9792.000000;0.795406
9791.000000;0.795559
9790.000000;0.795478
9789.000000;0.795185
9788.000000;0.794894
9787.000000;0.794731
9786.000000;0.794608
9785.000000;0.794410
9784.000000;0.794147
9783.000000;0.793840
9782.000000;0.793397
9781.000000;0.792722
9780.000000;0.791899
9779.000000;0.791218
9778.000000;0.791024
9777.000000;0.791467
9776.000000;0.792274
9775.000000;0.792863
9774.000000;0.792851
9773.000000;0.792446
9772.000000;0.792143
9771.000000;0.792093
9770.000000;0.792016
9769.000000;0.791735
9768.000000;0.791476
9767.000000;0.791508
9766.000000;0.791759
9765.000000;0.791956
9764.000000;0.791983
9763.000000;0.791905
9762.000000;0.791747
9761.000000;0.791458
9760.000000;0.791058
9759.000000;0.790699
9758.000000;0.790536
9757.000000;0.790562
9756.000000;0.790550
9755.000000;0.790227
9754.000000;0.789597
9753.000000;0.789044
9752.000000;0.788956
9751.000000;0.789255
9750.000000;0.789512
9749.000000;0.789541
9748.000000;0.789616
9747.000000;0.789963
9746.000000;0.790312
9745.000000;0.790185
9744.000000;0.789508
9743.000000;0.788695
9742.000000;0.788168
9741.000000;0.788023
9740.000000;0.788147
9739.000000;0.788447
9738.000000;0.788860
9737.000000;0.789245
9736.000000;0.789408
9735.000000;0.789259
9734.000000;0.788901
9733.000000;0.788552
9732.000000;0.788377
9731.000000;0.788408
9730.000000;0.788537
9729.000000;0.788556
9728.000000;0.788260
9727.000000;0.787643
9726.000000;0.786994
9725.000000;0.786671
9724.000000;0.786738
9723.000000;0.786942
9722.000000;0.787077
9721.000000;0.787234
9720.000000;0.787536
9719.000000;0.787807
9718.000000;0.787727
9717.000000;0.787263
9716.000000;0.786718
9715.000000;0.786364
9714.000000;0.786173
9713.000000;0.785952
9712.000000;0.785611
9711.000000;0.785273
9710.000000;0.785187
9709.000000;0.785510
9708.000000;0.786090
9707.000000;0.786515
9706.000000;0.786495
9705.000000;0.786146
9704.000000;0.785823
9703.000000;0.785728
9702.000000;0.785806
9701.000000;0.785922
9700.000000;0.785975
9699.000000;0.785888
9698.000000;0.785673
9697.000000;0.785503
9696.000000;0.785559
9695.000000;0.785814
9694.000000;0.786053
9693.000000;0.786070
9692.000000;0.785763
9691.000000;0.785147
9690.000000;0.784445
9689.000000;0.784018
9688.000000;0.783994
9687.000000;0.784020
9686.000000;0.783655
9685.000000;0.782949
9684.000000;0.782377
9683.000000;0.782205
9682.000000;0.782244
9681.000000;0.782239
9680.000000;0.782206
9679.000000;0.782271
9678.000000;0.782431
9677.000000;0.782611
9676.000000;0.782779
9675.000000;0.782897
9674.000000;0.782924
9673.000000;0.782938
9672.000000;0.783064
9671.000000;0.783211
9670.000000;0.783095
9669.000000;0.782626
9668.000000;0.782074
9667.000000;0.781716
9666.000000;0.781492
9665.000000;0.781169
9664.000000;0.780702
9663.000000;0.780252
9662.000000;0.779978
9661.000000;0.779959
9660.000000;0.780215
9659.000000;0.780634
9658.000000;0.780954
9657.000000;0.780969
9656.000000;0.780743
9655.000000;0.780509
9654.000000;0.780425
9653.000000;0.780492
9652.000000;0.780648
9651.000000;0.780761
9650.000000;0.780620
9649.000000;0.780101
9648.000000;0.779391
9647.000000;0.778904
9646.000000;0.778918
9645.000000;0.779319
9644.000000;0.779740
9643.000000;0.779912
9642.000000;0.779844
9641.000000;0.779707
9640.000000;0.779604
9639.000000;0.779495
9638.000000;0.779318
9637.000000;0.779132
9636.000000;0.779102
9635.000000;0.779350
9634.000000;0.779803
9633.000000;0.780200
9632.000000;0.780242
9631.000000;0.779803
9630.000000;0.779021
9629.000000;0.778191
9628.000000;0.777583
9627.000000;0.777339
9626.000000;0.777444
9625.000000;0.777696
9624.000000;0.777804
9623.000000;0.777669
9622.000000;0.777529
9621.000000;0.777648
9620.000000;0.777879
9619.000000;0.777801
9618.000000;0.777344
9617.000000;0.776995
9616.000000;0.777182
9615.000000;0.777737
9614.000000;0.778160
9613.000000;0.778250
9612.000000;0.778195
9611.000000;0.778204
9610.000000;0.778346
9609.000000;0.778632
9608.000000;0.778924
9607.000000;0.778822
9606.000000;0.778003
9605.000000;0.776724
9604.000000;0.775718
9603.000000;0.775524
9602.000000;0.776092
9601.000000;0.776994
9600.000000;0.777780
9599.000000;0.778116
9598.000000;0.777899
9597.000000;0.777387
9596.000000;0.777035
9595.000000;0.777054
9594.000000;0.777210
9593.000000;0.777133
9592.000000;0.776722
9591.000000;0.776199
9590.000000;0.775867
9589.000000;0.775830
9588.000000;0.775878
9587.000000;0.775677
9586.000000;0.775181
9585.000000;0.774776
9584.000000;0.774834
9583.000000;0.775205
9582.000000;0.775372
9581.000000;0.775092
9580.000000;0.774602
9579.000000;0.774172
9578.000000;0.773759
9577.000000;0.773262
9576.000000;0.772849
9575.000000;0.772829
9574.000000;0.773296
9573.000000;0.774034
9572.000000;0.774656
9571.000000;0.774770
9570.000000;0.774201
9569.000000;0.773228
9568.000000;0.772482
9567.000000;0.772394
9566.000000;0.772791
9565.000000;0.773145
9564.000000;0.773163
9563.000000;0.772991
9562.000000;0.772885
9561.000000;0.772872
9560.000000;0.772802
9559.000000;0.772601
9558.000000;0.772348
9557.000000;0.772138
9556.000000;0.771971
9555.000000;0.771827
9554.000000;0.771766
9553.000000;0.771847
9552.000000;0.771945
9551.000000;0.771826
9550.000000;0.771457
9549.000000;0.771120
9548.000000;0.771092
9547.000000;0.771310
9546.000000;0.771501
9545.000000;0.771554
9544.000000;0.771585
9543.000000;0.771667
9542.000000;0.771700
9541.000000;0.771571
9540.000000;0.771278
9539.000000;0.770861
9538.000000;0.770350
9537.000000;0.769839
9536.000000;0.769489
9535.000000;0.769395
9534.000000;0.769511
9533.000000;0.769719
9532.000000;0.769903
9531.000000;0.769948
9530.000000;0.769795
9529.000000;0.769543
9528.000000;0.769415
9527.000000;0.769555
9526.000000;0.769873
9525.000000;0.770132
9524.000000;0.770152
9523.000000;0.769966
9522.000000;0.769782
9521.000000;0.769751
9520.000000;0.769740
9519.000000;0.769429
9518.000000;0.768698
9517.000000;0.767869
9516.000000;0.767433
9515.000000;0.767598
9514.000000;0.768161
9513.000000;0.768737
9512.000000;0.769012
9511.000000;0.768886
9510.000000;0.768574
9509.000000;0.768491
9508.000000;0.768851
9507.000000;0.769374
9506.000000;0.769560
9505.000000;0.769238
9504.000000;0.768683
9503.000000;0.768225
9502.000000;0.767941
9501.000000;0.767770
9500.000000;0.767722
9499.000000;0.767836
9498.000000;0.768061
9497.000000;0.768270
9496.000000;0.768348
9495.000000;0.768232
9494.000000;0.767929
9493.000000;0.767523
9492.000000;0.767117
9491.000000;0.766767
9490.000000;0.766520
9489.000000;0.766469
9488.000000;0.766640
9487.000000;0.766866
9486.000000;0.766918
9485.000000;0.766753
9484.000000;0.766523
9483.000000;0.766329
9482.000000;0.766100
9481.000000;0.765735
9480.000000;0.765243
9479.000000;0.764721
9478.000000;0.764283
9477.000000;0.764042
9476.000000;0.764079
9475.000000;0.764374
9474.000000;0.764816
9473.000000;0.765268
9472.000000;0.765605
9471.000000;0.765731
9470.000000;0.765639
9469.000000;0.765426
9468.000000;0.765190
9467.000000;0.764951
9466.000000;0.764722
9465.000000;0.764556
9464.000000;0.764450
9463.000000;0.764284
9462.000000;0.763976
9461.000000;0.763601
9460.000000;0.763260
9459.000000;0.762940
9458.000000;0.762638
9457.000000;0.762496
9456.000000;0.762616
9455.000000;0.762845
9454.000000;0.762986
9453.000000;0.763130
9452.000000;0.763502
9451.000000;0.764027
9450.000000;0.764319
9449.000000;0.764160
9448.000000;0.763734
9447.000000;0.763319
9446.000000;0.762973
9445.000000;0.762642
9444.000000;0.762349
9443.000000;0.762129
9442.000000;0.761934
9441.000000;0.761732
9440.000000;0.761630
9439.000000;0.761749
9438.000000;0.762016
9437.000000;0.762174
9436.000000;0.762018
9435.000000;0.761613
9434.000000;0.761290
9433.000000;0.761369
9432.000000;0.761813
9431.000000;0.762215
9430.000000;0.762227
9429.000000;0.761929
9428.000000;0.761663
9427.000000;0.761555
9426.000000;0.761423
9425.000000;0.761127
9424.000000;0.760785
9423.000000;0.760580
9422.000000;0.760517
9421.000000;0.760468
9420.000000;0.760354
9419.000000;0.760200
9418.000000;0.760088
9417.000000;0.760082
9416.000000;0.760137
9415.000000;0.760084
9414.000000;0.759802
9413.000000;0.759416
9412.000000;0.759205
9411.000000;0.759311
9410.000000;0.759626
9409.000000;0.759965
9408.000000;0.760214
9407.000000;0.760280
9406.000000;0.760027
9405.000000;0.759393
9404.000000;0.758547
9403.000000;0.757845
9402.000000;0.757587
9401.000000;0.757791
9400.000000;0.758191
9399.000000;0.758521
9398.000000;0.758774
9397.000000;0.759139
9396.000000;0.759664
9395.000000;0.760157
9394.000000;0.760442
9393.000000;0.760552
9392.000000;0.760553
9391.000000;0.760375
9390.000000;0.759960
9389.000000;0.759435
9388.000000;0.758947
9387.000000;0.758444
9386.000000;0.757853
9385.000000;0.757320
9384.000000;0.757051
9383.000000;0.756989
9382.000000;0.756902
9381.000000;0.756751
9380.000000;0.756691
9379.000000;0.756753
9378.000000;0.756774
9377.000000;0.756680
9376.000000;0.756586
9375.000000;0.756583
9374.000000;0.756630
9373.000000;0.756699
9372.000000;0.756803
9371.000000;0.756832
9370.000000;0.756600
9369.000000;0.756137
9368.000000;0.755738
9367.000000;0.755631
9366.000000;0.755712
9365.000000;0.755700
9364.000000;0.755434
9363.000000;0.754996
9362.000000;0.754640
9361.000000;0.754611
9360.000000;0.754891
9359.000000;0.755147
9358.000000;0.755075
9357.000000;0.754787
9356.000000;0.754657
9355.000000;0.754829
9354.000000;0.755092
9353.000000;0.755248
9352.000000;0.755333
9351.000000;0.755390
9350.000000;0.755266
9349.000000;0.754811
9348.000000;0.754116
9347.000000;0.753433
9346.000000;0.752972
9345.000000;0.752846
9344.000000;0.753083
9343.000000;0.753576
9342.000000;0.754105
9341.000000;0.754457
9340.000000;0.754494
9339.000000;0.754134
9338.000000;0.753430
9337.000000;0.752689
9336.000000;0.752322
9335.000000;0.752487
9334.000000;0.752958
9333.000000;0.753353
9332.000000;0.753413
9331.000000;0.753093
9330.000000;0.752574
9329.000000;0.752216
9328.000000;0.752303
9327.000000;0.752755
9326.000000;0.753212
9325.000000;0.753422
9324.000000;0.753415
9323.000000;0.753293
9322.000000;0.753088
9321.000000;0.752874
9320.000000;0.752792
9319.000000;0.752825
9318.000000;0.752736
9317.000000;0.752348
9316.000000;0.751776
9315.000000;0.751257
9314.000000;0.750873
9313.000000;0.750569
9312.000000;0.750325
9311.000000;0.750166
9310.000000;0.750079
9309.000000;0.750036
9308.000000;0.750083
9307.000000;0.750314
9306.000000;0.750733
9305.000000;0.751179
9304.000000;0.751355
9303.000000;0.751030
9302.000000;0.750296
9301.000000;0.749585
9300.000000;0.749302
9299.000000;0.749445
9298.000000;0.749706
9297.000000;0.749897
9296.000000;0.750066
9295.000000;0.750209
9294.000000;0.750128
9293.000000;0.749697
9292.000000;0.749101
9291.000000;0.748681
9290.000000;0.748629
9289.000000;0.748903
9288.000000;0.749304
9287.000000;0.749569
9286.000000;0.749520
9285.000000;0.749212
9284.000000;0.748851
9283.000000;0.748537
9282.000000;0.748211
9281.000000;0.747853
9280.000000;0.747572
9279.000000;0.747437
9278.000000;0.747388
9277.000000;0.747393
9276.000000;0.747526
9275.000000;0.747781
9274.000000;0.747976
9273.000000;0.747945
9272.000000;0.747736
9271.000000;0.747499
9270.000000;0.747290
9269.000000;0.747086
9268.000000;0.746893
9267.000000;0.746729
9266.000000;0.746607
9265.000000;0.746591
9264.000000;0.746762
9263.000000;0.747066
9262.000000;0.747302
9261.000000;0.747356
9260.000000;0.747332
9259.000000;0.747362
9258.000000;0.747392
9257.000000;0.747286
9256.000000;0.747030
9255.000000;0.746713
9254.000000;0.746380
9253.000000;0.746046
9252.000000;0.745782
9251.000000;0.745653
9250.000000;0.745596
9249.000000;0.745463
9248.000000;0.745180
9247.000000;0.744809
9246.000000;0.744484
9245.000000;0.744345
9244.000000;0.744480
9243.000000;0.744829
9242.000000;0.745199
9241.000000;0.745420
9240.000000;0.745487
9239.000000;0.745483
9238.000000;0.745432
9237.000000;0.745286
9236.000000;0.745021
9235.000000;0.744686
9234.000000;0.744356
9233.000000;0.744100
9232.000000;0.743963
9231.000000;0.743972
9230.000000;0.744130
9229.000000;0.744412
9228.000000;0.744706
9227.000000;0.744795
9226.000000;0.744512
9225.000000;0.743948
9224.000000;0.743416
9223.000000;0.743159
9222.000000;0.743129
9221.000000;0.743104
9220.000000;0.742964
9219.000000;0.742797
9218.000000;0.742775
9217.000000;0.742961
9216.000000;0.743267
9215.000000;0.743555
9214.000000;0.743772
9213.000000;0.743934
9212.000000;0.743987
9211.000000;0.743782
9210.000000;0.743269
9209.000000;0.742620
9208.000000;0.742075
9207.000000;0.741715
9206.000000;0.741482
9205.000000;0.741332
9204.000000;0.741226
9203.000000;0.741035
9202.000000;0.740665
9201.000000;0.740290
9200.000000;0.740249
9199.000000;0.740674
9198.000000;0.741334
9197.000000;0.741880
9196.000000;0.742111
9195.000000;0.741990
9194.000000;0.741578
9193.000000;0.741028
9192.000000;0.740517
9191.000000;0.740124
9190.000000;0.739847
9189.000000;0.739749
9188.000000;0.739917
9187.000000;0.740257
9186.000000;0.740488
9185.000000;0.740442
9184.000000;0.740231
9183.000000;0.740057
9182.000000;0.739993
9181.000000;0.740007
9180.000000;0.740060
9179.000000;0.740062
9178.000000;0.739878
9177.000000;0.739516
9176.000000;0.739194
9175.000000;0.739106
9174.000000;0.739200
9173.000000;0.739287
9172.000000;0.739269
9171.000000;0.739153
9170.000000;0.738946
9169.000000;0.738686
9168.000000;0.738491
9167.000000;0.738446
9166.000000;0.738454
9165.000000;0.738329
9164.000000;0.738029
9163.000000;0.737702
9162.000000;0.737523
9161.000000;0.737556
9160.000000;0.737746
9159.000000;0.737973
9158.000000;0.738124
9157.000000;0.738166
9156.000000;0.738137
9155.000000;0.738035
9154.000000;0.737786
9153.000000;0.737363
9152.000000;0.736888
9151.000000;0.736545
9150.000000;0.736430
9149.000000;0.736492
9148.000000;0.736595
9147.000000;0.736608
9146.000000;0.736512
9145.000000;0.736452
9144.000000;0.736575
9143.000000;0.736790
9142.000000;0.736794
9141.000000;0.736434
9140.000000;0.735947
9139.000000;0.735703
9138.000000;0.735792
9137.000000;0.735979
9136.000000;0.736038
9135.000000;0.735972
9134.000000;0.735899
9133.000000;0.735848
9132.000000;0.735744
9131.000000;0.735511
9130.000000;0.735157
9129.000000;0.734780
9128.000000;0.734535
9127.000000;0.734532
9126.000000;0.734750
9125.000000;0.735036
9124.000000;0.735233
9123.000000;0.735293
9122.000000;0.735264
9121.000000;0.735180
9120.000000;0.735006
9119.000000;0.734703
9118.000000;0.734324
9117.000000;0.734008
9116.000000;0.733838
9115.000000;0.733744
9114.000000;0.733597
9113.000000;0.733381
9112.000000;0.733225
9111.000000;0.733273
9110.000000;0.733531
9109.000000;0.733852
9108.000000;0.734031
9107.000000;0.733948
9106.000000;0.733640
9105.000000;0.733256
9104.000000;0.732928
9103.000000;0.732708
9102.000000;0.732616
9101.000000;0.732664
9100.000000;0.732790
9099.000000;0.732852
9098.000000;0.732768
9097.000000;0.732624
9096.000000;0.732548
9095.000000;0.732519
9094.000000;0.732406
9093.000000;0.732185
9092.000000;0.731978
9091.000000;0.731883
9090.000000;0.731875
9089.000000;0.731886
9088.000000;0.731902
9087.000000;0.731923
9086.000000;0.731922
9085.000000;0.731885
9084.000000;0.731827
9083.000000;0.731732
9082.000000;0.731550
9081.000000;0.731287
9080.000000;0.731047
9079.000000;0.730926
9078.000000;0.730909
9077.000000;0.730903
9076.000000;0.730851
9075.000000;0.730772
9074.000000;0.730710
9073.000000;0.730656
9072.000000;0.730552
9071.000000;0.730363
9070.000000;0.730149
9069.000000;0.730020
9068.000000;0.730006
9067.000000;0.730023
9066.000000;0.729994
9065.000000;0.729929
9064.000000;0.729844
9063.000000;0.729697
9062.000000;0.729499
9061.000000;0.729410
9060.000000;0.729566
9059.000000;0.729836
9058.000000;0.729904
9057.000000;0.729623
9056.000000;0.729174
9055.000000;0.728828
9054.000000;0.728655
9053.000000;0.728526
