Criado como novo conjunto de dados;"2706_e01_daniel.spp","96667.1 Secs"
cm-1;Abs
10000.000000;0.853931
9999.000000;0.854402
9998.000000;0.854875
9997.000000;0.855347
9996.000000;0.855820
9995.000000;0.856295
9994.000000;0.856767
9993.000000;0.857247
9992.000000;0.857712
9991.000000;0.858205
9990.000000;0.858647
9989.000000;0.859267
9988.000000;0.859819
9987.000000;0.859853
9986.000000;0.859617
9985.000000;0.859477
9984.000000;0.859546
9983.000000;0.859646
9982.000000;0.859668
9981.000000;0.859628
9980.000000;0.859535
9979.000000;0.859416
9978.000000;0.859387
9977.000000;0.859505
9976.000000;0.859572
9975.000000;0.859325
9974.000000;0.858817
9973.000000;0.858410
9972.000000;0.858379
9971.000000;0.858695
9970.000000;0.859180
9969.000000;0.859656
9968.000000;0.859910
9967.000000;0.859755
9966.000000;0.859269
9965.000000;0.858793
9964.000000;0.858572
9963.000000;0.858486
9962.000000;0.858250
9961.000000;0.857769
9960.000000;0.857157
9959.000000;0.856551
9958.000000;0.856085
9957.000000;0.855989
9956.000000;0.856465
9955.000000;0.857393
9954.000000;0.858312
9953.000000;0.858808
9952.000000;0.858844
9951.000000;0.858667
9950.000000;0.858468
9949.000000;0.858226
9948.000000;0.857822
9947.000000;0.857206
9946.000000;0.856453
9945.000000;0.855746
9944.000000;0.855320
9943.000000;0.855327
9942.000000;0.855706
9941.000000;0.856179
9940.000000;0.856460
9939.000000;0.856498
9938.000000;0.856504
9937.000000;0.856695
9936.000000;0.857011
9935.000000;0.857134
9934.000000;0.856822
9933.000000;0.856166
9932.000000;0.855438
9931.000000;0.854760
9930.000000;0.854094
9929.000000;0.853549
9928.000000;0.853427
9927.000000;0.853849
9926.000000;0.854490
9925.000000;0.854942
9924.000000;0.855228
9923.000000;0.855705
9922.000000;0.856466
9921.000000;0.857105
9920.000000;0.857173
9919.000000;0.856663
9918.000000;0.855931
9917.000000;0.855299
9916.000000;0.854872
9915.000000;0.854594
9914.000000;0.854327
9913.000000;0.853990
9912.000000;0.853716
9911.000000;0.853773
9910.000000;0.854201
9909.000000;0.854652
9908.000000;0.854729
9907.000000;0.854398
9906.000000;0.853925
9905.000000;0.853532
9904.000000;0.853300
9903.000000;0.853270
9902.000000;0.853352
9901.000000;0.853197
9900.000000;0.852499
9899.000000;0.851513
9898.000000;0.850983
9897.000000;0.851392
9896.000000;0.852422
9895.000000;0.853318
9894.000000;0.853657
9893.000000;0.853637
9892.000000;0.853683
9891.000000;0.853964
9890.000000;0.854281
9889.000000;0.854324
9888.000000;0.853993
9887.000000;0.853511
9886.000000;0.853229
9885.000000;0.853290
9884.000000;0.853514
9883.000000;0.853595
9882.000000;0.853386
9881.000000;0.852976
9880.000000;0.852520
9879.000000;0.852071
9878.000000;0.851571
9877.000000;0.851004
9876.000000;0.850509
9875.000000;0.850304
9874.000000;0.850444
9873.000000;0.850737
9872.000000;0.850981
9871.000000;0.851202
9870.000000;0.851523
9869.000000;0.851874
9868.000000;0.852021
9867.000000;0.851875
9866.000000;0.851573
9865.000000;0.851195
9864.000000;0.850624
9863.000000;0.849875
9862.000000;0.849327
9861.000000;0.849403
9860.000000;0.850044
9859.000000;0.850720
9858.000000;0.850969
9857.000000;0.850757
9856.000000;0.850314
9855.000000;0.849829
9854.000000;0.849436
9853.000000;0.849321
9852.000000;0.849597
9851.000000;0.850088
9850.000000;0.850410
9849.000000;0.850337
9848.000000;0.850033
9847.000000;0.849846
9846.000000;0.849914
9845.000000;0.850075
9844.000000;0.850149
9843.000000;0.850161
9842.000000;0.850233
9841.000000;0.850315
9840.000000;0.850177
9839.000000;0.849706
9838.000000;0.849084
9837.000000;0.848612
9836.000000;0.848372
9835.000000;0.848152
9834.000000;0.847739
9833.000000;0.847229
9832.000000;0.846996
9831.000000;0.847291
9830.000000;0.847896
9829.000000;0.848246
9828.000000;0.847972
9827.000000;0.847288
9826.000000;0.846785
9825.000000;0.846845
9824.000000;0.847333
9823.000000;0.847818
9822.000000;0.848012
9821.000000;0.847967
9820.000000;0.847907
9819.000000;0.847913
9818.000000;0.847778
9817.000000;0.847208
9816.000000;0.846215
9815.000000;0.845247
9814.000000;0.844780
9813.000000;0.844796
9812.000000;0.844814
9811.000000;0.844517
9810.000000;0.844185
9809.000000;0.844339
9808.000000;0.845060
9807.000000;0.845835
9806.000000;0.846112
9805.000000;0.845816
9804.000000;0.845290
9803.000000;0.844886
9802.000000;0.844749
9801.000000;0.844931
9800.000000;0.845467
9799.000000;0.846246
9798.000000;0.846909
9797.000000;0.847033
9796.000000;0.846487
9795.000000;0.845579
9794.000000;0.844802
9793.000000;0.844469
9792.000000;0.844553
9791.000000;0.844837
9790.000000;0.845124
9789.000000;0.845304
9788.000000;0.845283
9787.000000;0.844954
9786.000000;0.844325
9785.000000;0.843659
9784.000000;0.843368
9783.000000;0.843661
9782.000000;0.844287
9781.000000;0.844745
9780.000000;0.844794
9779.000000;0.844665
9778.000000;0.844698
9777.000000;0.844874
9776.000000;0.844826
9775.000000;0.844302
9774.000000;0.843466
9773.000000;0.842718
9772.000000;0.842314
9771.000000;0.842244
9770.000000;0.842426
9769.000000;0.842879
9768.000000;0.843639
9767.000000;0.844508
9766.000000;0.845014
9765.000000;0.844775
9764.000000;0.843926
9763.000000;0.843072
9762.000000;0.842757
9761.000000;0.843018
9760.000000;0.843518
9759.000000;0.843944
9758.000000;0.844152
9757.000000;0.844046
9756.000000;0.843596
9755.000000;0.843007
9754.000000;0.842660
9753.000000;0.842744
9752.000000;0.843035
9751.000000;0.843133
9750.000000;0.842832
9749.000000;0.842240
9748.000000;0.841622
9747.000000;0.841202
9746.000000;0.841028
9745.000000;0.840921
9744.000000;0.840645
9743.000000;0.840217
9742.000000;0.839989
9741.000000;0.840319
9740.000000;0.841179
9739.000000;0.842139
9738.000000;0.842714
9737.000000;0.842683
9736.000000;0.842142
9735.000000;0.841378
9734.000000;0.840704
9733.000000;0.840287
9732.000000;0.840076
9731.000000;0.839921
9730.000000;0.839782
9729.000000;0.839802
9728.000000;0.840115
9727.000000;0.840621
9726.000000;0.841002
9725.000000;0.841034
9724.000000;0.840857
9723.000000;0.840827
9722.000000;0.841060
9721.000000;0.841229
9720.000000;0.840946
9719.000000;0.840305
9718.000000;0.839848
9717.000000;0.839977
9716.000000;0.840520
9715.000000;0.840952
9714.000000;0.840918
9713.000000;0.840463
9712.000000;0.839842
9711.000000;0.839291
9710.000000;0.838930
9709.000000;0.838763
9708.000000;0.838709
9707.000000;0.838694
9706.000000;0.838714
9705.000000;0.838774
9704.000000;0.838825
9703.000000;0.838779
9702.000000;0.838586
9701.000000;0.838285
9700.000000;0.838036
9699.000000;0.838077
9698.000000;0.838519
9697.000000;0.839136
9696.000000;0.839464
9695.000000;0.839250
9694.000000;0.838706
9693.000000;0.838271
9692.000000;0.838187
9691.000000;0.838429
9690.000000;0.838854
9689.000000;0.839260
9688.000000;0.839375
9687.000000;0.839064
9686.000000;0.838541
9685.000000;0.838168
9684.000000;0.837993
9683.000000;0.837717
9682.000000;0.837172
9681.000000;0.836624
9680.000000;0.836439
9679.000000;0.836613
9678.000000;0.836800
9677.000000;0.836742
9676.000000;0.836503
9675.000000;0.836314
9674.000000;0.836332
9673.000000;0.836563
9672.000000;0.836900
9671.000000;0.837170
9670.000000;0.837214
9669.000000;0.836962
9668.000000;0.836449
9667.000000;0.835797
9666.000000;0.835192
9665.000000;0.834843
9664.000000;0.834873
9663.000000;0.835239
9662.000000;0.835755
9661.000000;0.836201
9660.000000;0.836427
9659.000000;0.836393
9658.000000;0.836177
9657.000000;0.835920
9656.000000;0.835742
9655.000000;0.835701
9654.000000;0.835805
9653.000000;0.836018
9652.000000;0.836241
9651.000000;0.836328
9650.000000;0.836157
9649.000000;0.835681
9648.000000;0.834947
9647.000000;0.834143
9646.000000;0.833606
9645.000000;0.833609
9644.000000;0.834058
9643.000000;0.834497
9642.000000;0.834551
9641.000000;0.834321
9640.000000;0.834223
9639.000000;0.834471
9638.000000;0.834866
9637.000000;0.835043
9636.000000;0.834815
9635.000000;0.834276
9634.000000;0.833719
9633.000000;0.833485
9632.000000;0.833724
9631.000000;0.834219
9630.000000;0.834544
9629.000000;0.834482
9628.000000;0.834197
9627.000000;0.833953
9626.000000;0.833772
9625.000000;0.833511
9624.000000;0.833162
9623.000000;0.832878
9622.000000;0.832736
9621.000000;0.832645
9620.000000;0.832538
9619.000000;0.832508
9618.000000;0.832652
9617.000000;0.832887
9616.000000;0.832995
9615.000000;0.832854
9614.000000;0.832562
9613.000000;0.832366
9612.000000;0.832459
9611.000000;0.832784
9610.000000;0.832977
9609.000000;0.832612
9608.000000;0.831624
9607.000000;0.830492
9606.000000;0.829877
9605.000000;0.830054
9604.000000;0.830709
9603.000000;0.831287
9602.000000;0.831492
9601.000000;0.831422
9600.000000;0.831303
9599.000000;0.831219
9598.000000;0.831112
9597.000000;0.830985
9596.000000;0.830960
9595.000000;0.831108
9594.000000;0.831273
9593.000000;0.831206
9592.000000;0.830864
9591.000000;0.830512
9590.000000;0.830464
9589.000000;0.830805
9588.000000;0.831420
9587.000000;0.832176
9586.000000;0.832908
9585.000000;0.833281
9584.000000;0.832945
9583.000000;0.831949
9582.000000;0.830862
9581.000000;0.830277
9580.000000;0.830226
9579.000000;0.830235
9578.000000;0.829940
9577.000000;0.829470
9576.000000;0.829186
9575.000000;0.829212
9574.000000;0.829368
9573.000000;0.829474
9572.000000;0.829556
9571.000000;0.829729
9570.000000;0.829995
9569.000000;0.830225
9568.000000;0.830279
9567.000000;0.830109
9566.000000;0.829774
9565.000000;0.829381
9564.000000;0.829000
9563.000000;0.828648
9562.000000;0.828363
9561.000000;0.828276
9560.000000;0.828507
9559.000000;0.828971
9558.000000;0.829370
9557.000000;0.829469
9556.000000;0.829347
9555.000000;0.829280
9554.000000;0.829377
9553.000000;0.829431
9552.000000;0.829187
9551.000000;0.828678
9550.000000;0.828205
9549.000000;0.828017
9548.000000;0.828088
9547.000000;0.828235
9546.000000;0.828357
9545.000000;0.828497
9544.000000;0.828699
9543.000000;0.828887
9542.000000;0.828913
9541.000000;0.828700
9540.000000;0.828305
9539.000000;0.827882
9538.000000;0.827588
9537.000000;0.827507
9536.000000;0.827602
9535.000000;0.827715
9534.000000;0.827658
9533.000000;0.827361
9532.000000;0.826956
9531.000000;0.826705
9530.000000;0.826777
9529.000000;0.827084
9528.000000;0.827345
9527.000000;0.827337
9526.000000;0.827077
9525.000000;0.826742
9524.000000;0.826460
9523.000000;0.826251
9522.000000;0.826146
9521.000000;0.826249
9520.000000;0.826584
9519.000000;0.826942
9518.000000;0.827011
9517.000000;0.826682
9516.000000;0.826193
9515.000000;0.825879
9514.000000;0.825815
9513.000000;0.825757
9512.000000;0.825484
9511.000000;0.825144
9510.000000;0.825148
9509.000000;0.825679
9508.000000;0.826390
9507.000000;0.826738
9506.000000;0.826601
9505.000000;0.826375
9504.000000;0.826405
9503.000000;0.826540
9502.000000;0.826398
9501.000000;0.825918
9500.000000;0.825412
9499.000000;0.825111
9498.000000;0.824956
9497.000000;0.824851
9496.000000;0.824848
9495.000000;0.824952
9494.000000;0.824938
9493.000000;0.824583
9492.000000;0.823990
9491.000000;0.823501
9490.000000;0.823335
9489.000000;0.823435
9488.000000;0.823634
9487.000000;0.823840
9486.000000;0.824046
9485.000000;0.824267
9484.000000;0.824480
9483.000000;0.824592
9482.000000;0.824502
9481.000000;0.824252
9480.000000;0.824064
9479.000000;0.824103
9478.000000;0.824264
9477.000000;0.824256
9476.000000;0.823921
9475.000000;0.823369
9474.000000;0.822858
9473.000000;0.822603
9472.000000;0.822679
9471.000000;0.822981
9470.000000;0.823299
9469.000000;0.823486
9468.000000;0.823533
9467.000000;0.823436
9466.000000;0.823111
9465.000000;0.822588
9464.000000;0.822175
9463.000000;0.822177
9462.000000;0.822465
9461.000000;0.822567
9460.000000;0.822264
9459.000000;0.821869
9458.000000;0.821809
9457.000000;0.822102
9456.000000;0.822408
9455.000000;0.822463
9454.000000;0.822287
9453.000000;0.822050
9452.000000;0.821885
9451.000000;0.821831
9450.000000;0.821831
9449.000000;0.821789
9448.000000;0.821676
9447.000000;0.821564
9446.000000;0.821522
9445.000000;0.821519
9444.000000;0.821482
9443.000000;0.821365
9442.000000;0.821159
9441.000000;0.820900
9440.000000;0.820734
9439.000000;0.820848
9438.000000;0.821229
9437.000000;0.821579
9436.000000;0.821550
9435.000000;0.821042
9434.000000;0.820241
9433.000000;0.819458
9432.000000;0.819006
9431.000000;0.819072
9430.000000;0.819531
9429.000000;0.819980
9428.000000;0.820110
9427.000000;0.820019
9426.000000;0.820001
9425.000000;0.820112
9424.000000;0.820148
9423.000000;0.820035
9422.000000;0.819967
9421.000000;0.820109
9420.000000;0.820335
9419.000000;0.820391
9418.000000;0.820167
9417.000000;0.819733
9416.000000;0.819243
9415.000000;0.818893
9414.000000;0.818834
9413.000000;0.818996
9412.000000;0.819087
9411.000000;0.818900
9410.000000;0.818553
9409.000000;0.818325
9408.000000;0.818332
9407.000000;0.818490
9406.000000;0.818687
9405.000000;0.818830
9404.000000;0.818774
9403.000000;0.818417
9402.000000;0.817892
9401.000000;0.817504
9400.000000;0.817409
9399.000000;0.817477
9398.000000;0.817525
9397.000000;0.817531
9396.000000;0.817569
9395.000000;0.817653
9394.000000;0.817793
9393.000000;0.818088
9392.000000;0.818573
9391.000000;0.819031
9390.000000;0.819120
9389.000000;0.818737
9388.000000;0.818107
9387.000000;0.817510
9386.000000;0.817057
9385.000000;0.816784
9384.000000;0.816767
9383.000000;0.816970
9382.000000;0.817090
9381.000000;0.816773
9380.000000;0.816022
9379.000000;0.815276
9378.000000;0.815003
9377.000000;0.815274
9376.000000;0.815761
9375.000000;0.816079
9374.000000;0.816104
9373.000000;0.815996
9372.000000;0.815994
9371.000000;0.816183
9370.000000;0.816444
9369.000000;0.816609
9368.000000;0.816628
9367.000000;0.816581
9366.000000;0.816546
9365.000000;0.816513
9364.000000;0.816398
9363.000000;0.816127
9362.000000;0.815740
9361.000000;0.815450
9360.000000;0.815513
9359.000000;0.815936
9358.000000;0.816354
9357.000000;0.816372
9356.000000;0.815999
9355.000000;0.815571
9354.000000;0.815253
9353.000000;0.814880
9352.000000;0.814379
9351.000000;0.814063
9350.000000;0.814245
9349.000000;0.814708
9348.000000;0.814896
9347.000000;0.814622
9346.000000;0.814277
9345.000000;0.814262
9344.000000;0.814484
9343.000000;0.814584
9342.000000;0.814446
9341.000000;0.814247
9340.000000;0.814121
9339.000000;0.814006
9338.000000;0.813848
9337.000000;0.813725
9336.000000;0.813720
9335.000000;0.813781
9334.000000;0.813812
9333.000000;0.813822
9332.000000;0.813881
9331.000000;0.813975
9330.000000;0.813996
9329.000000;0.813890
9328.000000;0.813756
9327.000000;0.813735
9326.000000;0.813849
9325.000000;0.813958
9324.000000;0.813896
9323.000000;0.813640
9322.000000;0.813313
9321.000000;0.813058
9320.000000;0.812920
9319.000000;0.812871
9318.000000;0.812902
9317.000000;0.813032
9316.000000;0.813193
9315.000000;0.813208
9314.000000;0.812951
9313.000000;0.812541
9312.000000;0.812277
9311.000000;0.812356
9310.000000;0.812713
9309.000000;0.813131
9308.000000;0.813438
9307.000000;0.813524
9306.000000;0.813307
9305.000000;0.812823
9304.000000;0.812338
9303.000000;0.812191
9302.000000;0.812468
9301.000000;0.812909
9300.000000;0.813181
9299.000000;0.813163
9298.000000;0.812926
9297.000000;0.812542
9296.000000;0.812044
9295.000000;0.811526
9294.000000;0.811132
9293.000000;0.810933
9292.000000;0.810866
9291.000000;0.810836
9290.000000;0.810827
9289.000000;0.810908
9288.000000;0.811133
9287.000000;0.811428
9286.000000;0.811591
9285.000000;0.811465
9284.000000;0.811137
9283.000000;0.810880
9282.000000;0.810852
9281.000000;0.810922
9280.000000;0.810887
9279.000000;0.810768
9278.000000;0.810748
9277.000000;0.810862
9276.000000;0.810938
9275.000000;0.810854
9274.000000;0.810694
9273.000000;0.810578
9272.000000;0.810476
9271.000000;0.810314
9270.000000;0.810130
9269.000000;0.809999
9268.000000;0.809880
9267.000000;0.809681
9266.000000;0.809454
9265.000000;0.809385
9264.000000;0.809570
9263.000000;0.809879
9262.000000;0.810071
9261.000000;0.810000
9260.000000;0.809687
9259.000000;0.809287
9258.000000;0.808990
9257.000000;0.808881
9256.000000;0.808867
9255.000000;0.808780
9254.000000;0.808595
9253.000000;0.808467
9252.000000;0.808531
9251.000000;0.808736
9250.000000;0.808915
9249.000000;0.808959
9248.000000;0.808858
9247.000000;0.808638
9246.000000;0.808370
9245.000000;0.808216
9244.000000;0.808316
9243.000000;0.808588
9242.000000;0.808771
9241.000000;0.808732
9240.000000;0.808653
9239.000000;0.808795
9238.000000;0.809118
9237.000000;0.809262
9236.000000;0.808948
9235.000000;0.808303
9234.000000;0.807719
9233.000000;0.807470
9232.000000;0.807547
9231.000000;0.807799
9230.000000;0.808097
9229.000000;0.808315
9228.000000;0.808276
9227.000000;0.807859
9226.000000;0.807198
9225.000000;0.806673
9224.000000;0.806609
9223.000000;0.806966
9222.000000;0.807367
9221.000000;0.807437
9220.000000;0.807093
9219.000000;0.806536
9218.000000;0.806034
9217.000000;0.805754
9216.000000;0.805739
9215.000000;0.805943
9214.000000;0.806265
9213.000000;0.806574
9212.000000;0.806749
9211.000000;0.806696
9210.000000;0.806372
9209.000000;0.805823
9208.000000;0.805203
9207.000000;0.804714
9206.000000;0.804491
9205.000000;0.804549
9204.000000;0.804796
9203.000000;0.805096
9202.000000;0.805337
9201.000000;0.805476
9200.000000;0.805524
9199.000000;0.805478
9198.000000;0.805307
9197.000000;0.805036
9196.000000;0.804779
9195.000000;0.804630
9194.000000;0.804544
9193.000000;0.804409
9192.000000;0.804234
9191.000000;0.804154
9190.000000;0.804237
9189.000000;0.804382
9188.000000;0.804463
9187.000000;0.804492
9186.000000;0.804577
9185.000000;0.804752
9184.000000;0.804918
9183.000000;0.804937
9182.000000;0.804751
9181.000000;0.804468
9180.000000;0.804320
9179.000000;0.804477
9178.000000;0.804834
9177.000000;0.805049
9176.000000;0.804884
9175.000000;0.804459
9174.000000;0.804098
9173.000000;0.803983
9172.000000;0.804046
9171.000000;0.804161
9170.000000;0.804290
9169.000000;0.804433
9168.000000;0.804551
9167.000000;0.804595
9166.000000;0.804550
9165.000000;0.804407
9164.000000;0.804190
9163.000000;0.804009
9162.000000;0.803999
9161.000000;0.804155
9160.000000;0.804277
9159.000000;0.804177
9158.000000;0.803857
9157.000000;0.803457
9156.000000;0.803080
9155.000000;0.802772
9154.000000;0.802591
9153.000000;0.802581
9152.000000;0.802672
9151.000000;0.802728
9150.000000;0.802709
9149.000000;0.802699
9148.000000;0.802739
9147.000000;0.802738
9146.000000;0.802619
9145.000000;0.802466
9144.000000;0.802441
9143.000000;0.802564
9142.000000;0.802669
9141.000000;0.802580
9140.000000;0.802283
9139.000000;0.801948
9138.000000;0.801806
9137.000000;0.801953
9136.000000;0.802213
9135.000000;0.802260
9134.000000;0.801947
9133.000000;0.801508
9132.000000;0.801308
9131.000000;0.801414
9130.000000;0.801536
9129.000000;0.801424
9128.000000;0.801179
9127.000000;0.801079
9126.000000;0.801226
9125.000000;0.801494
9124.000000;0.801732
9123.000000;0.801850
9122.000000;0.801756
9121.000000;0.801396
9120.000000;0.800914
9119.000000;0.800604
9118.000000;0.800627
9117.000000;0.800826
9116.000000;0.800899
9115.000000;0.800709
9114.000000;0.800377
9113.000000;0.800117
9112.000000;0.800044
9111.000000;0.800123
9110.000000;0.800241
9109.000000;0.800323
9108.000000;0.800371
9107.000000;0.800404
9106.000000;0.800384
9105.000000;0.800266
9104.000000;0.800092
9103.000000;0.799968
9102.000000;0.799932
9101.000000;0.799914
9100.000000;0.799855
9099.000000;0.799789
9098.000000;0.799754
9097.000000;0.799694
9096.000000;0.799516
9095.000000;0.799228
9094.000000;0.798962
9093.000000;0.798831
9092.000000;0.798798
9091.000000;0.798711
9090.000000;0.798487
9089.000000;0.798262
9088.000000;0.798289
9087.000000;0.798653
9086.000000;0.799113
9085.000000;0.799308
9084.000000;0.799105
9083.000000;0.798682
9082.000000;0.798310
9081.000000;0.798160
9080.000000;0.798284
9079.000000;0.798619
9078.000000;0.798956
9077.000000;0.799054
9076.000000;0.798893
9075.000000;0.798714
9074.000000;0.798703
9073.000000;0.798738
9072.000000;0.798553
9071.000000;0.798085
9070.000000;0.797525
9069.000000;0.797087
9068.000000;0.796848
9067.000000;0.796794
9066.000000;0.796875
9065.000000;0.797022
9064.000000;0.797169
9063.000000;0.797310
9062.000000;0.797454
9061.000000;0.797564
9060.000000;0.797578
9059.000000;0.797500
9058.000000;0.797396
9057.000000;0.797310
9056.000000;0.797230
9055.000000;0.797121
9054.000000;0.796939
9053.000000;0.796653
