Criado como novo conjunto de dados;"2706_e01_daniel.spp","7562.4 Secs"
cm-1;Abs
10000.000000;0.839843
9999.000000;0.840664
9998.000000;0.841785
9997.000000;0.842801
9996.000000;0.843330
9995.000000;0.843308
9994.000000;0.842682
9993.000000;0.841436
9992.000000;0.839729
9991.000000;0.838168
9990.000000;0.837401
9989.000000;0.837520
9988.000000;0.838014
9987.000000;0.838414
9986.000000;0.838743
9985.000000;0.839192
9984.000000;0.839635
9983.000000;0.839738
9982.000000;0.839444
9981.000000;0.839071
9980.000000;0.838939
9979.000000;0.839106
9978.000000;0.839481
9977.000000;0.839966
9976.000000;0.840441
9975.000000;0.840766
9974.000000;0.840902
9973.000000;0.840911
9972.000000;0.840776
9971.000000;0.840340
9970.000000;0.839571
9969.000000;0.838797
9968.000000;0.838484
9967.000000;0.838751
9966.000000;0.839216
9965.000000;0.839386
9964.000000;0.839131
9963.000000;0.838701
9962.000000;0.838372
9961.000000;0.838205
9960.000000;0.838157
9959.000000;0.838272
9958.000000;0.838651
9957.000000;0.839285
9956.000000;0.839979
9955.000000;0.840442
9954.000000;0.840420
9953.000000;0.839839
9952.000000;0.838938
9951.000000;0.838193
9950.000000;0.837950
9949.000000;0.838087
9948.000000;0.838177
9947.000000;0.837989
9946.000000;0.837715
9945.000000;0.837624
9944.000000;0.837690
9943.000000;0.837696
9942.000000;0.837594
9941.000000;0.837543
9940.000000;0.837609
9939.000000;0.837592
9938.000000;0.837277
9937.000000;0.836766
9936.000000;0.836450
9935.000000;0.836632
9934.000000;0.837200
9933.000000;0.837739
9932.000000;0.837974
9931.000000;0.838047
9930.000000;0.838269
9929.000000;0.838676
9928.000000;0.838984
9927.000000;0.838972
9926.000000;0.838706
9925.000000;0.838340
9924.000000;0.837898
9923.000000;0.837420
9922.000000;0.837110
9921.000000;0.837117
9920.000000;0.837271
9919.000000;0.837248
9918.000000;0.836953
9917.000000;0.836527
9916.000000;0.836050
9915.000000;0.835492
9914.000000;0.834954
9913.000000;0.834694
9912.000000;0.834838
9911.000000;0.835276
9910.000000;0.835871
9909.000000;0.836521
9908.000000;0.836953
9907.000000;0.836788
9906.000000;0.836023
9905.000000;0.835210
9904.000000;0.834877
9903.000000;0.834905
9902.000000;0.834749
9901.000000;0.834206
9900.000000;0.833672
9899.000000;0.833648
9898.000000;0.834236
9897.000000;0.835175
9896.000000;0.836138
9895.000000;0.836840
9894.000000;0.837019
9893.000000;0.836548
9892.000000;0.835631
9891.000000;0.834790
9890.000000;0.834512
9889.000000;0.834833
9888.000000;0.835272
9887.000000;0.835308
9886.000000;0.834934
9885.000000;0.834659
9884.000000;0.834886
9883.000000;0.835449
9882.000000;0.835860
9881.000000;0.835879
9880.000000;0.835666
9879.000000;0.835447
9878.000000;0.835289
9877.000000;0.835201
9876.000000;0.835218
9875.000000;0.835334
9874.000000;0.835514
9873.000000;0.835808
9872.000000;0.836258
9871.000000;0.836643
9870.000000;0.836543
9869.000000;0.835808
9868.000000;0.834781
9867.000000;0.833930
9866.000000;0.833398
9865.000000;0.833080
9864.000000;0.832978
9863.000000;0.833221
9862.000000;0.833773
9861.000000;0.834332
9860.000000;0.834615
9859.000000;0.834607
9858.000000;0.834472
9857.000000;0.834313
9856.000000;0.834096
9855.000000;0.833757
9854.000000;0.833323
9853.000000;0.832905
9852.000000;0.832562
9851.000000;0.832222
9850.000000;0.831811
9849.000000;0.831466
9848.000000;0.831504
9847.000000;0.832102
9846.000000;0.833072
9845.000000;0.834013
9844.000000;0.834644
9843.000000;0.834921
9842.000000;0.834909
9841.000000;0.834657
9840.000000;0.834177
9839.000000;0.833501
9838.000000;0.832764
9837.000000;0.832259
9836.000000;0.832279
9835.000000;0.832812
9834.000000;0.833461
9833.000000;0.833793
9832.000000;0.833680
9831.000000;0.833236
9830.000000;0.832577
9829.000000;0.831869
9828.000000;0.831458
9827.000000;0.831626
9826.000000;0.832197
9825.000000;0.832661
9824.000000;0.832766
9823.000000;0.832741
9822.000000;0.832867
9821.000000;0.833104
9820.000000;0.833264
9819.000000;0.833332
9818.000000;0.833432
9817.000000;0.833600
9816.000000;0.833779
9815.000000;0.833901
9814.000000;0.833834
9813.000000;0.833416
9812.000000;0.832759
9811.000000;0.832372
9810.000000;0.832696
9809.000000;0.833542
9808.000000;0.834225
9807.000000;0.834245
9806.000000;0.833668
9805.000000;0.832864
9804.000000;0.832145
9803.000000;0.831682
9802.000000;0.831540
9801.000000;0.831641
9800.000000;0.831819
9799.000000;0.832007
9798.000000;0.832234
9797.000000;0.832407
9796.000000;0.832259
9795.000000;0.831657
9794.000000;0.830839
9793.000000;0.830203
9792.000000;0.829936
9791.000000;0.829921
9790.000000;0.829965
9789.000000;0.829973
9788.000000;0.829939
9787.000000;0.829880
9786.000000;0.829850
9785.000000;0.829972
9784.000000;0.830406
9783.000000;0.831200
9782.000000;0.832098
9781.000000;0.832539
9780.000000;0.832024
9779.000000;0.830633
9778.000000;0.829116
9777.000000;0.828373
9776.000000;0.828781
9775.000000;0.829966
9774.000000;0.831122
9773.000000;0.831559
9772.000000;0.831120
9771.000000;0.830218
9770.000000;0.829467
9769.000000;0.829196
9768.000000;0.829311
9767.000000;0.829589
9766.000000;0.830007
9765.000000;0.830653
9764.000000;0.831415
9763.000000;0.831953
9762.000000;0.832013
9761.000000;0.831672
9760.000000;0.831212
9759.000000;0.830860
9758.000000;0.830695
9757.000000;0.830717
9756.000000;0.830878
9755.000000;0.831059
9754.000000;0.831110
9753.000000;0.830946
9752.000000;0.830595
9751.000000;0.830153
9750.000000;0.829726
9749.000000;0.829405
9748.000000;0.829258
9747.000000;0.829244
9746.000000;0.829170
9745.000000;0.828823
9744.000000;0.828230
9743.000000;0.827751
9742.000000;0.827795
9741.000000;0.828410
9740.000000;0.829204
9739.000000;0.829679
9738.000000;0.829604
9737.000000;0.829074
9736.000000;0.828352
9735.000000;0.827724
9734.000000;0.827393
9733.000000;0.827367
9732.000000;0.827476
9731.000000;0.827564
9730.000000;0.827643
9729.000000;0.827806
9728.000000;0.828039
9727.000000;0.828241
9726.000000;0.828385
9725.000000;0.828504
9724.000000;0.828518
9723.000000;0.828257
9722.000000;0.827749
9721.000000;0.827357
9720.000000;0.827485
9719.000000;0.828152
9718.000000;0.828927
9717.000000;0.829306
9716.000000;0.829129
9715.000000;0.828672
9714.000000;0.828376
9713.000000;0.828461
9712.000000;0.828767
9711.000000;0.828972
9710.000000;0.828947
9709.000000;0.828857
9708.000000;0.828904
9707.000000;0.829094
9706.000000;0.829296
9705.000000;0.829406
9704.000000;0.829333
9703.000000;0.828916
9702.000000;0.828082
9701.000000;0.827110
9700.000000;0.826532
9699.000000;0.826636
9698.000000;0.827137
9697.000000;0.827478
9696.000000;0.827417
9695.000000;0.827194
9694.000000;0.827106
9693.000000;0.827111
9692.000000;0.826946
9691.000000;0.826540
9690.000000;0.826118
9689.000000;0.825886
9688.000000;0.825789
9687.000000;0.825686
9686.000000;0.825629
9685.000000;0.825818
9684.000000;0.826277
9683.000000;0.826736
9682.000000;0.826908
9681.000000;0.826798
9680.000000;0.826670
9679.000000;0.826731
9678.000000;0.826933
9677.000000;0.827068
9676.000000;0.827010
9675.000000;0.826851
9674.000000;0.826820
9673.000000;0.827073
9672.000000;0.827508
9671.000000;0.827804
9670.000000;0.827680
9669.000000;0.827142
9668.000000;0.826468
9667.000000;0.825940
9666.000000;0.825613
9665.000000;0.825352
9664.000000;0.825072
9663.000000;0.824873
9662.000000;0.824912
9661.000000;0.825174
9660.000000;0.825473
9659.000000;0.825707
9658.000000;0.826018
9657.000000;0.826586
9656.000000;0.827282
9655.000000;0.827678
9654.000000;0.827450
9653.000000;0.826716
9652.000000;0.825938
9651.000000;0.825525
9650.000000;0.825562
9649.000000;0.825829
9648.000000;0.826014
9647.000000;0.825958
9646.000000;0.825743
9645.000000;0.825548
9644.000000;0.825437
9643.000000;0.825372
9642.000000;0.825394
9641.000000;0.825622
9640.000000;0.826017
9639.000000;0.826345
9638.000000;0.826471
9637.000000;0.826535
9636.000000;0.826660
9635.000000;0.826647
9634.000000;0.826216
9633.000000;0.825477
9632.000000;0.824897
9631.000000;0.824777
9630.000000;0.824990
9629.000000;0.825260
9628.000000;0.825458
9627.000000;0.825559
9626.000000;0.825534
9625.000000;0.825408
9624.000000;0.825264
9623.000000;0.825069
9622.000000;0.824688
9621.000000;0.824182
9620.000000;0.823891
9619.000000;0.824045
9618.000000;0.824444
9617.000000;0.824695
9616.000000;0.824662
9615.000000;0.824471
9614.000000;0.824222
9613.000000;0.823955
9612.000000;0.823831
9611.000000;0.824051
9610.000000;0.824540
9609.000000;0.824931
9608.000000;0.824949
9607.000000;0.824683
9606.000000;0.824451
9605.000000;0.824495
9604.000000;0.824805
9603.000000;0.825110
9602.000000;0.825061
9601.000000;0.824592
9600.000000;0.824106
9599.000000;0.824107
9598.000000;0.824593
9597.000000;0.825035
9596.000000;0.825026
9595.000000;0.824756
9594.000000;0.824704
9593.000000;0.825048
9592.000000;0.825551
9591.000000;0.825907
9590.000000;0.825993
9589.000000;0.825830
9588.000000;0.825479
9587.000000;0.825013
9586.000000;0.824508
9585.000000;0.824060
9584.000000;0.823796
9583.000000;0.823790
9582.000000;0.823919
9581.000000;0.823933
9580.000000;0.823762
9579.000000;0.823637
9578.000000;0.823767
9577.000000;0.824020
9576.000000;0.824101
9575.000000;0.823969
9574.000000;0.823855
9573.000000;0.823872
9572.000000;0.823851
9571.000000;0.823614
9570.000000;0.823228
9569.000000;0.822893
9568.000000;0.822712
9567.000000;0.822648
9566.000000;0.822619
9565.000000;0.822554
9564.000000;0.822454
9563.000000;0.822471
9562.000000;0.822815
9561.000000;0.823481
9560.000000;0.824144
9559.000000;0.824432
9558.000000;0.824288
9557.000000;0.823961
9556.000000;0.823675
9555.000000;0.823437
9554.000000;0.823196
9553.000000;0.823031
9552.000000;0.823084
9551.000000;0.823328
9550.000000;0.823493
9549.000000;0.823290
9548.000000;0.822723
9547.000000;0.822125
9546.000000;0.821881
9545.000000;0.822101
9544.000000;0.822585
9543.000000;0.823058
9542.000000;0.823365
9541.000000;0.823452
9540.000000;0.823290
9539.000000;0.822910
9538.000000;0.822465
9537.000000;0.822142
9536.000000;0.821982
9535.000000;0.821855
9534.000000;0.821662
9533.000000;0.821492
9532.000000;0.821533
9531.000000;0.821812
9530.000000;0.822123
9529.000000;0.822238
9528.000000;0.822173
9527.000000;0.822176
9526.000000;0.822429
9525.000000;0.822821
9524.000000;0.823075
9523.000000;0.823047
9522.000000;0.822853
9521.000000;0.822673
9520.000000;0.822515
9519.000000;0.822222
9518.000000;0.821711
9517.000000;0.821139
9516.000000;0.820801
9515.000000;0.820854
9514.000000;0.821157
9513.000000;0.821393
9512.000000;0.821356
9511.000000;0.821101
9510.000000;0.820846
9509.000000;0.820772
9508.000000;0.820913
9507.000000;0.821186
9506.000000;0.821453
9505.000000;0.821592
9504.000000;0.821550
9503.000000;0.821333
9502.000000;0.820953
9501.000000;0.820432
9500.000000;0.819894
9499.000000;0.819561
9498.000000;0.819564
9497.000000;0.819796
9496.000000;0.820075
9495.000000;0.820403
9494.000000;0.820917
9493.000000;0.821580
9492.000000;0.822066
9491.000000;0.822068
9490.000000;0.821629
9489.000000;0.821078
9488.000000;0.820725
9487.000000;0.820673
9486.000000;0.820826
9485.000000;0.820992
9484.000000;0.821001
9483.000000;0.820825
9482.000000;0.820555
9481.000000;0.820254
9480.000000;0.819916
9479.000000;0.819618
9478.000000;0.819561
9477.000000;0.819830
9476.000000;0.820209
9475.000000;0.820396
9474.000000;0.820347
9473.000000;0.820251
9472.000000;0.820215
9471.000000;0.820178
9470.000000;0.820116
9469.000000;0.820111
9468.000000;0.820160
9467.000000;0.820089
9466.000000;0.819772
9465.000000;0.819306
9464.000000;0.818871
9463.000000;0.818539
9462.000000;0.818312
9461.000000;0.818236
9460.000000;0.818362
9459.000000;0.818658
9458.000000;0.819043
9457.000000;0.819453
9456.000000;0.819798
9455.000000;0.819945
9454.000000;0.819858
9453.000000;0.819668
9452.000000;0.819536
9451.000000;0.819482
9450.000000;0.819470
9449.000000;0.819541
9448.000000;0.819706
9447.000000;0.819796
9446.000000;0.819614
9445.000000;0.819240
9444.000000;0.818994
9443.000000;0.819068
9442.000000;0.819338
9441.000000;0.819591
9440.000000;0.819764
9439.000000;0.819859
9438.000000;0.819805
9437.000000;0.819539
9436.000000;0.819174
9435.000000;0.818923
9434.000000;0.818871
9433.000000;0.818926
9432.000000;0.818978
9431.000000;0.819008
9430.000000;0.819030
9429.000000;0.819013
9428.000000;0.818901
9427.000000;0.818678
9426.000000;0.818397
9425.000000;0.818153
9424.000000;0.818036
9423.000000;0.818078
9422.000000;0.818243
9421.000000;0.818462
9420.000000;0.818673
9419.000000;0.818825
9418.000000;0.818869
9417.000000;0.818784
9416.000000;0.818605
9415.000000;0.818403
9414.000000;0.818227
9413.000000;0.818087
9412.000000;0.817972
9411.000000;0.817877
9410.000000;0.817810
9409.000000;0.817783
9408.000000;0.817796
9407.000000;0.817821
9406.000000;0.817817
9405.000000;0.817769
9404.000000;0.817713
9403.000000;0.817684
9402.000000;0.817652
9401.000000;0.817504
9400.000000;0.817172
9399.000000;0.816759
9398.000000;0.816511
9397.000000;0.816581
9396.000000;0.816837
9395.000000;0.816953
9394.000000;0.816733
9393.000000;0.816319
9392.000000;0.816048
9391.000000;0.816156
9390.000000;0.816624
9389.000000;0.817231
9388.000000;0.817674
9387.000000;0.817716
9386.000000;0.817367
9385.000000;0.816946
9384.000000;0.816830
9383.000000;0.817071
9382.000000;0.817335
9381.000000;0.817271
9380.000000;0.816886
9379.000000;0.816493
9378.000000;0.816362
9377.000000;0.816506
9376.000000;0.816768
9375.000000;0.817001
9374.000000;0.817133
9373.000000;0.817128
9372.000000;0.816977
9371.000000;0.816727
9370.000000;0.816475
9369.000000;0.816314
9368.000000;0.816275
9367.000000;0.816350
9366.000000;0.816558
9365.000000;0.816928
9364.000000;0.817374
9363.000000;0.817663
9362.000000;0.817609
9361.000000;0.817302
9360.000000;0.817016
9359.000000;0.816884
9358.000000;0.816758
9357.000000;0.816484
9356.000000;0.816202
9355.000000;0.816211
9354.000000;0.816593
9353.000000;0.817103
9352.000000;0.817426
9351.000000;0.817426
9350.000000;0.817103
9349.000000;0.816485
9348.000000;0.815675
9347.000000;0.814962
9346.000000;0.814702
9345.000000;0.815025
9344.000000;0.815669
9343.000000;0.816158
9342.000000;0.816166
9341.000000;0.815744
9340.000000;0.815231
9339.000000;0.814962
9338.000000;0.815027
9337.000000;0.815279
9336.000000;0.815520
9335.000000;0.815658
9334.000000;0.815714
9333.000000;0.815755
9332.000000;0.815840
9331.000000;0.816011
9330.000000;0.816248
9329.000000;0.816434
9328.000000;0.816403
9327.000000;0.816098
9326.000000;0.815700
9325.000000;0.815539
9324.000000;0.815805
9323.000000;0.816309
9322.000000;0.816579
9321.000000;0.816297
9320.000000;0.815646
9319.000000;0.815182
9318.000000;0.815314
9317.000000;0.815909
9316.000000;0.816446
9315.000000;0.816529
9314.000000;0.816224
9313.000000;0.815907
9312.000000;0.815850
9311.000000;0.815997
9310.000000;0.816108
9309.000000;0.816029
9308.000000;0.815793
9307.000000;0.815508
9306.000000;0.815228
9305.000000;0.814943
9304.000000;0.814643
9303.000000;0.814378
9302.000000;0.814265
9301.000000;0.814427
9300.000000;0.814890
9299.000000;0.815478
9298.000000;0.815867
9297.000000;0.815799
9296.000000;0.815296
9295.000000;0.814638
9294.000000;0.814120
9293.000000;0.813838
9292.000000;0.813723
9291.000000;0.813718
9290.000000;0.813855
9289.000000;0.814138
9288.000000;0.814416
9287.000000;0.814449
9286.000000;0.814119
9285.000000;0.813549
9284.000000;0.813006
9283.000000;0.812695
9282.000000;0.812646
9281.000000;0.812762
9280.000000;0.812937
9279.000000;0.813104
9278.000000;0.813219
9277.000000;0.813251
9276.000000;0.813219
9275.000000;0.813206
9274.000000;0.813268
9273.000000;0.813336
9272.000000;0.813263
9271.000000;0.812999
9270.000000;0.812655
9269.000000;0.812354
9268.000000;0.812109
9267.000000;0.811911
9266.000000;0.811882
9265.000000;0.812171
9264.000000;0.812689
9263.000000;0.813087
9262.000000;0.813070
9261.000000;0.812668
9260.000000;0.812163
9259.000000;0.811840
9258.000000;0.811848
9257.000000;0.812155
9256.000000;0.812536
9255.000000;0.812689
9254.000000;0.812532
9253.000000;0.812311
9252.000000;0.812307
9251.000000;0.812484
9250.000000;0.812540
9249.000000;0.812304
9248.000000;0.811922
9247.000000;0.811652
9246.000000;0.811611
9245.000000;0.811756
9244.000000;0.811975
9243.000000;0.812149
9242.000000;0.812237
9241.000000;0.812365
9240.000000;0.812746
9239.000000;0.813425
9238.000000;0.814123
9237.000000;0.814422
9236.000000;0.814103
9235.000000;0.813322
9234.000000;0.812498
9233.000000;0.812004
9232.000000;0.811911
9231.000000;0.811978
9230.000000;0.811930
9229.000000;0.811715
9228.000000;0.811457
9227.000000;0.811246
9226.000000;0.811111
9225.000000;0.811148
9224.000000;0.811458
9223.000000;0.811929
9222.000000;0.812247
9221.000000;0.812244
9220.000000;0.812100
9219.000000;0.812084
9218.000000;0.812187
9217.000000;0.812145
9216.000000;0.811780
9215.000000;0.811206
9214.000000;0.810727
9213.000000;0.810603
9212.000000;0.810875
9211.000000;0.811339
9210.000000;0.811692
9209.000000;0.811780
9208.000000;0.811674
9207.000000;0.811516
9206.000000;0.811366
9205.000000;0.811248
9204.000000;0.811226
9203.000000;0.811318
9202.000000;0.811424
9201.000000;0.811437
9200.000000;0.811368
9199.000000;0.811294
9198.000000;0.811247
9197.000000;0.811245
9196.000000;0.811362
9195.000000;0.811617
9194.000000;0.811858
9193.000000;0.811874
9192.000000;0.811640
9191.000000;0.811327
9190.000000;0.811103
9189.000000;0.811004
9188.000000;0.810973
9187.000000;0.810908
9186.000000;0.810706
9185.000000;0.810397
9184.000000;0.810208
9183.000000;0.810328
9182.000000;0.810629
9181.000000;0.810773
9180.000000;0.810651
9179.000000;0.810537
9178.000000;0.810728
9177.000000;0.811167
9176.000000;0.811520
9175.000000;0.811529
9174.000000;0.811193
9173.000000;0.810680
9172.000000;0.810209
9171.000000;0.809996
9170.000000;0.810160
9169.000000;0.810626
9168.000000;0.811138
9167.000000;0.811424
9166.000000;0.811354
9165.000000;0.810979
9164.000000;0.810449
9163.000000;0.809912
9162.000000;0.809465
9161.000000;0.809192
9160.000000;0.809167
9159.000000;0.809379
9158.000000;0.809662
9157.000000;0.809796
9156.000000;0.809704
9155.000000;0.809516
9154.000000;0.809382
9153.000000;0.809293
9152.000000;0.809119
9151.000000;0.808817
9150.000000;0.808553
9149.000000;0.808580
9148.000000;0.808997
9147.000000;0.809613
9146.000000;0.810077
9145.000000;0.810160
9144.000000;0.809911
9143.000000;0.809521
9142.000000;0.809135
9141.000000;0.808840
9140.000000;0.808772
9139.000000;0.809052
9138.000000;0.809572
9137.000000;0.809973
9136.000000;0.809961
9135.000000;0.809611
9134.000000;0.809272
9133.000000;0.809202
9132.000000;0.809361
9131.000000;0.809540
9130.000000;0.809584
9129.000000;0.809473
9128.000000;0.809242
9127.000000;0.808925
9126.000000;0.808540
9125.000000;0.808124
9124.000000;0.807740
9123.000000;0.807490
9122.000000;0.807485
9121.000000;0.807766
9120.000000;0.808237
9119.000000;0.808690
9118.000000;0.808931
9117.000000;0.808891
9116.000000;0.808638
9115.000000;0.808318
9114.000000;0.808084
9113.000000;0.808019
9112.000000;0.808081
9111.000000;0.808153
9110.000000;0.808188
9109.000000;0.808253
9108.000000;0.808380
9107.000000;0.808433
9106.000000;0.808239
9105.000000;0.807837
9104.000000;0.807445
9103.000000;0.807179
9102.000000;0.806963
9101.000000;0.806764
9100.000000;0.806765
9099.000000;0.807149
9098.000000;0.807789
9097.000000;0.808292
9096.000000;0.808331
9095.000000;0.807902
9094.000000;0.807309
9093.000000;0.806957
9092.000000;0.807075
9091.000000;0.807511
9090.000000;0.807837
9089.000000;0.807772
9088.000000;0.807464
9087.000000;0.807263
9086.000000;0.807306
9085.000000;0.807451
9084.000000;0.807550
9083.000000;0.807596
9082.000000;0.807585
9081.000000;0.807453
9080.000000;0.807200
9079.000000;0.806979
9078.000000;0.806957
9077.000000;0.807153
9076.000000;0.807434
9075.000000;0.807595
9074.000000;0.807473
9073.000000;0.807085
9072.000000;0.806674
9071.000000;0.806498
9070.000000;0.806555
9069.000000;0.806623
9068.000000;0.806581
9067.000000;0.806546
9066.000000;0.806640
9065.000000;0.806782
9064.000000;0.806828
9063.000000;0.806791
9062.000000;0.806784
9061.000000;0.806820
9060.000000;0.806814
9059.000000;0.806755
9058.000000;0.806742
9057.000000;0.806845
9056.000000;0.807002
9055.000000;0.807091
9054.000000;0.807064
9053.000000;0.806989
