Criado como novo conjunto de dados;"2706_e01_daniel.spp","89826.8 Secs"
cm-1;Abs
10000.000000;0.652132
9999.000000;0.651515
9998.000000;0.651000
9997.000000;0.650623
9996.000000;0.650499
9995.000000;0.650719
9994.000000;0.651078
9993.000000;0.651176
9992.000000;0.650929
9991.000000;0.650724
9990.000000;0.650897
9989.000000;0.651304
9988.000000;0.651576
9987.000000;0.651538
9986.000000;0.651170
9985.000000;0.650408
9984.000000;0.649308
9983.000000;0.648277
9982.000000;0.647813
9981.000000;0.648068
9980.000000;0.648822
9979.000000;0.649785
9978.000000;0.650702
9977.000000;0.651253
9976.000000;0.651156
9975.000000;0.650431
9974.000000;0.649423
9973.000000;0.648543
9972.000000;0.648055
9971.000000;0.648025
9970.000000;0.648316
9969.000000;0.648672
9968.000000;0.648919
9967.000000;0.649081
9966.000000;0.649237
9965.000000;0.649338
9964.000000;0.649269
9963.000000;0.649017
9962.000000;0.648687
9961.000000;0.648379
9960.000000;0.648128
9959.000000;0.647915
9958.000000;0.647696
9957.000000;0.647493
9956.000000;0.647467
9955.000000;0.647761
9954.000000;0.648241
9953.000000;0.648543
9952.000000;0.648459
9951.000000;0.648137
9950.000000;0.647797
9949.000000;0.647437
9948.000000;0.646970
9947.000000;0.646494
9946.000000;0.646198
9945.000000;0.646089
9944.000000;0.646003
9943.000000;0.645852
9942.000000;0.645680
9941.000000;0.645514
9940.000000;0.645334
9939.000000;0.645175
9938.000000;0.645140
9937.000000;0.645267
9936.000000;0.645471
9935.000000;0.645584
9934.000000;0.645400
9933.000000;0.644779
9932.000000;0.643869
9931.000000;0.643144
9930.000000;0.643060
9929.000000;0.643606
9928.000000;0.644312
9927.000000;0.644698
9926.000000;0.644660
9925.000000;0.644413
9924.000000;0.644191
9923.000000;0.644068
9922.000000;0.644005
9921.000000;0.643972
9920.000000;0.643965
9919.000000;0.643936
9918.000000;0.643772
9917.000000;0.643431
9916.000000;0.643097
9915.000000;0.643084
9914.000000;0.643531
9913.000000;0.644232
9912.000000;0.644813
9911.000000;0.645036
9910.000000;0.644866
9909.000000;0.644357
9908.000000;0.643617
9907.000000;0.642911
9906.000000;0.642628
9905.000000;0.643015
9904.000000;0.643880
9903.000000;0.644652
9902.000000;0.644805
9901.000000;0.644284
9900.000000;0.643475
9899.000000;0.642795
9898.000000;0.642346
9897.000000;0.642012
9896.000000;0.641755
9895.000000;0.641691
9894.000000;0.641900
9893.000000;0.642287
9892.000000;0.642675
9891.000000;0.642946
9890.000000;0.643071
9889.000000;0.643045
9888.000000;0.642836
9887.000000;0.642389
9886.000000;0.641682
9885.000000;0.640815
9884.000000;0.640006
9883.000000;0.639454
9882.000000;0.639182
9881.000000;0.639094
9880.000000;0.639155
9879.000000;0.639435
9878.000000;0.639970
9877.000000;0.640611
9876.000000;0.641092
9875.000000;0.641228
9874.000000;0.641087
9873.000000;0.640923
9872.000000;0.640920
9871.000000;0.640995
9870.000000;0.640907
9869.000000;0.640563
9868.000000;0.640127
9867.000000;0.639810
9866.000000;0.639659
9865.000000;0.639610
9864.000000;0.639614
9863.000000;0.639626
9862.000000;0.639558
9861.000000;0.639352
9860.000000;0.639068
9859.000000;0.638803
9858.000000;0.638591
9857.000000;0.638433
9856.000000;0.638352
9855.000000;0.638349
9854.000000;0.638366
9853.000000;0.638383
9852.000000;0.638443
9851.000000;0.638520
9850.000000;0.638495
9849.000000;0.638371
9848.000000;0.638360
9847.000000;0.638613
9846.000000;0.638991
9845.000000;0.639240
9844.000000;0.639268
9843.000000;0.639092
9842.000000;0.638673
9841.000000;0.638071
9840.000000;0.637640
9839.000000;0.637735
9838.000000;0.638227
9837.000000;0.638556
9836.000000;0.638297
9835.000000;0.637518
9834.000000;0.636591
9833.000000;0.635865
9832.000000;0.635524
9831.000000;0.635522
9830.000000;0.635588
9829.000000;0.635465
9828.000000;0.635169
9827.000000;0.634902
9826.000000;0.634742
9825.000000;0.634623
9824.000000;0.634591
9823.000000;0.634817
9822.000000;0.635316
9821.000000;0.635846
9820.000000;0.636176
9819.000000;0.636291
9818.000000;0.636277
9817.000000;0.636184
9816.000000;0.636084
9815.000000;0.636099
9814.000000;0.636271
9813.000000;0.636495
9812.000000;0.636662
9811.000000;0.636753
9810.000000;0.636758
9809.000000;0.636608
9808.000000;0.636261
9807.000000;0.635798
9806.000000;0.635396
9805.000000;0.635254
9804.000000;0.635483
9803.000000;0.635941
9802.000000;0.636239
9801.000000;0.636080
9800.000000;0.635582
9799.000000;0.635115
9798.000000;0.634842
9797.000000;0.634617
9796.000000;0.634303
9795.000000;0.633961
9794.000000;0.633665
9793.000000;0.633347
9792.000000;0.632973
9791.000000;0.632685
9790.000000;0.632660
9789.000000;0.632886
9788.000000;0.633189
9787.000000;0.633394
9786.000000;0.633394
9785.000000;0.633188
9784.000000;0.632920
9783.000000;0.632804
9782.000000;0.632911
9781.000000;0.633062
9780.000000;0.632994
9779.000000;0.632607
9778.000000;0.632053
9777.000000;0.631604
9776.000000;0.631460
9775.000000;0.631601
9774.000000;0.631830
9773.000000;0.631984
9772.000000;0.632051
9771.000000;0.632057
9770.000000;0.631954
9769.000000;0.631732
9768.000000;0.631568
9767.000000;0.631663
9766.000000;0.631970
9765.000000;0.632226
9764.000000;0.632238
9763.000000;0.632024
9762.000000;0.631683
9761.000000;0.631311
9760.000000;0.631043
9759.000000;0.630995
9758.000000;0.631093
9757.000000;0.631097
9756.000000;0.630860
9755.000000;0.630452
9754.000000;0.630001
9753.000000;0.629559
9752.000000;0.629164
9751.000000;0.628922
9750.000000;0.628942
9749.000000;0.629219
9748.000000;0.629624
9747.000000;0.629978
9746.000000;0.630143
9745.000000;0.630130
9744.000000;0.630086
9743.000000;0.630111
9742.000000;0.630120
9741.000000;0.629959
9740.000000;0.629619
9739.000000;0.629229
9738.000000;0.628889
9737.000000;0.628651
9736.000000;0.628595
9735.000000;0.628789
9734.000000;0.629144
9733.000000;0.629445
9732.000000;0.629542
9731.000000;0.629442
9730.000000;0.629237
9729.000000;0.629043
9728.000000;0.628959
9727.000000;0.628986
9726.000000;0.629002
9725.000000;0.628907
9724.000000;0.628734
9723.000000;0.628523
9722.000000;0.628217
9721.000000;0.627806
9720.000000;0.627487
9719.000000;0.627445
9718.000000;0.627562
9717.000000;0.627545
9716.000000;0.627292
9715.000000;0.626919
9714.000000;0.626478
9713.000000;0.625929
9712.000000;0.625421
9711.000000;0.625304
9710.000000;0.625745
9709.000000;0.626485
9708.000000;0.627103
9707.000000;0.627381
9706.000000;0.627358
9705.000000;0.627156
9704.000000;0.626854
9703.000000;0.626476
9702.000000;0.626046
9701.000000;0.625684
9700.000000;0.625566
9699.000000;0.625689
9698.000000;0.625764
9697.000000;0.625516
9696.000000;0.625059
9695.000000;0.624789
9694.000000;0.624927
9693.000000;0.625344
9692.000000;0.625803
9691.000000;0.626156
9690.000000;0.626284
9689.000000;0.626116
9688.000000;0.625809
9687.000000;0.625693
9686.000000;0.625915
9685.000000;0.626255
9684.000000;0.626403
9683.000000;0.626301
9682.000000;0.626126
9681.000000;0.626009
9680.000000;0.625909
9679.000000;0.625712
9678.000000;0.625398
9677.000000;0.625089
9676.000000;0.624925
9675.000000;0.624882
9674.000000;0.624775
9673.000000;0.624506
9672.000000;0.624199
9671.000000;0.624003
9670.000000;0.623874
9669.000000;0.623715
9668.000000;0.623612
9667.000000;0.623721
9666.000000;0.623952
9665.000000;0.624021
9664.000000;0.623797
9663.000000;0.623412
9662.000000;0.623059
9661.000000;0.622892
9660.000000;0.623073
9659.000000;0.623654
9658.000000;0.624354
9657.000000;0.624717
9656.000000;0.624582
9655.000000;0.624185
9654.000000;0.623757
9653.000000;0.623289
9652.000000;0.622779
9651.000000;0.622456
9650.000000;0.622516
9649.000000;0.622807
9648.000000;0.622952
9647.000000;0.622747
9646.000000;0.622309
9645.000000;0.621902
9644.000000;0.621693
9643.000000;0.621664
9642.000000;0.621695
9641.000000;0.621743
9640.000000;0.621892
9639.000000;0.622172
9638.000000;0.622374
9637.000000;0.622223
9636.000000;0.621715
9635.000000;0.621100
9634.000000;0.620549
9633.000000;0.620018
9632.000000;0.619511
9631.000000;0.619238
9630.000000;0.619381
9629.000000;0.619839
9628.000000;0.620311
9627.000000;0.620554
9626.000000;0.620503
9625.000000;0.620256
9624.000000;0.620039
9623.000000;0.620066
9622.000000;0.620349
9621.000000;0.620671
9620.000000;0.620803
9619.000000;0.620672
9618.000000;0.620333
9617.000000;0.619892
9616.000000;0.619502
9615.000000;0.619335
9614.000000;0.619476
9613.000000;0.619868
9612.000000;0.620344
9611.000000;0.620648
9610.000000;0.620515
9609.000000;0.619906
9608.000000;0.619149
9607.000000;0.618682
9606.000000;0.618625
9605.000000;0.618752
9604.000000;0.618839
9603.000000;0.618830
9602.000000;0.618678
9601.000000;0.618318
9600.000000;0.617904
9599.000000;0.617800
9598.000000;0.618151
9597.000000;0.618629
9596.000000;0.618790
9595.000000;0.618557
9594.000000;0.618184
9593.000000;0.617889
9592.000000;0.617722
9591.000000;0.617716
9590.000000;0.617904
9589.000000;0.618186
9588.000000;0.618337
9587.000000;0.618237
9586.000000;0.618004
9585.000000;0.617860
9584.000000;0.617923
9583.000000;0.618134
9582.000000;0.618332
9581.000000;0.618365
9580.000000;0.618174
9579.000000;0.617802
9578.000000;0.617367
9577.000000;0.617002
9576.000000;0.616801
9575.000000;0.616775
9574.000000;0.616875
9573.000000;0.617048
9572.000000;0.617248
9571.000000;0.617383
9570.000000;0.617359
9569.000000;0.617224
9568.000000;0.617170
9567.000000;0.617281
9566.000000;0.617383
9565.000000;0.617265
9564.000000;0.616995
9563.000000;0.616817
9562.000000;0.616768
9561.000000;0.616607
9560.000000;0.616169
9559.000000;0.615614
9558.000000;0.615263
9557.000000;0.615278
9556.000000;0.615567
9555.000000;0.615903
9554.000000;0.616082
9553.000000;0.616048
9552.000000;0.615915
9551.000000;0.615808
9550.000000;0.615707
9549.000000;0.615507
9548.000000;0.615244
9547.000000;0.615120
9546.000000;0.615276
9545.000000;0.615615
9544.000000;0.615886
9543.000000;0.615906
9542.000000;0.615677
9541.000000;0.615363
9540.000000;0.615136
9539.000000;0.615018
9538.000000;0.614904
9537.000000;0.614773
9536.000000;0.614773
9535.000000;0.614984
9534.000000;0.615196
9533.000000;0.615106
9532.000000;0.614711
9531.000000;0.614305
9530.000000;0.614073
9529.000000;0.613868
9528.000000;0.613470
9527.000000;0.612905
9526.000000;0.612423
9525.000000;0.612247
9524.000000;0.612396
9523.000000;0.612682
9522.000000;0.612835
9521.000000;0.612711
9520.000000;0.612422
9519.000000;0.612205
9518.000000;0.612190
9517.000000;0.612334
9516.000000;0.612546
9515.000000;0.612754
9514.000000;0.612872
9513.000000;0.612838
9512.000000;0.612689
9511.000000;0.612518
9510.000000;0.612349
9509.000000;0.612150
9508.000000;0.611939
9507.000000;0.611778
9506.000000;0.611688
9505.000000;0.611682
9504.000000;0.611832
9503.000000;0.612143
9502.000000;0.612419
9501.000000;0.612447
9500.000000;0.612300
9499.000000;0.612240
9498.000000;0.612309
9497.000000;0.612241
9496.000000;0.611858
9495.000000;0.611346
9494.000000;0.611020
9493.000000;0.610959
9492.000000;0.611026
9491.000000;0.611105
9490.000000;0.611187
9489.000000;0.611270
9488.000000;0.611305
9487.000000;0.611247
9486.000000;0.611101
9485.000000;0.610915
9484.000000;0.610756
9483.000000;0.610638
9482.000000;0.610482
9481.000000;0.610203
9480.000000;0.609833
9479.000000;0.609487
9478.000000;0.609221
9477.000000;0.609022
9476.000000;0.608899
9475.000000;0.608905
9474.000000;0.609044
9473.000000;0.609256
9472.000000;0.609493
9471.000000;0.609691
9470.000000;0.609701
9469.000000;0.609402
9468.000000;0.608926
9467.000000;0.608624
9466.000000;0.608703
9465.000000;0.608988
9464.000000;0.609122
9463.000000;0.608928
9462.000000;0.608543
9461.000000;0.608247
9460.000000;0.608221
9459.000000;0.608433
9458.000000;0.608701
9457.000000;0.608854
9456.000000;0.608843
9455.000000;0.608704
9454.000000;0.608495
9453.000000;0.608284
9452.000000;0.608120
9451.000000;0.607950
9450.000000;0.607666
9449.000000;0.607337
9448.000000;0.607271
9447.000000;0.607674
9446.000000;0.608312
9445.000000;0.608674
9444.000000;0.608494
9443.000000;0.607961
9442.000000;0.607462
9441.000000;0.607286
9440.000000;0.607522
9439.000000;0.608048
9438.000000;0.608547
9437.000000;0.608702
9436.000000;0.608445
9435.000000;0.607948
9434.000000;0.607415
9433.000000;0.606983
9432.000000;0.606755
9431.000000;0.606756
9430.000000;0.606841
9429.000000;0.606823
9428.000000;0.606686
9427.000000;0.606541
9426.000000;0.606407
9425.000000;0.606223
9424.000000;0.606042
9423.000000;0.605979
9422.000000;0.605990
9421.000000;0.605918
9420.000000;0.605809
9419.000000;0.605897
9418.000000;0.606199
9417.000000;0.606392
9416.000000;0.606223
9415.000000;0.605851
9414.000000;0.605604
9413.000000;0.605584
9412.000000;0.605666
9411.000000;0.605735
9410.000000;0.605742
9409.000000;0.605661
9408.000000;0.605549
9407.000000;0.605561
9406.000000;0.605726
9405.000000;0.605799
9404.000000;0.605518
9403.000000;0.604960
9402.000000;0.604484
9401.000000;0.604319
9400.000000;0.604355
9399.000000;0.604351
9398.000000;0.604229
9397.000000;0.604125
9396.000000;0.604197
9395.000000;0.604425
9394.000000;0.604604
9393.000000;0.604525
9392.000000;0.604210
9391.000000;0.603891
9390.000000;0.603770
9389.000000;0.603825
9388.000000;0.603878
9387.000000;0.603787
9386.000000;0.603537
9385.000000;0.603201
9384.000000;0.602887
9383.000000;0.602685
9382.000000;0.602616
9381.000000;0.602647
9380.000000;0.602754
9379.000000;0.602931
9378.000000;0.603112
9377.000000;0.603161
9376.000000;0.602992
9375.000000;0.602676
9374.000000;0.602398
9373.000000;0.602286
9372.000000;0.602328
9371.000000;0.602442
9370.000000;0.602610
9369.000000;0.602885
9368.000000;0.603250
9367.000000;0.603506
9366.000000;0.603420
9365.000000;0.602993
9364.000000;0.602487
9363.000000;0.602147
9362.000000;0.601975
9361.000000;0.601846
9360.000000;0.601711
9359.000000;0.601586
9358.000000;0.601470
9357.000000;0.601399
9356.000000;0.601501
9355.000000;0.601819
9354.000000;0.602152
9353.000000;0.602266
9352.000000;0.602214
9351.000000;0.602235
9350.000000;0.602345
9349.000000;0.602273
9348.000000;0.601859
9347.000000;0.601306
9346.000000;0.600942
9345.000000;0.600873
9344.000000;0.600978
9343.000000;0.601099
9342.000000;0.601135
9341.000000;0.601042
9340.000000;0.600869
9339.000000;0.600735
9338.000000;0.600686
9337.000000;0.600635
9336.000000;0.600496
9335.000000;0.600317
9334.000000;0.600211
9333.000000;0.600209
9332.000000;0.600247
9331.000000;0.600277
9330.000000;0.600308
9329.000000;0.600365
9328.000000;0.600431
9327.000000;0.600431
9326.000000;0.600279
9325.000000;0.599951
9324.000000;0.599525
9323.000000;0.599137
9322.000000;0.598914
9321.000000;0.598949
9320.000000;0.599242
9319.000000;0.599619
9318.000000;0.599788
9317.000000;0.599589
9316.000000;0.599153
9315.000000;0.598730
9314.000000;0.598411
9313.000000;0.598139
9312.000000;0.597911
9311.000000;0.597807
9310.000000;0.597829
9309.000000;0.597876
9308.000000;0.597915
9307.000000;0.598026
9306.000000;0.598235
9305.000000;0.598438
9304.000000;0.598533
9303.000000;0.598528
9302.000000;0.598482
9301.000000;0.598441
9300.000000;0.598461
9299.000000;0.598582
9298.000000;0.598716
9297.000000;0.598667
9296.000000;0.598336
9295.000000;0.597850
9294.000000;0.597431
9293.000000;0.597202
9292.000000;0.597143
9291.000000;0.597165
9290.000000;0.597188
9289.000000;0.597205
9288.000000;0.597285
9287.000000;0.597475
9286.000000;0.597699
9285.000000;0.597813
9284.000000;0.597758
9283.000000;0.597596
9282.000000;0.597386
9281.000000;0.597124
9280.000000;0.596819
9279.000000;0.596558
9278.000000;0.596412
9277.000000;0.596353
9276.000000;0.596289
9275.000000;0.596170
9274.000000;0.596024
9273.000000;0.595914
9272.000000;0.595846
9271.000000;0.595724
9270.000000;0.595450
9269.000000;0.595093
9268.000000;0.594875
9267.000000;0.594922
9266.000000;0.595108
9265.000000;0.595230
9264.000000;0.595250
9263.000000;0.595249
9262.000000;0.595218
9261.000000;0.595072
9260.000000;0.594849
9259.000000;0.594722
9258.000000;0.594772
9257.000000;0.594894
9256.000000;0.594955
9255.000000;0.594929
9254.000000;0.594847
9253.000000;0.594726
9252.000000;0.594596
9251.000000;0.594517
9250.000000;0.594516
9249.000000;0.594565
9248.000000;0.594630
9247.000000;0.594674
9246.000000;0.594628
9245.000000;0.594453
9244.000000;0.594236
9243.000000;0.594132
9242.000000;0.594187
9241.000000;0.594312
9240.000000;0.594416
9239.000000;0.594469
9238.000000;0.594438
9237.000000;0.594298
9236.000000;0.594119
9235.000000;0.594018
9234.000000;0.593991
9233.000000;0.593891
9232.000000;0.593647
9231.000000;0.593379
9230.000000;0.593255
9229.000000;0.593284
9228.000000;0.593332
9227.000000;0.593294
9226.000000;0.593191
9225.000000;0.593118
9224.000000;0.593130
9223.000000;0.593174
9222.000000;0.593128
9221.000000;0.592948
9220.000000;0.592730
9219.000000;0.592591
9218.000000;0.592515
9217.000000;0.592396
9216.000000;0.592216
9215.000000;0.592095
9214.000000;0.592166
9213.000000;0.592447
9212.000000;0.592806
9211.000000;0.593018
9210.000000;0.592901
9209.000000;0.592468
9208.000000;0.591938
9207.000000;0.591518
9206.000000;0.591247
9205.000000;0.591090
9204.000000;0.591069
9203.000000;0.591177
9202.000000;0.591259
9201.000000;0.591167
9200.000000;0.590990
9199.000000;0.590938
9198.000000;0.591027
9197.000000;0.591080
9196.000000;0.591030
9195.000000;0.591007
9194.000000;0.591061
9193.000000;0.591015
9192.000000;0.590722
9191.000000;0.590328
9190.000000;0.590128
9189.000000;0.590248
9188.000000;0.590558
9187.000000;0.590847
9186.000000;0.590998
9185.000000;0.591015
9184.000000;0.590975
9183.000000;0.590939
9182.000000;0.590879
9181.000000;0.590724
9180.000000;0.590470
9179.000000;0.590208
9178.000000;0.590027
9177.000000;0.589956
9176.000000;0.589989
9175.000000;0.590097
9174.000000;0.590192
9173.000000;0.590177
9172.000000;0.590030
9171.000000;0.589815
9170.000000;0.589583
9169.000000;0.589334
9168.000000;0.589084
9167.000000;0.588902
9166.000000;0.588854
9165.000000;0.588945
9164.000000;0.589111
9163.000000;0.589208
9162.000000;0.589068
9161.000000;0.588648
9160.000000;0.588131
9159.000000;0.587794
9158.000000;0.587761
9157.000000;0.587949
9156.000000;0.588212
9155.000000;0.588448
9154.000000;0.588584
9153.000000;0.588587
9152.000000;0.588537
9151.000000;0.588557
9150.000000;0.588638
9149.000000;0.588620
9148.000000;0.588377
9147.000000;0.587973
9146.000000;0.587579
9145.000000;0.587319
9144.000000;0.587212
9143.000000;0.587208
9142.000000;0.587224
9141.000000;0.587194
9140.000000;0.587113
9139.000000;0.587026
9138.000000;0.586973
9137.000000;0.586977
9136.000000;0.587067
9135.000000;0.587254
9134.000000;0.587496
9133.000000;0.587705
9132.000000;0.587800
9131.000000;0.587709
9130.000000;0.587400
9129.000000;0.586949
9128.000000;0.586558
9127.000000;0.586399
9126.000000;0.586462
9125.000000;0.586606
9124.000000;0.586721
9123.000000;0.586778
9122.000000;0.586776
9121.000000;0.586732
9120.000000;0.586706
9119.000000;0.586720
9118.000000;0.586681
9117.000000;0.586485
9116.000000;0.586186
9115.000000;0.585983
9114.000000;0.586020
9113.000000;0.586270
9112.000000;0.586593
9111.000000;0.586825
9110.000000;0.586847
9109.000000;0.586670
9108.000000;0.586436
9107.000000;0.586271
9106.000000;0.586153
9105.000000;0.585979
9104.000000;0.585726
9103.000000;0.585448
9102.000000;0.585170
9101.000000;0.584911
9100.000000;0.584763
9099.000000;0.584829
9098.000000;0.585050
9097.000000;0.585230
9096.000000;0.585223
9095.000000;0.585028
9094.000000;0.584708
9093.000000;0.584351
9092.000000;0.584087
9091.000000;0.584031
9090.000000;0.584166
9089.000000;0.584365
9088.000000;0.584549
9087.000000;0.584731
9086.000000;0.584891
9085.000000;0.584921
9084.000000;0.584734
9083.000000;0.584371
9082.000000;0.583961
9081.000000;0.583637
9080.000000;0.583472
9079.000000;0.583440
9078.000000;0.583431
9077.000000;0.583358
9076.000000;0.583248
9075.000000;0.583173
9074.000000;0.583138
9073.000000;0.583084
9072.000000;0.582989
9071.000000;0.582873
9070.000000;0.582745
9069.000000;0.582623
9068.000000;0.582577
9067.000000;0.582663
9066.000000;0.582830
9065.000000;0.582985
9064.000000;0.583111
9063.000000;0.583257
9062.000000;0.583421
9061.000000;0.583544
9060.000000;0.583577
9059.000000;0.583484
9058.000000;0.583209
9057.000000;0.582768
9056.000000;0.582329
9055.000000;0.582077
9054.000000;0.582022
9053.000000;0.582024
