Criado como novo conjunto de dados;"2706_e01_daniel.spp","3062.2 Secs"
cm-1;Abs
10000.000000;0.519977
9999.000000;0.519729
9998.000000;0.519459
9997.000000;0.519142
9996.000000;0.518930
9995.000000;0.518958
9994.000000;0.519152
9993.000000;0.519351
9992.000000;0.519501
9991.000000;0.519662
9990.000000;0.519848
9989.000000;0.519944
9988.000000;0.519832
9987.000000;0.519550
9986.000000;0.519277
9985.000000;0.519128
9984.000000;0.519036
9983.000000;0.518892
9982.000000;0.518762
9981.000000;0.518813
9980.000000;0.519057
9979.000000;0.519293
9978.000000;0.519342
9977.000000;0.519209
9976.000000;0.519000
9975.000000;0.518816
9974.000000;0.518773
9973.000000;0.518966
9972.000000;0.519306
9971.000000;0.519521
9970.000000;0.519463
9969.000000;0.519326
9968.000000;0.519405
9967.000000;0.519714
9966.000000;0.519972
9965.000000;0.519936
9964.000000;0.519618
9963.000000;0.519180
9962.000000;0.518756
9961.000000;0.518414
9960.000000;0.518210
9959.000000;0.518195
9958.000000;0.518413
9957.000000;0.518855
9956.000000;0.519401
9955.000000;0.519796
9954.000000;0.519784
9953.000000;0.519327
9952.000000;0.518733
9951.000000;0.518489
9950.000000;0.518887
9949.000000;0.519738
9948.000000;0.520472
9947.000000;0.520612
9946.000000;0.520172
9945.000000;0.519578
9944.000000;0.519237
9943.000000;0.519230
9942.000000;0.519375
9941.000000;0.519456
9940.000000;0.519382
9939.000000;0.519206
9938.000000;0.519054
9937.000000;0.518987
9936.000000;0.518908
9935.000000;0.518660
9934.000000;0.518209
9933.000000;0.517718
9932.000000;0.517417
9931.000000;0.517451
9930.000000;0.517810
9929.000000;0.518325
9928.000000;0.518765
9927.000000;0.519015
9926.000000;0.519171
9925.000000;0.519386
9924.000000;0.519633
9923.000000;0.519700
9922.000000;0.519440
9921.000000;0.518937
9920.000000;0.518441
9919.000000;0.518203
9918.000000;0.518317
9917.000000;0.518612
9916.000000;0.518737
9915.000000;0.518502
9914.000000;0.518132
9913.000000;0.518034
9912.000000;0.518312
9911.000000;0.518662
9910.000000;0.518751
9909.000000;0.518527
9908.000000;0.518125
9907.000000;0.517684
9906.000000;0.517378
9905.000000;0.517418
9904.000000;0.517836
9903.000000;0.518339
9902.000000;0.518546
9901.000000;0.518360
9900.000000;0.518025
9899.000000;0.517856
9898.000000;0.517985
9897.000000;0.518300
9896.000000;0.518564
9895.000000;0.518623
9894.000000;0.518546
9893.000000;0.518511
9892.000000;0.518538
9891.000000;0.518435
9890.000000;0.518082
9889.000000;0.517672
9888.000000;0.517548
9887.000000;0.517830
9886.000000;0.518308
9885.000000;0.518676
9884.000000;0.518782
9883.000000;0.518663
9882.000000;0.518438
9881.000000;0.518203
9880.000000;0.518019
9879.000000;0.517927
9878.000000;0.517953
9877.000000;0.518073
9876.000000;0.518198
9875.000000;0.518239
9874.000000;0.518179
9873.000000;0.518049
9872.000000;0.517867
9871.000000;0.517656
9870.000000;0.517509
9869.000000;0.517527
9868.000000;0.517691
9867.000000;0.517861
9866.000000;0.517927
9865.000000;0.517910
9864.000000;0.517895
9863.000000;0.517930
9862.000000;0.518012
9861.000000;0.518096
9860.000000;0.518100
9859.000000;0.517963
9858.000000;0.517718
9857.000000;0.517468
9856.000000;0.517278
9855.000000;0.517144
9854.000000;0.517058
9853.000000;0.517016
9852.000000;0.516956
9851.000000;0.516787
9850.000000;0.516526
9849.000000;0.516347
9848.000000;0.516437
9847.000000;0.516849
9846.000000;0.517469
9845.000000;0.518082
9844.000000;0.518461
9843.000000;0.518487
9842.000000;0.518239
9841.000000;0.517925
9840.000000;0.517734
9839.000000;0.517756
9838.000000;0.517978
9837.000000;0.518271
9836.000000;0.518455
9835.000000;0.518478
9834.000000;0.518500
9833.000000;0.518645
9832.000000;0.518727
9831.000000;0.518414
9830.000000;0.517691
9829.000000;0.516981
9828.000000;0.516704
9827.000000;0.516848
9826.000000;0.517067
9825.000000;0.517099
9824.000000;0.516961
9823.000000;0.516823
9822.000000;0.516819
9821.000000;0.516986
9820.000000;0.517275
9819.000000;0.517576
9818.000000;0.517754
9817.000000;0.517693
9816.000000;0.517384
9815.000000;0.516978
9814.000000;0.516691
9813.000000;0.516609
9812.000000;0.516642
9811.000000;0.516752
9810.000000;0.517108
9809.000000;0.517823
9808.000000;0.518590
9807.000000;0.518826
9806.000000;0.518271
9805.000000;0.517282
9804.000000;0.516448
9803.000000;0.516090
9802.000000;0.516191
9801.000000;0.516613
9800.000000;0.517164
9799.000000;0.517572
9798.000000;0.517621
9797.000000;0.517353
9796.000000;0.516999
9795.000000;0.516700
9794.000000;0.516419
9793.000000;0.516136
9792.000000;0.515995
9791.000000;0.516154
9790.000000;0.516534
9789.000000;0.516846
9788.000000;0.516878
9787.000000;0.516706
9786.000000;0.516547
9785.000000;0.516480
9784.000000;0.516402
9783.000000;0.516272
9782.000000;0.516218
9781.000000;0.516352
9780.000000;0.516571
9779.000000;0.516696
9778.000000;0.516723
9777.000000;0.516786
9776.000000;0.516913
9775.000000;0.516960
9774.000000;0.516825
9773.000000;0.516597
9772.000000;0.516442
9771.000000;0.516431
9770.000000;0.516514
9769.000000;0.516590
9768.000000;0.516583
9767.000000;0.516509
9766.000000;0.516484
9765.000000;0.516618
9764.000000;0.516889
9763.000000;0.517165
9762.000000;0.517327
9761.000000;0.517314
9760.000000;0.517104
9759.000000;0.516763
9758.000000;0.516470
9757.000000;0.516387
9756.000000;0.516500
9755.000000;0.516675
9754.000000;0.516820
9753.000000;0.516902
9752.000000;0.516847
9751.000000;0.516602
9750.000000;0.516281
9749.000000;0.516082
9748.000000;0.516047
9747.000000;0.516039
9746.000000;0.515999
9745.000000;0.516055
9744.000000;0.516331
9743.000000;0.516760
9742.000000;0.517152
9741.000000;0.517359
9740.000000;0.517350
9739.000000;0.517208
9738.000000;0.517098
9737.000000;0.517121
9736.000000;0.517172
9735.000000;0.517046
9734.000000;0.516729
9733.000000;0.516438
9732.000000;0.516351
9731.000000;0.516426
9730.000000;0.516522
9729.000000;0.516587
9728.000000;0.516635
9727.000000;0.516670
9726.000000;0.516711
9725.000000;0.516780
9724.000000;0.516816
9723.000000;0.516693
9722.000000;0.516410
9721.000000;0.516149
9720.000000;0.516089
9719.000000;0.516237
9718.000000;0.516507
9717.000000;0.516841
9716.000000;0.517168
9715.000000;0.517334
9714.000000;0.517228
9713.000000;0.516938
9712.000000;0.516702
9711.000000;0.516706
9710.000000;0.516960
9709.000000;0.517304
9708.000000;0.517519
9707.000000;0.517489
9706.000000;0.517285
9705.000000;0.517047
9704.000000;0.516795
9703.000000;0.516453
9702.000000;0.516061
9701.000000;0.515806
9700.000000;0.515805
9699.000000;0.515965
9698.000000;0.516131
9697.000000;0.516251
9696.000000;0.516322
9695.000000;0.516309
9694.000000;0.516212
9693.000000;0.516136
9692.000000;0.516180
9691.000000;0.516310
9690.000000;0.516423
9689.000000;0.516487
9688.000000;0.516526
9687.000000;0.516538
9686.000000;0.516502
9685.000000;0.516441
9684.000000;0.516391
9683.000000;0.516356
9682.000000;0.516347
9681.000000;0.516402
9680.000000;0.516513
9679.000000;0.516583
9678.000000;0.516553
9677.000000;0.516502
9676.000000;0.516557
9675.000000;0.516735
9674.000000;0.516943
9673.000000;0.517081
9672.000000;0.517093
9671.000000;0.516960
9670.000000;0.516731
9669.000000;0.516549
9668.000000;0.516569
9667.000000;0.516810
9666.000000;0.517109
9665.000000;0.517220
9664.000000;0.517000
9663.000000;0.516546
9662.000000;0.516176
9661.000000;0.516184
9660.000000;0.516573
9659.000000;0.517053
9658.000000;0.517335
9657.000000;0.517379
9656.000000;0.517323
9655.000000;0.517256
9654.000000;0.517137
9653.000000;0.516923
9652.000000;0.516698
9651.000000;0.516614
9650.000000;0.516686
9649.000000;0.516690
9648.000000;0.516365
9647.000000;0.515751
9646.000000;0.515220
9645.000000;0.515084
9644.000000;0.515253
9643.000000;0.515432
9642.000000;0.515553
9641.000000;0.515810
9640.000000;0.516272
9639.000000;0.516714
9638.000000;0.516904
9637.000000;0.516874
9636.000000;0.516773
9635.000000;0.516634
9634.000000;0.516435
9633.000000;0.516254
9632.000000;0.516198
9631.000000;0.516254
9630.000000;0.516344
9629.000000;0.516454
9628.000000;0.516595
9627.000000;0.516687
9626.000000;0.516641
9625.000000;0.516527
9624.000000;0.516520
9623.000000;0.516680
9622.000000;0.516881
9621.000000;0.516969
9620.000000;0.516901
9619.000000;0.516715
9618.000000;0.516452
9617.000000;0.516151
9616.000000;0.515870
9615.000000;0.515680
9614.000000;0.515652
9613.000000;0.515834
9612.000000;0.516199
9611.000000;0.516624
9610.000000;0.516935
9609.000000;0.516996
9608.000000;0.516771
9607.000000;0.516355
9606.000000;0.515960
9605.000000;0.515811
9604.000000;0.515995
9603.000000;0.516376
9602.000000;0.516683
9601.000000;0.516700
9600.000000;0.516417
9599.000000;0.516046
9598.000000;0.515886
9597.000000;0.516085
9596.000000;0.516511
9595.000000;0.516867
9594.000000;0.516958
9593.000000;0.516816
9592.000000;0.516592
9591.000000;0.516410
9590.000000;0.516323
9589.000000;0.516316
9588.000000;0.516325
9587.000000;0.516295
9586.000000;0.516267
9585.000000;0.516327
9584.000000;0.516466
9583.000000;0.516556
9582.000000;0.516514
9581.000000;0.516423
9580.000000;0.516450
9579.000000;0.516659
9578.000000;0.516964
9577.000000;0.517238
9576.000000;0.517425
9575.000000;0.517564
9574.000000;0.517701
9573.000000;0.517781
9572.000000;0.517669
9571.000000;0.517308
9570.000000;0.516839
9569.000000;0.516484
9568.000000;0.516347
9567.000000;0.516399
9566.000000;0.516603
9565.000000;0.516924
9564.000000;0.517236
9563.000000;0.517360
9562.000000;0.517248
9561.000000;0.517015
9560.000000;0.516773
9559.000000;0.516531
9558.000000;0.516312
9557.000000;0.516221
9556.000000;0.516314
9555.000000;0.516504
9554.000000;0.516670
9553.000000;0.516797
9552.000000;0.516920
9551.000000;0.517010
9550.000000;0.517008
9549.000000;0.516928
9548.000000;0.516830
9547.000000;0.516742
9546.000000;0.516660
9545.000000;0.516606
9544.000000;0.516604
9543.000000;0.516645
9542.000000;0.516708
9541.000000;0.516782
9540.000000;0.516836
9539.000000;0.516811
9538.000000;0.516715
9537.000000;0.516662
9536.000000;0.516765
9535.000000;0.517004
9534.000000;0.517241
9533.000000;0.517325
9532.000000;0.517162
9531.000000;0.516780
9530.000000;0.516369
9529.000000;0.516194
9528.000000;0.516366
9527.000000;0.516724
9526.000000;0.516996
9525.000000;0.517054
9524.000000;0.516978
9523.000000;0.516914
9522.000000;0.516959
9521.000000;0.517114
9520.000000;0.517275
9519.000000;0.517271
9518.000000;0.517016
9517.000000;0.516627
9516.000000;0.516336
9515.000000;0.516269
9514.000000;0.516335
9513.000000;0.516330
9512.000000;0.516161
9511.000000;0.515956
9510.000000;0.515972
9509.000000;0.516371
9508.000000;0.517033
9507.000000;0.517621
9506.000000;0.517830
9505.000000;0.517598
9504.000000;0.517102
9503.000000;0.516622
9502.000000;0.516402
9501.000000;0.516530
9500.000000;0.516853
9499.000000;0.517062
9498.000000;0.516952
9497.000000;0.516618
9496.000000;0.516349
9495.000000;0.516343
9494.000000;0.516531
9493.000000;0.516675
9492.000000;0.516613
9491.000000;0.516433
9490.000000;0.516408
9489.000000;0.516734
9488.000000;0.517328
9487.000000;0.517882
9486.000000;0.518137
9485.000000;0.518070
9484.000000;0.517828
9483.000000;0.517564
9482.000000;0.517343
9481.000000;0.517149
9480.000000;0.516933
9479.000000;0.516678
9478.000000;0.516435
9477.000000;0.516281
9476.000000;0.516222
9475.000000;0.516208
9474.000000;0.516228
9473.000000;0.516335
9472.000000;0.516528
9471.000000;0.516704
9470.000000;0.516784
9469.000000;0.516821
9468.000000;0.516912
9467.000000;0.517041
9466.000000;0.517098
9465.000000;0.517048
9464.000000;0.516998
9463.000000;0.517086
9462.000000;0.517311
9461.000000;0.517493
9460.000000;0.517422
9459.000000;0.517071
9458.000000;0.516660
9457.000000;0.516450
9456.000000;0.516464
9455.000000;0.516509
9454.000000;0.516475
9453.000000;0.516488
9452.000000;0.516700
9451.000000;0.517024
9450.000000;0.517236
9449.000000;0.517264
9448.000000;0.517228
9447.000000;0.517200
9446.000000;0.517102
9445.000000;0.516879
9444.000000;0.516644
9443.000000;0.516570
9442.000000;0.516698
9441.000000;0.516930
9440.000000;0.517148
9439.000000;0.517269
9438.000000;0.517249
9437.000000;0.517112
9436.000000;0.516968
9435.000000;0.516915
9434.000000;0.516937
9433.000000;0.516933
9432.000000;0.516849
9431.000000;0.516730
9430.000000;0.516647
9429.000000;0.516639
9428.000000;0.516711
9427.000000;0.516830
9426.000000;0.516916
9425.000000;0.516887
9424.000000;0.516760
9423.000000;0.516649
9422.000000;0.516637
9421.000000;0.516708
9420.000000;0.516809
9419.000000;0.516924
9418.000000;0.517034
9417.000000;0.517077
9416.000000;0.517019
9415.000000;0.516916
9414.000000;0.516823
9413.000000;0.516711
9412.000000;0.516565
9411.000000;0.516495
9410.000000;0.516628
9409.000000;0.516890
9408.000000;0.517072
9407.000000;0.517105
9406.000000;0.517116
9405.000000;0.517173
9404.000000;0.517122
9403.000000;0.516838
9402.000000;0.516484
9401.000000;0.516367
9400.000000;0.516556
9399.000000;0.516793
9398.000000;0.516794
9397.000000;0.516543
9396.000000;0.516274
9395.000000;0.516229
9394.000000;0.516450
9393.000000;0.516773
9392.000000;0.517009
9391.000000;0.517145
9390.000000;0.517327
9389.000000;0.517629
9388.000000;0.517921
9387.000000;0.518005
9386.000000;0.517851
9385.000000;0.517603
9384.000000;0.517415
9383.000000;0.517342
9382.000000;0.517366
9381.000000;0.517414
9380.000000;0.517371
9379.000000;0.517169
9378.000000;0.516896
9377.000000;0.516749
9376.000000;0.516827
9375.000000;0.517028
9374.000000;0.517147
9373.000000;0.517089
9372.000000;0.516944
9371.000000;0.516880
9370.000000;0.516959
9369.000000;0.517079
9368.000000;0.517126
9367.000000;0.517136
9366.000000;0.517227
9365.000000;0.517394
9364.000000;0.517501
9363.000000;0.517489
9362.000000;0.517464
9361.000000;0.517505
9360.000000;0.517506
9359.000000;0.517340
9358.000000;0.517078
9357.000000;0.516902
9356.000000;0.516882
9355.000000;0.516958
9354.000000;0.517092
9353.000000;0.517262
9352.000000;0.517368
9351.000000;0.517286
9350.000000;0.517053
9349.000000;0.516855
9348.000000;0.516811
9347.000000;0.516883
9346.000000;0.517004
9345.000000;0.517176
9344.000000;0.517397
9343.000000;0.517592
9342.000000;0.517661
9341.000000;0.517551
9340.000000;0.517297
9339.000000;0.517047
9338.000000;0.517000
9337.000000;0.517207
9336.000000;0.517468
9335.000000;0.517538
9334.000000;0.517432
9333.000000;0.517385
9332.000000;0.517488
9331.000000;0.517559
9330.000000;0.517421
9329.000000;0.517154
9328.000000;0.516962
9327.000000;0.516905
9326.000000;0.516895
9325.000000;0.516886
9324.000000;0.516937
9323.000000;0.517100
9322.000000;0.517342
9321.000000;0.517577
9320.000000;0.517733
9319.000000;0.517789
9318.000000;0.517782
9317.000000;0.517759
9316.000000;0.517714
9315.000000;0.517598
9314.000000;0.517420
9313.000000;0.517275
9312.000000;0.517251
9311.000000;0.517348
9310.000000;0.517512
9309.000000;0.517700
9308.000000;0.517870
9307.000000;0.517977
9306.000000;0.518009
9305.000000;0.518016
9304.000000;0.518045
9303.000000;0.518072
9302.000000;0.518039
9301.000000;0.517943
9300.000000;0.517839
9299.000000;0.517780
9298.000000;0.517780
9297.000000;0.517824
9296.000000;0.517874
9295.000000;0.517864
9294.000000;0.517736
9293.000000;0.517495
9292.000000;0.517234
9291.000000;0.517060
9290.000000;0.516999
9289.000000;0.516995
9288.000000;0.517006
9287.000000;0.517078
9286.000000;0.517262
9285.000000;0.517479
9284.000000;0.517556
9283.000000;0.517426
9282.000000;0.517229
9281.000000;0.517156
9280.000000;0.517262
9279.000000;0.517465
9278.000000;0.517666
9277.000000;0.517797
9276.000000;0.517801
9275.000000;0.517675
9274.000000;0.517517
9273.000000;0.517429
9272.000000;0.517385
9271.000000;0.517280
9270.000000;0.517118
9269.000000;0.517049
9268.000000;0.517174
9267.000000;0.517414
9266.000000;0.517604
9265.000000;0.517681
9264.000000;0.517707
9263.000000;0.517739
9262.000000;0.517733
9261.000000;0.517598
9260.000000;0.517332
9259.000000;0.517070
9258.000000;0.516978
9257.000000;0.517094
9256.000000;0.517305
9255.000000;0.517491
9254.000000;0.517629
9253.000000;0.517737
9252.000000;0.517785
9251.000000;0.517727
9250.000000;0.517586
9249.000000;0.517441
9248.000000;0.517346
9247.000000;0.517295
9246.000000;0.517264
9245.000000;0.517238
9244.000000;0.517224
9243.000000;0.517280
9242.000000;0.517475
9241.000000;0.517792
9240.000000;0.518113
9239.000000;0.518345
9238.000000;0.518499
9237.000000;0.518581
9236.000000;0.518506
9235.000000;0.518209
9234.000000;0.517788
9233.000000;0.517430
9232.000000;0.517234
9231.000000;0.517196
9230.000000;0.517310
9229.000000;0.517536
9228.000000;0.517714
9227.000000;0.517674
9226.000000;0.517464
9225.000000;0.517333
9224.000000;0.517441
9223.000000;0.517681
9222.000000;0.517834
9221.000000;0.517788
9220.000000;0.517561
9219.000000;0.517225
9218.000000;0.516894
9217.000000;0.516735
9216.000000;0.516881
9215.000000;0.517332
9214.000000;0.517919
9213.000000;0.518390
9212.000000;0.518556
9211.000000;0.518422
9210.000000;0.518153
9209.000000;0.517911
9208.000000;0.517716
9207.000000;0.517538
9206.000000;0.517435
9205.000000;0.517513
9204.000000;0.517757
9203.000000;0.518005
9202.000000;0.518116
9201.000000;0.518069
9200.000000;0.517924
9199.000000;0.517759
9198.000000;0.517662
9197.000000;0.517679
9196.000000;0.517745
9195.000000;0.517748
9194.000000;0.517669
9193.000000;0.517605
9192.000000;0.517622
9191.000000;0.517677
9190.000000;0.517701
9189.000000;0.517683
9188.000000;0.517643
9187.000000;0.517591
9186.000000;0.517554
9185.000000;0.517586
9184.000000;0.517683
9183.000000;0.517764
9182.000000;0.517779
9181.000000;0.517784
9180.000000;0.517875
9179.000000;0.518059
9178.000000;0.518242
9177.000000;0.518335
9176.000000;0.518343
9175.000000;0.518355
9174.000000;0.518434
9173.000000;0.518537
9172.000000;0.518554
9171.000000;0.518440
9170.000000;0.518249
9169.000000;0.518022
9168.000000;0.517727
9167.000000;0.517366
9166.000000;0.517065
9165.000000;0.516943
9164.000000;0.516950
9163.000000;0.516941
9162.000000;0.516909
9161.000000;0.516987
9160.000000;0.517228
9159.000000;0.517505
9158.000000;0.517656
9157.000000;0.517662
9156.000000;0.517615
9155.000000;0.517616
9154.000000;0.517721
9153.000000;0.517932
9152.000000;0.518183
9151.000000;0.518372
9150.000000;0.518447
9149.000000;0.518415
9148.000000;0.518284
9147.000000;0.518066
9146.000000;0.517839
9145.000000;0.517726
9144.000000;0.517776
9143.000000;0.517918
9142.000000;0.518039
9141.000000;0.518061
9140.000000;0.517951
9139.000000;0.517748
9138.000000;0.517577
9137.000000;0.517551
9136.000000;0.517632
9135.000000;0.517673
9134.000000;0.517614
9133.000000;0.517551
9132.000000;0.517595
9131.000000;0.517729
9130.000000;0.517867
9129.000000;0.517953
9128.000000;0.517971
9127.000000;0.517899
9126.000000;0.517743
9125.000000;0.517574
9124.000000;0.517485
9123.000000;0.517525
9122.000000;0.517679
9121.000000;0.517881
9120.000000;0.518053
9119.000000;0.518157
9118.000000;0.518220
9117.000000;0.518269
9116.000000;0.518261
9115.000000;0.518147
9114.000000;0.517991
9113.000000;0.517944
9112.000000;0.518061
9111.000000;0.518222
9110.000000;0.518255
9109.000000;0.518104
9108.000000;0.517852
9107.000000;0.517639
9106.000000;0.517576
9105.000000;0.517674
9104.000000;0.517819
9103.000000;0.517856
9102.000000;0.517737
9101.000000;0.517544
9100.000000;0.517389
9099.000000;0.517325
9098.000000;0.517370
9097.000000;0.517527
9096.000000;0.517764
9095.000000;0.517996
9094.000000;0.518156
9093.000000;0.518227
9092.000000;0.518233
9091.000000;0.518211
9090.000000;0.518197
9089.000000;0.518195
9088.000000;0.518159
9087.000000;0.518072
9086.000000;0.518022
9085.000000;0.518150
9084.000000;0.518471
9083.000000;0.518820
9082.000000;0.518987
9081.000000;0.518870
9080.000000;0.518519
9079.000000;0.518091
9078.000000;0.517775
9077.000000;0.517672
9076.000000;0.517706
9075.000000;0.517698
9074.000000;0.517568
9073.000000;0.517411
9072.000000;0.517363
9071.000000;0.517450
9070.000000;0.517592
9069.000000;0.517707
9068.000000;0.517780
9067.000000;0.517861
9066.000000;0.518002
9065.000000;0.518180
9064.000000;0.518293
9063.000000;0.518263
9062.000000;0.518141
9061.000000;0.518053
9060.000000;0.518053
9059.000000;0.518093
9058.000000;0.518124
9057.000000;0.518158
9056.000000;0.518190
9055.000000;0.518172
9054.000000;0.518093
9053.000000;0.518027
