Criado como novo conjunto de dados;"2706_e01_daniel.spp","13142.7 Secs"
cm-1;Abs
10000.000000;0.796823
9999.000000;0.796607
9998.000000;0.796391
9997.000000;0.796175
9996.000000;0.795959
9995.000000;0.795745
9994.000000;0.795527
9993.000000;0.795316
9992.000000;0.795089
9991.000000;0.795256
9990.000000;0.795684
9989.000000;0.796244
9988.000000;0.796731
9987.000000;0.796859
9986.000000;0.796589
9985.000000;0.796185
9984.000000;0.795839
9983.000000;0.795469
9982.000000;0.794965
9981.000000;0.794386
9980.000000;0.793818
9979.000000;0.793331
9978.000000;0.793188
9977.000000;0.793747
9976.000000;0.794936
9975.000000;0.796083
9974.000000;0.796523
9973.000000;0.796250
9972.000000;0.795769
9971.000000;0.795482
9970.000000;0.795406
9969.000000;0.795359
9968.000000;0.795234
9967.000000;0.795118
9966.000000;0.795185
9965.000000;0.795406
9964.000000;0.795415
9963.000000;0.794888
9962.000000;0.794083
9961.000000;0.793717
9960.000000;0.794144
9959.000000;0.794925
9958.000000;0.795364
9957.000000;0.795260
9956.000000;0.794916
9955.000000;0.794628
9954.000000;0.794428
9953.000000;0.794215
9952.000000;0.793907
9951.000000;0.793495
9950.000000;0.793087
9949.000000;0.792810
9948.000000;0.792591
9947.000000;0.792184
9946.000000;0.791565
9945.000000;0.791089
9944.000000;0.791092
9943.000000;0.791456
9942.000000;0.791786
9941.000000;0.791907
9940.000000;0.791970
9939.000000;0.792126
9938.000000;0.792296
9937.000000;0.792305
9936.000000;0.792084
9935.000000;0.791729
9934.000000;0.791446
9933.000000;0.791402
9932.000000;0.791526
9931.000000;0.791482
9930.000000;0.790974
9929.000000;0.790111
9928.000000;0.789416
9927.000000;0.789397
9926.000000;0.790090
9925.000000;0.791007
9924.000000;0.791551
9923.000000;0.791534
9922.000000;0.791250
9921.000000;0.791014
9920.000000;0.790764
9919.000000;0.790260
9918.000000;0.789534
9917.000000;0.788896
9916.000000;0.788523
9915.000000;0.788300
9914.000000;0.788135
9913.000000;0.788181
9912.000000;0.788621
9911.000000;0.789387
9910.000000;0.790213
9909.000000;0.790818
9908.000000;0.790943
9907.000000;0.790408
9906.000000;0.789350
9905.000000;0.788287
9904.000000;0.787741
9903.000000;0.787783
9902.000000;0.788024
9901.000000;0.788040
9900.000000;0.787749
9899.000000;0.787427
9898.000000;0.787423
9897.000000;0.787828
9896.000000;0.788398
9895.000000;0.788815
9894.000000;0.788978
9893.000000;0.788946
9892.000000;0.788672
9891.000000;0.788047
9890.000000;0.787236
9889.000000;0.786711
9888.000000;0.786768
9887.000000;0.787165
9886.000000;0.787417
9885.000000;0.787361
9884.000000;0.787274
9883.000000;0.787461
9882.000000;0.787879
9881.000000;0.788190
9880.000000;0.788126
9879.000000;0.787771
9878.000000;0.787476
9877.000000;0.787478
9876.000000;0.787602
9875.000000;0.787440
9874.000000;0.786843
9873.000000;0.786113
9872.000000;0.785666
9871.000000;0.785591
9870.000000;0.785653
9869.000000;0.785627
9868.000000;0.785517
9867.000000;0.785466
9866.000000;0.785536
9865.000000;0.785643
9864.000000;0.785681
9863.000000;0.785635
9862.000000;0.785522
9861.000000;0.785234
9860.000000;0.784620
9859.000000;0.783820
9858.000000;0.783354
9857.000000;0.783642
9856.000000;0.784459
9855.000000;0.785079
9854.000000;0.785045
9853.000000;0.784622
9852.000000;0.784389
9851.000000;0.784574
9850.000000;0.784946
9849.000000;0.785221
9848.000000;0.785360
9847.000000;0.785460
9846.000000;0.785517
9845.000000;0.785413
9844.000000;0.785087
9843.000000;0.784648
9842.000000;0.784265
9841.000000;0.783991
9840.000000;0.783771
9839.000000;0.783609
9838.000000;0.783604
9837.000000;0.783758
9836.000000;0.783896
9835.000000;0.783881
9834.000000;0.783783
9833.000000;0.783716
9832.000000;0.783601
9831.000000;0.783310
9830.000000;0.782962
9829.000000;0.782815
9828.000000;0.782891
9827.000000;0.782931
9826.000000;0.782797
9825.000000;0.782664
9824.000000;0.782746
9823.000000;0.783000
9822.000000;0.783222
9821.000000;0.783288
9820.000000;0.783157
9819.000000;0.782806
9818.000000;0.782294
9817.000000;0.781840
9816.000000;0.781666
9815.000000;0.781779
9814.000000;0.781963
9813.000000;0.781996
9812.000000;0.781849
9811.000000;0.781714
9810.000000;0.781829
9809.000000;0.782225
9808.000000;0.782616
9807.000000;0.782620
9806.000000;0.782101
9805.000000;0.781256
9804.000000;0.780387
9803.000000;0.779709
9802.000000;0.779408
9801.000000;0.779662
9800.000000;0.780472
9799.000000;0.781499
9798.000000;0.782212
9797.000000;0.782263
9796.000000;0.781699
9795.000000;0.780860
9794.000000;0.780098
9793.000000;0.779586
9792.000000;0.779316
9791.000000;0.779198
9790.000000;0.779139
9789.000000;0.779087
9788.000000;0.779094
9787.000000;0.779323
9786.000000;0.779866
9785.000000;0.780500
9784.000000;0.780738
9783.000000;0.780276
9782.000000;0.779320
9781.000000;0.778390
9780.000000;0.777843
9779.000000;0.777713
9778.000000;0.777873
9777.000000;0.778190
9776.000000;0.778524
9775.000000;0.778755
9774.000000;0.778855
9773.000000;0.778855
9772.000000;0.778755
9771.000000;0.778600
9770.000000;0.778596
9769.000000;0.778957
9768.000000;0.779621
9767.000000;0.780241
9766.000000;0.780513
9765.000000;0.780409
9764.000000;0.780066
9763.000000;0.779597
9762.000000;0.779072
9761.000000;0.778574
9760.000000;0.778184
9759.000000;0.777950
9758.000000;0.777907
9757.000000;0.778064
9756.000000;0.778317
9755.000000;0.778488
9754.000000;0.778489
9753.000000;0.778428
9752.000000;0.778492
9751.000000;0.778746
9750.000000;0.779047
9749.000000;0.779163
9748.000000;0.778980
9747.000000;0.778639
9746.000000;0.778421
9745.000000;0.778434
9744.000000;0.778457
9743.000000;0.778187
9742.000000;0.777614
9741.000000;0.777066
9740.000000;0.776859
9739.000000;0.776997
9738.000000;0.777221
9737.000000;0.777292
9736.000000;0.777172
9735.000000;0.776981
9734.000000;0.776847
9733.000000;0.776805
9732.000000;0.776847
9731.000000;0.776991
9730.000000;0.777217
9729.000000;0.777352
9728.000000;0.777152
9727.000000;0.776573
9726.000000;0.775872
9725.000000;0.775339
9724.000000;0.775001
9723.000000;0.774672
9722.000000;0.774267
9721.000000;0.773962
9720.000000;0.774038
9719.000000;0.774601
9718.000000;0.775418
9717.000000;0.776031
9716.000000;0.776111
9715.000000;0.775748
9714.000000;0.775334
9713.000000;0.775171
9712.000000;0.775297
9711.000000;0.775642
9710.000000;0.776139
9709.000000;0.776602
9708.000000;0.776720
9707.000000;0.776336
9706.000000;0.775605
9705.000000;0.774764
9704.000000;0.773904
9703.000000;0.773098
9702.000000;0.772575
9701.000000;0.772502
9700.000000;0.772703
9699.000000;0.772794
9698.000000;0.772601
9697.000000;0.772262
9696.000000;0.771993
9695.000000;0.771908
9694.000000;0.772042
9693.000000;0.772357
9692.000000;0.772733
9691.000000;0.773044
9690.000000;0.773232
9689.000000;0.773227
9688.000000;0.772921
9687.000000;0.772365
9686.000000;0.771882
9685.000000;0.771797
9684.000000;0.772103
9683.000000;0.772565
9682.000000;0.773040
9681.000000;0.773473
9680.000000;0.773670
9679.000000;0.773367
9678.000000;0.772600
9677.000000;0.771784
9676.000000;0.771367
9675.000000;0.771509
9674.000000;0.772056
9673.000000;0.772688
9672.000000;0.773063
9671.000000;0.772996
9670.000000;0.772569
9669.000000;0.772029
9668.000000;0.771586
9667.000000;0.771346
9666.000000;0.771329
9665.000000;0.771452
9664.000000;0.771554
9663.000000;0.771578
9662.000000;0.771628
9661.000000;0.771754
9660.000000;0.771816
9659.000000;0.771727
9658.000000;0.771665
9657.000000;0.771824
9656.000000;0.772052
9655.000000;0.772009
9654.000000;0.771631
9653.000000;0.771161
9652.000000;0.770762
9651.000000;0.770380
9650.000000;0.769992
9649.000000;0.769687
9648.000000;0.769453
9647.000000;0.769138
9646.000000;0.768726
9645.000000;0.768436
9644.000000;0.768445
9643.000000;0.768676
9642.000000;0.768949
9641.000000;0.769196
9640.000000;0.769460
9639.000000;0.769787
9638.000000;0.770177
9637.000000;0.770523
9636.000000;0.770595
9635.000000;0.770251
9634.000000;0.769698
9633.000000;0.769363
9632.000000;0.769428
9631.000000;0.769613
9630.000000;0.769518
9629.000000;0.769088
9628.000000;0.768661
9627.000000;0.768608
9626.000000;0.768990
9625.000000;0.769510
9624.000000;0.769793
9623.000000;0.769721
9622.000000;0.769475
9621.000000;0.769228
9620.000000;0.768936
9619.000000;0.768516
9618.000000;0.768089
9617.000000;0.767872
9616.000000;0.767892
9615.000000;0.768036
9614.000000;0.768296
9613.000000;0.768735
9612.000000;0.769188
9611.000000;0.769275
9610.000000;0.768788
9609.000000;0.767945
9608.000000;0.767168
9607.000000;0.766737
9606.000000;0.766670
9605.000000;0.766794
9604.000000;0.766870
9603.000000;0.766757
9602.000000;0.766528
9601.000000;0.766371
9600.000000;0.766398
9599.000000;0.766614
9598.000000;0.766996
9597.000000;0.767443
9596.000000;0.767685
9595.000000;0.767461
9594.000000;0.766847
9593.000000;0.766285
9592.000000;0.766182
9591.000000;0.766542
9590.000000;0.766982
9589.000000;0.767082
9588.000000;0.766733
9587.000000;0.766235
9586.000000;0.765993
9585.000000;0.766079
9584.000000;0.766168
9583.000000;0.765978
9582.000000;0.765634
9581.000000;0.765458
9580.000000;0.765533
9579.000000;0.765679
9578.000000;0.765761
9577.000000;0.765753
9576.000000;0.765593
9575.000000;0.765231
9574.000000;0.764839
9573.000000;0.764699
9572.000000;0.764838
9571.000000;0.764985
9570.000000;0.764925
9569.000000;0.764741
9568.000000;0.764635
9567.000000;0.764667
9566.000000;0.764734
9565.000000;0.764675
9564.000000;0.764397
9563.000000;0.764013
9562.000000;0.763829
9561.000000;0.764024
9560.000000;0.764375
9559.000000;0.764491
9558.000000;0.764308
9557.000000;0.764134
9556.000000;0.764208
9555.000000;0.764438
9554.000000;0.764596
9553.000000;0.764561
9552.000000;0.764323
9551.000000;0.763943
9550.000000;0.763594
9549.000000;0.763441
9548.000000;0.763422
9547.000000;0.763302
9546.000000;0.763033
9545.000000;0.762849
9544.000000;0.762938
9543.000000;0.763187
9542.000000;0.763350
9541.000000;0.763338
9540.000000;0.763229
9539.000000;0.763101
9538.000000;0.762938
9537.000000;0.762631
9536.000000;0.762089
9535.000000;0.761424
9534.000000;0.761011
9533.000000;0.761170
9532.000000;0.761771
9531.000000;0.762322
9530.000000;0.762488
9529.000000;0.762331
9528.000000;0.762034
9527.000000;0.761641
9526.000000;0.761189
9525.000000;0.760880
9524.000000;0.760900
9523.000000;0.761191
9522.000000;0.761534
9521.000000;0.761776
9520.000000;0.761847
9519.000000;0.761673
9518.000000;0.761216
9517.000000;0.760588
9516.000000;0.760044
9515.000000;0.759835
9514.000000;0.760068
9513.000000;0.760620
9512.000000;0.761179
9511.000000;0.761458
9510.000000;0.761437
9509.000000;0.761323
9508.000000;0.761270
9507.000000;0.761204
9506.000000;0.760961
9505.000000;0.760515
9504.000000;0.760036
9503.000000;0.759766
9502.000000;0.759834
9501.000000;0.760109
9500.000000;0.760281
9499.000000;0.760158
9498.000000;0.759865
9497.000000;0.759651
9496.000000;0.759582
9495.000000;0.759552
9494.000000;0.759530
9493.000000;0.759588
9492.000000;0.759713
9491.000000;0.759794
9490.000000;0.759815
9489.000000;0.759881
9488.000000;0.760013
9487.000000;0.760117
9486.000000;0.760184
9485.000000;0.760342
9484.000000;0.760628
9483.000000;0.760883
9482.000000;0.760917
9481.000000;0.760660
9480.000000;0.760117
9479.000000;0.759378
9478.000000;0.758710
9477.000000;0.758426
9476.000000;0.758555
9475.000000;0.758789
9474.000000;0.758857
9473.000000;0.758786
9472.000000;0.758707
9471.000000;0.758598
9470.000000;0.758365
9469.000000;0.758032
9468.000000;0.757685
9467.000000;0.757341
9466.000000;0.757025
9465.000000;0.756878
9464.000000;0.757042
9463.000000;0.757482
9462.000000;0.758042
9461.000000;0.758596
9460.000000;0.759026
9459.000000;0.759145
9458.000000;0.758807
9457.000000;0.758115
9456.000000;0.757403
9455.000000;0.756996
9454.000000;0.757026
9453.000000;0.757406
9452.000000;0.757869
9451.000000;0.758075
9450.000000;0.757815
9449.000000;0.757187
9448.000000;0.756546
9447.000000;0.756258
9446.000000;0.756470
9445.000000;0.757039
9444.000000;0.757623
9443.000000;0.757886
9442.000000;0.757707
9441.000000;0.757259
9440.000000;0.756874
9439.000000;0.756805
9438.000000;0.757065
9437.000000;0.757437
9436.000000;0.757656
9435.000000;0.757612
9434.000000;0.757392
9433.000000;0.757128
9432.000000;0.756848
9431.000000;0.756517
9430.000000;0.756172
9429.000000;0.755920
9428.000000;0.755797
9427.000000;0.755700
9426.000000;0.755496
9425.000000;0.755183
9424.000000;0.754931
9423.000000;0.754943
9422.000000;0.755230
9421.000000;0.755539
9420.000000;0.755563
9419.000000;0.755262
9418.000000;0.754884
9417.000000;0.754663
9416.000000;0.754596
9415.000000;0.754574
9414.000000;0.754568
9413.000000;0.754583
9412.000000;0.754566
9411.000000;0.754503
9410.000000;0.754527
9409.000000;0.754768
9408.000000;0.755149
9407.000000;0.755456
9406.000000;0.755541
9405.000000;0.755348
9404.000000;0.754856
9403.000000;0.754163
9402.000000;0.753562
9401.000000;0.753320
9400.000000;0.753402
9399.000000;0.753580
9398.000000;0.753739
9397.000000;0.753914
9396.000000;0.754064
9395.000000;0.754077
9394.000000;0.753984
9393.000000;0.753946
9392.000000;0.753991
9391.000000;0.753963
9390.000000;0.753800
9389.000000;0.753655
9388.000000;0.753654
9387.000000;0.753706
9386.000000;0.753631
9385.000000;0.753366
9384.000000;0.752967
9383.000000;0.752530
9382.000000;0.752168
9381.000000;0.751942
9380.000000;0.751773
9379.000000;0.751521
9378.000000;0.751217
9377.000000;0.751068
9376.000000;0.751200
9375.000000;0.751486
9374.000000;0.751723
9373.000000;0.751856
9372.000000;0.751969
9371.000000;0.752138
9370.000000;0.752343
9369.000000;0.752483
9368.000000;0.752436
9367.000000;0.752156
9366.000000;0.751746
9365.000000;0.751366
9364.000000;0.751115
9363.000000;0.751035
9362.000000;0.751159
9361.000000;0.751411
9360.000000;0.751529
9359.000000;0.751286
9358.000000;0.750814
9357.000000;0.750534
9356.000000;0.750699
9355.000000;0.751154
9354.000000;0.751574
9353.000000;0.751800
9352.000000;0.751873
9351.000000;0.751865
9350.000000;0.751765
9349.000000;0.751497
9348.000000;0.750994
9347.000000;0.750336
9346.000000;0.749799
9345.000000;0.749666
9344.000000;0.749936
9343.000000;0.750300
9342.000000;0.750437
9341.000000;0.750277
9340.000000;0.750006
9339.000000;0.749893
9338.000000;0.750091
9337.000000;0.750484
9336.000000;0.750741
9335.000000;0.750610
9334.000000;0.750195
9333.000000;0.749832
9332.000000;0.749738
9331.000000;0.749865
9330.000000;0.750052
9329.000000;0.750161
9328.000000;0.750079
9327.000000;0.749794
9326.000000;0.749488
9325.000000;0.749410
9324.000000;0.749579
9323.000000;0.749730
9322.000000;0.749620
9321.000000;0.749280
9320.000000;0.748959
9319.000000;0.748888
9318.000000;0.749118
9317.000000;0.749457
9316.000000;0.749583
9315.000000;0.749323
9314.000000;0.748847
9313.000000;0.748463
9312.000000;0.748280
9311.000000;0.748212
9310.000000;0.748250
9309.000000;0.748502
9308.000000;0.748935
9307.000000;0.749302
9306.000000;0.749415
9305.000000;0.749317
9304.000000;0.749097
9303.000000;0.748726
9302.000000;0.748206
9301.000000;0.747715
9300.000000;0.747450
9299.000000;0.747412
9298.000000;0.747462
9297.000000;0.747519
9296.000000;0.747575
9295.000000;0.747571
9294.000000;0.747385
9293.000000;0.746955
9292.000000;0.746403
9291.000000;0.746027
9290.000000;0.746119
9289.000000;0.746677
9288.000000;0.747341
9287.000000;0.747713
9286.000000;0.747743
9285.000000;0.747670
9284.000000;0.747618
9283.000000;0.747468
9282.000000;0.747151
9281.000000;0.746848
9280.000000;0.746767
9279.000000;0.746887
9278.000000;0.747041
9277.000000;0.747132
9276.000000;0.747126
9275.000000;0.746970
9274.000000;0.746657
9273.000000;0.746331
9272.000000;0.746158
9271.000000;0.746128
9270.000000;0.746074
9269.000000;0.745909
9268.000000;0.745723
9267.000000;0.745645
9266.000000;0.745678
9265.000000;0.745673
9264.000000;0.745471
9263.000000;0.745053
9262.000000;0.744590
9261.000000;0.744327
9260.000000;0.744395
9259.000000;0.744714
9258.000000;0.745052
9257.000000;0.745184
9256.000000;0.745046
9255.000000;0.744781
9254.000000;0.744613
9253.000000;0.744629
9252.000000;0.744717
9251.000000;0.744724
9250.000000;0.744603
9249.000000;0.744350
9248.000000;0.743951
9247.000000;0.743496
9246.000000;0.743247
9245.000000;0.743416
9244.000000;0.743898
9243.000000;0.744376
9242.000000;0.744663
9241.000000;0.744785
9240.000000;0.744785
9239.000000;0.744630
9238.000000;0.744336
9237.000000;0.744015
9236.000000;0.743757
9235.000000;0.743582
9234.000000;0.743514
9233.000000;0.743559
9232.000000;0.743618
9231.000000;0.743561
9230.000000;0.743433
9229.000000;0.743399
9228.000000;0.743477
9227.000000;0.743467
9226.000000;0.743220
9225.000000;0.742839
9224.000000;0.742537
9223.000000;0.742399
9222.000000;0.742342
9221.000000;0.742224
9220.000000;0.741945
9219.000000;0.741554
9218.000000;0.741263
9217.000000;0.741286
9216.000000;0.741616
9215.000000;0.742047
9214.000000;0.742400
9213.000000;0.742630
9212.000000;0.742716
9211.000000;0.742628
9210.000000;0.742410
9209.000000;0.742165
9208.000000;0.741917
9207.000000;0.741625
9206.000000;0.741340
9205.000000;0.741196
9204.000000;0.741229
9203.000000;0.741334
9202.000000;0.741452
9201.000000;0.741608
9200.000000;0.741733
9199.000000;0.741632
9198.000000;0.741245
9197.000000;0.740797
9196.000000;0.740566
9195.000000;0.740594
9194.000000;0.740711
9193.000000;0.740748
9192.000000;0.740653
9191.000000;0.740498
9190.000000;0.740443
9189.000000;0.740618
9188.000000;0.740973
9187.000000;0.741318
9186.000000;0.741532
9185.000000;0.741626
9184.000000;0.741597
9183.000000;0.741362
9182.000000;0.740930
9181.000000;0.740490
9180.000000;0.740238
9179.000000;0.740196
9178.000000;0.740270
9177.000000;0.740398
9176.000000;0.740549
9175.000000;0.740654
9174.000000;0.740635
9173.000000;0.740489
9172.000000;0.740293
9171.000000;0.740149
9170.000000;0.740114
9169.000000;0.740112
9168.000000;0.739982
9167.000000;0.739682
9166.000000;0.739401
9165.000000;0.739325
9164.000000;0.739346
9163.000000;0.739189
9162.000000;0.738829
9161.000000;0.738533
9160.000000;0.738473
9159.000000;0.738520
9158.000000;0.738511
9157.000000;0.738494
9156.000000;0.738555
9155.000000;0.738618
9154.000000;0.738585
9153.000000;0.738528
9152.000000;0.738562
9151.000000;0.738652
9150.000000;0.738706
9149.000000;0.738761
9148.000000;0.738897
9147.000000;0.739063
9146.000000;0.739150
9145.000000;0.739164
9144.000000;0.739172
9143.000000;0.739129
9142.000000;0.738928
9141.000000;0.738597
9140.000000;0.738288
9139.000000;0.738076
9138.000000;0.737907
9137.000000;0.737753
9136.000000;0.737695
9135.000000;0.737813
9134.000000;0.738051
9133.000000;0.738228
9132.000000;0.738167
9131.000000;0.737817
9130.000000;0.737297
9129.000000;0.736801
9128.000000;0.736450
9127.000000;0.736261
9126.000000;0.736233
9125.000000;0.736390
9124.000000;0.736683
9123.000000;0.736967
9122.000000;0.737112
9121.000000;0.737116
9120.000000;0.737042
9119.000000;0.736932
9118.000000;0.736829
9117.000000;0.736787
9116.000000;0.736775
9115.000000;0.736663
9114.000000;0.736400
9113.000000;0.736141
9112.000000;0.736074
9111.000000;0.736179
9110.000000;0.736252
9109.000000;0.736168
9108.000000;0.736000
9107.000000;0.735879
9106.000000;0.735836
9105.000000;0.735803
9104.000000;0.735722
9103.000000;0.735603
9102.000000;0.735508
9101.000000;0.735484
9100.000000;0.735517
9099.000000;0.735559
9098.000000;0.735592
9097.000000;0.735638
9096.000000;0.735685
9095.000000;0.735648
9094.000000;0.735453
9093.000000;0.735125
9092.000000;0.734782
9091.000000;0.734576
9090.000000;0.734623
9089.000000;0.734933
9088.000000;0.735348
9087.000000;0.735611
9086.000000;0.735558
9085.000000;0.735231
9084.000000;0.734830
9083.000000;0.734569
9082.000000;0.734560
9081.000000;0.734753
9080.000000;0.734931
9079.000000;0.734860
9078.000000;0.734501
9077.000000;0.734040
9076.000000;0.733700
9075.000000;0.733538
9074.000000;0.733472
9073.000000;0.733427
9072.000000;0.733403
9071.000000;0.733415
9070.000000;0.733425
9069.000000;0.733355
9068.000000;0.733179
9067.000000;0.732995
9066.000000;0.732983
9065.000000;0.733244
9064.000000;0.733670
9063.000000;0.734048
9062.000000;0.734255
9061.000000;0.734327
9060.000000;0.734315
9059.000000;0.734188
9058.000000;0.733908
9057.000000;0.733547
9056.000000;0.733263
9055.000000;0.733186
9054.000000;0.733329
9053.000000;0.733578
