Criado como novo conjunto de dados;"2706_e01_daniel.spp","67685.6 Secs"
cm-1;Abs
10000.000000;0.730489
9999.000000;0.730430
9998.000000;0.730372
9997.000000;0.730313
9996.000000;0.730254
9995.000000;0.730195
9994.000000;0.730137
9993.000000;0.730077
9992.000000;0.730022
9991.000000;0.729881
9990.000000;0.729804
9989.000000;0.729746
9988.000000;0.729479
9987.000000;0.728866
9986.000000;0.728011
9985.000000;0.727167
9984.000000;0.726579
9983.000000;0.726388
9982.000000;0.726568
9981.000000;0.726912
9980.000000;0.727172
9979.000000;0.727234
9978.000000;0.727101
9977.000000;0.726753
9976.000000;0.726180
9975.000000;0.725538
9974.000000;0.725099
9973.000000;0.724975
9972.000000;0.725066
9971.000000;0.725282
9970.000000;0.725628
9969.000000;0.725974
9968.000000;0.726037
9967.000000;0.725772
9966.000000;0.725594
9965.000000;0.725942
9964.000000;0.726707
9963.000000;0.727285
9962.000000;0.727193
9961.000000;0.726454
9960.000000;0.725464
9959.000000;0.724674
9958.000000;0.724380
9957.000000;0.724573
9956.000000;0.724892
9955.000000;0.724870
9954.000000;0.724341
9953.000000;0.723578
9952.000000;0.723042
9951.000000;0.723020
9950.000000;0.723435
9949.000000;0.723930
9948.000000;0.724186
9947.000000;0.724227
9946.000000;0.724341
9945.000000;0.724636
9944.000000;0.724782
9943.000000;0.724366
9942.000000;0.723446
9941.000000;0.722588
9940.000000;0.722335
9939.000000;0.722738
9938.000000;0.723373
9937.000000;0.723702
9936.000000;0.723465
9935.000000;0.722837
9934.000000;0.722217
9933.000000;0.721825
9932.000000;0.721536
9931.000000;0.721160
9930.000000;0.720774
9929.000000;0.720661
9928.000000;0.720991
9927.000000;0.721671
9926.000000;0.722456
9925.000000;0.723095
9924.000000;0.723422
9923.000000;0.723387
9922.000000;0.722963
9921.000000;0.722053
9920.000000;0.720685
9919.000000;0.719322
9918.000000;0.718676
9917.000000;0.718969
9916.000000;0.719608
9915.000000;0.719870
9914.000000;0.719728
9913.000000;0.719650
9912.000000;0.719728
9911.000000;0.719530
9910.000000;0.718822
9909.000000;0.717991
9908.000000;0.717552
9907.000000;0.717575
9906.000000;0.717781
9905.000000;0.717944
9904.000000;0.717977
9903.000000;0.717824
9902.000000;0.717512
9901.000000;0.717235
9900.000000;0.717197
9899.000000;0.717393
9898.000000;0.717647
9897.000000;0.717838
9896.000000;0.718002
9895.000000;0.718221
9894.000000;0.718472
9893.000000;0.718603
9892.000000;0.718513
9891.000000;0.718344
9890.000000;0.718400
9889.000000;0.718779
9888.000000;0.719189
9887.000000;0.719242
9886.000000;0.718852
9885.000000;0.718205
9884.000000;0.717467
9883.000000;0.716736
9882.000000;0.716180
9881.000000;0.715950
9880.000000;0.715961
9879.000000;0.716004
9878.000000;0.716043
9877.000000;0.716151
9876.000000;0.716204
9875.000000;0.715995
9874.000000;0.715647
9873.000000;0.715543
9872.000000;0.715759
9871.000000;0.715937
9870.000000;0.715865
9869.000000;0.715800
9868.000000;0.715961
9867.000000;0.716072
9866.000000;0.715783
9865.000000;0.715312
9864.000000;0.715241
9863.000000;0.715728
9862.000000;0.716266
9861.000000;0.716241
9860.000000;0.715528
9859.000000;0.714506
9858.000000;0.713703
9857.000000;0.713451
9856.000000;0.713732
9855.000000;0.714250
9854.000000;0.714667
9853.000000;0.714812
9852.000000;0.714699
9851.000000;0.714454
9850.000000;0.714226
9849.000000;0.714079
9848.000000;0.713898
9847.000000;0.713551
9846.000000;0.713176
9845.000000;0.713148
9844.000000;0.713617
9843.000000;0.714231
9842.000000;0.714463
9841.000000;0.714133
9840.000000;0.713477
9839.000000;0.712817
9838.000000;0.712322
9837.000000;0.712052
9836.000000;0.712028
9835.000000;0.712222
9834.000000;0.712540
9833.000000;0.712807
9832.000000;0.712755
9831.000000;0.712195
9830.000000;0.711291
9829.000000;0.710563
9828.000000;0.710424
9827.000000;0.710763
9826.000000;0.711110
9825.000000;0.711161
9824.000000;0.711009
9823.000000;0.710913
9822.000000;0.711006
9821.000000;0.711269
9820.000000;0.711590
9819.000000;0.711807
9818.000000;0.711775
9817.000000;0.711485
9816.000000;0.711074
9815.000000;0.710678
9814.000000;0.710314
9813.000000;0.709905
9812.000000;0.709433
9811.000000;0.709025
9810.000000;0.708889
9809.000000;0.709126
9808.000000;0.709581
9807.000000;0.709941
9806.000000;0.709994
9805.000000;0.709766
9804.000000;0.709413
9803.000000;0.709058
9802.000000;0.708750
9801.000000;0.708518
9800.000000;0.708401
9799.000000;0.708442
9798.000000;0.708637
9797.000000;0.708844
9796.000000;0.708788
9795.000000;0.708311
9794.000000;0.707635
9793.000000;0.707231
9792.000000;0.707358
9791.000000;0.707844
9790.000000;0.708334
9789.000000;0.708612
9788.000000;0.708605
9787.000000;0.708299
9786.000000;0.707817
9785.000000;0.707452
9784.000000;0.707411
9783.000000;0.707561
9782.000000;0.707567
9781.000000;0.707257
9780.000000;0.706742
9779.000000;0.706248
9778.000000;0.705984
9777.000000;0.706086
9776.000000;0.706485
9775.000000;0.706826
9774.000000;0.706702
9773.000000;0.706065
9772.000000;0.705322
9771.000000;0.704974
9770.000000;0.705233
9769.000000;0.705935
9768.000000;0.706690
9767.000000;0.707062
9766.000000;0.706778
9765.000000;0.705950
9764.000000;0.705069
9763.000000;0.704655
9762.000000;0.704814
9761.000000;0.705164
9760.000000;0.705220
9759.000000;0.704860
9758.000000;0.704396
9757.000000;0.704188
9756.000000;0.704271
9755.000000;0.704375
9754.000000;0.704263
9753.000000;0.703947
9752.000000;0.703607
9751.000000;0.703380
9750.000000;0.703286
9749.000000;0.703263
9748.000000;0.703245
9747.000000;0.703194
9746.000000;0.703113
9745.000000;0.703024
9744.000000;0.702986
9743.000000;0.703108
9742.000000;0.703457
9741.000000;0.703868
9740.000000;0.703968
9739.000000;0.703551
9738.000000;0.702871
9737.000000;0.702417
9736.000000;0.702404
9735.000000;0.702664
9734.000000;0.702956
9733.000000;0.703194
9732.000000;0.703320
9731.000000;0.703232
9730.000000;0.702935
9729.000000;0.702610
9728.000000;0.702398
9727.000000;0.702273
9726.000000;0.702214
9725.000000;0.702314
9724.000000;0.702556
9723.000000;0.702644
9722.000000;0.702319
9721.000000;0.701787
9720.000000;0.701595
9719.000000;0.702021
9718.000000;0.702730
9717.000000;0.703066
9716.000000;0.702636
9715.000000;0.701623
9714.000000;0.700623
9713.000000;0.700176
9712.000000;0.700381
9711.000000;0.700897
9710.000000;0.701277
9709.000000;0.701321
9708.000000;0.701125
9707.000000;0.700894
9706.000000;0.700737
9705.000000;0.700603
9704.000000;0.700367
9703.000000;0.700025
9702.000000;0.699774
9701.000000;0.699804
9700.000000;0.700023
9699.000000;0.700112
9698.000000;0.699852
9697.000000;0.699276
9696.000000;0.698509
9695.000000;0.697676
9694.000000;0.697013
9693.000000;0.696825
9692.000000;0.697194
9691.000000;0.697846
9690.000000;0.698427
9689.000000;0.698770
9688.000000;0.698828
9687.000000;0.698574
9686.000000;0.698144
9685.000000;0.697877
9684.000000;0.697984
9683.000000;0.698271
9682.000000;0.698397
9681.000000;0.698303
9680.000000;0.698162
9679.000000;0.698042
9678.000000;0.697874
9677.000000;0.697700
9676.000000;0.697637
9675.000000;0.697607
9674.000000;0.697378
9673.000000;0.696963
9672.000000;0.696710
9671.000000;0.696878
9670.000000;0.697287
9669.000000;0.697534
9668.000000;0.697429
9667.000000;0.697085
9666.000000;0.696682
9665.000000;0.696296
9664.000000;0.695968
9663.000000;0.695798
9662.000000;0.695890
9661.000000;0.696194
9660.000000;0.696474
9659.000000;0.696477
9658.000000;0.696170
9657.000000;0.695735
9656.000000;0.695347
9655.000000;0.695043
9654.000000;0.694846
9653.000000;0.694870
9652.000000;0.695193
9651.000000;0.695659
9650.000000;0.695940
9649.000000;0.695786
9648.000000;0.695231
9647.000000;0.694577
9646.000000;0.694217
9645.000000;0.694324
9644.000000;0.694661
9643.000000;0.694796
9642.000000;0.694609
9641.000000;0.694432
9640.000000;0.694580
9639.000000;0.694893
9638.000000;0.694931
9637.000000;0.694531
9636.000000;0.693933
9635.000000;0.693438
9634.000000;0.693154
9633.000000;0.693085
9632.000000;0.693212
9631.000000;0.693421
9630.000000;0.693513
9629.000000;0.693385
9628.000000;0.693115
9627.000000;0.692853
9626.000000;0.692716
9625.000000;0.692758
9624.000000;0.692931
9623.000000;0.693063
9622.000000;0.693004
9621.000000;0.692800
9620.000000;0.692619
9619.000000;0.692533
9618.000000;0.692483
9617.000000;0.692434
9616.000000;0.692427
9615.000000;0.692495
9614.000000;0.692635
9613.000000;0.692858
9612.000000;0.693123
9611.000000;0.693282
9610.000000;0.693218
9609.000000;0.692981
9608.000000;0.692666
9607.000000;0.692226
9606.000000;0.691623
9605.000000;0.691073
9604.000000;0.690849
9603.000000;0.690854
9602.000000;0.690708
9601.000000;0.690330
9600.000000;0.690125
9599.000000;0.690425
9598.000000;0.691036
9597.000000;0.691532
9596.000000;0.691760
9595.000000;0.691802
9594.000000;0.691628
9593.000000;0.691143
9592.000000;0.690530
9591.000000;0.690211
9590.000000;0.690375
9589.000000;0.690713
9588.000000;0.690743
9587.000000;0.690323
9586.000000;0.689766
9585.000000;0.689486
9584.000000;0.689600
9583.000000;0.689869
9582.000000;0.689996
9581.000000;0.689914
9580.000000;0.689743
9579.000000;0.689565
9578.000000;0.689343
9577.000000;0.689073
9576.000000;0.688851
9575.000000;0.688737
9574.000000;0.688692
9573.000000;0.688678
9572.000000;0.688725
9571.000000;0.688799
9570.000000;0.688766
9569.000000;0.688571
9568.000000;0.688358
9567.000000;0.688281
9566.000000;0.688271
9565.000000;0.688150
9564.000000;0.687919
9563.000000;0.687779
9562.000000;0.687861
9561.000000;0.688077
9560.000000;0.688242
9559.000000;0.688271
9558.000000;0.688204
9557.000000;0.688141
9556.000000;0.688168
9555.000000;0.688305
9554.000000;0.688472
9553.000000;0.688510
9552.000000;0.688268
9551.000000;0.687712
9550.000000;0.686992
9549.000000;0.686391
9548.000000;0.686136
9547.000000;0.686214
9546.000000;0.686396
9545.000000;0.686457
9544.000000;0.686328
9543.000000;0.686077
9542.000000;0.685838
9541.000000;0.685769
9540.000000;0.685962
9539.000000;0.686290
9538.000000;0.686485
9537.000000;0.686443
9536.000000;0.686364
9535.000000;0.686455
9534.000000;0.686599
9533.000000;0.686467
9532.000000;0.685941
9531.000000;0.685247
9530.000000;0.684701
9529.000000;0.684452
9528.000000;0.684477
9527.000000;0.684663
9526.000000;0.684849
9525.000000;0.684912
9524.000000;0.684879
9523.000000;0.684869
9522.000000;0.684903
9521.000000;0.684833
9520.000000;0.684521
9519.000000;0.683987
9518.000000;0.683339
9517.000000;0.682673
9516.000000;0.682127
9515.000000;0.681922
9514.000000;0.682169
9513.000000;0.682666
9512.000000;0.683016
9511.000000;0.683016
9510.000000;0.682821
9509.000000;0.682715
9508.000000;0.682792
9507.000000;0.682936
9506.000000;0.683016
9505.000000;0.683017
9504.000000;0.682974
9503.000000;0.682887
9502.000000;0.682752
9501.000000;0.682622
9500.000000;0.682591
9499.000000;0.682667
9498.000000;0.682726
9497.000000;0.682636
9496.000000;0.682432
9495.000000;0.682306
9494.000000;0.682362
9493.000000;0.682401
9492.000000;0.682089
9491.000000;0.681369
9490.000000;0.680639
9489.000000;0.680403
9488.000000;0.680756
9487.000000;0.681300
9486.000000;0.681566
9485.000000;0.681425
9484.000000;0.681058
9483.000000;0.680647
9482.000000;0.680236
9481.000000;0.679868
9480.000000;0.679683
9479.000000;0.679765
9478.000000;0.679949
9477.000000;0.679931
9476.000000;0.679621
9475.000000;0.679317
9474.000000;0.679411
9473.000000;0.679926
9472.000000;0.680421
9471.000000;0.680425
9470.000000;0.679914
9469.000000;0.679318
9468.000000;0.679083
9467.000000;0.679295
9466.000000;0.679672
9465.000000;0.679845
9464.000000;0.679654
9463.000000;0.679270
9462.000000;0.679035
9461.000000;0.679116
9460.000000;0.679309
9459.000000;0.679260
9458.000000;0.678882
9457.000000;0.678455
9456.000000;0.678296
9455.000000;0.678442
9454.000000;0.678711
9453.000000;0.678924
9452.000000;0.678998
9451.000000;0.678909
9450.000000;0.678694
9449.000000;0.678437
9448.000000;0.678168
9447.000000;0.677846
9446.000000;0.677514
9445.000000;0.677352
9444.000000;0.677452
9443.000000;0.677615
9442.000000;0.677539
9441.000000;0.677198
9440.000000;0.676873
9439.000000;0.676815
9438.000000;0.677025
9437.000000;0.677347
9436.000000;0.677585
9435.000000;0.677539
9434.000000;0.677109
9433.000000;0.676469
9432.000000;0.676000
9431.000000;0.675929
9430.000000;0.676128
9429.000000;0.676317
9428.000000;0.676362
9427.000000;0.676324
9426.000000;0.676304
9425.000000;0.676351
9424.000000;0.676445
9423.000000;0.676474
9422.000000;0.676316
9421.000000;0.676009
9420.000000;0.675760
9419.000000;0.675688
9418.000000;0.675653
9417.000000;0.675447
9416.000000;0.675098
9415.000000;0.674834
9414.000000;0.674771
9413.000000;0.674791
9412.000000;0.674764
9411.000000;0.674733
9410.000000;0.674809
9409.000000;0.674985
9408.000000;0.675131
9407.000000;0.675156
9406.000000;0.675083
9405.000000;0.674986
9404.000000;0.674916
9403.000000;0.674890
9402.000000;0.674926
9401.000000;0.675033
9400.000000;0.675175
9399.000000;0.675261
9398.000000;0.675209
9397.000000;0.675016
9396.000000;0.674748
9395.000000;0.674456
9394.000000;0.674126
9393.000000;0.673743
9392.000000;0.673386
9391.000000;0.673206
9390.000000;0.673279
9389.000000;0.673466
9388.000000;0.673472
9387.000000;0.673119
9386.000000;0.672565
9385.000000;0.672179
9384.000000;0.672155
9383.000000;0.672302
9382.000000;0.672306
9381.000000;0.672105
9380.000000;0.671913
9379.000000;0.671882
9378.000000;0.671924
9377.000000;0.671900
9376.000000;0.671833
9375.000000;0.671842
9374.000000;0.671948
9373.000000;0.672063
9372.000000;0.672112
9371.000000;0.672080
9370.000000;0.671975
9369.000000;0.671849
9368.000000;0.671807
9367.000000;0.671875
9366.000000;0.671884
9365.000000;0.671620
9364.000000;0.671118
9363.000000;0.670667
9362.000000;0.670502
9361.000000;0.670568
9360.000000;0.670673
9359.000000;0.670758
9358.000000;0.670921
9357.000000;0.671204
9356.000000;0.671477
9355.000000;0.671556
9354.000000;0.671363
9353.000000;0.670952
9352.000000;0.670442
9351.000000;0.669952
9350.000000;0.669567
9349.000000;0.669314
9348.000000;0.669163
9347.000000;0.669090
9346.000000;0.669101
9345.000000;0.669177
9344.000000;0.669229
9343.000000;0.669144
9342.000000;0.668894
9341.000000;0.668553
9340.000000;0.668229
9339.000000;0.668000
9338.000000;0.667932
9337.000000;0.668063
9336.000000;0.668344
9335.000000;0.668642
9334.000000;0.668832
9333.000000;0.668858
9332.000000;0.668682
9331.000000;0.668275
9330.000000;0.667714
9329.000000;0.667222
9328.000000;0.666994
9327.000000;0.667014
9326.000000;0.667144
9325.000000;0.667332
9324.000000;0.667595
9323.000000;0.667822
9322.000000;0.667793
9321.000000;0.667472
9320.000000;0.667141
9319.000000;0.667095
9318.000000;0.667305
9317.000000;0.667467
9316.000000;0.667375
9315.000000;0.667124
9314.000000;0.667003
9313.000000;0.667208
9312.000000;0.667647
9311.000000;0.667942
9310.000000;0.667719
9309.000000;0.666978
9308.000000;0.666151
9307.000000;0.665716
9306.000000;0.665787
9305.000000;0.666128
9304.000000;0.666470
9303.000000;0.666681
9302.000000;0.666695
9301.000000;0.666488
9300.000000;0.666167
9299.000000;0.665944
9298.000000;0.665932
9297.000000;0.666044
9296.000000;0.666133
9295.000000;0.666143
9294.000000;0.666066
9293.000000;0.665852
9292.000000;0.665483
9291.000000;0.665056
9290.000000;0.664708
9289.000000;0.664477
9288.000000;0.664309
9287.000000;0.664174
9286.000000;0.664120
9285.000000;0.664207
9284.000000;0.664454
9283.000000;0.664806
9282.000000;0.665120
9281.000000;0.665199
9280.000000;0.664945
9279.000000;0.664483
9278.000000;0.664072
9277.000000;0.663875
9276.000000;0.663854
9275.000000;0.663897
9274.000000;0.663968
9273.000000;0.664090
9272.000000;0.664229
9271.000000;0.664252
9270.000000;0.664036
9269.000000;0.663579
9268.000000;0.663023
9267.000000;0.662564
9266.000000;0.662339
9265.000000;0.662395
9264.000000;0.662678
9263.000000;0.663046
9262.000000;0.663291
9261.000000;0.663257
9260.000000;0.662947
9259.000000;0.662500
9258.000000;0.662024
9257.000000;0.661542
9256.000000;0.661120
9255.000000;0.660937
9254.000000;0.661092
9253.000000;0.661388
9252.000000;0.661465
9251.000000;0.661200
9250.000000;0.660840
9249.000000;0.660686
9248.000000;0.660749
9247.000000;0.660806
9246.000000;0.660713
9245.000000;0.660531
9244.000000;0.660403
9243.000000;0.660413
9242.000000;0.660560
9241.000000;0.660769
9240.000000;0.660905
9239.000000;0.660876
9238.000000;0.660737
9237.000000;0.660615
9236.000000;0.660545
9235.000000;0.660449
9234.000000;0.660279
9233.000000;0.660102
9232.000000;0.659976
9231.000000;0.659861
9230.000000;0.659692
9229.000000;0.659495
9228.000000;0.659342
9227.000000;0.659250
9226.000000;0.659195
9225.000000;0.659202
9224.000000;0.659322
9223.000000;0.659521
9222.000000;0.659665
9221.000000;0.659659
9220.000000;0.659540
9219.000000;0.659411
9218.000000;0.659316
9217.000000;0.659206
9216.000000;0.659032
9215.000000;0.658814
9214.000000;0.658621
9213.000000;0.658479
9212.000000;0.658333
9211.000000;0.658111
9210.000000;0.657815
9209.000000;0.657517
9208.000000;0.657302
9207.000000;0.657240
9206.000000;0.657377
9205.000000;0.657671
9204.000000;0.657938
9203.000000;0.657957
9202.000000;0.657681
9201.000000;0.657307
9200.000000;0.657062
9199.000000;0.656976
9198.000000;0.656916
9197.000000;0.656792
9196.000000;0.656644
9195.000000;0.656527
9194.000000;0.656414
9193.000000;0.656240
9192.000000;0.655987
9191.000000;0.655704
9190.000000;0.655457
9189.000000;0.655309
9188.000000;0.655293
9187.000000;0.655412
9186.000000;0.655646
9185.000000;0.655957
9184.000000;0.656254
9183.000000;0.656413
9182.000000;0.656376
9181.000000;0.656225
9180.000000;0.656102
9179.000000;0.656046
9178.000000;0.655987
9177.000000;0.655904
9176.000000;0.655911
9175.000000;0.656108
9174.000000;0.656404
9173.000000;0.656548
9172.000000;0.656348
9171.000000;0.655822
9170.000000;0.655126
9169.000000;0.654431
9168.000000;0.653876
9167.000000;0.653581
9166.000000;0.653617
9165.000000;0.653934
9164.000000;0.654356
9163.000000;0.654699
9162.000000;0.654875
9161.000000;0.654890
9160.000000;0.654772
9159.000000;0.654549
9158.000000;0.654265
9157.000000;0.653957
9156.000000;0.653602
9155.000000;0.653161
9154.000000;0.652700
9153.000000;0.652397
9152.000000;0.652384
9151.000000;0.652615
9150.000000;0.652914
9149.000000;0.653118
9148.000000;0.653157
9147.000000;0.653053
9146.000000;0.652915
9145.000000;0.652866
9144.000000;0.652914
9143.000000;0.652906
9142.000000;0.652704
9141.000000;0.652369
9140.000000;0.652090
9139.000000;0.651965
9138.000000;0.651948
9137.000000;0.651981
9136.000000;0.652051
9135.000000;0.652095
9134.000000;0.652006
9133.000000;0.651793
9132.000000;0.651644
9131.000000;0.651718
9130.000000;0.651930
9129.000000;0.652032
9128.000000;0.651873
9127.000000;0.651513
9126.000000;0.651112
9125.000000;0.650813
9124.000000;0.650698
9123.000000;0.650793
9122.000000;0.651053
9121.000000;0.651381
9120.000000;0.651664
9119.000000;0.651787
9118.000000;0.651659
9117.000000;0.651298
9116.000000;0.650882
9115.000000;0.650640
9114.000000;0.650670
9113.000000;0.650869
9112.000000;0.651046
9111.000000;0.651059
9110.000000;0.650851
9109.000000;0.650422
9108.000000;0.649834
9107.000000;0.649237
9106.000000;0.648815
9105.000000;0.648681
9104.000000;0.648778
9103.000000;0.648894
9102.000000;0.648808
9101.000000;0.648482
9100.000000;0.648126
9099.000000;0.648030
9098.000000;0.648287
9097.000000;0.648691
9096.000000;0.648929
9095.000000;0.648888
9094.000000;0.648731
9093.000000;0.648696
9092.000000;0.648835
9091.000000;0.648996
9090.000000;0.649005
9089.000000;0.648841
9088.000000;0.648633
9087.000000;0.648531
9086.000000;0.648591
9085.000000;0.648730
9084.000000;0.648784
9083.000000;0.648616
9082.000000;0.648218
9081.000000;0.647717
9080.000000;0.647280
9079.000000;0.647014
9078.000000;0.646910
9077.000000;0.646857
9076.000000;0.646738
9075.000000;0.646535
9074.000000;0.646356
9073.000000;0.646291
9072.000000;0.646283
9071.000000;0.646194
9070.000000;0.646011
9069.000000;0.645886
9068.000000;0.645938
9067.000000;0.646096
9066.000000;0.646207
9065.000000;0.646212
9064.000000;0.646137
9063.000000;0.645978
9062.000000;0.645721
9061.000000;0.645449
9060.000000;0.645315
9059.000000;0.645389
9058.000000;0.645608
9057.000000;0.645866
9056.000000;0.646058
9055.000000;0.646058
9054.000000;0.645789
9053.000000;0.645357
