Criado como novo conjunto de dados;"2706_e01_daniel.spp","24303.0 Secs"
cm-1;Abs
10000.000000;0.749752
9999.000000;0.749768
9998.000000;0.749790
9997.000000;0.749801
9996.000000;0.749843
9995.000000;0.749756
9994.000000;0.749393
9993.000000;0.748997
9992.000000;0.748897
9991.000000;0.749089
9990.000000;0.749271
9989.000000;0.749288
9988.000000;0.749214
9987.000000;0.749059
9986.000000;0.748704
9985.000000;0.748187
9984.000000;0.747756
9983.000000;0.747558
9982.000000;0.747472
9981.000000;0.747343
9980.000000;0.747184
9979.000000;0.747063
9978.000000;0.746955
9977.000000;0.746824
9976.000000;0.746712
9975.000000;0.746657
9974.000000;0.746640
9973.000000;0.746691
9972.000000;0.746920
9971.000000;0.747346
9970.000000;0.747817
9969.000000;0.748167
9968.000000;0.748348
9967.000000;0.748361
9966.000000;0.748182
9965.000000;0.747842
9964.000000;0.747454
9963.000000;0.747085
9962.000000;0.746716
9961.000000;0.746406
9960.000000;0.746348
9959.000000;0.746607
9958.000000;0.746925
9957.000000;0.746954
9956.000000;0.746633
9955.000000;0.746190
9954.000000;0.745814
9953.000000;0.745483
9952.000000;0.745138
9951.000000;0.744888
9950.000000;0.744930
9949.000000;0.745275
9948.000000;0.745573
9947.000000;0.745328
9946.000000;0.744421
9945.000000;0.743363
9944.000000;0.742863
9943.000000;0.743085
9942.000000;0.743516
9941.000000;0.743625
9940.000000;0.743462
9939.000000;0.743436
9938.000000;0.743706
9937.000000;0.744039
9936.000000;0.744205
9935.000000;0.744230
9934.000000;0.744209
9933.000000;0.744082
9932.000000;0.743697
9931.000000;0.743001
9930.000000;0.742109
9929.000000;0.741267
9928.000000;0.740778
9927.000000;0.740838
9926.000000;0.741385
9925.000000;0.742114
9924.000000;0.742681
9923.000000;0.742942
9922.000000;0.743018
9921.000000;0.743153
9920.000000;0.743465
9919.000000;0.743817
9918.000000;0.743952
9917.000000;0.743764
9916.000000;0.743366
9915.000000;0.742911
9914.000000;0.742449
9913.000000;0.742017
9912.000000;0.741722
9911.000000;0.741633
9910.000000;0.741681
9909.000000;0.741773
9908.000000;0.741952
9907.000000;0.742309
9906.000000;0.742782
9905.000000;0.743151
9904.000000;0.743225
9903.000000;0.742979
9902.000000;0.742496
9901.000000;0.741833
9900.000000;0.740954
9899.000000;0.739811
9898.000000;0.738533
9897.000000;0.737515
9896.000000;0.737165
9895.000000;0.737531
9894.000000;0.738240
9893.000000;0.738846
9892.000000;0.739169
9891.000000;0.739320
9890.000000;0.739519
9889.000000;0.739913
9888.000000;0.740398
9887.000000;0.740606
9886.000000;0.740286
9885.000000;0.739720
9884.000000;0.739491
9883.000000;0.739737
9882.000000;0.739941
9881.000000;0.739622
9880.000000;0.738944
9879.000000;0.738379
9878.000000;0.738089
9877.000000;0.737935
9876.000000;0.737869
9875.000000;0.737916
9874.000000;0.737919
9873.000000;0.737731
9872.000000;0.737584
9871.000000;0.737879
9870.000000;0.738606
9869.000000;0.739281
9868.000000;0.739484
9867.000000;0.739157
9866.000000;0.738435
9865.000000;0.737554
9864.000000;0.736927
9863.000000;0.736898
9862.000000;0.737293
9861.000000;0.737521
9860.000000;0.737268
9859.000000;0.736808
9858.000000;0.736550
9857.000000;0.736563
9856.000000;0.736699
9855.000000;0.736870
9854.000000;0.737009
9853.000000;0.736994
9852.000000;0.736808
9851.000000;0.736650
9850.000000;0.736714
9849.000000;0.736976
9848.000000;0.737284
9847.000000;0.737494
9846.000000;0.737457
9845.000000;0.737086
9844.000000;0.736574
9843.000000;0.736322
9842.000000;0.736497
9841.000000;0.736829
9840.000000;0.736987
9839.000000;0.736960
9838.000000;0.736884
9837.000000;0.736708
9836.000000;0.736272
9835.000000;0.735617
9834.000000;0.734990
9833.000000;0.734621
9832.000000;0.734621
9831.000000;0.735001
9830.000000;0.735610
9829.000000;0.736142
9828.000000;0.736386
9827.000000;0.736417
9826.000000;0.736413
9825.000000;0.736399
9824.000000;0.736317
9823.000000;0.736218
9822.000000;0.736170
9821.000000;0.736037
9820.000000;0.735575
9819.000000;0.734767
9818.000000;0.733890
9817.000000;0.733219
9816.000000;0.732785
9815.000000;0.732423
9814.000000;0.731991
9813.000000;0.731547
9812.000000;0.731358
9811.000000;0.731656
9810.000000;0.732328
9809.000000;0.732949
9808.000000;0.733213
9807.000000;0.733204
9806.000000;0.733137
9805.000000;0.732994
9804.000000;0.732645
9803.000000;0.732202
9802.000000;0.731966
9801.000000;0.732014
9800.000000;0.732094
9799.000000;0.731974
9798.000000;0.731712
9797.000000;0.731514
9796.000000;0.731487
9795.000000;0.731600
9794.000000;0.731766
9793.000000;0.731856
9792.000000;0.731745
9791.000000;0.731445
9790.000000;0.731109
9789.000000;0.730866
9788.000000;0.730693
9787.000000;0.730506
9786.000000;0.730301
9785.000000;0.730130
9784.000000;0.730001
9783.000000;0.729870
9782.000000;0.729710
9781.000000;0.729557
9780.000000;0.729477
9779.000000;0.729491
9778.000000;0.729547
9777.000000;0.729574
9776.000000;0.729579
9775.000000;0.729655
9774.000000;0.729853
9773.000000;0.730077
9772.000000;0.730157
9771.000000;0.730023
9770.000000;0.729756
9769.000000;0.729496
9768.000000;0.729353
9767.000000;0.729364
9766.000000;0.729481
9765.000000;0.729614
9764.000000;0.729745
9763.000000;0.729927
9762.000000;0.730088
9761.000000;0.729945
9760.000000;0.729304
9759.000000;0.728401
9758.000000;0.727733
9757.000000;0.727528
9756.000000;0.727585
9755.000000;0.727702
9754.000000;0.728004
9753.000000;0.728651
9752.000000;0.729385
9751.000000;0.729677
9750.000000;0.729325
9749.000000;0.728690
9748.000000;0.728284
9747.000000;0.728275
9746.000000;0.728470
9745.000000;0.728627
9744.000000;0.728668
9743.000000;0.728622
9742.000000;0.728499
9741.000000;0.728270
9740.000000;0.727949
9739.000000;0.727652
9738.000000;0.727526
9737.000000;0.727597
9736.000000;0.727727
9735.000000;0.727772
9734.000000;0.727739
9733.000000;0.727701
9732.000000;0.727617
9731.000000;0.727386
9730.000000;0.727086
9729.000000;0.726977
9728.000000;0.727155
9727.000000;0.727319
9726.000000;0.727042
9725.000000;0.726269
9724.000000;0.725435
9723.000000;0.725100
9722.000000;0.725492
9721.000000;0.726366
9720.000000;0.727212
9719.000000;0.727625
9718.000000;0.727593
9717.000000;0.727417
9716.000000;0.727327
9715.000000;0.727190
9714.000000;0.726690
9713.000000;0.725761
9712.000000;0.724723
9711.000000;0.723988
9710.000000;0.723755
9709.000000;0.723973
9708.000000;0.724462
9707.000000;0.724990
9706.000000;0.725350
9705.000000;0.725493
9704.000000;0.725542
9703.000000;0.725622
9702.000000;0.725724
9701.000000;0.725781
9700.000000;0.725788
9699.000000;0.725738
9698.000000;0.725501
9697.000000;0.724929
9696.000000;0.724099
9695.000000;0.723323
9694.000000;0.722860
9693.000000;0.722690
9692.000000;0.722655
9691.000000;0.722739
9690.000000;0.723055
9689.000000;0.723553
9688.000000;0.723911
9687.000000;0.723870
9686.000000;0.723570
9685.000000;0.723367
9684.000000;0.723353
9683.000000;0.723274
9682.000000;0.722964
9681.000000;0.722640
9680.000000;0.722576
9679.000000;0.722699
9678.000000;0.722713
9677.000000;0.722541
9676.000000;0.722386
9675.000000;0.722394
9674.000000;0.722504
9673.000000;0.722649
9672.000000;0.722845
9671.000000;0.723021
9670.000000;0.722976
9669.000000;0.722637
9668.000000;0.722206
9667.000000;0.721950
9666.000000;0.721934
9665.000000;0.722041
9664.000000;0.722129
9663.000000;0.722090
9662.000000;0.721895
9661.000000;0.721660
9660.000000;0.721556
9659.000000;0.721599
9658.000000;0.721656
9657.000000;0.721696
9656.000000;0.721860
9655.000000;0.722188
9654.000000;0.722458
9653.000000;0.722457
9652.000000;0.722242
9651.000000;0.721954
9650.000000;0.721528
9649.000000;0.720819
9648.000000;0.719914
9647.000000;0.719113
9646.000000;0.718629
9645.000000;0.718465
9644.000000;0.718534
9643.000000;0.718745
9642.000000;0.718983
9641.000000;0.719179
9640.000000;0.719378
9639.000000;0.719646
9638.000000;0.719934
9637.000000;0.720161
9636.000000;0.720351
9635.000000;0.720530
9634.000000;0.720580
9633.000000;0.720374
9632.000000;0.720012
9631.000000;0.719738
9630.000000;0.719622
9629.000000;0.719524
9628.000000;0.719352
9627.000000;0.719197
9626.000000;0.719164
9625.000000;0.719248
9624.000000;0.719407
9623.000000;0.719625
9622.000000;0.719846
9621.000000;0.719983
9620.000000;0.719998
9619.000000;0.719881
9618.000000;0.719580
9617.000000;0.719118
9616.000000;0.718754
9615.000000;0.718805
9614.000000;0.719243
9613.000000;0.719662
9612.000000;0.719746
9611.000000;0.719572
9610.000000;0.719357
9609.000000;0.719086
9608.000000;0.718584
9607.000000;0.717885
9606.000000;0.717309
9605.000000;0.717160
9604.000000;0.717425
9603.000000;0.717795
9602.000000;0.717942
9601.000000;0.717814
9600.000000;0.717673
9599.000000;0.717799
9598.000000;0.718165
9597.000000;0.718449
9596.000000;0.718399
9595.000000;0.718057
9594.000000;0.717614
9593.000000;0.717161
9592.000000;0.716734
9591.000000;0.716472
9590.000000;0.716531
9589.000000;0.716827
9588.000000;0.717034
9587.000000;0.716939
9586.000000;0.716710
9585.000000;0.716699
9584.000000;0.717022
9583.000000;0.717418
9582.000000;0.717550
9581.000000;0.717365
9580.000000;0.717100
9579.000000;0.716950
9578.000000;0.716823
9577.000000;0.716471
9576.000000;0.715838
9575.000000;0.715211
9574.000000;0.714969
9573.000000;0.715182
9572.000000;0.715486
9571.000000;0.715418
9570.000000;0.714876
9569.000000;0.714222
9568.000000;0.713904
9567.000000;0.714030
9566.000000;0.714355
9565.000000;0.714599
9564.000000;0.714683
9563.000000;0.714666
9562.000000;0.714604
9561.000000;0.714528
9560.000000;0.714468
9559.000000;0.714476
9558.000000;0.714605
9557.000000;0.714869
9556.000000;0.715164
9555.000000;0.715278
9554.000000;0.715061
9553.000000;0.714585
9552.000000;0.714039
9551.000000;0.713527
9550.000000;0.713096
9549.000000;0.712897
9548.000000;0.713094
9547.000000;0.713592
9546.000000;0.714060
9545.000000;0.714300
9544.000000;0.714403
9543.000000;0.714464
9542.000000;0.714391
9541.000000;0.714098
9540.000000;0.713696
9539.000000;0.713300
9538.000000;0.712851
9537.000000;0.712332
9536.000000;0.711986
9535.000000;0.712049
9534.000000;0.712367
9533.000000;0.712523
9532.000000;0.712306
9531.000000;0.711861
9530.000000;0.711450
9529.000000;0.711281
9528.000000;0.711516
9527.000000;0.712154
9526.000000;0.712866
9525.000000;0.713185
9524.000000;0.712951
9523.000000;0.712413
9522.000000;0.711854
9521.000000;0.711316
9520.000000;0.710733
9519.000000;0.710178
9518.000000;0.709844
9517.000000;0.709877
9516.000000;0.710265
9515.000000;0.710829
9514.000000;0.711298
9513.000000;0.711487
9512.000000;0.711427
9511.000000;0.711286
9510.000000;0.711158
9509.000000;0.711029
9508.000000;0.710903
9507.000000;0.710868
9506.000000;0.710998
9505.000000;0.711262
9504.000000;0.711530
9503.000000;0.711624
9502.000000;0.711407
9501.000000;0.710906
9500.000000;0.710327
9499.000000;0.709906
9498.000000;0.709791
9497.000000;0.710080
9496.000000;0.710777
9495.000000;0.711590
9494.000000;0.711945
9493.000000;0.711457
9492.000000;0.710370
9491.000000;0.709342
9490.000000;0.708824
9489.000000;0.708808
9488.000000;0.709041
9487.000000;0.709262
9486.000000;0.709288
9485.000000;0.709121
9484.000000;0.708994
9483.000000;0.709120
9482.000000;0.709394
9481.000000;0.709541
9480.000000;0.709513
9479.000000;0.709498
9478.000000;0.709554
9477.000000;0.709513
9476.000000;0.709294
9475.000000;0.709046
9474.000000;0.708890
9473.000000;0.708745
9472.000000;0.708534
9471.000000;0.708320
9470.000000;0.708148
9469.000000;0.707943
9468.000000;0.707679
9467.000000;0.707472
9466.000000;0.707369
9465.000000;0.707223
9464.000000;0.706941
9463.000000;0.706704
9462.000000;0.706776
9461.000000;0.707162
9460.000000;0.707617
9459.000000;0.707917
9458.000000;0.708033
9457.000000;0.708056
9456.000000;0.708047
9455.000000;0.707959
9454.000000;0.707706
9453.000000;0.707369
9452.000000;0.707251
9451.000000;0.707557
9450.000000;0.708045
9449.000000;0.708192
9448.000000;0.707781
9447.000000;0.707130
9446.000000;0.706699
9445.000000;0.706660
9444.000000;0.706931
9443.000000;0.707376
9442.000000;0.707807
9441.000000;0.707972
9440.000000;0.707749
9439.000000;0.707298
9438.000000;0.706889
9437.000000;0.706668
9436.000000;0.706635
9435.000000;0.706699
9434.000000;0.706661
9433.000000;0.706318
9432.000000;0.705705
9431.000000;0.705121
9430.000000;0.704792
9429.000000;0.704676
9428.000000;0.704677
9427.000000;0.704856
9426.000000;0.705246
9425.000000;0.705616
9424.000000;0.705678
9423.000000;0.705425
9422.000000;0.705079
9421.000000;0.704773
9420.000000;0.704488
9419.000000;0.704218
9418.000000;0.704001
9417.000000;0.703839
9416.000000;0.703751
9415.000000;0.703854
9414.000000;0.704209
9413.000000;0.704632
9412.000000;0.704856
9411.000000;0.704832
9410.000000;0.704710
9409.000000;0.704589
9408.000000;0.704486
9407.000000;0.704485
9406.000000;0.704646
9405.000000;0.704780
9404.000000;0.704578
9403.000000;0.704029
9402.000000;0.703473
9401.000000;0.703162
9400.000000;0.702977
9399.000000;0.702702
9398.000000;0.702371
9397.000000;0.702185
9396.000000;0.702199
9395.000000;0.702280
9394.000000;0.702336
9393.000000;0.702424
9392.000000;0.702644
9391.000000;0.703010
9390.000000;0.703413
9389.000000;0.703673
9388.000000;0.703646
9387.000000;0.703316
9386.000000;0.702795
9385.000000;0.702244
9384.000000;0.701810
9383.000000;0.701598
9382.000000;0.701571
9381.000000;0.701485
9380.000000;0.701066
9379.000000;0.700362
9378.000000;0.699825
9377.000000;0.699896
9376.000000;0.700534
9375.000000;0.701259
9374.000000;0.701646
9373.000000;0.701681
9372.000000;0.701615
9371.000000;0.701600
9370.000000;0.701589
9369.000000;0.701525
9368.000000;0.701470
9367.000000;0.701485
9366.000000;0.701461
9365.000000;0.701208
9364.000000;0.700691
9363.000000;0.700133
9362.000000;0.699824
9361.000000;0.699896
9360.000000;0.700263
9359.000000;0.700716
9358.000000;0.701034
9357.000000;0.701093
9356.000000;0.700952
9355.000000;0.700812
9354.000000;0.700801
9353.000000;0.700830
9352.000000;0.700738
9351.000000;0.700551
9350.000000;0.700462
9349.000000;0.700530
9348.000000;0.700538
9347.000000;0.700234
9346.000000;0.699657
9345.000000;0.699129
9344.000000;0.698916
9343.000000;0.698997
9342.000000;0.699162
9341.000000;0.699288
9340.000000;0.699460
9339.000000;0.699845
9338.000000;0.700439
9337.000000;0.700952
9336.000000;0.701003
9335.000000;0.700482
9334.000000;0.699699
9333.000000;0.699121
9332.000000;0.698945
9331.000000;0.698984
9330.000000;0.698946
9329.000000;0.698721
9328.000000;0.698385
9327.000000;0.698029
9326.000000;0.697712
9325.000000;0.697515
9324.000000;0.697520
9323.000000;0.697709
9322.000000;0.697985
9321.000000;0.698283
9320.000000;0.698587
9319.000000;0.698845
9318.000000;0.698976
9317.000000;0.698980
9316.000000;0.698925
9315.000000;0.698775
9314.000000;0.698399
9313.000000;0.697831
9312.000000;0.697398
9311.000000;0.697395
9310.000000;0.697692
9309.000000;0.697859
9308.000000;0.697686
9307.000000;0.697403
9306.000000;0.697318
9305.000000;0.697416
9304.000000;0.697430
9303.000000;0.697235
9302.000000;0.696997
9301.000000;0.696947
9300.000000;0.697110
9299.000000;0.697309
9298.000000;0.697380
9297.000000;0.697317
9296.000000;0.697226
9295.000000;0.697174
9294.000000;0.697129
9293.000000;0.697030
9292.000000;0.696878
9291.000000;0.696732
9290.000000;0.696653
9289.000000;0.696648
9288.000000;0.696658
9287.000000;0.696571
9286.000000;0.696316
9285.000000;0.695965
9284.000000;0.695702
9283.000000;0.695638
9282.000000;0.695698
9281.000000;0.695749
9280.000000;0.695794
9279.000000;0.695940
9278.000000;0.696181
9277.000000;0.696331
9276.000000;0.696217
9275.000000;0.695867
9274.000000;0.695458
9273.000000;0.695121
9272.000000;0.694868
9271.000000;0.694660
9270.000000;0.694487
9269.000000;0.694369
9268.000000;0.694322
9267.000000;0.694343
9266.000000;0.694409
9265.000000;0.694451
9264.000000;0.694363
9263.000000;0.694081
9262.000000;0.693694
9261.000000;0.693443
9260.000000;0.693521
9259.000000;0.693868
9258.000000;0.694211
9257.000000;0.694310
9256.000000;0.694119
9255.000000;0.693731
9254.000000;0.693285
9253.000000;0.692985
9252.000000;0.693033
9251.000000;0.693426
9250.000000;0.693863
9249.000000;0.694008
9248.000000;0.693815
9247.000000;0.693509
9246.000000;0.693290
9245.000000;0.693204
9244.000000;0.693246
9243.000000;0.693430
9242.000000;0.693692
9241.000000;0.693865
9240.000000;0.693835
9239.000000;0.693655
9238.000000;0.693460
9237.000000;0.693331
9236.000000;0.693252
9235.000000;0.693168
9234.000000;0.693025
9233.000000;0.692812
9232.000000;0.692582
9231.000000;0.692406
9230.000000;0.692304
9229.000000;0.692243
9228.000000;0.692190
9227.000000;0.692119
9226.000000;0.691999
9225.000000;0.691850
9224.000000;0.691790
9223.000000;0.691915
9222.000000;0.692132
9221.000000;0.692214
9220.000000;0.692042
9219.000000;0.691707
9218.000000;0.691367
9217.000000;0.691097
9216.000000;0.690935
9215.000000;0.690947
9214.000000;0.691143
9213.000000;0.691411
9212.000000;0.691615
9211.000000;0.691719
9210.000000;0.691756
9209.000000;0.691708
9208.000000;0.691495
9207.000000;0.691107
9206.000000;0.690671
9205.000000;0.690388
9204.000000;0.690361
9203.000000;0.690495
9202.000000;0.690555
9201.000000;0.690389
9200.000000;0.690089
9199.000000;0.689892
9198.000000;0.689918
9197.000000;0.690063
9196.000000;0.690175
9195.000000;0.690217
9194.000000;0.690239
9193.000000;0.690235
9192.000000;0.690122
9191.000000;0.689845
9190.000000;0.689455
9189.000000;0.689086
9188.000000;0.688870
9187.000000;0.688853
9186.000000;0.688949
9185.000000;0.689010
9184.000000;0.688956
9183.000000;0.688845
9182.000000;0.688817
9181.000000;0.688987
9180.000000;0.689373
9179.000000;0.689872
9178.000000;0.690299
9177.000000;0.690515
9176.000000;0.690529
9175.000000;0.690441
9174.000000;0.690301
9173.000000;0.690038
9172.000000;0.689559
9171.000000;0.688861
9170.000000;0.688067
9169.000000;0.687395
9168.000000;0.687066
9167.000000;0.687162
9166.000000;0.687541
9165.000000;0.687965
9164.000000;0.688293
9163.000000;0.688502
9162.000000;0.688573
9161.000000;0.688459
9160.000000;0.688204
9159.000000;0.687939
9158.000000;0.687716
9157.000000;0.687442
9156.000000;0.687068
9155.000000;0.686741
9154.000000;0.686670
9153.000000;0.686894
9152.000000;0.687264
9151.000000;0.687624
9150.000000;0.687929
9149.000000;0.688192
9148.000000;0.688380
9147.000000;0.688399
9146.000000;0.688161
9145.000000;0.687693
9144.000000;0.687171
9143.000000;0.686797
9142.000000;0.686607
9141.000000;0.686468
9140.000000;0.686276
9139.000000;0.686081
9138.000000;0.685992
9137.000000;0.686031
9136.000000;0.686146
9135.000000;0.686304
9134.000000;0.686476
9133.000000;0.686572
9132.000000;0.686488
9131.000000;0.686222
9130.000000;0.685904
9129.000000;0.685699
9128.000000;0.685704
9127.000000;0.685892
9126.000000;0.686125
9125.000000;0.686232
9124.000000;0.686134
9123.000000;0.685866
9122.000000;0.685498
9121.000000;0.685098
9120.000000;0.684806
9119.000000;0.684808
9118.000000;0.685120
9117.000000;0.685456
9116.000000;0.685488
9115.000000;0.685220
9114.000000;0.684989
9113.000000;0.685076
9112.000000;0.685423
9111.000000;0.685750
9110.000000;0.685835
9109.000000;0.685640
9108.000000;0.685290
9107.000000;0.684994
9106.000000;0.684901
9105.000000;0.684934
9104.000000;0.684866
9103.000000;0.684616
9102.000000;0.684400
9101.000000;0.684450
9100.000000;0.684659
9099.000000;0.684663
9098.000000;0.684294
9097.000000;0.683799
9096.000000;0.683545
9095.000000;0.683606
9094.000000;0.683735
9093.000000;0.683688
9092.000000;0.683465
9091.000000;0.683253
9090.000000;0.683176
9089.000000;0.683174
9088.000000;0.683097
9087.000000;0.682909
9086.000000;0.682769
9085.000000;0.682872
9084.000000;0.683217
9083.000000;0.683586
9082.000000;0.683752
9081.000000;0.683675
9080.000000;0.683445
9079.000000;0.683139
9078.000000;0.682796
9077.000000;0.682480
9076.000000;0.682264
9075.000000;0.682166
9074.000000;0.682162
9073.000000;0.682244
9072.000000;0.682357
9071.000000;0.682320
9070.000000;0.681968
9069.000000;0.681411
9068.000000;0.681012
9067.000000;0.681055
9066.000000;0.681483
9065.000000;0.682025
9064.000000;0.682449
9063.000000;0.682631
9062.000000;0.682528
9061.000000;0.682207
9060.000000;0.681855
9059.000000;0.681604
9058.000000;0.681404
9057.000000;0.681157
9056.000000;0.680913
9055.000000;0.680796
9054.000000;0.680791
9053.000000;0.680809
