Criado como novo conjunto de dados;"e0108.spp","-4241142.4 Secs"
cm-1;Abs
10000.000000;0.991365
9999.000000;0.990305
9998.000000;0.987840
9997.000000;0.985081
9996.000000;0.983250
9995.000000;0.982062
9994.000000;0.980805
9993.000000;0.979097
9992.000000;0.977678
9991.000000;0.977402
9990.000000;0.978329
9989.000000;0.979570
9988.000000;0.980249
9987.000000;0.980191
9986.000000;0.979637
9985.000000;0.978681
9984.000000;0.977332
9983.000000;0.975880
9982.000000;0.974734
9981.000000;0.973989
9980.000000;0.973539
9979.000000;0.973564
9978.000000;0.974437
9977.000000;0.975974
9976.000000;0.977199
9975.000000;0.977274
9974.000000;0.976459
9973.000000;0.975722
9972.000000;0.975502
9971.000000;0.975330
9970.000000;0.974736
9969.000000;0.974051
9968.000000;0.973895
9967.000000;0.974175
9966.000000;0.974098
9965.000000;0.973175
9964.000000;0.971836
9963.000000;0.970991
9962.000000;0.971283
9961.000000;0.972789
9960.000000;0.975003
9959.000000;0.976877
9958.000000;0.977277
9957.000000;0.975878
9956.000000;0.973524
9955.000000;0.971350
9954.000000;0.969686
9953.000000;0.968142
9952.000000;0.966592
9951.000000;0.965525
9950.000000;0.965332
9949.000000;0.965672
9948.000000;0.965778
9947.000000;0.965224
9946.000000;0.964193
9945.000000;0.963123
9944.000000;0.962334
9943.000000;0.961971
9942.000000;0.962079
9941.000000;0.962593
9940.000000;0.963266
9939.000000;0.963769
9938.000000;0.964037
9937.000000;0.964461
9936.000000;0.965401
9935.000000;0.966376
9934.000000;0.966162
9933.000000;0.964091
9932.000000;0.961102
9931.000000;0.959037
9930.000000;0.958836
9929.000000;0.959745
9928.000000;0.960330
9927.000000;0.959914
9926.000000;0.958872
9925.000000;0.957901
9924.000000;0.957381
9923.000000;0.957317
9922.000000;0.957524
9921.000000;0.957769
9920.000000;0.957844
9919.000000;0.957623
9918.000000;0.957123
9917.000000;0.956538
9916.000000;0.956143
9915.000000;0.956045
9914.000000;0.956103
9913.000000;0.956142
9912.000000;0.956089
9911.000000;0.955795
9910.000000;0.954949
9909.000000;0.953504
9908.000000;0.951988
9907.000000;0.950985
9906.000000;0.950397
9905.000000;0.949706
9904.000000;0.948936
9903.000000;0.948779
9902.000000;0.949540
9901.000000;0.950527
9900.000000;0.950874
9899.000000;0.950563
9898.000000;0.950217
9897.000000;0.950177
9896.000000;0.950243
9895.000000;0.950185
9894.000000;0.949986
9893.000000;0.949589
9892.000000;0.948824
9891.000000;0.947693
9890.000000;0.946486
9889.000000;0.945522
9888.000000;0.944975
9887.000000;0.944936
9886.000000;0.945395
9885.000000;0.946036
9884.000000;0.946291
9883.000000;0.945772
9882.000000;0.944620
9881.000000;0.943341
9880.000000;0.942361
9879.000000;0.941795
9878.000000;0.941533
9877.000000;0.941439
9876.000000;0.941393
9875.000000;0.941239
9874.000000;0.940799
9873.000000;0.940087
9872.000000;0.939472
9871.000000;0.939442
9870.000000;0.940035
9869.000000;0.940584
9868.000000;0.940250
9867.000000;0.938940
9866.000000;0.937565
9865.000000;0.937211
9864.000000;0.938049
9863.000000;0.939193
9862.000000;0.939657
9861.000000;0.939279
9860.000000;0.938535
9859.000000;0.937691
9858.000000;0.936590
9857.000000;0.935259
9856.000000;0.934208
9855.000000;0.933833
9854.000000;0.933892
9853.000000;0.933947
9852.000000;0.934060
9851.000000;0.934569
9850.000000;0.935267
9849.000000;0.935369
9848.000000;0.934427
9847.000000;0.932848
9846.000000;0.931343
9845.000000;0.930248
9844.000000;0.929600
9843.000000;0.929462
9842.000000;0.929841
9841.000000;0.930430
9840.000000;0.930793
9839.000000;0.930759
9838.000000;0.930454
9837.000000;0.930026
9836.000000;0.929518
9835.000000;0.928968
9834.000000;0.928463
9833.000000;0.928101
9832.000000;0.927891
9831.000000;0.927650
9830.000000;0.927086
9829.000000;0.926212
9828.000000;0.925590
9827.000000;0.925800
9826.000000;0.926627
9825.000000;0.927157
9824.000000;0.926855
9823.000000;0.926204
9822.000000;0.925984
9821.000000;0.926229
9820.000000;0.926264
9819.000000;0.925577
9818.000000;0.924283
9817.000000;0.922836
9816.000000;0.921686
9815.000000;0.921151
9814.000000;0.921221
9813.000000;0.921416
9812.000000;0.921102
9811.000000;0.920120
9810.000000;0.918989
9809.000000;0.918493
9808.000000;0.919101
9807.000000;0.920662
9806.000000;0.922393
9805.000000;0.923228
9804.000000;0.922526
9803.000000;0.920621
9802.000000;0.918555
9801.000000;0.917230
9800.000000;0.916840
9799.000000;0.916973
9798.000000;0.917076
9797.000000;0.916882
9796.000000;0.916529
9795.000000;0.916330
9794.000000;0.916410
9793.000000;0.916557
9792.000000;0.916441
9791.000000;0.915918
9790.000000;0.915104
9789.000000;0.914259
9788.000000;0.913652
9787.000000;0.913437
9786.000000;0.913500
9785.000000;0.913510
9784.000000;0.913242
9783.000000;0.912782
9782.000000;0.912341
9781.000000;0.911987
9780.000000;0.911701
9779.000000;0.911528
9778.000000;0.911458
9777.000000;0.911253
9776.000000;0.910656
9775.000000;0.909761
9774.000000;0.909040
9773.000000;0.908991
9772.000000;0.909837
9771.000000;0.911365
9770.000000;0.912786
9769.000000;0.912942
9768.000000;0.911184
9767.000000;0.908199
9766.000000;0.905623
9765.000000;0.904610
9764.000000;0.904928
9763.000000;0.905515
9762.000000;0.905670
9761.000000;0.905484
9760.000000;0.905277
9759.000000;0.905080
9758.000000;0.904800
9757.000000;0.904547
9756.000000;0.904552
9755.000000;0.904851
9754.000000;0.905206
9753.000000;0.905288
9752.000000;0.904894
9751.000000;0.904060
9750.000000;0.903112
9749.000000;0.902525
9748.000000;0.902519
9747.000000;0.902763
9746.000000;0.902651
9745.000000;0.901927
9744.000000;0.900875
9743.000000;0.899882
9742.000000;0.899099
9741.000000;0.898609
9740.000000;0.898589
9739.000000;0.898982
9738.000000;0.899268
9737.000000;0.898983
9736.000000;0.898349
9735.000000;0.898008
9734.000000;0.898161
9733.000000;0.898429
9732.000000;0.898540
9731.000000;0.898622
9730.000000;0.898703
9729.000000;0.898470
9728.000000;0.897847
9727.000000;0.897362
9726.000000;0.897467
9725.000000;0.897750
9724.000000;0.897305
9723.000000;0.895857
9722.000000;0.894125
9721.000000;0.893066
9720.000000;0.893029
9719.000000;0.893635
9718.000000;0.894153
9717.000000;0.893978
9716.000000;0.893024
9715.000000;0.891747
9714.000000;0.890730
9713.000000;0.890255
9712.000000;0.890251
9711.000000;0.890477
9710.000000;0.890661
9709.000000;0.890682
9708.000000;0.890801
9707.000000;0.891492
9706.000000;0.892757
9705.000000;0.893736
9704.000000;0.893391
9703.000000;0.891600
9702.000000;0.889271
9701.000000;0.887427
9700.000000;0.886459
9699.000000;0.886219
9698.000000;0.886392
9697.000000;0.886721
9696.000000;0.887208
9695.000000;0.888219
9694.000000;0.890030
9693.000000;0.892087
9692.000000;0.893037
9691.000000;0.891902
9690.000000;0.889131
9689.000000;0.886253
9688.000000;0.884541
9687.000000;0.884189
9686.000000;0.884611
9685.000000;0.885154
9684.000000;0.885410
9683.000000;0.885146
9682.000000;0.884332
9681.000000;0.883288
9680.000000;0.882600
9679.000000;0.882658
9678.000000;0.883268
9677.000000;0.883809
9676.000000;0.883791
9675.000000;0.883196
9674.000000;0.882324
9673.000000;0.881516
9672.000000;0.881095
9671.000000;0.881280
9670.000000;0.881895
9669.000000;0.882221
9668.000000;0.881481
9667.000000;0.879605
9666.000000;0.877389
9665.000000;0.875856
9664.000000;0.875515
9663.000000;0.876162
9662.000000;0.877122
9661.000000;0.877611
9660.000000;0.877148
9659.000000;0.875908
9658.000000;0.874678
9657.000000;0.874291
9656.000000;0.874933
9655.000000;0.875967
9654.000000;0.876472
9653.000000;0.876048
9652.000000;0.875113
9651.000000;0.874452
9650.000000;0.874544
9649.000000;0.875303
9648.000000;0.876232
9647.000000;0.876669
9646.000000;0.876020
9645.000000;0.874154
9644.000000;0.871724
9643.000000;0.869825
9642.000000;0.869127
9641.000000;0.869421
9640.000000;0.870061
9639.000000;0.870640
9638.000000;0.871056
9637.000000;0.871193
9636.000000;0.870975
9635.000000;0.870624
9634.000000;0.870472
9633.000000;0.870468
9632.000000;0.870276
9631.000000;0.869912
9630.000000;0.869889
9629.000000;0.870492
9628.000000;0.871252
9627.000000;0.871432
9626.000000;0.870819
9625.000000;0.869746
9624.000000;0.868550
9623.000000;0.867398
9622.000000;0.866546
9621.000000;0.866270
9620.000000;0.866442
9619.000000;0.866501
9618.000000;0.866094
9617.000000;0.865512
9616.000000;0.865293
9615.000000;0.865532
9614.000000;0.865798
9613.000000;0.865633
9612.000000;0.864910
9611.000000;0.863787
9610.000000;0.862597
9609.000000;0.861816
9608.000000;0.861801
9607.000000;0.862414
9606.000000;0.863101
9605.000000;0.863492
9604.000000;0.863704
9603.000000;0.863899
9602.000000;0.863822
9601.000000;0.863128
9600.000000;0.862050
9599.000000;0.861310
9598.000000;0.861274
9597.000000;0.861481
9596.000000;0.861161
9595.000000;0.860044
9594.000000;0.858566
9593.000000;0.857441
9592.000000;0.857103
9591.000000;0.857363
9590.000000;0.857555
9589.000000;0.857201
9588.000000;0.856610
9587.000000;0.856597
9586.000000;0.857481
9585.000000;0.858578
9584.000000;0.858915
9583.000000;0.858278
9582.000000;0.857286
9581.000000;0.856585
9580.000000;0.856242
9579.000000;0.855902
9578.000000;0.855266
9577.000000;0.854385
9576.000000;0.853597
9575.000000;0.853233
9574.000000;0.853300
9573.000000;0.853478
9572.000000;0.853430
9571.000000;0.853024
9570.000000;0.852286
9569.000000;0.851397
9568.000000;0.850754
9567.000000;0.850727
9566.000000;0.851149
9565.000000;0.851374
9564.000000;0.851113
9563.000000;0.850913
9562.000000;0.851423
9561.000000;0.852414
9560.000000;0.852999
9559.000000;0.852687
9558.000000;0.851749
9557.000000;0.850635
9556.000000;0.849590
9555.000000;0.848854
9554.000000;0.848616
9553.000000;0.848567
9552.000000;0.848064
9551.000000;0.847031
9550.000000;0.846269
9549.000000;0.846497
9548.000000;0.847384
9547.000000;0.847914
9546.000000;0.847498
9545.000000;0.846366
9544.000000;0.845074
9543.000000;0.844035
9542.000000;0.843440
9541.000000;0.843262
9540.000000;0.843301
9539.000000;0.843427
9538.000000;0.843694
9537.000000;0.844056
9536.000000;0.844201
9535.000000;0.843949
9534.000000;0.843653
9533.000000;0.843787
9532.000000;0.844223
9531.000000;0.844318
9530.000000;0.843758
9529.000000;0.842925
9528.000000;0.842324
9527.000000;0.842025
9526.000000;0.841856
9525.000000;0.841818
9524.000000;0.841985
9523.000000;0.842172
9522.000000;0.842024
9521.000000;0.841427
9520.000000;0.840654
9519.000000;0.840046
9518.000000;0.839638
9517.000000;0.839157
9516.000000;0.838399
9515.000000;0.837587
9514.000000;0.837249
9513.000000;0.837620
9512.000000;0.838241
9511.000000;0.838369
9510.000000;0.837856
9509.000000;0.837338
9508.000000;0.837440
9507.000000;0.837992
9506.000000;0.838289
9505.000000;0.837989
9504.000000;0.837484
9503.000000;0.837351
9502.000000;0.837656
9501.000000;0.837897
9500.000000;0.837560
9499.000000;0.836640
9498.000000;0.835617
9497.000000;0.834917
9496.000000;0.834500
9495.000000;0.834070
9494.000000;0.833563
9493.000000;0.833191
9492.000000;0.832991
9491.000000;0.832720
9490.000000;0.832417
9489.000000;0.832659
9488.000000;0.833808
9487.000000;0.835147
9486.000000;0.835351
9485.000000;0.833907
9484.000000;0.831635
9483.000000;0.829654
9482.000000;0.828361
9481.000000;0.827646
9480.000000;0.827564
9479.000000;0.828215
9478.000000;0.829196
9477.000000;0.829734
9476.000000;0.829509
9475.000000;0.828968
9474.000000;0.828743
9473.000000;0.828977
9472.000000;0.829304
9471.000000;0.829267
9470.000000;0.828657
9469.000000;0.827662
9468.000000;0.826792
9467.000000;0.826504
9466.000000;0.826830
9465.000000;0.827418
9464.000000;0.827927
9463.000000;0.828213
9462.000000;0.828173
9461.000000;0.827660
9460.000000;0.826711
9459.000000;0.825689
9458.000000;0.825026
9457.000000;0.824872
9456.000000;0.825033
9455.000000;0.825183
9454.000000;0.825106
9453.000000;0.824843
9452.000000;0.824687
9451.000000;0.824946
9450.000000;0.825598
9449.000000;0.826240
9448.000000;0.826448
9447.000000;0.826164
9446.000000;0.825711
9445.000000;0.825467
9444.000000;0.825535
9443.000000;0.825656
9442.000000;0.825414
9441.000000;0.824610
9440.000000;0.823484
9439.000000;0.822516
9438.000000;0.822023
9437.000000;0.821951
9436.000000;0.822014
9435.000000;0.821933
9434.000000;0.821555
9433.000000;0.820910
9432.000000;0.820187
9431.000000;0.819571
9430.000000;0.819093
9429.000000;0.818741
9428.000000;0.818636
9427.000000;0.818927
9426.000000;0.819503
9425.000000;0.820009
9424.000000;0.820202
9423.000000;0.820079
9422.000000;0.819629
9421.000000;0.818734
9420.000000;0.817472
9419.000000;0.816317
9418.000000;0.815779
9417.000000;0.815945
9416.000000;0.816508
9415.000000;0.817130
9414.000000;0.817596
9413.000000;0.817741
9412.000000;0.817457
9411.000000;0.816815
9410.000000;0.816012
9409.000000;0.815178
9408.000000;0.814352
9407.000000;0.813674
9406.000000;0.813473
9405.000000;0.814027
9404.000000;0.815189
9403.000000;0.816300
9402.000000;0.816619
9401.000000;0.815954
9400.000000;0.814819
9399.000000;0.813887
9398.000000;0.813376
9397.000000;0.813093
9396.000000;0.812927
9395.000000;0.812966
9394.000000;0.813165
9393.000000;0.813285
9392.000000;0.813266
9391.000000;0.813300
9390.000000;0.813375
9389.000000;0.813103
9388.000000;0.812273
9387.000000;0.811296
9386.000000;0.810764
9385.000000;0.810749
9384.000000;0.810859
9383.000000;0.810857
9382.000000;0.810884
9381.000000;0.811094
9380.000000;0.811331
9379.000000;0.811223
9378.000000;0.810502
9377.000000;0.809323
9376.000000;0.808329
9375.000000;0.808140
9374.000000;0.808650
9373.000000;0.809072
9372.000000;0.808881
9371.000000;0.808414
9370.000000;0.808245
9369.000000;0.808323
9368.000000;0.808197
9367.000000;0.807802
9366.000000;0.807436
9365.000000;0.807095
9364.000000;0.806457
9363.000000;0.805599
9362.000000;0.805144
9361.000000;0.805547
9360.000000;0.806631
9359.000000;0.807939
9358.000000;0.809085
9357.000000;0.809647
9356.000000;0.809293
9355.000000;0.808263
9354.000000;0.807320
9353.000000;0.806949
9352.000000;0.806946
9351.000000;0.806914
9350.000000;0.806734
9349.000000;0.806295
9348.000000;0.805346
9347.000000;0.804018
9346.000000;0.803068
9345.000000;0.803063
9344.000000;0.803592
9343.000000;0.803791
9342.000000;0.803455
9341.000000;0.803132
9340.000000;0.803272
9339.000000;0.803795
9338.000000;0.804415
9337.000000;0.804888
9336.000000;0.804929
9335.000000;0.804350
9334.000000;0.803410
9333.000000;0.802628
9332.000000;0.802161
9331.000000;0.801710
9330.000000;0.801138
9329.000000;0.800774
9328.000000;0.800894
9327.000000;0.801209
9326.000000;0.801185
9325.000000;0.800731
9324.000000;0.800287
9323.000000;0.800271
9322.000000;0.800632
9321.000000;0.800934
9320.000000;0.800758
9319.000000;0.800016
9318.000000;0.798953
9317.000000;0.797923
9316.000000;0.797202
9315.000000;0.796963
9314.000000;0.797246
9313.000000;0.797787
9312.000000;0.798012
9311.000000;0.797472
9310.000000;0.796353
9309.000000;0.795372
9308.000000;0.795095
9307.000000;0.795485
9306.000000;0.796118
9305.000000;0.796626
9304.000000;0.796853
9303.000000;0.796827
9302.000000;0.796737
9301.000000;0.796820
9300.000000;0.797091
9299.000000;0.797247
9298.000000;0.796990
9297.000000;0.796415
9296.000000;0.795924
9295.000000;0.795760
9294.000000;0.795745
9293.000000;0.795504
9292.000000;0.794869
9291.000000;0.794030
9290.000000;0.793346
9289.000000;0.793044
9288.000000;0.793114
9287.000000;0.793451
9286.000000;0.793985
9285.000000;0.794612
9284.000000;0.795048
9283.000000;0.794946
9282.000000;0.794224
9281.000000;0.793187
9280.000000;0.792247
9279.000000;0.791592
9278.000000;0.791190
9277.000000;0.791003
9276.000000;0.791036
9275.000000;0.791216
9274.000000;0.791382
9273.000000;0.791465
9272.000000;0.791557
9271.000000;0.791723
9270.000000;0.791858
9269.000000;0.791850
9268.000000;0.791801
9267.000000;0.791911
9266.000000;0.792104
9265.000000;0.791966
9264.000000;0.791190
9263.000000;0.790035
9262.000000;0.789182
9261.000000;0.789102
9260.000000;0.789637
9259.000000;0.790167
9258.000000;0.790124
9257.000000;0.789359
9256.000000;0.788186
9255.000000;0.787194
9254.000000;0.786907
9253.000000;0.787419
9252.000000;0.788287
9251.000000;0.788818
9250.000000;0.788536
9249.000000;0.787464
9248.000000;0.786044
9247.000000;0.784842
9246.000000;0.784236
9245.000000;0.784268
9244.000000;0.784757
9243.000000;0.785536
9242.000000;0.786513
9241.000000;0.787501
9240.000000;0.788170
9239.000000;0.788323
9238.000000;0.788127
9237.000000;0.787907
9236.000000;0.787729
9235.000000;0.787370
9234.000000;0.786684
9233.000000;0.785848
9232.000000;0.785187
9231.000000;0.784873
9230.000000;0.784879
9229.000000;0.785086
9228.000000;0.785330
9227.000000;0.785407
9226.000000;0.785132
9225.000000;0.784453
9224.000000;0.783544
9223.000000;0.782802
9222.000000;0.782621
9221.000000;0.782979
9220.000000;0.783282
9219.000000;0.782856
9218.000000;0.781717
9217.000000;0.780661
9216.000000;0.780452
9215.000000;0.781054
9214.000000;0.781799
9213.000000;0.782163
9212.000000;0.782157
9211.000000;0.782031
9210.000000;0.781872
9209.000000;0.781570
9208.000000;0.781040
9207.000000;0.780391
9206.000000;0.779882
9205.000000;0.779692
9204.000000;0.779684
9203.000000;0.779517
9202.000000;0.779065
9201.000000;0.778610
9200.000000;0.778455
9199.000000;0.778496
9198.000000;0.778438
9197.000000;0.778348
9196.000000;0.778618
9195.000000;0.779352
9194.000000;0.780117
9193.000000;0.780458
9192.000000;0.780367
9191.000000;0.780086
9190.000000;0.779728
9189.000000;0.779342
9188.000000;0.779112
9187.000000;0.779157
9186.000000;0.779244
9185.000000;0.779008
9184.000000;0.778422
9183.000000;0.777798
9182.000000;0.777358
9181.000000;0.777034
9180.000000;0.776716
9179.000000;0.776450
9178.000000;0.776318
9177.000000;0.776317
9176.000000;0.776401
9175.000000;0.776501
9174.000000;0.776480
9173.000000;0.776211
9172.000000;0.775741
9171.000000;0.775235
9170.000000;0.774756
9169.000000;0.774275
9168.000000;0.773883
9167.000000;0.773768
9166.000000;0.773935
9165.000000;0.774149
9164.000000;0.774243
9163.000000;0.774310
9162.000000;0.774451
9161.000000;0.774551
9160.000000;0.774427
9159.000000;0.774095
9158.000000;0.773738
9157.000000;0.773533
9156.000000;0.773611
9155.000000;0.774026
9154.000000;0.774652
9153.000000;0.775199
9152.000000;0.775471
9151.000000;0.775506
9150.000000;0.775358
9149.000000;0.774912
9148.000000;0.774083
9147.000000;0.773053
9146.000000;0.772101
9145.000000;0.771319
9144.000000;0.770697
9143.000000;0.770352
9142.000000;0.770447
9141.000000;0.770907
9140.000000;0.771433
9139.000000;0.771788
9138.000000;0.771900
9137.000000;0.771724
9136.000000;0.771268
9135.000000;0.770763
9134.000000;0.770538
9133.000000;0.770611
9132.000000;0.770602
9131.000000;0.770193
9130.000000;0.769541
9129.000000;0.769108
9128.000000;0.769179
9127.000000;0.769670
9126.000000;0.770317
9125.000000;0.770898
9124.000000;0.771262
9123.000000;0.771270
9122.000000;0.770836
9121.000000;0.770076
9120.000000;0.769372
9119.000000;0.769154
9118.000000;0.769498
9117.000000;0.770022
9116.000000;0.770277
9115.000000;0.770185
9114.000000;0.769996
9113.000000;0.769871
9112.000000;0.769712
9111.000000;0.769394
9110.000000;0.768960
9109.000000;0.768541
9108.000000;0.768242
9107.000000;0.768159
9106.000000;0.768309
9105.000000;0.768456
9104.000000;0.768214
9103.000000;0.767519
9102.000000;0.766872
9101.000000;0.766874
9100.000000;0.767534
9099.000000;0.768209
9098.000000;0.768260
9097.000000;0.767639
9096.000000;0.766806
9095.000000;0.766242
9094.000000;0.766142
9093.000000;0.766451
9092.000000;0.766969
9091.000000;0.767384
9090.000000;0.767379
9089.000000;0.766893
9088.000000;0.766276
9087.000000;0.766047
9086.000000;0.766446
9085.000000;0.767234
9084.000000;0.767938
9083.000000;0.768206
9082.000000;0.767958
9081.000000;0.767352
9080.000000;0.766658
9079.000000;0.766074
9078.000000;0.765570
9077.000000;0.764981
9076.000000;0.764299
9075.000000;0.763753
9074.000000;0.763502
9073.000000;0.763373
9072.000000;0.763102
9071.000000;0.762747
9070.000000;0.762690
9069.000000;0.763204
9068.000000;0.764163
9067.000000;0.765155
9066.000000;0.765740
9065.000000;0.765643
9064.000000;0.764928
9063.000000;0.764056
9062.000000;0.763596
9061.000000;0.763739
9060.000000;0.764139
9059.000000;0.764282
9058.000000;0.763975
9057.000000;0.763442
9056.000000;0.763051
9055.000000;0.763017
9054.000000;0.763309
9053.000000;0.763737
