Criado como novo conjunto de dados;"e0108.spp","-4237362.6 Secs"
cm-1;Abs
10000.000000;0.990080
9999.000000;0.989063
9998.000000;0.988047
9997.000000;0.987034
9996.000000;0.986023
9995.000000;0.985015
9994.000000;0.984007
9993.000000;0.983008
9992.000000;0.981989
9991.000000;0.981655
9990.000000;0.982114
9989.000000;0.983039
9988.000000;0.983630
9987.000000;0.983201
9986.000000;0.981871
9985.000000;0.980310
9984.000000;0.978962
9983.000000;0.977879
9982.000000;0.977151
9981.000000;0.976940
9980.000000;0.977048
9979.000000;0.976958
9978.000000;0.976499
9977.000000;0.976086
9976.000000;0.976122
9975.000000;0.976451
9974.000000;0.976577
9973.000000;0.976195
9972.000000;0.975345
9971.000000;0.974305
9970.000000;0.973509
9969.000000;0.973308
9968.000000;0.973607
9967.000000;0.973891
9966.000000;0.973715
9965.000000;0.972975
9964.000000;0.971734
9963.000000;0.970201
9962.000000;0.969062
9961.000000;0.969325
9960.000000;0.971354
9959.000000;0.974139
9958.000000;0.975913
9957.000000;0.975640
9956.000000;0.973808
9955.000000;0.971790
9954.000000;0.970535
9953.000000;0.969845
9952.000000;0.968797
9951.000000;0.966884
9950.000000;0.964716
9949.000000;0.963427
9948.000000;0.963439
9947.000000;0.964113
9946.000000;0.964639
9945.000000;0.964833
9944.000000;0.964846
9943.000000;0.964596
9942.000000;0.964040
9941.000000;0.963644
9940.000000;0.963936
9939.000000;0.964651
9938.000000;0.964902
9937.000000;0.964339
9936.000000;0.963677
9935.000000;0.963787
9934.000000;0.964606
9933.000000;0.965203
9932.000000;0.964742
9931.000000;0.963233
9930.000000;0.961459
9929.000000;0.960239
9928.000000;0.959707
9927.000000;0.959243
9926.000000;0.958231
9925.000000;0.956905
9924.000000;0.956254
9923.000000;0.956965
9922.000000;0.958590
9921.000000;0.959889
9920.000000;0.959917
9919.000000;0.958752
9918.000000;0.957277
9917.000000;0.956412
9916.000000;0.956497
9915.000000;0.957189
9914.000000;0.957794
9913.000000;0.957715
9912.000000;0.956727
9911.000000;0.955099
9910.000000;0.953543
9909.000000;0.952870
9908.000000;0.953367
9907.000000;0.954424
9906.000000;0.954952
9905.000000;0.954266
9904.000000;0.952551
9903.000000;0.950575
9902.000000;0.949147
9901.000000;0.948773
9900.000000;0.949499
9899.000000;0.950812
9898.000000;0.951795
9897.000000;0.951697
9896.000000;0.950518
9895.000000;0.949037
9894.000000;0.948165
9893.000000;0.948182
9892.000000;0.948512
9891.000000;0.948327
9890.000000;0.947417
9889.000000;0.946367
9888.000000;0.945852
9887.000000;0.945964
9886.000000;0.946376
9885.000000;0.946858
9884.000000;0.947312
9883.000000;0.947456
9882.000000;0.946974
9881.000000;0.946016
9880.000000;0.945135
9879.000000;0.944611
9878.000000;0.944195
9877.000000;0.943667
9876.000000;0.943238
9875.000000;0.943131
9874.000000;0.943120
9873.000000;0.942844
9872.000000;0.942354
9871.000000;0.942011
9870.000000;0.941923
9869.000000;0.941789
9868.000000;0.941313
9867.000000;0.940506
9866.000000;0.939564
9865.000000;0.938672
9864.000000;0.937961
9863.000000;0.937479
9862.000000;0.937198
9861.000000;0.937169
9860.000000;0.937541
9859.000000;0.938250
9858.000000;0.938792
9857.000000;0.938582
9856.000000;0.937583
9855.000000;0.936324
9854.000000;0.935284
9853.000000;0.934509
9852.000000;0.933879
9851.000000;0.933470
9850.000000;0.933486
9849.000000;0.933952
9848.000000;0.934588
9847.000000;0.934941
9846.000000;0.934642
9845.000000;0.933715
9844.000000;0.932725
9843.000000;0.932399
9842.000000;0.932906
9841.000000;0.933581
9840.000000;0.933494
9839.000000;0.932261
9838.000000;0.930287
9837.000000;0.928386
9836.000000;0.927259
9835.000000;0.927173
9834.000000;0.927865
9833.000000;0.928752
9832.000000;0.929363
9831.000000;0.929602
9830.000000;0.929597
9829.000000;0.929449
9828.000000;0.929282
9827.000000;0.929324
9826.000000;0.929653
9825.000000;0.929851
9824.000000;0.929222
9823.000000;0.927535
9822.000000;0.925371
9821.000000;0.923584
9820.000000;0.922599
9819.000000;0.922372
9818.000000;0.922760
9817.000000;0.923559
9816.000000;0.924234
9815.000000;0.924081
9814.000000;0.922913
9813.000000;0.921389
9812.000000;0.920357
9811.000000;0.920015
9810.000000;0.919937
9809.000000;0.919854
9808.000000;0.920060
9807.000000;0.920938
9806.000000;0.922300
9805.000000;0.923409
9804.000000;0.923602
9803.000000;0.922796
9802.000000;0.921474
9801.000000;0.920332
9800.000000;0.919822
9799.000000;0.919814
9798.000000;0.919699
9797.000000;0.919048
9796.000000;0.918170
9795.000000;0.917777
9794.000000;0.918038
9793.000000;0.918247
9792.000000;0.917622
9791.000000;0.916232
9790.000000;0.914905
9789.000000;0.914382
9788.000000;0.914811
9787.000000;0.915866
9786.000000;0.916958
9785.000000;0.917376
9784.000000;0.916658
9783.000000;0.915028
9782.000000;0.913216
9781.000000;0.911749
9780.000000;0.910638
9779.000000;0.909838
9778.000000;0.909591
9777.000000;0.910019
9776.000000;0.910642
9775.000000;0.910764
9774.000000;0.910260
9773.000000;0.909631
9772.000000;0.909346
9771.000000;0.909475
9770.000000;0.909899
9769.000000;0.910439
9768.000000;0.910695
9767.000000;0.910198
9766.000000;0.908965
9765.000000;0.907639
9764.000000;0.906870
9763.000000;0.906706
9762.000000;0.906748
9761.000000;0.906648
9760.000000;0.906326
9759.000000;0.905904
9758.000000;0.905642
9757.000000;0.905761
9756.000000;0.906091
9755.000000;0.906084
9754.000000;0.905466
9753.000000;0.904678
9752.000000;0.904332
9751.000000;0.904391
9750.000000;0.904237
9749.000000;0.903533
9748.000000;0.902616
9747.000000;0.901972
9746.000000;0.901676
9745.000000;0.901480
9744.000000;0.901177
9743.000000;0.900681
9742.000000;0.900009
9741.000000;0.899379
9740.000000;0.899132
9739.000000;0.899316
9738.000000;0.899485
9737.000000;0.899153
9736.000000;0.898388
9735.000000;0.897740
9734.000000;0.897584
9733.000000;0.897739
9732.000000;0.897776
9731.000000;0.897530
9730.000000;0.897256
9729.000000;0.897381
9728.000000;0.898115
9727.000000;0.899171
9726.000000;0.899871
9725.000000;0.899650
9724.000000;0.898561
9723.000000;0.897242
9722.000000;0.896326
9721.000000;0.895914
9720.000000;0.895619
9719.000000;0.895064
9718.000000;0.894282
9717.000000;0.893665
9716.000000;0.893544
9715.000000;0.893817
9714.000000;0.894046
9713.000000;0.893997
9712.000000;0.893990
9711.000000;0.894499
9710.000000;0.895365
9709.000000;0.895684
9708.000000;0.894743
9707.000000;0.892958
9706.000000;0.891526
9705.000000;0.891106
9704.000000;0.891113
9703.000000;0.890485
9702.000000;0.888968
9701.000000;0.887396
9700.000000;0.886766
9699.000000;0.887280
9698.000000;0.888278
9697.000000;0.888911
9696.000000;0.888840
9695.000000;0.888428
9694.000000;0.888319
9693.000000;0.888774
9692.000000;0.889401
9691.000000;0.889556
9690.000000;0.888945
9689.000000;0.887766
9688.000000;0.886348
9687.000000;0.884896
9686.000000;0.883608
9685.000000;0.882782
9684.000000;0.882629
9683.000000;0.883074
9682.000000;0.883845
9681.000000;0.884679
9680.000000;0.885393
9679.000000;0.885881
9678.000000;0.886116
9677.000000;0.886049
9676.000000;0.885453
9675.000000;0.884064
9674.000000;0.882084
9673.000000;0.880374
9672.000000;0.879837
9671.000000;0.880530
9670.000000;0.881525
9669.000000;0.881725
9668.000000;0.880816
9667.000000;0.879435
9666.000000;0.878511
9665.000000;0.878461
9664.000000;0.878890
9663.000000;0.879027
9662.000000;0.878468
9661.000000;0.877495
9660.000000;0.876674
9659.000000;0.876239
9658.000000;0.875971
9657.000000;0.875526
9656.000000;0.874745
9655.000000;0.873729
9654.000000;0.872818
9653.000000;0.872498
9652.000000;0.873092
9651.000000;0.874421
9650.000000;0.875825
9649.000000;0.876608
9648.000000;0.876508
9647.000000;0.875774
9646.000000;0.874873
9645.000000;0.874149
9644.000000;0.873705
9643.000000;0.873537
9642.000000;0.873671
9641.000000;0.874067
9640.000000;0.874428
9639.000000;0.874294
9638.000000;0.873462
9637.000000;0.872230
9636.000000;0.871154
9635.000000;0.870605
9634.000000;0.870605
9633.000000;0.870857
9632.000000;0.870850
9631.000000;0.870185
9630.000000;0.869016
9629.000000;0.868038
9628.000000;0.867753
9627.000000;0.867841
9626.000000;0.867559
9625.000000;0.866737
9624.000000;0.865988
9623.000000;0.865852
9622.000000;0.866113
9621.000000;0.866185
9620.000000;0.865934
9619.000000;0.865779
9618.000000;0.866047
9617.000000;0.866516
9616.000000;0.866621
9615.000000;0.866033
9614.000000;0.864963
9613.000000;0.863917
9612.000000;0.863180
9611.000000;0.862571
9610.000000;0.861759
9609.000000;0.860719
9608.000000;0.859766
9607.000000;0.859182
9606.000000;0.859037
9605.000000;0.859350
9604.000000;0.860153
9603.000000;0.861251
9602.000000;0.862172
9601.000000;0.862566
9600.000000;0.862578
9599.000000;0.862613
9598.000000;0.862775
9597.000000;0.862724
9596.000000;0.862117
9595.000000;0.861053
9594.000000;0.860043
9593.000000;0.859594
9592.000000;0.859769
9591.000000;0.860067
9590.000000;0.859809
9589.000000;0.858744
9588.000000;0.857340
9587.000000;0.856387
9586.000000;0.856251
9585.000000;0.856541
9584.000000;0.856575
9583.000000;0.856124
9582.000000;0.855556
9581.000000;0.855263
9580.000000;0.855156
9579.000000;0.854919
9578.000000;0.854589
9577.000000;0.854535
9576.000000;0.854831
9575.000000;0.854987
9574.000000;0.854555
9573.000000;0.853820
9572.000000;0.853525
9571.000000;0.853963
9570.000000;0.854585
9569.000000;0.854609
9568.000000;0.853854
9567.000000;0.852860
9566.000000;0.852262
9565.000000;0.852128
9564.000000;0.851950
9563.000000;0.851306
9562.000000;0.850442
9561.000000;0.850013
9560.000000;0.850209
9559.000000;0.850418
9558.000000;0.849958
9557.000000;0.848937
9556.000000;0.848106
9555.000000;0.847993
9554.000000;0.848477
9553.000000;0.849094
9552.000000;0.849403
9551.000000;0.849098
9550.000000;0.848185
9549.000000;0.847148
9548.000000;0.846608
9547.000000;0.846667
9546.000000;0.846860
9545.000000;0.846815
9544.000000;0.846658
9543.000000;0.846606
9542.000000;0.846548
9541.000000;0.846304
9540.000000;0.846067
9539.000000;0.846184
9538.000000;0.846612
9537.000000;0.846932
9536.000000;0.846917
9535.000000;0.846799
9534.000000;0.846884
9533.000000;0.847061
9532.000000;0.846859
9531.000000;0.845991
9530.000000;0.844748
9529.000000;0.843742
9528.000000;0.843239
9527.000000;0.842901
9526.000000;0.842352
9525.000000;0.841864
9524.000000;0.842100
9523.000000;0.843092
9522.000000;0.843856
9521.000000;0.843328
9520.000000;0.841558
9519.000000;0.839718
9518.000000;0.838932
9517.000000;0.839302
9516.000000;0.840108
9515.000000;0.840743
9514.000000;0.841262
9513.000000;0.841996
9512.000000;0.842800
9511.000000;0.842979
9510.000000;0.842097
9509.000000;0.840618
9508.000000;0.839458
9507.000000;0.839020
9506.000000;0.838996
9505.000000;0.838982
9504.000000;0.838825
9503.000000;0.838386
9502.000000;0.837520
9501.000000;0.836517
9500.000000;0.836127
9499.000000;0.836783
9498.000000;0.838074
9497.000000;0.839201
9496.000000;0.839689
9495.000000;0.839400
9494.000000;0.838271
9493.000000;0.836532
9492.000000;0.834941
9491.000000;0.834226
9490.000000;0.834329
9489.000000;0.834553
9488.000000;0.834396
9487.000000;0.833874
9486.000000;0.833142
9485.000000;0.832283
9484.000000;0.831536
9483.000000;0.831275
9482.000000;0.831571
9481.000000;0.832044
9480.000000;0.832268
9479.000000;0.832089
9478.000000;0.831521
9477.000000;0.830633
9476.000000;0.829694
9475.000000;0.829141
9474.000000;0.829170
9473.000000;0.829484
9472.000000;0.829568
9471.000000;0.829159
9470.000000;0.828409
9469.000000;0.827764
9468.000000;0.827686
9467.000000;0.828319
9466.000000;0.829327
9465.000000;0.830198
9464.000000;0.830713
9463.000000;0.830950
9462.000000;0.830840
9461.000000;0.830066
9460.000000;0.828568
9459.000000;0.826921
9458.000000;0.825947
9457.000000;0.826013
9456.000000;0.826799
9455.000000;0.827595
9454.000000;0.827744
9453.000000;0.827030
9452.000000;0.825860
9451.000000;0.824978
9450.000000;0.824818
9449.000000;0.825161
9448.000000;0.825509
9447.000000;0.825681
9446.000000;0.825897
9445.000000;0.826354
9444.000000;0.826939
9443.000000;0.827400
9442.000000;0.827576
9441.000000;0.827402
9440.000000;0.826854
9439.000000;0.826035
9438.000000;0.825251
9437.000000;0.824791
9436.000000;0.824599
9435.000000;0.824248
9434.000000;0.823391
9433.000000;0.822197
9432.000000;0.821237
9431.000000;0.820891
9430.000000;0.820980
9429.000000;0.821037
9428.000000;0.820836
9427.000000;0.820519
9426.000000;0.820293
9425.000000;0.820202
9424.000000;0.820196
9423.000000;0.820240
9422.000000;0.820286
9421.000000;0.820272
9420.000000;0.820228
9419.000000;0.820296
9418.000000;0.820545
9417.000000;0.820841
9416.000000;0.820926
9415.000000;0.820588
9414.000000;0.819765
9413.000000;0.818629
9412.000000;0.817624
9411.000000;0.817253
9410.000000;0.817610
9409.000000;0.818157
9408.000000;0.818149
9407.000000;0.817362
9406.000000;0.816322
9405.000000;0.815731
9404.000000;0.815734
9403.000000;0.815846
9402.000000;0.815580
9401.000000;0.814978
9400.000000;0.814480
9399.000000;0.814366
9398.000000;0.814492
9397.000000;0.814574
9396.000000;0.814573
9395.000000;0.814691
9394.000000;0.815054
9393.000000;0.815488
9392.000000;0.815617
9391.000000;0.815190
9390.000000;0.814374
9389.000000;0.813693
9388.000000;0.813549
9387.000000;0.813772
9386.000000;0.813809
9385.000000;0.813418
9384.000000;0.812934
9383.000000;0.812689
9382.000000;0.812454
9381.000000;0.811800
9380.000000;0.810846
9379.000000;0.810206
9378.000000;0.810128
9377.000000;0.810108
9376.000000;0.809530
9375.000000;0.808431
9374.000000;0.807427
9373.000000;0.807102
9372.000000;0.807675
9371.000000;0.809053
9370.000000;0.810849
9369.000000;0.812377
9368.000000;0.812966
9367.000000;0.812435
9366.000000;0.811179
9365.000000;0.809752
9364.000000;0.808423
9363.000000;0.807165
9362.000000;0.806001
9361.000000;0.805276
9360.000000;0.805438
9359.000000;0.806478
9358.000000;0.807685
9357.000000;0.808203
9356.000000;0.807895
9355.000000;0.807422
9354.000000;0.807370
9353.000000;0.807577
9352.000000;0.807541
9351.000000;0.807209
9350.000000;0.806939
9349.000000;0.806789
9348.000000;0.806347
9347.000000;0.805425
9346.000000;0.804505
9345.000000;0.804193
9344.000000;0.804425
9343.000000;0.804531
9342.000000;0.804068
9341.000000;0.803333
9340.000000;0.803020
9339.000000;0.803502
9338.000000;0.804472
9337.000000;0.805179
9336.000000;0.805034
9335.000000;0.804088
9334.000000;0.802999
9333.000000;0.802464
9332.000000;0.802644
9331.000000;0.803115
9330.000000;0.803332
9329.000000;0.803071
9328.000000;0.802472
9327.000000;0.801772
9326.000000;0.801089
9325.000000;0.800404
9324.000000;0.799686
9323.000000;0.799018
9322.000000;0.798607
9321.000000;0.798627
9320.000000;0.799057
9319.000000;0.799704
9318.000000;0.800368
9317.000000;0.800936
9316.000000;0.801319
9315.000000;0.801421
9314.000000;0.801217
9313.000000;0.800785
9312.000000;0.800191
9311.000000;0.799427
9310.000000;0.798541
9309.000000;0.797750
9308.000000;0.797256
9307.000000;0.796984
9306.000000;0.796661
9305.000000;0.796194
9304.000000;0.795833
9303.000000;0.795851
9302.000000;0.796142
9301.000000;0.796293
9300.000000;0.796012
9299.000000;0.795407
9298.000000;0.794873
9297.000000;0.794782
9296.000000;0.795281
9295.000000;0.796202
9294.000000;0.797082
9293.000000;0.797359
9292.000000;0.796751
9291.000000;0.795546
9290.000000;0.794444
9289.000000;0.793984
9288.000000;0.794116
9287.000000;0.794375
9286.000000;0.794430
9285.000000;0.794361
9284.000000;0.794377
9283.000000;0.794461
9282.000000;0.794432
9281.000000;0.794258
9280.000000;0.794100
9279.000000;0.794057
9278.000000;0.794074
9277.000000;0.794110
9276.000000;0.794191
9275.000000;0.794202
9274.000000;0.793828
9273.000000;0.792934
9272.000000;0.791894
9271.000000;0.791326
9270.000000;0.791507
9269.000000;0.792210
9268.000000;0.793092
9267.000000;0.794024
9266.000000;0.794948
9265.000000;0.795582
9264.000000;0.795516
9263.000000;0.794647
9262.000000;0.793412
9261.000000;0.792483
9260.000000;0.792187
9259.000000;0.792231
9258.000000;0.792021
9257.000000;0.791252
9256.000000;0.790164
9255.000000;0.789246
9254.000000;0.788790
9253.000000;0.788764
9252.000000;0.789002
9251.000000;0.789290
9250.000000;0.789296
9249.000000;0.788661
9248.000000;0.787381
9247.000000;0.786002
9246.000000;0.785248
9245.000000;0.785404
9244.000000;0.786094
9243.000000;0.786694
9242.000000;0.786888
9241.000000;0.786812
9240.000000;0.786783
9239.000000;0.786984
9238.000000;0.787373
9237.000000;0.787767
9236.000000;0.787965
9235.000000;0.787895
9234.000000;0.787726
9233.000000;0.787772
9232.000000;0.788162
9231.000000;0.788636
9230.000000;0.788772
9229.000000;0.788455
9228.000000;0.787980
9227.000000;0.787632
9226.000000;0.787288
9225.000000;0.786643
9224.000000;0.785764
9223.000000;0.785180
9222.000000;0.785312
9221.000000;0.785958
9220.000000;0.786469
9219.000000;0.786372
9218.000000;0.785713
9217.000000;0.784861
9216.000000;0.784138
9215.000000;0.783707
9214.000000;0.783641
9213.000000;0.783940
9212.000000;0.784418
9211.000000;0.784686
9210.000000;0.784348
9209.000000;0.783310
9208.000000;0.781955
9207.000000;0.780975
9206.000000;0.780942
9205.000000;0.781895
9204.000000;0.783282
9203.000000;0.784316
9202.000000;0.784457
9201.000000;0.783655
9200.000000;0.782272
9199.000000;0.780855
9198.000000;0.779913
9197.000000;0.779703
9196.000000;0.780087
9195.000000;0.780680
9194.000000;0.781234
9193.000000;0.781839
9192.000000;0.782614
9191.000000;0.783308
9190.000000;0.783449
9189.000000;0.782929
9188.000000;0.782205
9187.000000;0.781745
9186.000000;0.781447
9185.000000;0.780817
9184.000000;0.779675
9183.000000;0.778438
9182.000000;0.777669
9181.000000;0.777519
9180.000000;0.777687
9179.000000;0.777814
9178.000000;0.777772
9177.000000;0.777637
9176.000000;0.777499
9175.000000;0.777366
9174.000000;0.777264
9173.000000;0.777352
9172.000000;0.777830
9171.000000;0.778602
9170.000000;0.779106
9169.000000;0.778687
9168.000000;0.777288
9167.000000;0.775642
9166.000000;0.774637
9165.000000;0.774529
9164.000000;0.774878
9163.000000;0.775176
9162.000000;0.775344
9161.000000;0.775564
9160.000000;0.775846
9159.000000;0.775984
9158.000000;0.775930
9157.000000;0.775989
9156.000000;0.776506
9155.000000;0.777385
9154.000000;0.778083
9153.000000;0.778128
9152.000000;0.777582
9151.000000;0.776872
9150.000000;0.776259
9149.000000;0.775668
9148.000000;0.775029
9147.000000;0.774513
9146.000000;0.774269
9145.000000;0.774119
9144.000000;0.773808
9143.000000;0.773473
9142.000000;0.773501
9141.000000;0.773874
9140.000000;0.774033
9139.000000;0.773605
9138.000000;0.773006
9137.000000;0.772967
9136.000000;0.773600
9135.000000;0.774315
9134.000000;0.774602
9133.000000;0.774541
9132.000000;0.774445
9131.000000;0.774341
9130.000000;0.774031
9129.000000;0.773447
9128.000000;0.772734
9127.000000;0.772108
9126.000000;0.771831
9125.000000;0.772182
9124.000000;0.773155
9123.000000;0.774209
9122.000000;0.774561
9121.000000;0.773840
9120.000000;0.772411
9119.000000;0.771035
9118.000000;0.770293
9117.000000;0.770253
9116.000000;0.770549
9115.000000;0.770778
9114.000000;0.770877
9113.000000;0.771054
9112.000000;0.771348
9111.000000;0.771429
9110.000000;0.771023
9109.000000;0.770384
9108.000000;0.770053
9107.000000;0.770167
9106.000000;0.770319
9105.000000;0.770126
9104.000000;0.769661
9103.000000;0.769256
9102.000000;0.769120
9101.000000;0.769309
9100.000000;0.769812
9099.000000;0.770432
9098.000000;0.770760
9097.000000;0.770503
9096.000000;0.769811
9095.000000;0.769142
9094.000000;0.768856
9093.000000;0.769002
9092.000000;0.769361
9091.000000;0.769531
9090.000000;0.769146
9089.000000;0.768237
9088.000000;0.767348
9087.000000;0.767088
9086.000000;0.767579
9085.000000;0.768437
9084.000000;0.769185
9083.000000;0.769501
9082.000000;0.769217
9081.000000;0.768429
9080.000000;0.767642
9079.000000;0.767483
9078.000000;0.768061
9077.000000;0.768774
9076.000000;0.768913
9075.000000;0.768372
9074.000000;0.767645
9073.000000;0.767210
9072.000000;0.767051
9071.000000;0.766783
9070.000000;0.766119
9069.000000;0.765202
9068.000000;0.764506
9067.000000;0.764429
9066.000000;0.764920
9065.000000;0.765514
9064.000000;0.765729
9063.000000;0.765467
9062.000000;0.765012
9061.000000;0.764684
9060.000000;0.764559
9059.000000;0.764520
9058.000000;0.764528
9057.000000;0.764720
9056.000000;0.765183
9055.000000;0.765709
9054.000000;0.765908
9053.000000;0.765621
