Criado como novo conjunto de dados;"e0108.spp","-4219181.0 Secs"
cm-1;Abs
10000.000000;1.997074
9999.000000;2.003345
9998.000000;2.006872
9997.000000;1.999480
9996.000000;1.983158
9995.000000;1.969489
9994.000000;1.968743
9993.000000;1.982543
9992.000000;2.001200
9991.000000;2.011057
9990.000000;2.007359
9989.000000;1.997370
9988.000000;1.988155
9987.000000;1.980649
9986.000000;1.975533
9985.000000;1.976838
9984.000000;1.987062
9983.000000;2.000584
9982.000000;2.005564
9981.000000;1.996042
9980.000000;1.978772
9979.000000;1.965355
9978.000000;1.962284
9977.000000;1.968389
9976.000000;1.977080
9975.000000;1.980644
9974.000000;1.976427
9973.000000;1.969421
9972.000000;1.966899
9971.000000;1.972130
9970.000000;1.983002
9969.000000;1.994105
9968.000000;1.999615
9967.000000;1.996263
9966.000000;1.985945
9965.000000;1.975207
9964.000000;1.970017
9963.000000;1.970423
9962.000000;1.971401
9961.000000;1.968398
9960.000000;1.961701
9959.000000;1.956100
9958.000000;1.955591
9957.000000;1.959386
9956.000000;1.963776
9955.000000;1.966298
9954.000000;1.967598
9953.000000;1.969980
9952.000000;1.974209
9951.000000;1.977615
9950.000000;1.976696
9949.000000;1.971545
9948.000000;1.965408
9947.000000;1.960602
9946.000000;1.956830
9945.000000;1.953289
9944.000000;1.951166
9943.000000;1.952888
9942.000000;1.958730
9941.000000;1.964716
9940.000000;1.965347
9939.000000;1.959709
9938.000000;1.953453
9937.000000;1.953267
9936.000000;1.960522
9935.000000;1.970855
9934.000000;1.979016
9933.000000;1.983081
9932.000000;1.984018
9931.000000;1.983310
9930.000000;1.982477
9929.000000;1.983183
9928.000000;1.986364
9927.000000;1.991578
9926.000000;1.997079
9925.000000;1.999831
9924.000000;1.996362
9923.000000;1.986307
9922.000000;1.974992
9921.000000;1.969530
9920.000000;1.972127
9919.000000;1.977781
9918.000000;1.978657
9917.000000;1.971681
9916.000000;1.960843
9915.000000;1.951500
9914.000000;1.945014
9913.000000;1.939991
9912.000000;1.936721
9911.000000;1.938519
9910.000000;1.948741
9909.000000;1.966104
9908.000000;1.982449
9907.000000;1.987963
9906.000000;1.980887
9905.000000;1.969259
9904.000000;1.962355
9903.000000;1.962034
9902.000000;1.961916
9901.000000;1.955095
9900.000000;1.942033
9899.000000;1.930061
9898.000000;1.926425
9897.000000;1.932554
9896.000000;1.943888
9895.000000;1.954173
9894.000000;1.960173
9893.000000;1.962429
9892.000000;1.962132
9891.000000;1.959480
9890.000000;1.955662
9889.000000;1.953720
9888.000000;1.956033
9887.000000;1.961667
9886.000000;1.966150
9885.000000;1.964507
9884.000000;1.956291
9883.000000;1.946848
9882.000000;1.942521
9881.000000;1.944784
9880.000000;1.949272
9879.000000;1.951988
9878.000000;1.954753
9877.000000;1.960670
9876.000000;1.966557
9875.000000;1.965651
9874.000000;1.958207
9873.000000;1.952238
9872.000000;1.952345
9871.000000;1.954899
9870.000000;1.956391
9869.000000;1.960054
9868.000000;1.968721
9867.000000;1.976882
9866.000000;1.976578
9865.000000;1.968710
9864.000000;1.961190
9863.000000;1.957649
9862.000000;1.954557
9861.000000;1.948594
9860.000000;1.941614
9859.000000;1.937063
9858.000000;1.935369
9857.000000;1.934905
9856.000000;1.935313
9855.000000;1.936869
9854.000000;1.938401
9853.000000;1.938579
9852.000000;1.938181
9851.000000;1.940348
9850.000000;1.948087
9849.000000;1.960034
9848.000000;1.968450
9847.000000;1.964642
9846.000000;1.949607
9845.000000;1.935298
9844.000000;1.932415
9843.000000;1.940031
9842.000000;1.948143
9841.000000;1.949968
9840.000000;1.948805
9839.000000;1.950823
9838.000000;1.956484
9837.000000;1.961628
9836.000000;1.963451
9835.000000;1.962314
9834.000000;1.959122
9833.000000;1.954569
9832.000000;1.950061
9831.000000;1.947252
9830.000000;1.946488
9829.000000;1.946161
9828.000000;1.945031
9827.000000;1.944648
9826.000000;1.947781
9825.000000;1.954583
9824.000000;1.960547
9823.000000;1.959200
9822.000000;1.948562
9821.000000;1.933717
9820.000000;1.921390
9819.000000;1.913844
9818.000000;1.909214
9817.000000;1.906440
9816.000000;1.907301
9815.000000;1.912640
9814.000000;1.919116
9813.000000;1.922068
9812.000000;1.920844
9811.000000;1.919130
9810.000000;1.920385
9809.000000;1.924653
9808.000000;1.929455
9807.000000;1.932532
9806.000000;1.933629
9805.000000;1.934145
9804.000000;1.935365
9803.000000;1.937061
9802.000000;1.937805
9801.000000;1.936761
9800.000000;1.934210
9799.000000;1.930038
9798.000000;1.923614
9797.000000;1.915791
9796.000000;1.909731
9795.000000;1.909184
9794.000000;1.916081
9793.000000;1.929033
9792.000000;1.942661
9791.000000;1.949167
9790.000000;1.944203
9789.000000;1.932131
9788.000000;1.921916
9787.000000;1.917675
9786.000000;1.915976
9785.000000;1.912302
9784.000000;1.907475
9783.000000;1.905710
9782.000000;1.908045
9781.000000;1.910685
9780.000000;1.910504
9779.000000;1.909211
9778.000000;1.909861
9777.000000;1.911738
9776.000000;1.911207
9775.000000;1.907113
9774.000000;1.902997
9773.000000;1.903188
9772.000000;1.908258
9771.000000;1.914269
9770.000000;1.915757
9769.000000;1.909970
9768.000000;1.898996
9767.000000;1.888734
9766.000000;1.885167
9765.000000;1.890205
9764.000000;1.900238
9763.000000;1.908495
9762.000000;1.909946
9761.000000;1.904858
9760.000000;1.897982
9759.000000;1.894217
9758.000000;1.895369
9757.000000;1.899831
9756.000000;1.903954
9755.000000;1.905217
9754.000000;1.904627
9753.000000;1.904745
9752.000000;1.906266
9751.000000;1.908436
9750.000000;1.911810
9749.000000;1.918458
9748.000000;1.928576
9747.000000;1.937897
9746.000000;1.940577
9745.000000;1.934732
9744.000000;1.923467
9743.000000;1.911528
9742.000000;1.902820
9741.000000;1.899281
9740.000000;1.899357
9739.000000;1.898463
9738.000000;1.893450
9737.000000;1.886408
9736.000000;1.882350
9735.000000;1.883954
9734.000000;1.890016
9733.000000;1.897865
9732.000000;1.905254
9731.000000;1.910046
9730.000000;1.910599
9729.000000;1.907772
9728.000000;1.904576
9727.000000;1.902556
9726.000000;1.900242
9725.000000;1.896171
9724.000000;1.891600
9723.000000;1.889027
9722.000000;1.889686
9721.000000;1.893488
9720.000000;1.900054
9719.000000;1.908228
9718.000000;1.914912
9717.000000;1.916233
9716.000000;1.910814
9715.000000;1.901154
9714.000000;1.891625
9713.000000;1.885693
9712.000000;1.884356
9711.000000;1.886087
9710.000000;1.888431
9709.000000;1.890444
9708.000000;1.893260
9707.000000;1.897632
9706.000000;1.901490
9705.000000;1.901084
9704.000000;1.894758
9703.000000;1.884622
9702.000000;1.874284
9701.000000;1.866267
9700.000000;1.862100
9699.000000;1.863489
9698.000000;1.871232
9697.000000;1.882719
9696.000000;1.893077
9695.000000;1.899059
9694.000000;1.900102
9693.000000;1.897173
9692.000000;1.891615
9691.000000;1.884875
9690.000000;1.879715
9689.000000;1.879244
9688.000000;1.883422
9687.000000;1.888728
9686.000000;1.892461
9685.000000;1.895395
9684.000000;1.898574
9683.000000;1.899827
9682.000000;1.896273
9681.000000;1.888647
9680.000000;1.880651
9679.000000;1.875587
9678.000000;1.874867
9677.000000;1.878210
9676.000000;1.883501
9675.000000;1.886963
9674.000000;1.885867
9673.000000;1.881434
9672.000000;1.877366
9671.000000;1.875956
9670.000000;1.877055
9669.000000;1.879909
9668.000000;1.883530
9667.000000;1.886001
9666.000000;1.886331
9665.000000;1.886260
9664.000000;1.887699
9663.000000;1.889129
9662.000000;1.887485
9661.000000;1.883460
9660.000000;1.880797
9659.000000;1.879986
9658.000000;1.877280
9657.000000;1.871634
9656.000000;1.868204
9655.000000;1.871806
9654.000000;1.879800
9653.000000;1.884577
9652.000000;1.882833
9651.000000;1.878864
9650.000000;1.878813
9649.000000;1.885012
9648.000000;1.894784
9647.000000;1.902738
9646.000000;1.904404
9645.000000;1.899031
9644.000000;1.889934
9643.000000;1.881631
9642.000000;1.876557
9641.000000;1.874538
9640.000000;1.874038
9639.000000;1.873229
9638.000000;1.870950
9637.000000;1.867740
9636.000000;1.865544
9635.000000;1.865663
9634.000000;1.867403
9633.000000;1.868916
9632.000000;1.868701
9631.000000;1.866414
9630.000000;1.863313
9629.000000;1.862143
9628.000000;1.865250
9627.000000;1.871738
9626.000000;1.877509
9625.000000;1.879153
9624.000000;1.876744
9623.000000;1.872488
9622.000000;1.868810
9621.000000;1.868039
9620.000000;1.871415
9619.000000;1.877085
9618.000000;1.880531
9617.000000;1.878978
9616.000000;1.874361
9615.000000;1.870107
9614.000000;1.867169
9613.000000;1.865027
9612.000000;1.864377
9611.000000;1.866734
9610.000000;1.871749
9609.000000;1.876382
9608.000000;1.877448
9607.000000;1.874559
9606.000000;1.870428
9605.000000;1.868633
9604.000000;1.870618
9603.000000;1.874211
9602.000000;1.875624
9601.000000;1.873235
9600.000000;1.868005
9599.000000;1.860502
9598.000000;1.850661
9597.000000;1.840826
9596.000000;1.835313
9595.000000;1.835790
9594.000000;1.839261
9593.000000;1.842097
9592.000000;1.844576
9591.000000;1.848919
9590.000000;1.854494
9589.000000;1.858100
9588.000000;1.858561
9587.000000;1.858149
9586.000000;1.859441
9585.000000;1.863166
9584.000000;1.868355
9583.000000;1.872446
9582.000000;1.872361
9581.000000;1.867865
9580.000000;1.862587
9579.000000;1.859515
9578.000000;1.857265
9577.000000;1.853277
9576.000000;1.849052
9575.000000;1.848559
9574.000000;1.852178
9573.000000;1.855646
9572.000000;1.855310
9571.000000;1.851773
9570.000000;1.847782
9569.000000;1.845596
9568.000000;1.846932
9567.000000;1.851873
9566.000000;1.856446
9565.000000;1.854813
9564.000000;1.846653
9563.000000;1.839257
9562.000000;1.839967
9561.000000;1.848864
9560.000000;1.859369
9559.000000;1.864788
9558.000000;1.864188
9557.000000;1.862596
9556.000000;1.865424
9555.000000;1.871790
9554.000000;1.873536
9553.000000;1.863547
9552.000000;1.845256
9551.000000;1.829674
9550.000000;1.824285
9549.000000;1.828180
9548.000000;1.835901
9547.000000;1.843058
9546.000000;1.847673
9545.000000;1.848566
9544.000000;1.845658
9543.000000;1.841335
9542.000000;1.838633
9541.000000;1.837979
9540.000000;1.837278
9539.000000;1.835081
9538.000000;1.832523
9537.000000;1.831994
9536.000000;1.834737
9535.000000;1.839803
9534.000000;1.844639
9533.000000;1.846636
9532.000000;1.844770
9531.000000;1.840191
9530.000000;1.835517
9529.000000;1.833524
9528.000000;1.835113
9527.000000;1.837348
9526.000000;1.835156
9525.000000;1.827274
9524.000000;1.818924
9523.000000;1.816342
9522.000000;1.820493
9521.000000;1.827668
9520.000000;1.834693
9519.000000;1.840914
9518.000000;1.844935
9517.000000;1.843924
9516.000000;1.838834
9515.000000;1.835723
9514.000000;1.838657
9513.000000;1.844230
9512.000000;1.845575
9511.000000;1.840745
9510.000000;1.834044
9509.000000;1.829946
9508.000000;1.829375
9507.000000;1.831062
9506.000000;1.833488
9505.000000;1.835559
9504.000000;1.836956
9503.000000;1.837758
9502.000000;1.837021
9501.000000;1.832817
9500.000000;1.825269
9499.000000;1.818085
9498.000000;1.815075
9497.000000;1.816482
9496.000000;1.819991
9495.000000;1.823868
9494.000000;1.827418
9493.000000;1.829688
9492.000000;1.830488
9491.000000;1.831823
9490.000000;1.835388
9489.000000;1.839508
9488.000000;1.841222
9487.000000;1.840679
9486.000000;1.840497
9485.000000;1.841031
9484.000000;1.839568
9483.000000;1.834690
9482.000000;1.828210
9481.000000;1.822106
9480.000000;1.817279
9479.000000;1.815930
9478.000000;1.820977
9477.000000;1.831063
9476.000000;1.839076
9475.000000;1.839229
9474.000000;1.834093
9473.000000;1.830185
9472.000000;1.828955
9471.000000;1.826554
9470.000000;1.821055
9469.000000;1.815695
9468.000000;1.814181
9467.000000;1.816080
9466.000000;1.818063
9465.000000;1.817688
9464.000000;1.814724
9463.000000;1.810355
9462.000000;1.806582
9461.000000;1.805509
9460.000000;1.808010
9459.000000;1.813253
9458.000000;1.819708
9457.000000;1.825733
9456.000000;1.828939
9455.000000;1.827057
9454.000000;1.820950
9453.000000;1.815048
9452.000000;1.813011
9451.000000;1.814016
9450.000000;1.814658
9449.000000;1.813875
9448.000000;1.814075
9447.000000;1.817238
9446.000000;1.822039
9445.000000;1.825644
9444.000000;1.826884
9443.000000;1.826551
9442.000000;1.825585
9441.000000;1.824341
9440.000000;1.823599
9439.000000;1.824737
9438.000000;1.827673
9437.000000;1.829888
9436.000000;1.828808
9435.000000;1.824484
9434.000000;1.819425
9433.000000;1.816117
9432.000000;1.814967
9431.000000;1.814658
9430.000000;1.814157
9429.000000;1.813693
9428.000000;1.813727
9427.000000;1.813908
9426.000000;1.813508
9425.000000;1.812704
9424.000000;1.812769
9423.000000;1.814014
9422.000000;1.814371
9421.000000;1.811939
9420.000000;1.807954
9419.000000;1.805268
9418.000000;1.804937
9417.000000;1.805821
9416.000000;1.806860
9415.000000;1.808219
9414.000000;1.809854
9413.000000;1.810645
9412.000000;1.810163
9411.000000;1.809968
9410.000000;1.811683
9409.000000;1.814286
9408.000000;1.814558
9407.000000;1.810782
9406.000000;1.805323
9405.000000;1.802675
9404.000000;1.805191
9403.000000;1.811231
9402.000000;1.817235
9401.000000;1.820767
9400.000000;1.821388
9399.000000;1.819576
9398.000000;1.815680
9397.000000;1.810149
9396.000000;1.804095
9395.000000;1.798791
9394.000000;1.794886
9393.000000;1.792589
9392.000000;1.792216
9391.000000;1.794001
9390.000000;1.797738
9389.000000;1.803216
9388.000000;1.810440
9387.000000;1.818357
9386.000000;1.823812
9385.000000;1.823810
9384.000000;1.819399
9383.000000;1.815373
9382.000000;1.815224
9381.000000;1.817690
9380.000000;1.818956
9379.000000;1.817493
9378.000000;1.815311
9377.000000;1.814486
9376.000000;1.814094
9375.000000;1.811370
9374.000000;1.805220
9373.000000;1.797321
9372.000000;1.789949
9371.000000;1.784168
9370.000000;1.780393
9369.000000;1.779513
9368.000000;1.782286
9367.000000;1.787544
9366.000000;1.791752
9365.000000;1.791574
9364.000000;1.787538
9363.000000;1.784281
9362.000000;1.786458
9361.000000;1.794434
9360.000000;1.803512
9359.000000;1.807527
9358.000000;1.804002
9357.000000;1.795697
9356.000000;1.787372
9355.000000;1.782413
9354.000000;1.782379
9353.000000;1.787768
9352.000000;1.797533
9351.000000;1.807742
9350.000000;1.812547
9349.000000;1.808847
9348.000000;1.799697
9347.000000;1.791402
9346.000000;1.787698
9345.000000;1.787386
9344.000000;1.786856
9343.000000;1.784464
9342.000000;1.782097
9341.000000;1.782315
9340.000000;1.784864
9339.000000;1.786752
9338.000000;1.785901
9337.000000;1.783893
9336.000000;1.783876
9335.000000;1.786295
9334.000000;1.788247
9333.000000;1.787450
9332.000000;1.785292
9331.000000;1.784556
9330.000000;1.785660
9329.000000;1.786792
9328.000000;1.786573
9327.000000;1.785401
9326.000000;1.784331
9325.000000;1.783524
9324.000000;1.783049
9323.000000;1.783931
9322.000000;1.786403
9321.000000;1.788190
9320.000000;1.786391
9319.000000;1.781188
9318.000000;1.776522
9317.000000;1.776062
9316.000000;1.779073
9315.000000;1.781586
9314.000000;1.781426
9313.000000;1.780389
9312.000000;1.781010
9311.000000;1.782923
9310.000000;1.783878
9309.000000;1.783315
9308.000000;1.782609
9307.000000;1.781951
9306.000000;1.779882
9305.000000;1.776776
9304.000000;1.776009
9303.000000;1.779641
9302.000000;1.784719
9301.000000;1.786122
9300.000000;1.782793
9299.000000;1.778610
9298.000000;1.777163
9297.000000;1.778601
9296.000000;1.781435
9295.000000;1.784655
9294.000000;1.787334
9293.000000;1.788231
9292.000000;1.787193
9291.000000;1.785705
9290.000000;1.784989
9289.000000;1.784487
9288.000000;1.783101
9287.000000;1.781090
9286.000000;1.779690
9285.000000;1.779585
9284.000000;1.780586
9283.000000;1.782091
9282.000000;1.783108
9281.000000;1.782424
9280.000000;1.779484
9279.000000;1.774933
9278.000000;1.770057
9277.000000;1.765969
9276.000000;1.763369
9275.000000;1.762390
9274.000000;1.762333
9273.000000;1.762044
9272.000000;1.761018
9271.000000;1.759871
9270.000000;1.759534
9269.000000;1.760497
9268.000000;1.762758
9267.000000;1.765678
9266.000000;1.767824
9265.000000;1.767949
9264.000000;1.766654
9263.000000;1.766071
9262.000000;1.767516
9261.000000;1.770047
9260.000000;1.771392
9259.000000;1.770004
9258.000000;1.766191
9257.000000;1.761786
9256.000000;1.759322
9255.000000;1.760356
9254.000000;1.763659
9253.000000;1.766139
9252.000000;1.766138
9251.000000;1.764986
9250.000000;1.764927
9249.000000;1.766621
9248.000000;1.769394
9247.000000;1.772575
9246.000000;1.775370
9245.000000;1.776255
9244.000000;1.773957
9243.000000;1.769185
9242.000000;1.764546
9241.000000;1.762705
9240.000000;1.764877
9239.000000;1.770140
9238.000000;1.775610
9237.000000;1.778187
9236.000000;1.776940
9235.000000;1.773655
9234.000000;1.770898
9233.000000;1.769997
9232.000000;1.771166
9231.000000;1.774216
9230.000000;1.777934
9229.000000;1.779893
9228.000000;1.778414
9227.000000;1.774409
9226.000000;1.770424
9225.000000;1.768325
9224.000000;1.768208
9223.000000;1.768534
9222.000000;1.767095
9221.000000;1.762428
9220.000000;1.755419
9219.000000;1.749417
9218.000000;1.747320
9217.000000;1.748964
9216.000000;1.752353
9215.000000;1.756631
9214.000000;1.762331
9213.000000;1.768757
9212.000000;1.772679
9211.000000;1.771033
9210.000000;1.764647
9209.000000;1.758062
9208.000000;1.755724
9207.000000;1.758588
9206.000000;1.763540
9205.000000;1.766145
9204.000000;1.765029
9203.000000;1.763048
9202.000000;1.763441
9201.000000;1.766036
9200.000000;1.768196
9199.000000;1.768717
9198.000000;1.769139
9197.000000;1.770904
9196.000000;1.772916
9195.000000;1.772902
9194.000000;1.770334
9193.000000;1.766810
9192.000000;1.763792
9191.000000;1.761150
9190.000000;1.758279
9189.000000;1.755925
9188.000000;1.756041
9187.000000;1.759567
9186.000000;1.764725
9185.000000;1.768118
9184.000000;1.767581
9183.000000;1.763611
9182.000000;1.758341
9181.000000;1.754240
9180.000000;1.753544
9179.000000;1.757273
9178.000000;1.763765
9177.000000;1.768964
9176.000000;1.769758
9175.000000;1.766863
9174.000000;1.763300
9173.000000;1.760893
9172.000000;1.759549
9171.000000;1.759068
9170.000000;1.759823
9169.000000;1.761656
9168.000000;1.763670
9167.000000;1.765496
9166.000000;1.767600
9165.000000;1.769825
9164.000000;1.770611
9163.000000;1.768725
9162.000000;1.765101
9161.000000;1.762107
9160.000000;1.761492
9159.000000;1.763289
9158.000000;1.766215
9157.000000;1.768745
9156.000000;1.769911
9155.000000;1.769365
9154.000000;1.767467
9153.000000;1.765318
9152.000000;1.763712
9151.000000;1.762399
9150.000000;1.760411
9149.000000;1.757287
9148.000000;1.754322
9147.000000;1.753383
9146.000000;1.754301
9145.000000;1.754546
9144.000000;1.752218
9143.000000;1.748793
9142.000000;1.747443
9141.000000;1.749160
9140.000000;1.752184
9139.000000;1.754574
9138.000000;1.756095
9137.000000;1.757632
9136.000000;1.759174
9135.000000;1.759614
9134.000000;1.758711
9133.000000;1.757672
9132.000000;1.757332
9131.000000;1.756783
9130.000000;1.754713
9129.000000;1.751881
9128.000000;1.750807
9127.000000;1.752439
9126.000000;1.754579
9125.000000;1.754817
9124.000000;1.753897
9123.000000;1.754123
9122.000000;1.755188
9121.000000;1.754254
9120.000000;1.750552
9119.000000;1.747210
9118.000000;1.747149
9117.000000;1.749379
9116.000000;1.751089
9115.000000;1.751709
9114.000000;1.752576
9113.000000;1.753818
9112.000000;1.753972
9111.000000;1.752297
9110.000000;1.749762
9109.000000;1.747545
9108.000000;1.745915
9107.000000;1.744611
9106.000000;1.743013
9105.000000;1.739976
9104.000000;1.735370
9103.000000;1.731939
9102.000000;1.733104
9101.000000;1.738716
9100.000000;1.744962
9099.000000;1.748704
9098.000000;1.750187
9097.000000;1.750893
9096.000000;1.751244
9095.000000;1.751883
9094.000000;1.754737
9093.000000;1.760495
9092.000000;1.766220
9091.000000;1.767724
9090.000000;1.764189
9089.000000;1.758520
9088.000000;1.753550
9087.000000;1.750051
9086.000000;1.748004
9085.000000;1.747773
9084.000000;1.749558
9083.000000;1.752671
9082.000000;1.755805
9081.000000;1.757704
9080.000000;1.757589
9079.000000;1.755474
9078.000000;1.752138
9077.000000;1.748465
9076.000000;1.744859
9075.000000;1.741696
9074.000000;1.739972
9073.000000;1.740624
9072.000000;1.743517
9071.000000;1.747579
9070.000000;1.751404
9069.000000;1.753559
9068.000000;1.752848
9067.000000;1.749129
9066.000000;1.743970
9065.000000;1.739615
9064.000000;1.736967
9063.000000;1.734786
9062.000000;1.731179
9061.000000;1.726102
9060.000000;1.721754
9059.000000;1.720554
9058.000000;1.723257
9057.000000;1.728795
9056.000000;1.735289
9055.000000;1.740823
9054.000000;1.743914
9053.000000;1.744351
