Criado como novo conjunto de dados;"e0108.spp","-4211620.6 Secs"
cm-1;Abs
10000.000000;1.088416
9999.000000;1.086269
9998.000000;1.084132
9997.000000;1.082006
9996.000000;1.079889
9995.000000;1.077784
9994.000000;1.075687
9993.000000;1.073604
9992.000000;1.071518
9991.000000;1.069937
9990.000000;1.069352
9989.000000;1.069532
9988.000000;1.069712
9987.000000;1.069357
9986.000000;1.068718
9985.000000;1.068559
9984.000000;1.069293
9983.000000;1.070419
9982.000000;1.070905
9981.000000;1.070159
9980.000000;1.068613
9979.000000;1.067317
9978.000000;1.066975
9977.000000;1.067361
9976.000000;1.067666
9975.000000;1.067367
9974.000000;1.066659
9973.000000;1.066067
9972.000000;1.065844
9971.000000;1.065808
9970.000000;1.065571
9969.000000;1.064807
9968.000000;1.063475
9967.000000;1.062030
9966.000000;1.061310
9965.000000;1.061765
9964.000000;1.062809
9963.000000;1.063367
9962.000000;1.063110
9961.000000;1.062687
9960.000000;1.062620
9959.000000;1.062492
9958.000000;1.061550
9957.000000;1.059769
9956.000000;1.057945
9955.000000;1.056858
9954.000000;1.056623
9953.000000;1.056850
9952.000000;1.057174
9951.000000;1.057511
9950.000000;1.057895
9949.000000;1.058193
9948.000000;1.058062
9947.000000;1.057182
9946.000000;1.055456
9945.000000;1.053019
9944.000000;1.050340
9943.000000;1.048429
9942.000000;1.048419
9941.000000;1.050377
9940.000000;1.052724
9939.000000;1.053531
9938.000000;1.052495
9937.000000;1.050997
9936.000000;1.050167
9935.000000;1.049709
9934.000000;1.048877
9933.000000;1.047713
9932.000000;1.046795
9931.000000;1.046313
9930.000000;1.046004
9929.000000;1.045687
9928.000000;1.045398
9927.000000;1.045310
9926.000000;1.045901
9925.000000;1.047711
9924.000000;1.050356
9923.000000;1.052210
9922.000000;1.051891
9921.000000;1.049888
9920.000000;1.047886
9919.000000;1.046730
9918.000000;1.045864
9917.000000;1.044651
9916.000000;1.043317
9915.000000;1.042422
9914.000000;1.042173
9913.000000;1.042554
9912.000000;1.043461
9911.000000;1.044372
9910.000000;1.044472
9909.000000;1.043556
9908.000000;1.042331
9907.000000;1.041457
9906.000000;1.040765
9905.000000;1.039824
9904.000000;1.038765
9903.000000;1.038016
9902.000000;1.037574
9901.000000;1.037113
9900.000000;1.036665
9899.000000;1.036585
9898.000000;1.036899
9897.000000;1.037120
9896.000000;1.036744
9895.000000;1.035620
9894.000000;1.033900
9893.000000;1.032048
9892.000000;1.030856
9891.000000;1.030982
9890.000000;1.032277
9889.000000;1.033807
9888.000000;1.034632
9887.000000;1.034453
9886.000000;1.033556
9885.000000;1.032441
9884.000000;1.031585
9883.000000;1.031191
9882.000000;1.031040
9881.000000;1.030766
9880.000000;1.030339
9879.000000;1.030003
9878.000000;1.029698
9877.000000;1.028989
9876.000000;1.027813
9875.000000;1.026862
9874.000000;1.026764
9873.000000;1.027119
9872.000000;1.026856
9871.000000;1.025588
9870.000000;1.024181
9869.000000;1.023770
9868.000000;1.024527
9867.000000;1.025587
9866.000000;1.026011
9865.000000;1.025572
9864.000000;1.024649
9863.000000;1.023607
9862.000000;1.022469
9861.000000;1.021208
9860.000000;1.020138
9859.000000;1.019768
9858.000000;1.020225
9857.000000;1.020988
9856.000000;1.021357
9855.000000;1.021070
9854.000000;1.020310
9853.000000;1.019369
9852.000000;1.018672
9851.000000;1.018801
9850.000000;1.019873
9849.000000;1.020921
9848.000000;1.020560
9847.000000;1.018610
9846.000000;1.016553
9845.000000;1.015928
9844.000000;1.016680
9843.000000;1.017494
9842.000000;1.017470
9841.000000;1.016826
9840.000000;1.016041
9839.000000;1.015075
9838.000000;1.013709
9837.000000;1.012112
9836.000000;1.010734
9835.000000;1.009893
9834.000000;1.009673
9833.000000;1.009932
9832.000000;1.010261
9831.000000;1.010239
9830.000000;1.009905
9829.000000;1.009639
9828.000000;1.009406
9827.000000;1.008591
9826.000000;1.006939
9825.000000;1.005192
9824.000000;1.004245
9823.000000;1.003954
9822.000000;1.003466
9821.000000;1.002629
9820.000000;1.002245
9819.000000;1.002686
9818.000000;1.003049
9817.000000;1.002293
9816.000000;1.000833
9815.000000;1.000267
9814.000000;1.001531
9813.000000;1.003909
9812.000000;1.005935
9811.000000;1.006813
9810.000000;1.006676
9809.000000;1.005848
9808.000000;1.004420
9807.000000;1.002595
9806.000000;1.000980
9805.000000;1.000211
9804.000000;1.000331
9803.000000;1.000750
9802.000000;1.000844
9801.000000;1.000500
9800.000000;0.999996
9799.000000;0.999413
9798.000000;0.998393
9797.000000;0.996633
9796.000000;0.994522
9795.000000;0.992983
9794.000000;0.992533
9793.000000;0.992720
9792.000000;0.992782
9791.000000;0.992658
9790.000000;0.992877
9789.000000;0.993515
9788.000000;0.993862
9787.000000;0.993498
9786.000000;0.993127
9785.000000;0.993671
9784.000000;0.994810
9783.000000;0.995145
9782.000000;0.993935
9781.000000;0.991945
9780.000000;0.990292
9779.000000;0.989202
9778.000000;0.988387
9777.000000;0.988054
9776.000000;0.988757
9775.000000;0.990339
9774.000000;0.991718
9773.000000;0.991980
9772.000000;0.991332
9771.000000;0.990722
9770.000000;0.990723
9769.000000;0.990997
9768.000000;0.990727
9767.000000;0.989457
9766.000000;0.987594
9765.000000;0.986148
9764.000000;0.985860
9763.000000;0.986498
9762.000000;0.987067
9761.000000;0.986769
9760.000000;0.985723
9759.000000;0.984754
9758.000000;0.984525
9757.000000;0.984910
9756.000000;0.985170
9755.000000;0.984715
9754.000000;0.983707
9753.000000;0.982909
9752.000000;0.982890
9751.000000;0.983464
9750.000000;0.983922
9749.000000;0.983764
9748.000000;0.983133
9747.000000;0.982561
9746.000000;0.982387
9745.000000;0.982423
9744.000000;0.982117
9743.000000;0.981057
9742.000000;0.979375
9741.000000;0.977695
9740.000000;0.976661
9739.000000;0.976496
9738.000000;0.976938
9737.000000;0.977501
9736.000000;0.977767
9735.000000;0.977545
9734.000000;0.976889
9733.000000;0.975996
9732.000000;0.975043
9731.000000;0.974104
9730.000000;0.973184
9729.000000;0.972327
9728.000000;0.971668
9727.000000;0.971371
9726.000000;0.971472
9725.000000;0.971763
9724.000000;0.971911
9723.000000;0.971717
9722.000000;0.971172
9721.000000;0.970267
9720.000000;0.968937
9719.000000;0.967383
9718.000000;0.966202
9717.000000;0.965908
9716.000000;0.966395
9715.000000;0.967194
9714.000000;0.968123
9713.000000;0.969252
9712.000000;0.970288
9711.000000;0.970566
9710.000000;0.969848
9709.000000;0.968679
9708.000000;0.967679
9707.000000;0.966870
9706.000000;0.965978
9705.000000;0.965002
9704.000000;0.964108
9703.000000;0.963292
9702.000000;0.962496
9701.000000;0.961843
9700.000000;0.961386
9699.000000;0.960878
9698.000000;0.960234
9697.000000;0.959973
9696.000000;0.960706
9695.000000;0.962244
9694.000000;0.963676
9693.000000;0.964336
9692.000000;0.964253
9691.000000;0.963649
9690.000000;0.962526
9689.000000;0.960957
9688.000000;0.959386
9687.000000;0.958371
9686.000000;0.958175
9685.000000;0.958648
9684.000000;0.959272
9683.000000;0.959367
9682.000000;0.958578
9681.000000;0.957277
9680.000000;0.956257
9679.000000;0.955936
9678.000000;0.956062
9677.000000;0.956161
9676.000000;0.955989
9675.000000;0.955496
9674.000000;0.954720
9673.000000;0.953916
9672.000000;0.953541
9671.000000;0.953823
9670.000000;0.954376
9669.000000;0.954376
9668.000000;0.953236
9667.000000;0.951212
9666.000000;0.949376
9665.000000;0.948791
9664.000000;0.949517
9663.000000;0.950570
9662.000000;0.951024
9661.000000;0.950959
9660.000000;0.951012
9659.000000;0.951309
9658.000000;0.951426
9657.000000;0.951218
9656.000000;0.950986
9655.000000;0.950755
9654.000000;0.950143
9653.000000;0.949181
9652.000000;0.948554
9651.000000;0.948601
9650.000000;0.948664
9649.000000;0.947990
9648.000000;0.946883
9647.000000;0.946255
9646.000000;0.946254
9645.000000;0.946007
9644.000000;0.944741
9643.000000;0.942684
9642.000000;0.940733
9641.000000;0.939626
9640.000000;0.939573
9639.000000;0.940361
9638.000000;0.941510
9637.000000;0.942426
9636.000000;0.942622
9635.000000;0.942015
9634.000000;0.941124
9633.000000;0.940815
9632.000000;0.941527
9631.000000;0.942634
9630.000000;0.942893
9629.000000;0.941754
9628.000000;0.939976
9627.000000;0.938682
9626.000000;0.938205
9625.000000;0.938146
9624.000000;0.938179
9623.000000;0.938265
9622.000000;0.938254
9621.000000;0.937856
9620.000000;0.937114
9619.000000;0.936487
9618.000000;0.936306
9617.000000;0.936421
9616.000000;0.936440
9615.000000;0.936063
9614.000000;0.935150
9613.000000;0.933761
9612.000000;0.932305
9611.000000;0.931409
9610.000000;0.931423
9609.000000;0.932108
9608.000000;0.932864
9607.000000;0.933200
9606.000000;0.932995
9605.000000;0.932443
9604.000000;0.931848
9603.000000;0.931410
9602.000000;0.931098
9601.000000;0.930695
9600.000000;0.929991
9599.000000;0.928993
9598.000000;0.928009
9597.000000;0.927439
9596.000000;0.927354
9595.000000;0.927334
9594.000000;0.926923
9593.000000;0.926242
9592.000000;0.925837
9591.000000;0.925865
9590.000000;0.925843
9589.000000;0.925408
9588.000000;0.924929
9587.000000;0.924938
9586.000000;0.925265
9585.000000;0.925266
9584.000000;0.924723
9583.000000;0.923982
9582.000000;0.923222
9581.000000;0.922239
9580.000000;0.921091
9579.000000;0.920361
9578.000000;0.920419
9577.000000;0.920795
9576.000000;0.920702
9575.000000;0.920017
9574.000000;0.919391
9573.000000;0.919443
9572.000000;0.920041
9571.000000;0.920377
9570.000000;0.919687
9569.000000;0.917998
9568.000000;0.916297
9567.000000;0.915789
9566.000000;0.916816
9565.000000;0.918524
9564.000000;0.919704
9563.000000;0.919882
9562.000000;0.919416
9561.000000;0.918688
9560.000000;0.917660
9559.000000;0.916296
9558.000000;0.915072
9557.000000;0.914679
9556.000000;0.915263
9555.000000;0.916193
9554.000000;0.916665
9553.000000;0.916410
9552.000000;0.915714
9551.000000;0.914944
9550.000000;0.914298
9549.000000;0.913934
9548.000000;0.913972
9547.000000;0.914197
9546.000000;0.913998
9545.000000;0.912881
9544.000000;0.911050
9543.000000;0.909298
9542.000000;0.908345
9541.000000;0.908321
9540.000000;0.908815
9539.000000;0.909297
9538.000000;0.909531
9537.000000;0.909665
9536.000000;0.909924
9535.000000;0.910253
9534.000000;0.910373
9533.000000;0.910210
9532.000000;0.910002
9531.000000;0.909839
9530.000000;0.909342
9529.000000;0.908104
9528.000000;0.906284
9527.000000;0.904503
9526.000000;0.903271
9525.000000;0.902823
9524.000000;0.903314
9523.000000;0.904631
9522.000000;0.906020
9521.000000;0.906413
9520.000000;0.905464
9519.000000;0.903981
9518.000000;0.903027
9517.000000;0.902777
9516.000000;0.902577
9515.000000;0.901923
9514.000000;0.901013
9513.000000;0.900349
9512.000000;0.900104
9511.000000;0.900056
9510.000000;0.900036
9509.000000;0.900226
9508.000000;0.900852
9507.000000;0.901634
9506.000000;0.901810
9505.000000;0.900961
9504.000000;0.899681
9503.000000;0.899069
9502.000000;0.899507
9501.000000;0.900257
9500.000000;0.900358
9499.000000;0.899648
9498.000000;0.898699
9497.000000;0.898068
9496.000000;0.897894
9495.000000;0.898014
9494.000000;0.898114
9493.000000;0.897784
9492.000000;0.896760
9491.000000;0.895238
9490.000000;0.893805
9489.000000;0.893034
9488.000000;0.893123
9487.000000;0.893817
9486.000000;0.894568
9485.000000;0.894894
9484.000000;0.894702
9483.000000;0.894255
9482.000000;0.893773
9481.000000;0.893209
9480.000000;0.892484
9479.000000;0.891697
9478.000000;0.890924
9477.000000;0.890051
9476.000000;0.889103
9475.000000;0.888537
9474.000000;0.888785
9473.000000;0.889526
9472.000000;0.889818
9471.000000;0.889112
9470.000000;0.887819
9469.000000;0.886743
9468.000000;0.886285
9467.000000;0.886381
9466.000000;0.886905
9465.000000;0.887739
9464.000000;0.888531
9463.000000;0.888738
9462.000000;0.888059
9461.000000;0.886718
9460.000000;0.885333
9459.000000;0.884569
9458.000000;0.884837
9457.000000;0.886041
9456.000000;0.887506
9455.000000;0.888329
9454.000000;0.888016
9453.000000;0.886820
9452.000000;0.885463
9451.000000;0.884606
9450.000000;0.884524
9449.000000;0.885057
9448.000000;0.885699
9447.000000;0.885847
9446.000000;0.885255
9445.000000;0.884354
9444.000000;0.883944
9443.000000;0.884428
9442.000000;0.885390
9441.000000;0.886020
9440.000000;0.885908
9439.000000;0.885292
9438.000000;0.884587
9437.000000;0.883868
9436.000000;0.882958
9435.000000;0.881832
9434.000000;0.880674
9433.000000;0.879593
9432.000000;0.878557
9431.000000;0.877674
9430.000000;0.877305
9429.000000;0.877689
9428.000000;0.878542
9427.000000;0.879272
9426.000000;0.879571
9425.000000;0.879588
9424.000000;0.879481
9423.000000;0.879025
9422.000000;0.877861
9421.000000;0.876028
9420.000000;0.874105
9419.000000;0.872865
9418.000000;0.872813
9417.000000;0.873894
9416.000000;0.875462
9415.000000;0.876596
9414.000000;0.876719
9413.000000;0.876033
9412.000000;0.875269
9411.000000;0.874999
9410.000000;0.875251
9409.000000;0.875682
9408.000000;0.875925
9407.000000;0.875761
9406.000000;0.875219
9405.000000;0.874612
9404.000000;0.874257
9403.000000;0.874037
9402.000000;0.873469
9401.000000;0.872375
9400.000000;0.871266
9399.000000;0.870799
9398.000000;0.870990
9397.000000;0.871228
9396.000000;0.870986
9395.000000;0.870279
9394.000000;0.869485
9393.000000;0.869037
9392.000000;0.869241
9391.000000;0.869997
9390.000000;0.870687
9389.000000;0.870668
9388.000000;0.869985
9387.000000;0.869267
9386.000000;0.868860
9385.000000;0.868451
9384.000000;0.867747
9383.000000;0.867047
9382.000000;0.866765
9381.000000;0.866719
9380.000000;0.866336
9379.000000;0.865442
9378.000000;0.864460
9377.000000;0.863876
9376.000000;0.863866
9375.000000;0.864382
9374.000000;0.865240
9373.000000;0.866075
9372.000000;0.866511
9371.000000;0.866453
9370.000000;0.866025
9369.000000;0.865260
9368.000000;0.864150
9367.000000;0.862965
9366.000000;0.862147
9365.000000;0.861761
9364.000000;0.861395
9363.000000;0.860767
9362.000000;0.860122
9361.000000;0.859831
9360.000000;0.859880
9359.000000;0.860023
9358.000000;0.860223
9357.000000;0.860601
9356.000000;0.861056
9355.000000;0.861242
9354.000000;0.860949
9353.000000;0.860327
9352.000000;0.859708
9351.000000;0.859315
9350.000000;0.859099
9349.000000;0.858726
9348.000000;0.857820
9347.000000;0.856397
9346.000000;0.854989
9345.000000;0.854190
9344.000000;0.854112
9343.000000;0.854426
9342.000000;0.854802
9341.000000;0.855131
9340.000000;0.855390
9339.000000;0.855544
9338.000000;0.855595
9337.000000;0.855535
9336.000000;0.855241
9335.000000;0.854704
9334.000000;0.854294
9333.000000;0.854470
9332.000000;0.855134
9331.000000;0.855576
9330.000000;0.855223
9329.000000;0.854252
9328.000000;0.853330
9327.000000;0.852946
9326.000000;0.853166
9325.000000;0.853781
9324.000000;0.854423
9323.000000;0.854655
9322.000000;0.854265
9321.000000;0.853476
9320.000000;0.852710
9319.000000;0.852132
9318.000000;0.851609
9317.000000;0.851066
9316.000000;0.850679
9315.000000;0.850619
9314.000000;0.850770
9313.000000;0.850771
9312.000000;0.850289
9311.000000;0.849271
9310.000000;0.848011
9309.000000;0.846958
9308.000000;0.846355
9307.000000;0.846070
9306.000000;0.845871
9305.000000;0.845801
9304.000000;0.846135
9303.000000;0.846995
9302.000000;0.848158
9301.000000;0.849211
9300.000000;0.849720
9299.000000;0.849294
9298.000000;0.847859
9297.000000;0.846026
9296.000000;0.844866
9295.000000;0.844982
9294.000000;0.845864
9293.000000;0.846406
9292.000000;0.846020
9291.000000;0.845069
9290.000000;0.844317
9289.000000;0.844225
9288.000000;0.844750
9287.000000;0.845449
9286.000000;0.845659
9285.000000;0.844917
9284.000000;0.843464
9283.000000;0.842171
9282.000000;0.841709
9281.000000;0.841876
9280.000000;0.841956
9279.000000;0.841624
9278.000000;0.841200
9277.000000;0.840992
9276.000000;0.840769
9275.000000;0.840108
9274.000000;0.839042
9273.000000;0.838132
9272.000000;0.837920
9271.000000;0.838485
9270.000000;0.839458
9269.000000;0.840322
9268.000000;0.840711
9267.000000;0.840578
9266.000000;0.840149
9265.000000;0.839655
9264.000000;0.839123
9263.000000;0.838494
9262.000000;0.837878
9261.000000;0.837552
9260.000000;0.837641
9259.000000;0.837892
9258.000000;0.837851
9257.000000;0.837241
9256.000000;0.836181
9255.000000;0.835117
9254.000000;0.834557
9253.000000;0.834770
9252.000000;0.835618
9251.000000;0.836628
9250.000000;0.837270
9249.000000;0.837243
9248.000000;0.836640
9247.000000;0.835883
9246.000000;0.835431
9245.000000;0.835404
9244.000000;0.835500
9243.000000;0.835373
9242.000000;0.835070
9241.000000;0.834939
9240.000000;0.835145
9239.000000;0.835466
9238.000000;0.835555
9237.000000;0.835234
9236.000000;0.834495
9235.000000;0.833485
9234.000000;0.832592
9233.000000;0.832270
9232.000000;0.832520
9231.000000;0.832710
9230.000000;0.832182
9229.000000;0.830997
9228.000000;0.829835
9227.000000;0.829239
9226.000000;0.829190
9225.000000;0.829367
9224.000000;0.829550
9223.000000;0.829736
9222.000000;0.830067
9221.000000;0.830675
9220.000000;0.831424
9219.000000;0.831862
9218.000000;0.831633
9217.000000;0.830935
9216.000000;0.830280
9215.000000;0.829883
9214.000000;0.829625
9213.000000;0.829597
9212.000000;0.830132
9211.000000;0.831030
9210.000000;0.831242
9209.000000;0.829894
9208.000000;0.827484
9207.000000;0.825544
9206.000000;0.825091
9205.000000;0.825746
9204.000000;0.826394
9203.000000;0.826376
9202.000000;0.825918
9201.000000;0.825629
9200.000000;0.825825
9199.000000;0.826294
9198.000000;0.826545
9197.000000;0.826245
9196.000000;0.825460
9195.000000;0.824547
9194.000000;0.823872
9193.000000;0.823585
9192.000000;0.823556
9191.000000;0.823487
9190.000000;0.823226
9189.000000;0.823000
9188.000000;0.823166
9187.000000;0.823666
9186.000000;0.823961
9185.000000;0.823667
9184.000000;0.823033
9183.000000;0.822531
9182.000000;0.822184
9181.000000;0.821622
9180.000000;0.820704
9179.000000;0.819721
9178.000000;0.818977
9177.000000;0.818545
9176.000000;0.818484
9175.000000;0.818986
9174.000000;0.820116
9173.000000;0.821557
9172.000000;0.822712
9171.000000;0.822992
9170.000000;0.822097
9169.000000;0.820361
9168.000000;0.818818
9167.000000;0.818528
9166.000000;0.819537
9165.000000;0.820681
9164.000000;0.820695
9163.000000;0.819469
9162.000000;0.818017
9161.000000;0.817411
9160.000000;0.817965
9159.000000;0.819266
9158.000000;0.820635
9157.000000;0.821501
9156.000000;0.821541
9155.000000;0.820655
9154.000000;0.818932
9153.000000;0.816786
9152.000000;0.815015
9151.000000;0.814407
9150.000000;0.815071
9149.000000;0.816297
9148.000000;0.817207
9147.000000;0.817431
9146.000000;0.817062
9145.000000;0.816261
9144.000000;0.815223
9143.000000;0.814338
9142.000000;0.813976
9141.000000;0.814100
9140.000000;0.814353
9139.000000;0.814521
9138.000000;0.814623
9137.000000;0.814578
9136.000000;0.814122
9135.000000;0.813221
9134.000000;0.812308
9133.000000;0.811929
9132.000000;0.812273
9131.000000;0.813049
9130.000000;0.813680
9129.000000;0.813610
9128.000000;0.812711
9127.000000;0.811536
9126.000000;0.810956
9125.000000;0.811378
9124.000000;0.812398
9123.000000;0.813261
9122.000000;0.813529
9121.000000;0.813208
9120.000000;0.812481
9119.000000;0.811566
9118.000000;0.810759
9117.000000;0.810337
9116.000000;0.810333
9115.000000;0.810503
9114.000000;0.810545
9113.000000;0.810337
9112.000000;0.809985
9111.000000;0.809668
9110.000000;0.809441
9109.000000;0.809192
9108.000000;0.808850
9107.000000;0.808577
9106.000000;0.808614
9105.000000;0.808937
9104.000000;0.809243
9103.000000;0.809344
9102.000000;0.809404
9101.000000;0.809672
9100.000000;0.810103
9099.000000;0.810382
9098.000000;0.810238
9097.000000;0.809634
9096.000000;0.808777
9095.000000;0.808031
9094.000000;0.807689
9093.000000;0.807666
9092.000000;0.807472
9091.000000;0.806677
9090.000000;0.805391
9089.000000;0.804198
9088.000000;0.803667
9087.000000;0.803956
9086.000000;0.804779
9085.000000;0.805586
9084.000000;0.805876
9083.000000;0.805550
9082.000000;0.805020
9081.000000;0.804860
9080.000000;0.805298
9079.000000;0.806032
9078.000000;0.806506
9077.000000;0.806309
9076.000000;0.805445
9075.000000;0.804327
9074.000000;0.803483
9073.000000;0.803151
9072.000000;0.803197
9071.000000;0.803441
9070.000000;0.803906
9069.000000;0.804605
9068.000000;0.805217
9067.000000;0.805247
9066.000000;0.804538
9065.000000;0.803442
9064.000000;0.802475
9063.000000;0.801967
9062.000000;0.802034
9061.000000;0.802649
9060.000000;0.803603
9059.000000;0.804485
9058.000000;0.804830
9057.000000;0.804388
9056.000000;0.803317
9055.000000;0.802141
9054.000000;0.801411
9053.000000;0.801305
