Criado como novo conjunto de dados;"e0108.spp","-4233222.2 Secs"
cm-1;Abs
10000.000000;1.730223
9999.000000;1.732030
9998.000000;1.730134
9997.000000;1.727432
9996.000000;1.727929
9995.000000;1.732429
9994.000000;1.737893
9993.000000;1.740445
9992.000000;1.738832
9991.000000;1.735305
9990.000000;1.733494
9989.000000;1.735407
9988.000000;1.739904
9987.000000;1.743385
9986.000000;1.743084
9985.000000;1.740412
9984.000000;1.739584
9983.000000;1.742808
9982.000000;1.747595
9981.000000;1.748913
9980.000000;1.744379
9979.000000;1.736605
9978.000000;1.730015
9977.000000;1.727275
9976.000000;1.728583
9975.000000;1.731964
9974.000000;1.733873
9973.000000;1.731392
9972.000000;1.725288
9971.000000;1.719909
9970.000000;1.719033
9969.000000;1.722613
9968.000000;1.728166
9967.000000;1.734271
9966.000000;1.740649
9965.000000;1.745004
9964.000000;1.743179
9963.000000;1.734481
9962.000000;1.724442
9961.000000;1.719843
9960.000000;1.722290
9959.000000;1.727619
9958.000000;1.730476
9957.000000;1.728567
9956.000000;1.723052
9955.000000;1.716710
9954.000000;1.712158
9953.000000;1.710379
9952.000000;1.710176
9951.000000;1.709686
9950.000000;1.708819
9949.000000;1.709324
9948.000000;1.711990
9947.000000;1.715027
9946.000000;1.716010
9945.000000;1.714555
9944.000000;1.712251
9943.000000;1.710582
9942.000000;1.710013
9941.000000;1.710418
9940.000000;1.711405
9939.000000;1.712557
9938.000000;1.713990
9937.000000;1.716422
9936.000000;1.720033
9935.000000;1.723428
9934.000000;1.724706
9933.000000;1.723816
9932.000000;1.722925
9931.000000;1.723972
9930.000000;1.726606
9929.000000;1.728987
9928.000000;1.730028
9927.000000;1.730034
9926.000000;1.729467
9925.000000;1.728083
9924.000000;1.725497
9923.000000;1.721850
9922.000000;1.717631
9921.000000;1.713441
9920.000000;1.710393
9919.000000;1.710098
9918.000000;1.713071
9917.000000;1.717050
9916.000000;1.718213
9915.000000;1.714767
9914.000000;1.708716
9913.000000;1.703904
9912.000000;1.702753
9911.000000;1.705105
9910.000000;1.709738
9909.000000;1.715686
9908.000000;1.721290
9907.000000;1.723514
9906.000000;1.720243
9905.000000;1.712902
9904.000000;1.705535
9903.000000;1.701265
9902.000000;1.700288
9901.000000;1.700898
9900.000000;1.701129
9899.000000;1.699405
9898.000000;1.695180
9897.000000;1.689750
9896.000000;1.685874
9895.000000;1.685799
9894.000000;1.689534
9893.000000;1.695117
9892.000000;1.700077
9891.000000;1.702682
9890.000000;1.702769
9889.000000;1.701893
9888.000000;1.701927
9887.000000;1.702689
9886.000000;1.701810
9885.000000;1.698085
9884.000000;1.693646
9883.000000;1.691713
9882.000000;1.693264
9881.000000;1.696565
9880.000000;1.699627
9879.000000;1.702117
9878.000000;1.704399
9877.000000;1.705903
9876.000000;1.705421
9875.000000;1.702411
9874.000000;1.697420
9873.000000;1.691795
9872.000000;1.687456
9871.000000;1.686141
9870.000000;1.687874
9869.000000;1.690279
9868.000000;1.690178
9867.000000;1.686300
9866.000000;1.680344
9865.000000;1.675394
9864.000000;1.673557
9863.000000;1.674868
9862.000000;1.677865
9861.000000;1.681018
9860.000000;1.683689
9859.000000;1.685842
9858.000000;1.687321
9857.000000;1.687986
9856.000000;1.688248
9855.000000;1.688549
9854.000000;1.688280
9853.000000;1.686183
9852.000000;1.682135
9851.000000;1.677788
9850.000000;1.675046
9849.000000;1.674614
9848.000000;1.676265
9847.000000;1.679635
9846.000000;1.684195
9845.000000;1.688958
9844.000000;1.692904
9843.000000;1.695379
9842.000000;1.695710
9841.000000;1.693183
9840.000000;1.688339
9839.000000;1.683807
9838.000000;1.682624
9837.000000;1.685875
9836.000000;1.692309
9835.000000;1.699156
9834.000000;1.702830
9833.000000;1.700707
9832.000000;1.693816
9831.000000;1.686749
9830.000000;1.683262
9829.000000;1.682560
9828.000000;1.681419
9827.000000;1.679313
9826.000000;1.678987
9825.000000;1.681951
9824.000000;1.685969
9823.000000;1.687827
9822.000000;1.686736
9821.000000;1.683538
9820.000000;1.678602
9819.000000;1.672742
9818.000000;1.668277
9817.000000;1.667197
9816.000000;1.668962
9815.000000;1.671346
9814.000000;1.673314
9813.000000;1.675155
9812.000000;1.676184
9811.000000;1.674964
9810.000000;1.671838
9809.000000;1.669149
9808.000000;1.668556
9807.000000;1.669544
9806.000000;1.670571
9805.000000;1.670174
9804.000000;1.666961
9803.000000;1.660641
9802.000000;1.653700
9801.000000;1.650261
9800.000000;1.652368
9799.000000;1.658012
9798.000000;1.663298
9797.000000;1.666032
9796.000000;1.666520
9795.000000;1.665744
9794.000000;1.664148
9793.000000;1.661937
9792.000000;1.659442
9791.000000;1.657133
9790.000000;1.655776
9789.000000;1.656185
9788.000000;1.658164
9787.000000;1.660082
9786.000000;1.660438
9785.000000;1.659774
9784.000000;1.659997
9783.000000;1.661680
9782.000000;1.663101
9781.000000;1.662421
9780.000000;1.660003
9779.000000;1.657893
9778.000000;1.657575
9777.000000;1.658882
9776.000000;1.660938
9775.000000;1.663578
9774.000000;1.667003
9773.000000;1.670139
9772.000000;1.670429
9771.000000;1.666109
9770.000000;1.658580
9769.000000;1.651644
9768.000000;1.648194
9767.000000;1.648132
9766.000000;1.649190
9765.000000;1.649067
9764.000000;1.646977
9763.000000;1.643998
9762.000000;1.642144
9761.000000;1.642650
9760.000000;1.644857
9759.000000;1.646946
9758.000000;1.647888
9757.000000;1.648346
9756.000000;1.649431
9755.000000;1.650943
9754.000000;1.651310
9753.000000;1.649286
9752.000000;1.645345
9751.000000;1.641230
9750.000000;1.638577
9749.000000;1.638176
9748.000000;1.640014
9747.000000;1.643469
9746.000000;1.647486
9745.000000;1.650758
9744.000000;1.651843
9743.000000;1.649730
9742.000000;1.645120
9741.000000;1.640759
9740.000000;1.639436
9739.000000;1.641469
9738.000000;1.644687
9737.000000;1.646858
9736.000000;1.647343
9735.000000;1.646284
9734.000000;1.643611
9733.000000;1.639800
9732.000000;1.636645
9731.000000;1.636262
9730.000000;1.639556
9729.000000;1.646005
9728.000000;1.654346
9727.000000;1.662802
9726.000000;1.668663
9725.000000;1.668795
9724.000000;1.662143
9723.000000;1.651672
9722.000000;1.642526
9721.000000;1.638143
9720.000000;1.638450
9719.000000;1.640992
9718.000000;1.643107
9717.000000;1.643353
9716.000000;1.641706
9715.000000;1.639229
9714.000000;1.637631
9713.000000;1.638354
9712.000000;1.641321
9711.000000;1.644572
9710.000000;1.645690
9709.000000;1.643855
9708.000000;1.640233
9707.000000;1.636346
9706.000000;1.632566
9705.000000;1.628666
9704.000000;1.625628
9703.000000;1.625516
9702.000000;1.628895
9701.000000;1.633154
9700.000000;1.634217
9699.000000;1.630314
9698.000000;1.623481
9697.000000;1.617191
9696.000000;1.613692
9695.000000;1.613596
9694.000000;1.616277
9693.000000;1.619693
9692.000000;1.620993
9691.000000;1.619109
9690.000000;1.616456
9689.000000;1.616639
9688.000000;1.620526
9687.000000;1.625277
9686.000000;1.627512
9685.000000;1.626560
9684.000000;1.623931
9683.000000;1.621062
9682.000000;1.618508
9681.000000;1.616479
9680.000000;1.615220
9679.000000;1.614903
9678.000000;1.615590
9677.000000;1.617079
9676.000000;1.618465
9675.000000;1.618504
9674.000000;1.617155
9673.000000;1.616238
9672.000000;1.617763
9671.000000;1.621723
9670.000000;1.625801
9669.000000;1.627112
9668.000000;1.624124
9667.000000;1.617785
9666.000000;1.611729
9665.000000;1.610353
9664.000000;1.615047
9663.000000;1.622163
9662.000000;1.626149
9661.000000;1.625493
9660.000000;1.623735
9659.000000;1.623911
9658.000000;1.624429
9657.000000;1.621824
9656.000000;1.616102
9655.000000;1.611148
9654.000000;1.610450
9653.000000;1.614093
9652.000000;1.619322
9651.000000;1.622684
9650.000000;1.622032
9649.000000;1.617871
9648.000000;1.613275
9647.000000;1.611623
9646.000000;1.613678
9645.000000;1.617030
9644.000000;1.618588
9643.000000;1.617370
9642.000000;1.614729
9641.000000;1.612548
9640.000000;1.611810
9639.000000;1.612359
9638.000000;1.613219
9637.000000;1.613315
9636.000000;1.612516
9635.000000;1.611849
9634.000000;1.612245
9633.000000;1.613267
9632.000000;1.613415
9631.000000;1.611429
9630.000000;1.607257
9629.000000;1.602183
9628.000000;1.598239
9627.000000;1.597152
9626.000000;1.599003
9625.000000;1.601603
9624.000000;1.602081
9623.000000;1.600102
9622.000000;1.599034
9621.000000;1.602736
9620.000000;1.611160
9619.000000;1.619670
9618.000000;1.623257
9617.000000;1.621182
9616.000000;1.616526
9615.000000;1.612095
9614.000000;1.608323
9613.000000;1.604828
9612.000000;1.602364
9611.000000;1.602041
9610.000000;1.603262
9609.000000;1.603882
9608.000000;1.602820
9607.000000;1.601567
9606.000000;1.602205
9605.000000;1.604414
9604.000000;1.605392
9603.000000;1.603042
9602.000000;1.598521
9601.000000;1.595116
9600.000000;1.595063
9599.000000;1.597769
9598.000000;1.600731
9597.000000;1.601885
9596.000000;1.601218
9595.000000;1.600335
9594.000000;1.600671
9593.000000;1.602207
9592.000000;1.603534
9591.000000;1.602959
9590.000000;1.599974
9589.000000;1.595343
9588.000000;1.589811
9587.000000;1.583852
9586.000000;1.578965
9585.000000;1.578001
9584.000000;1.582796
9583.000000;1.591272
9582.000000;1.597872
9581.000000;1.598234
9580.000000;1.593325
9579.000000;1.587880
9578.000000;1.585675
9577.000000;1.587279
9576.000000;1.590983
9575.000000;1.594431
9574.000000;1.595714
9573.000000;1.594127
9572.000000;1.591000
9571.000000;1.589352
9570.000000;1.591143
9569.000000;1.595021
9568.000000;1.597701
9567.000000;1.597563
9566.000000;1.595980
9565.000000;1.594822
9564.000000;1.593990
9563.000000;1.592264
9562.000000;1.589691
9561.000000;1.587852
9560.000000;1.587927
9559.000000;1.589509
9558.000000;1.591381
9557.000000;1.592536
9556.000000;1.592203
9555.000000;1.589940
9554.000000;1.586419
9553.000000;1.583298
9552.000000;1.581469
9551.000000;1.579996
9550.000000;1.577513
9549.000000;1.574346
9548.000000;1.572430
9547.000000;1.572994
9546.000000;1.575081
9545.000000;1.576677
9544.000000;1.577028
9543.000000;1.577486
9542.000000;1.579859
9541.000000;1.584264
9540.000000;1.588847
9539.000000;1.591582
9538.000000;1.592124
9537.000000;1.591576
9536.000000;1.590661
9535.000000;1.588888
9534.000000;1.585837
9533.000000;1.582564
9532.000000;1.580759
9531.000000;1.580693
9530.000000;1.580836
9529.000000;1.579691
9528.000000;1.577315
9527.000000;1.574609
9526.000000;1.571772
9525.000000;1.568316
9524.000000;1.564459
9523.000000;1.561735
9522.000000;1.561824
9521.000000;1.564992
9520.000000;1.569848
9519.000000;1.574467
9518.000000;1.577494
9517.000000;1.578256
9516.000000;1.576548
9515.000000;1.573127
9514.000000;1.570109
9513.000000;1.569585
9512.000000;1.571297
9511.000000;1.572580
9510.000000;1.571415
9509.000000;1.568894
9508.000000;1.567619
9507.000000;1.568352
9506.000000;1.569520
9505.000000;1.569653
9504.000000;1.568846
9503.000000;1.567660
9502.000000;1.566163
9501.000000;1.564851
9500.000000;1.565276
9499.000000;1.568372
9498.000000;1.572426
9497.000000;1.574006
9496.000000;1.571413
9495.000000;1.566495
9494.000000;1.562873
9493.000000;1.562932
9492.000000;1.566382
9491.000000;1.570999
9490.000000;1.574307
9489.000000;1.574835
9488.000000;1.572363
9487.000000;1.567705
9486.000000;1.562630
9485.000000;1.559370
9484.000000;1.559191
9483.000000;1.561298
9482.000000;1.563620
9481.000000;1.564822
9480.000000;1.565067
9479.000000;1.564784
9478.000000;1.563918
9477.000000;1.562745
9476.000000;1.562160
9475.000000;1.562470
9474.000000;1.562781
9473.000000;1.562394
9472.000000;1.561959
9471.000000;1.562281
9470.000000;1.562741
9469.000000;1.562094
9468.000000;1.560636
9467.000000;1.560247
9466.000000;1.561966
9465.000000;1.564474
9464.000000;1.565497
9463.000000;1.564179
9462.000000;1.561541
9461.000000;1.558957
9460.000000;1.556834
9459.000000;1.554832
9458.000000;1.552989
9457.000000;1.552324
9456.000000;1.554169
9455.000000;1.558658
9454.000000;1.563977
9453.000000;1.567522
9452.000000;1.567862
9451.000000;1.565342
9450.000000;1.561176
9449.000000;1.556730
9448.000000;1.553459
9447.000000;1.552451
9446.000000;1.553509
9445.000000;1.555250
9444.000000;1.556678
9443.000000;1.558184
9442.000000;1.560382
9441.000000;1.562541
9440.000000;1.563040
9439.000000;1.561282
9438.000000;1.558547
9437.000000;1.556775
9436.000000;1.556900
9435.000000;1.558504
9434.000000;1.560420
9433.000000;1.561149
9432.000000;1.559349
9431.000000;1.554948
9430.000000;1.549739
9429.000000;1.546194
9428.000000;1.545571
9427.000000;1.547426
9426.000000;1.550692
9425.000000;1.554499
9424.000000;1.557671
9423.000000;1.558434
9422.000000;1.555778
9421.000000;1.550816
9420.000000;1.546002
9419.000000;1.542968
9418.000000;1.541779
9417.000000;1.542138
9416.000000;1.543894
9415.000000;1.546275
9414.000000;1.548057
9413.000000;1.549009
9412.000000;1.550417
9411.000000;1.553450
9410.000000;1.557285
9409.000000;1.559479
9408.000000;1.558251
9407.000000;1.554161
9406.000000;1.549646
9405.000000;1.547165
9404.000000;1.547521
9403.000000;1.549405
9402.000000;1.550550
9401.000000;1.549632
9400.000000;1.546934
9399.000000;1.543358
9398.000000;1.539845
9397.000000;1.537681
9396.000000;1.537956
9395.000000;1.540269
9394.000000;1.542698
9393.000000;1.543735
9392.000000;1.543878
9391.000000;1.544579
9390.000000;1.546116
9389.000000;1.547430
9388.000000;1.547693
9387.000000;1.547003
9386.000000;1.545631
9385.000000;1.543630
9384.000000;1.541398
9383.000000;1.539863
9382.000000;1.539773
9381.000000;1.541152
9380.000000;1.543364
9379.000000;1.545196
9378.000000;1.545104
9377.000000;1.542293
9376.000000;1.537767
9375.000000;1.533798
9374.000000;1.532132
9373.000000;1.532695
9372.000000;1.534035
9371.000000;1.534877
9370.000000;1.534992
9369.000000;1.534875
9368.000000;1.534988
9367.000000;1.535298
9366.000000;1.535449
9365.000000;1.535278
9364.000000;1.534993
9363.000000;1.534808
9362.000000;1.534688
9361.000000;1.534706
9360.000000;1.535218
9359.000000;1.536132
9358.000000;1.536472
9357.000000;1.535347
9356.000000;1.533128
9355.000000;1.531230
9354.000000;1.530733
9353.000000;1.531538
9352.000000;1.532919
9351.000000;1.534533
9350.000000;1.536676
9349.000000;1.539678
9348.000000;1.543185
9347.000000;1.545899
9346.000000;1.546220
9345.000000;1.543702
9344.000000;1.539836
9343.000000;1.536908
9342.000000;1.536104
9341.000000;1.536901
9340.000000;1.537815
9339.000000;1.537232
9338.000000;1.533944
9337.000000;1.528056
9336.000000;1.521697
9335.000000;1.517994
9334.000000;1.518655
9333.000000;1.522489
9332.000000;1.526417
9331.000000;1.528103
9330.000000;1.527689
9329.000000;1.527122
9328.000000;1.527826
9327.000000;1.529046
9326.000000;1.528743
9325.000000;1.526127
9324.000000;1.522751
9323.000000;1.520673
9322.000000;1.520255
9321.000000;1.520592
9320.000000;1.521293
9319.000000;1.522490
9318.000000;1.523467
9317.000000;1.523002
9316.000000;1.521501
9315.000000;1.521206
9314.000000;1.523449
9313.000000;1.526884
9312.000000;1.529278
9311.000000;1.530069
9310.000000;1.529928
9309.000000;1.528762
9308.000000;1.525963
9307.000000;1.522302
9306.000000;1.519735
9305.000000;1.519114
9304.000000;1.519376
9303.000000;1.519398
9302.000000;1.519532
9301.000000;1.520549
9300.000000;1.521956
9299.000000;1.522411
9298.000000;1.521537
9297.000000;1.520521
9296.000000;1.520840
9295.000000;1.522880
9294.000000;1.525770
9293.000000;1.528187
9292.000000;1.529205
9291.000000;1.528599
9290.000000;1.526612
9289.000000;1.523720
9288.000000;1.520692
9287.000000;1.518524
9286.000000;1.517768
9285.000000;1.517721
9284.000000;1.516870
9283.000000;1.514738
9282.000000;1.512943
9281.000000;1.513576
9280.000000;1.516560
9279.000000;1.519411
9278.000000;1.520073
9277.000000;1.519330
9276.000000;1.519369
9275.000000;1.520563
9274.000000;1.521033
9273.000000;1.519459
9272.000000;1.517029
9271.000000;1.515893
9270.000000;1.516632
9269.000000;1.518093
9268.000000;1.519163
9267.000000;1.519782
9266.000000;1.520267
9265.000000;1.520642
9264.000000;1.520974
9263.000000;1.521543
9262.000000;1.522284
9261.000000;1.522552
9260.000000;1.521704
9259.000000;1.519693
9258.000000;1.516925
9257.000000;1.513950
9256.000000;1.511488
9255.000000;1.510155
9254.000000;1.509813
9253.000000;1.509458
9252.000000;1.508228
9251.000000;1.506553
9250.000000;1.505714
9249.000000;1.506295
9248.000000;1.507630
9247.000000;1.508806
9246.000000;1.509583
9245.000000;1.509960
9244.000000;1.509423
9243.000000;1.507413
9242.000000;1.504776
9241.000000;1.503774
9240.000000;1.505633
9239.000000;1.508569
9238.000000;1.509313
9237.000000;1.506953
9236.000000;1.504162
9235.000000;1.504031
9234.000000;1.506799
9233.000000;1.510239
9232.000000;1.512366
9231.000000;1.512787
9230.000000;1.511822
9229.000000;1.509756
9228.000000;1.507209
9227.000000;1.505069
9226.000000;1.503624
9225.000000;1.502411
9224.000000;1.501174
9223.000000;1.500346
9222.000000;1.500409
9221.000000;1.501298
9220.000000;1.502490
9219.000000;1.503194
9218.000000;1.502564
9217.000000;1.500496
9216.000000;1.498284
9215.000000;1.497674
9214.000000;1.499076
9213.000000;1.501419
9212.000000;1.503725
9211.000000;1.505737
9210.000000;1.506842
9209.000000;1.505898
9208.000000;1.503017
9207.000000;1.500268
9206.000000;1.499514
9205.000000;1.500381
9204.000000;1.501271
9203.000000;1.501493
9202.000000;1.501275
9201.000000;1.500543
9200.000000;1.499226
9199.000000;1.498287
9198.000000;1.498853
9197.000000;1.500475
9196.000000;1.501695
9195.000000;1.502353
9194.000000;1.503691
9193.000000;1.505833
9192.000000;1.506822
9191.000000;1.504996
9190.000000;1.501321
9189.000000;1.498224
9188.000000;1.496924
9187.000000;1.496835
9186.000000;1.496880
9185.000000;1.496635
9184.000000;1.496404
9183.000000;1.496742
9182.000000;1.497900
9181.000000;1.499369
9180.000000;1.500031
9179.000000;1.498986
9178.000000;1.496346
9177.000000;1.493243
9176.000000;1.491254
9175.000000;1.491544
9174.000000;1.493878
9173.000000;1.496414
9172.000000;1.497145
9171.000000;1.495709
9170.000000;1.493383
9169.000000;1.491498
9168.000000;1.490504
9167.000000;1.490388
9166.000000;1.490960
9165.000000;1.491602
9164.000000;1.491794
9163.000000;1.492121
9162.000000;1.493626
9161.000000;1.495775
9160.000000;1.496192
9159.000000;1.493383
9158.000000;1.488936
9157.000000;1.485838
9156.000000;1.485272
9155.000000;1.486158
9154.000000;1.487304
9153.000000;1.488716
9152.000000;1.490671
9151.000000;1.492674
9150.000000;1.494000
9149.000000;1.494649
9148.000000;1.495199
9147.000000;1.495890
9146.000000;1.496142
9145.000000;1.495108
9144.000000;1.492936
9143.000000;1.491201
9142.000000;1.491503
9141.000000;1.493484
9140.000000;1.494821
9139.000000;1.493888
9138.000000;1.491911
9137.000000;1.491383
9136.000000;1.492742
9135.000000;1.493986
9134.000000;1.493657
9133.000000;1.492670
9132.000000;1.492464
9131.000000;1.492653
9130.000000;1.491825
9129.000000;1.489998
9128.000000;1.488854
9127.000000;1.489479
9126.000000;1.490985
9125.000000;1.491750
9124.000000;1.491358
9123.000000;1.490681
9122.000000;1.490419
9121.000000;1.490137
9120.000000;1.488834
9119.000000;1.486365
9118.000000;1.483985
9117.000000;1.483183
9116.000000;1.484126
9115.000000;1.485549
9114.000000;1.486265
9113.000000;1.486486
9112.000000;1.487322
9111.000000;1.489128
9110.000000;1.490775
9109.000000;1.490678
9108.000000;1.488435
9107.000000;1.485226
9106.000000;1.482599
9105.000000;1.481139
9104.000000;1.480421
9103.000000;1.480037
9102.000000;1.480278
9101.000000;1.481517
9100.000000;1.483248
9099.000000;1.484526
9098.000000;1.485387
9097.000000;1.486974
9096.000000;1.489813
9095.000000;1.492560
9094.000000;1.493190
9093.000000;1.491290
9092.000000;1.488457
9091.000000;1.486535
9090.000000;1.486144
9089.000000;1.486769
9088.000000;1.487480
9087.000000;1.487409
9086.000000;1.486165
9085.000000;1.484297
9084.000000;1.482936
9083.000000;1.482488
9082.000000;1.481983
9081.000000;1.480230
9080.000000;1.477558
9079.000000;1.475773
9078.000000;1.476274
9077.000000;1.478695
9076.000000;1.481483
9075.000000;1.483300
9074.000000;1.483594
9073.000000;1.482292
9072.000000;1.479781
9071.000000;1.477264
9070.000000;1.476313
9069.000000;1.477497
9068.000000;1.479701
9067.000000;1.481277
9066.000000;1.481629
9065.000000;1.481296
9064.000000;1.480941
9063.000000;1.481019
9062.000000;1.481991
9061.000000;1.483752
9060.000000;1.484884
9059.000000;1.483794
9058.000000;1.481077
9057.000000;1.479496
9056.000000;1.480804
9055.000000;1.483442
9054.000000;1.484202
9053.000000;1.481782
