Criado como novo conjunto de dados;"e0108.spp","-4278044.7 Secs"
cm-1;Abs
10000.000000;1.104576
9999.000000;1.103098
9998.000000;1.101625
9997.000000;1.100157
9996.000000;1.098694
9995.000000;1.097235
9994.000000;1.095782
9993.000000;1.094333
9992.000000;1.092891
9991.000000;1.091448
9990.000000;1.090023
9989.000000;1.088539
9988.000000;1.086959
9987.000000;1.085445
9986.000000;1.084352
9985.000000;1.083726
9984.000000;1.083091
9983.000000;1.082360
9982.000000;1.082190
9981.000000;1.083033
9980.000000;1.084435
9979.000000;1.085759
9978.000000;1.086972
9977.000000;1.088122
9976.000000;1.088720
9975.000000;1.088410
9974.000000;1.087750
9973.000000;1.087567
9972.000000;1.087837
9971.000000;1.087851
9970.000000;1.087182
9969.000000;1.085909
9968.000000;1.084232
9967.000000;1.082540
9966.000000;1.081530
9965.000000;1.081529
9964.000000;1.081890
9963.000000;1.081738
9962.000000;1.081154
9961.000000;1.080885
9960.000000;1.081055
9959.000000;1.080965
9958.000000;1.080198
9957.000000;1.079148
9956.000000;1.078346
9955.000000;1.077870
9954.000000;1.077538
9953.000000;1.077182
9952.000000;1.076701
9951.000000;1.076287
9950.000000;1.076466
9949.000000;1.077308
9948.000000;1.077780
9947.000000;1.076766
9946.000000;1.074760
9945.000000;1.073599
9944.000000;1.074274
9943.000000;1.075754
9942.000000;1.076337
9941.000000;1.075560
9940.000000;1.074301
9939.000000;1.073543
9938.000000;1.073603
9937.000000;1.074182
9936.000000;1.074554
9935.000000;1.073902
9934.000000;1.071963
9933.000000;1.069380
9932.000000;1.067234
9931.000000;1.066209
9930.000000;1.066172
9929.000000;1.066385
9928.000000;1.066110
9927.000000;1.065237
9926.000000;1.064319
9925.000000;1.063866
9924.000000;1.063769
9923.000000;1.063684
9922.000000;1.063761
9921.000000;1.064482
9920.000000;1.065829
9919.000000;1.067201
9918.000000;1.068240
9917.000000;1.069166
9916.000000;1.070121
9915.000000;1.070711
9914.000000;1.070454
9913.000000;1.069258
9912.000000;1.067296
9911.000000;1.064902
9910.000000;1.062699
9909.000000;1.061325
9908.000000;1.060806
9907.000000;1.060665
9906.000000;1.060732
9905.000000;1.061217
9904.000000;1.061839
9903.000000;1.061670
9902.000000;1.060374
9901.000000;1.058924
9900.000000;1.058510
9899.000000;1.059189
9898.000000;1.060056
9897.000000;1.060378
9896.000000;1.060031
9895.000000;1.059145
9894.000000;1.057997
9893.000000;1.057081
9892.000000;1.056693
9891.000000;1.056497
9890.000000;1.055879
9889.000000;1.054603
9888.000000;1.052862
9887.000000;1.050992
9886.000000;1.049501
9885.000000;1.049047
9884.000000;1.049890
9883.000000;1.051550
9882.000000;1.053312
9881.000000;1.054760
9880.000000;1.055550
9879.000000;1.055170
9878.000000;1.053591
9877.000000;1.051756
9876.000000;1.050678
9875.000000;1.050236
9874.000000;1.049584
9873.000000;1.048617
9872.000000;1.048162
9871.000000;1.048660
9870.000000;1.049464
9869.000000;1.049746
9868.000000;1.049475
9867.000000;1.049122
9866.000000;1.048821
9865.000000;1.048180
9864.000000;1.046741
9863.000000;1.044527
9862.000000;1.042295
9861.000000;1.041163
9860.000000;1.041553
9859.000000;1.042547
9858.000000;1.042792
9857.000000;1.042106
9856.000000;1.041625
9855.000000;1.042205
9854.000000;1.043380
9853.000000;1.044196
9852.000000;1.044528
9851.000000;1.045046
9850.000000;1.046171
9849.000000;1.047508
9848.000000;1.048191
9847.000000;1.047549
9846.000000;1.045669
9845.000000;1.043494
9844.000000;1.042150
9843.000000;1.041881
9842.000000;1.041777
9841.000000;1.040715
9840.000000;1.038413
9839.000000;1.035530
9838.000000;1.033119
9837.000000;1.032121
9836.000000;1.032845
9835.000000;1.034478
9834.000000;1.035445
9833.000000;1.034794
9832.000000;1.033146
9831.000000;1.031978
9830.000000;1.032152
9829.000000;1.033428
9828.000000;1.035053
9827.000000;1.036351
9826.000000;1.036874
9825.000000;1.036535
9824.000000;1.035701
9823.000000;1.034802
9822.000000;1.033822
9821.000000;1.032528
9820.000000;1.031183
9819.000000;1.030548
9818.000000;1.031028
9817.000000;1.032153
9816.000000;1.033115
9815.000000;1.033524
9814.000000;1.033426
9813.000000;1.032875
9812.000000;1.031817
9811.000000;1.030372
9810.000000;1.028958
9809.000000;1.028039
9808.000000;1.027787
9807.000000;1.027975
9806.000000;1.028151
9805.000000;1.027953
9804.000000;1.027327
9803.000000;1.026436
9802.000000;1.025401
9801.000000;1.024194
9800.000000;1.022764
9799.000000;1.021208
9798.000000;1.019848
9797.000000;1.019188
9796.000000;1.019677
9795.000000;1.021290
9794.000000;1.023348
9793.000000;1.024969
9792.000000;1.025767
9791.000000;1.025957
9790.000000;1.025910
9789.000000;1.025833
9788.000000;1.025813
9787.000000;1.025791
9786.000000;1.025432
9785.000000;1.024395
9784.000000;1.022901
9783.000000;1.021685
9782.000000;1.021156
9781.000000;1.020897
9780.000000;1.020260
9779.000000;1.019172
9778.000000;1.018012
9777.000000;1.016967
9776.000000;1.016031
9775.000000;1.015522
9774.000000;1.015944
9773.000000;1.017202
9772.000000;1.018435
9771.000000;1.018905
9770.000000;1.018715
9769.000000;1.018370
9768.000000;1.017957
9767.000000;1.017175
9766.000000;1.016008
9765.000000;1.014898
9764.000000;1.014213
9763.000000;1.013902
9762.000000;1.013750
9761.000000;1.013633
9760.000000;1.013402
9759.000000;1.012839
9758.000000;1.012012
9757.000000;1.011442
9756.000000;1.011620
9755.000000;1.012366
9754.000000;1.012919
9753.000000;1.012702
9752.000000;1.011845
9751.000000;1.010891
9750.000000;1.010144
9749.000000;1.009501
9748.000000;1.008916
9747.000000;1.008710
9746.000000;1.009175
9745.000000;1.009965
9744.000000;1.010250
9743.000000;1.009688
9742.000000;1.008990
9741.000000;1.009097
9740.000000;1.009901
9739.000000;1.010323
9738.000000;1.009683
9737.000000;1.008447
9736.000000;1.007379
9735.000000;1.006516
9734.000000;1.005498
9733.000000;1.004521
9732.000000;1.004287
9731.000000;1.004974
9730.000000;1.005843
9729.000000;1.006024
9728.000000;1.005312
9727.000000;1.004104
9726.000000;1.002954
9725.000000;1.002379
9724.000000;1.002676
9723.000000;1.003531
9722.000000;1.004091
9721.000000;1.003792
9720.000000;1.002950
9719.000000;1.002277
9718.000000;1.002048
9717.000000;1.002035
9716.000000;1.002042
9715.000000;1.002049
9714.000000;1.001890
9713.000000;1.001301
9712.000000;1.000397
9711.000000;0.999740
9710.000000;0.999714
9709.000000;1.000051
9708.000000;1.000159
9707.000000;0.999801
9706.000000;0.999293
9705.000000;0.999050
9704.000000;0.999136
9703.000000;0.999279
9702.000000;0.999201
9701.000000;0.998834
9700.000000;0.998270
9699.000000;0.997593
9698.000000;0.996805
9697.000000;0.995933
9696.000000;0.995169
9695.000000;0.994821
9694.000000;0.995090
9693.000000;0.995899
9692.000000;0.996839
9691.000000;0.997331
9690.000000;0.997016
9689.000000;0.996078
9688.000000;0.995028
9687.000000;0.994119
9686.000000;0.993108
9685.000000;0.991735
9684.000000;0.990256
9683.000000;0.989299
9682.000000;0.989270
9681.000000;0.990067
9680.000000;0.991271
9679.000000;0.992362
9678.000000;0.992849
9677.000000;0.992524
9676.000000;0.991719
9675.000000;0.991033
9674.000000;0.990659
9673.000000;0.990185
9672.000000;0.989207
9671.000000;0.987994
9670.000000;0.987311
9669.000000;0.987589
9668.000000;0.988408
9667.000000;0.988847
9666.000000;0.988338
9665.000000;0.987192
9664.000000;0.986249
9663.000000;0.986036
9662.000000;0.986314
9661.000000;0.986495
9660.000000;0.986346
9659.000000;0.986114
9658.000000;0.986075
9657.000000;0.986268
9656.000000;0.986621
9655.000000;0.986999
9654.000000;0.987114
9653.000000;0.986769
9652.000000;0.986285
9651.000000;0.986240
9650.000000;0.986578
9649.000000;0.986428
9648.000000;0.985229
9647.000000;0.983633
9646.000000;0.982771
9645.000000;0.982835
9644.000000;0.983010
9643.000000;0.982777
9642.000000;0.982572
9641.000000;0.982907
9640.000000;0.983396
9639.000000;0.983117
9638.000000;0.981699
9637.000000;0.979665
9636.000000;0.977842
9635.000000;0.976742
9634.000000;0.976379
9633.000000;0.976378
9632.000000;0.976292
9631.000000;0.976020
9630.000000;0.975900
9629.000000;0.976195
9628.000000;0.976639
9627.000000;0.976781
9626.000000;0.976709
9625.000000;0.976941
9624.000000;0.977476
9623.000000;0.977427
9622.000000;0.976086
9621.000000;0.974092
9620.000000;0.972944
9619.000000;0.973322
9618.000000;0.974375
9617.000000;0.974850
9616.000000;0.974522
9615.000000;0.974145
9614.000000;0.974232
9613.000000;0.974444
9612.000000;0.974191
9611.000000;0.973380
9610.000000;0.972345
9609.000000;0.971422
9608.000000;0.970845
9607.000000;0.970837
9606.000000;0.971464
9605.000000;0.972432
9604.000000;0.973181
9603.000000;0.973176
9602.000000;0.972115
9601.000000;0.970106
9600.000000;0.967854
9599.000000;0.966464
9598.000000;0.966687
9597.000000;0.968262
9596.000000;0.970110
9595.000000;0.971138
9594.000000;0.970819
9593.000000;0.969248
9592.000000;0.967016
9591.000000;0.964969
9590.000000;0.963721
9589.000000;0.963287
9588.000000;0.963303
9587.000000;0.963528
9586.000000;0.963902
9585.000000;0.964266
9584.000000;0.964411
9583.000000;0.964403
9582.000000;0.964470
9581.000000;0.964496
9580.000000;0.964051
9579.000000;0.963095
9578.000000;0.962242
9577.000000;0.962111
9576.000000;0.962700
9575.000000;0.963553
9574.000000;0.964200
9573.000000;0.964254
9572.000000;0.963509
9571.000000;0.962309
9570.000000;0.961442
9569.000000;0.961255
9568.000000;0.961180
9567.000000;0.960526
9566.000000;0.959474
9565.000000;0.958766
9564.000000;0.958656
9563.000000;0.958770
9562.000000;0.958895
9561.000000;0.959215
9560.000000;0.959623
9559.000000;0.959443
9558.000000;0.958196
9557.000000;0.956333
9556.000000;0.954922
9555.000000;0.954796
9554.000000;0.956014
9553.000000;0.957795
9552.000000;0.958867
9551.000000;0.958306
9550.000000;0.956415
9549.000000;0.954560
9548.000000;0.953898
9547.000000;0.954416
9546.000000;0.955297
9545.000000;0.955912
9544.000000;0.956170
9543.000000;0.956157
9542.000000;0.955882
9541.000000;0.955372
9540.000000;0.954715
9539.000000;0.953954
9538.000000;0.953122
9537.000000;0.952402
9536.000000;0.952044
9535.000000;0.952103
9534.000000;0.952358
9533.000000;0.952529
9532.000000;0.952489
9531.000000;0.952311
9530.000000;0.952202
9529.000000;0.952360
9528.000000;0.952813
9527.000000;0.953426
9526.000000;0.954049
9525.000000;0.954519
9524.000000;0.954483
9523.000000;0.953492
9522.000000;0.951532
9521.000000;0.949353
9520.000000;0.947985
9519.000000;0.947875
9518.000000;0.948586
9517.000000;0.949333
9516.000000;0.949677
9515.000000;0.949706
9514.000000;0.949726
9513.000000;0.949884
9512.000000;0.950024
9511.000000;0.949855
9510.000000;0.949319
9509.000000;0.948731
9508.000000;0.948464
9507.000000;0.948498
9506.000000;0.948405
9505.000000;0.947861
9504.000000;0.947070
9503.000000;0.946590
9502.000000;0.946756
9501.000000;0.947308
9500.000000;0.947587
9499.000000;0.947098
9498.000000;0.945887
9497.000000;0.944405
9496.000000;0.943111
9495.000000;0.942269
9494.000000;0.942012
9493.000000;0.942360
9492.000000;0.943070
9491.000000;0.943618
9490.000000;0.943546
9489.000000;0.942832
9488.000000;0.941874
9487.000000;0.941148
9486.000000;0.940953
9485.000000;0.941349
9484.000000;0.942147
9483.000000;0.942916
9482.000000;0.943132
9481.000000;0.942458
9480.000000;0.940963
9479.000000;0.939128
9478.000000;0.937594
9477.000000;0.936730
9476.000000;0.936387
9475.000000;0.936124
9474.000000;0.935697
9473.000000;0.935204
9472.000000;0.934774
9471.000000;0.934347
9470.000000;0.933872
9469.000000;0.933510
9468.000000;0.933450
9467.000000;0.933710
9466.000000;0.934275
9465.000000;0.935192
9464.000000;0.936255
9463.000000;0.936821
9462.000000;0.936366
9461.000000;0.935162
9460.000000;0.934014
9459.000000;0.933342
9458.000000;0.932934
9457.000000;0.932619
9456.000000;0.932659
9455.000000;0.933235
9454.000000;0.934002
9453.000000;0.934518
9452.000000;0.934877
9451.000000;0.935504
9450.000000;0.936372
9449.000000;0.936794
9448.000000;0.936070
9447.000000;0.934177
9446.000000;0.931833
9445.000000;0.930018
9444.000000;0.929380
9443.000000;0.929818
9442.000000;0.930565
9441.000000;0.930792
9440.000000;0.930286
9439.000000;0.929544
9438.000000;0.929259
9437.000000;0.929734
9436.000000;0.930643
9435.000000;0.931242
9434.000000;0.930929
9433.000000;0.929803
9432.000000;0.928635
9431.000000;0.928127
9430.000000;0.928208
9429.000000;0.928180
9428.000000;0.927560
9427.000000;0.926599
9426.000000;0.925973
9425.000000;0.926080
9424.000000;0.926662
9423.000000;0.927006
9422.000000;0.926507
9421.000000;0.925207
9420.000000;0.923837
9419.000000;0.923228
9418.000000;0.923644
9417.000000;0.924696
9416.000000;0.925838
9415.000000;0.926740
9414.000000;0.927198
9413.000000;0.927005
9412.000000;0.926093
9411.000000;0.924736
9410.000000;0.923422
9409.000000;0.922510
9408.000000;0.922071
9407.000000;0.921997
9406.000000;0.922165
9405.000000;0.922504
9404.000000;0.922959
9403.000000;0.923434
9402.000000;0.923759
9401.000000;0.923737
9400.000000;0.923212
9399.000000;0.922127
9398.000000;0.920613
9397.000000;0.919105
9396.000000;0.918261
9395.000000;0.918531
9394.000000;0.919743
9393.000000;0.921224
9392.000000;0.922360
9391.000000;0.922916
9390.000000;0.922890
9389.000000;0.922371
9388.000000;0.921643
9387.000000;0.921128
9386.000000;0.920958
9385.000000;0.920733
9384.000000;0.920018
9383.000000;0.918980
9382.000000;0.918266
9381.000000;0.918282
9380.000000;0.918773
9379.000000;0.919113
9378.000000;0.918861
9377.000000;0.918068
9376.000000;0.917191
9375.000000;0.916673
9374.000000;0.916532
9373.000000;0.916422
9372.000000;0.916182
9371.000000;0.916117
9370.000000;0.916474
9369.000000;0.916884
9368.000000;0.916722
9367.000000;0.915968
9366.000000;0.915226
9365.000000;0.914817
9364.000000;0.914412
9363.000000;0.913760
9362.000000;0.913304
9361.000000;0.913629
9360.000000;0.914603
9359.000000;0.915488
9358.000000;0.915753
9357.000000;0.915389
9356.000000;0.914594
9355.000000;0.913621
9354.000000;0.912910
9353.000000;0.912885
9352.000000;0.913430
9351.000000;0.913883
9350.000000;0.913730
9349.000000;0.913122
9348.000000;0.912561
9347.000000;0.912257
9346.000000;0.911969
9345.000000;0.911364
9344.000000;0.910400
9343.000000;0.909409
9342.000000;0.908829
9341.000000;0.908778
9340.000000;0.908870
9339.000000;0.908584
9338.000000;0.907906
9337.000000;0.907442
9336.000000;0.907773
9335.000000;0.908826
9334.000000;0.909995
9333.000000;0.910802
9332.000000;0.911249
9331.000000;0.911527
9330.000000;0.911568
9329.000000;0.911065
9328.000000;0.909969
9327.000000;0.908790
9326.000000;0.908206
9325.000000;0.908385
9324.000000;0.908831
9323.000000;0.908994
9322.000000;0.908868
9321.000000;0.908858
9320.000000;0.909163
9319.000000;0.909503
9318.000000;0.909445
9317.000000;0.908813
9316.000000;0.907802
9315.000000;0.906823
9314.000000;0.906213
9313.000000;0.905941
9312.000000;0.905630
9311.000000;0.905023
9310.000000;0.904322
9309.000000;0.903879
9308.000000;0.903665
9307.000000;0.903368
9306.000000;0.902924
9305.000000;0.902552
9304.000000;0.902287
9303.000000;0.901924
9302.000000;0.901533
9301.000000;0.901551
9300.000000;0.902135
9299.000000;0.902846
9298.000000;0.903276
9297.000000;0.903615
9296.000000;0.904161
9295.000000;0.904637
9294.000000;0.904487
9293.000000;0.903692
9292.000000;0.902783
9291.000000;0.902148
9290.000000;0.901807
9289.000000;0.901787
9288.000000;0.902184
9287.000000;0.902793
9286.000000;0.903137
9285.000000;0.903048
9284.000000;0.902872
9283.000000;0.902963
9282.000000;0.903268
9281.000000;0.903555
9280.000000;0.903715
9279.000000;0.903673
9278.000000;0.903305
9277.000000;0.902664
9276.000000;0.902081
9275.000000;0.901834
9274.000000;0.901837
9273.000000;0.901764
9272.000000;0.901338
9271.000000;0.900461
9270.000000;0.899321
9269.000000;0.898453
9268.000000;0.898336
9267.000000;0.898722
9266.000000;0.898681
9265.000000;0.897618
9264.000000;0.896026
9263.000000;0.894929
9262.000000;0.894802
9261.000000;0.895313
9260.000000;0.895939
9259.000000;0.896418
9258.000000;0.896660
9257.000000;0.896641
9256.000000;0.896496
9255.000000;0.896424
9254.000000;0.896376
9253.000000;0.896078
9252.000000;0.895426
9251.000000;0.894685
9250.000000;0.894165
9249.000000;0.893892
9248.000000;0.893645
9247.000000;0.893208
9246.000000;0.892545
9245.000000;0.891898
9244.000000;0.891735
9243.000000;0.892396
9242.000000;0.893690
9241.000000;0.895014
9240.000000;0.895937
9239.000000;0.896519
9238.000000;0.896971
9237.000000;0.897213
9236.000000;0.896970
9235.000000;0.896179
9234.000000;0.895130
9233.000000;0.894231
9232.000000;0.893710
9231.000000;0.893470
9230.000000;0.893158
9229.000000;0.892512
9228.000000;0.891699
9227.000000;0.891115
9226.000000;0.890796
9225.000000;0.890299
9224.000000;0.889420
9223.000000;0.888784
9222.000000;0.889285
9221.000000;0.890971
9220.000000;0.892822
9219.000000;0.893731
9218.000000;0.893470
9217.000000;0.892593
9216.000000;0.891670
9215.000000;0.890856
9214.000000;0.890033
9213.000000;0.889127
9212.000000;0.888249
9211.000000;0.887631
9210.000000;0.887373
9209.000000;0.887285
9208.000000;0.887087
9207.000000;0.886843
9206.000000;0.886994
9205.000000;0.887816
9204.000000;0.889017
9203.000000;0.890030
9202.000000;0.890565
9201.000000;0.890644
9200.000000;0.890228
9199.000000;0.889179
9198.000000;0.887675
9197.000000;0.886363
9196.000000;0.885858
9195.000000;0.886190
9194.000000;0.886867
9193.000000;0.887387
9192.000000;0.887568
9191.000000;0.887486
9190.000000;0.887296
9189.000000;0.887126
9188.000000;0.887027
9187.000000;0.886943
9186.000000;0.886774
9185.000000;0.886476
9184.000000;0.886088
9183.000000;0.885726
9182.000000;0.885588
9181.000000;0.885880
9180.000000;0.886582
9179.000000;0.887311
9178.000000;0.887550
9177.000000;0.887138
9176.000000;0.886455
9175.000000;0.886048
9174.000000;0.886106
9173.000000;0.886345
9172.000000;0.886340
9171.000000;0.885865
9170.000000;0.884968
9169.000000;0.883890
9168.000000;0.882972
9167.000000;0.882479
9166.000000;0.882378
9165.000000;0.882329
9164.000000;0.882064
9163.000000;0.881714
9162.000000;0.881648
9161.000000;0.881984
9160.000000;0.882426
9159.000000;0.882604
9158.000000;0.882438
9157.000000;0.882142
9156.000000;0.881965
9155.000000;0.882010
9154.000000;0.882174
9153.000000;0.882189
9152.000000;0.881837
9151.000000;0.881187
9150.000000;0.880540
9149.000000;0.880076
9148.000000;0.879731
9147.000000;0.879477
9146.000000;0.879501
9145.000000;0.879931
9144.000000;0.880553
9143.000000;0.881037
9142.000000;0.881301
9141.000000;0.881408
9140.000000;0.881248
9139.000000;0.880669
9138.000000;0.879892
9137.000000;0.879419
9136.000000;0.879428
9135.000000;0.879563
9134.000000;0.879480
9133.000000;0.879340
9132.000000;0.879518
9131.000000;0.880002
9130.000000;0.880360
9129.000000;0.880254
9128.000000;0.879780
9127.000000;0.879285
9126.000000;0.878967
9125.000000;0.878733
9124.000000;0.878410
9123.000000;0.878028
9122.000000;0.877799
9121.000000;0.877795
9120.000000;0.877765
9119.000000;0.877418
9118.000000;0.876859
9117.000000;0.876533
9116.000000;0.876710
9115.000000;0.877210
9114.000000;0.877677
9113.000000;0.877938
9112.000000;0.878001
9111.000000;0.877902
9110.000000;0.877695
9109.000000;0.877453
9108.000000;0.877169
9107.000000;0.876767
9106.000000;0.876327
9105.000000;0.876124
9104.000000;0.876270
9103.000000;0.876488
9102.000000;0.876417
9101.000000;0.876032
9100.000000;0.875608
9099.000000;0.875356
9098.000000;0.875245
9097.000000;0.875084
9096.000000;0.874669
9095.000000;0.873986
9094.000000;0.873387
9093.000000;0.873363
9092.000000;0.873965
9091.000000;0.874607
9090.000000;0.874642
9089.000000;0.874049
9088.000000;0.873340
9087.000000;0.872984
9086.000000;0.873156
9085.000000;0.873840
9084.000000;0.874759
9083.000000;0.875304
9082.000000;0.874990
9081.000000;0.874104
9080.000000;0.873491
9079.000000;0.873605
9078.000000;0.874084
9077.000000;0.874355
9076.000000;0.874306
9075.000000;0.874163
9074.000000;0.874010
9073.000000;0.873784
9072.000000;0.873542
9071.000000;0.873423
9070.000000;0.873408
9069.000000;0.873390
9068.000000;0.873426
9067.000000;0.873667
9066.000000;0.874011
9065.000000;0.874077
9064.000000;0.873619
9063.000000;0.872856
9062.000000;0.872263
9061.000000;0.872070
9060.000000;0.872084
9059.000000;0.871999
9058.000000;0.871769
9057.000000;0.871608
9056.000000;0.871673
9055.000000;0.871901
9054.000000;0.872193
9053.000000;0.872567
