Criado como novo conjunto de dados;"e0108.spp","-4266704.1 Secs"
cm-1;Abs
10000.000000;1.096253
9999.000000;1.095907
9998.000000;1.095562
9997.000000;1.095216
9996.000000;1.094872
9995.000000;1.094526
9994.000000;1.094183
9993.000000;1.093836
9992.000000;1.093502
9991.000000;1.092829
9990.000000;1.092138
9989.000000;1.091845
9988.000000;1.091778
9987.000000;1.091321
9986.000000;1.089945
9985.000000;1.087687
9984.000000;1.085345
9983.000000;1.084117
9982.000000;1.084686
9981.000000;1.086559
9980.000000;1.088377
9979.000000;1.088947
9978.000000;1.088069
9977.000000;1.086590
9976.000000;1.085773
9975.000000;1.086399
9974.000000;1.088124
9973.000000;1.089588
9972.000000;1.089386
9971.000000;1.087183
9970.000000;1.083966
9969.000000;1.081252
9968.000000;1.080002
9967.000000;1.080090
9966.000000;1.080641
9965.000000;1.080879
9964.000000;1.080783
9963.000000;1.080919
9962.000000;1.081619
9961.000000;1.082474
9960.000000;1.082741
9959.000000;1.081983
9958.000000;1.080186
9957.000000;1.077641
9956.000000;1.075082
9955.000000;1.073656
9954.000000;1.074143
9953.000000;1.076025
9952.000000;1.077674
9951.000000;1.077780
9950.000000;1.076536
9949.000000;1.075282
9948.000000;1.075126
9947.000000;1.075972
9946.000000;1.076635
9945.000000;1.075840
9944.000000;1.073435
9943.000000;1.070827
9942.000000;1.069945
9941.000000;1.071514
9940.000000;1.074367
9939.000000;1.076512
9938.000000;1.076797
9937.000000;1.075556
9936.000000;1.073917
9935.000000;1.072795
9934.000000;1.072413
9933.000000;1.072319
9932.000000;1.071774
9931.000000;1.070512
9930.000000;1.069244
9929.000000;1.069085
9928.000000;1.070323
9927.000000;1.072010
9926.000000;1.072922
9925.000000;1.072702
9924.000000;1.071873
9923.000000;1.071004
9922.000000;1.070217
9921.000000;1.069396
9920.000000;1.068529
9919.000000;1.067714
9918.000000;1.067116
9917.000000;1.067041
9916.000000;1.067673
9915.000000;1.068503
9914.000000;1.068338
9913.000000;1.066291
9912.000000;1.062778
9911.000000;1.059351
9910.000000;1.057462
9909.000000;1.057538
9908.000000;1.059101
9907.000000;1.061427
9906.000000;1.063874
9905.000000;1.065775
9904.000000;1.066465
9903.000000;1.065724
9902.000000;1.064089
9901.000000;1.062531
9900.000000;1.061796
9899.000000;1.061986
9898.000000;1.062570
9897.000000;1.062722
9896.000000;1.061847
9895.000000;1.060081
9894.000000;1.058237
9893.000000;1.057072
9892.000000;1.056628
9891.000000;1.056478
9890.000000;1.056542
9889.000000;1.057263
9888.000000;1.058805
9887.000000;1.060427
9886.000000;1.061037
9885.000000;1.060255
9884.000000;1.058618
9883.000000;1.056870
9882.000000;1.055468
9881.000000;1.054691
9880.000000;1.054628
9879.000000;1.054849
9878.000000;1.054503
9877.000000;1.053118
9876.000000;1.051140
9875.000000;1.049459
9874.000000;1.048617
9873.000000;1.048651
9872.000000;1.049429
9871.000000;1.050718
9870.000000;1.052014
9869.000000;1.052758
9868.000000;1.052882
9867.000000;1.052852
9866.000000;1.052980
9865.000000;1.052883
9864.000000;1.051836
9863.000000;1.049681
9862.000000;1.047285
9861.000000;1.045998
9860.000000;1.046586
9859.000000;1.048506
9858.000000;1.050241
9857.000000;1.050531
9856.000000;1.049335
9855.000000;1.047507
9854.000000;1.045747
9853.000000;1.044180
9852.000000;1.042870
9851.000000;1.042183
9850.000000;1.042412
9849.000000;1.043315
9848.000000;1.044271
9847.000000;1.044792
9846.000000;1.044705
9845.000000;1.044093
9844.000000;1.043303
9843.000000;1.042836
9842.000000;1.042892
9841.000000;1.043040
9840.000000;1.042632
9839.000000;1.041539
9838.000000;1.040272
9837.000000;1.039448
9836.000000;1.039331
9835.000000;1.039771
9834.000000;1.040282
9833.000000;1.040198
9832.000000;1.039184
9831.000000;1.037825
9830.000000;1.037358
9829.000000;1.038507
9828.000000;1.040681
9827.000000;1.042549
9826.000000;1.043216
9825.000000;1.042627
9824.000000;1.041029
9823.000000;1.038562
9822.000000;1.035527
9821.000000;1.032706
9820.000000;1.031049
9819.000000;1.030974
9818.000000;1.032008
9817.000000;1.033104
9816.000000;1.033389
9815.000000;1.032749
9814.000000;1.031820
9813.000000;1.031363
9812.000000;1.031584
9811.000000;1.032002
9810.000000;1.031954
9809.000000;1.031228
9808.000000;1.030206
9807.000000;1.029447
9806.000000;1.029192
9805.000000;1.029254
9804.000000;1.029312
9803.000000;1.029232
9802.000000;1.029117
9801.000000;1.029108
9800.000000;1.029219
9799.000000;1.029305
9798.000000;1.029059
9797.000000;1.028103
9796.000000;1.026364
9795.000000;1.024524
9794.000000;1.023823
9793.000000;1.024995
9792.000000;1.027342
9791.000000;1.029119
9790.000000;1.029049
9789.000000;1.027431
9788.000000;1.025643
9787.000000;1.024692
9786.000000;1.024465
9785.000000;1.024248
9784.000000;1.023608
9783.000000;1.022713
9782.000000;1.021991
9781.000000;1.021685
9780.000000;1.021617
9779.000000;1.021244
9778.000000;1.020057
9777.000000;1.018148
9776.000000;1.016382
9775.000000;1.015741
9774.000000;1.016382
9773.000000;1.017530
9772.000000;1.018434
9771.000000;1.019182
9770.000000;1.020272
9769.000000;1.021555
9768.000000;1.022077
9767.000000;1.021107
9766.000000;1.018900
9765.000000;1.016286
9764.000000;1.013906
9763.000000;1.012186
9762.000000;1.011647
9761.000000;1.012537
9760.000000;1.014152
9759.000000;1.015162
9758.000000;1.014936
9757.000000;1.014181
9756.000000;1.013998
9755.000000;1.014610
9754.000000;1.015313
9753.000000;1.015436
9752.000000;1.014972
9751.000000;1.014392
9750.000000;1.014166
9749.000000;1.014455
9748.000000;1.014969
9747.000000;1.015096
9746.000000;1.014419
9745.000000;1.013106
9744.000000;1.011667
9743.000000;1.010406
9742.000000;1.009418
9741.000000;1.009009
9740.000000;1.009622
9739.000000;1.011122
9738.000000;1.012532
9737.000000;1.012861
9736.000000;1.012115
9735.000000;1.011187
9734.000000;1.010765
9733.000000;1.010624
9732.000000;1.010029
9731.000000;1.008634
9730.000000;1.006917
9729.000000;1.005842
9728.000000;1.006093
9727.000000;1.007476
9726.000000;1.008918
9725.000000;1.009258
9724.000000;1.008227
9723.000000;1.006653
9722.000000;1.005638
9721.000000;1.005541
9720.000000;1.005798
9719.000000;1.005628
9718.000000;1.004773
9717.000000;1.003560
9716.000000;1.002444
9715.000000;1.001670
9714.000000;1.001348
9713.000000;1.001625
9712.000000;1.002599
9711.000000;1.004070
9710.000000;1.005467
9709.000000;1.006125
9708.000000;1.005731
9707.000000;1.004576
9706.000000;1.003394
9705.000000;1.002817
9704.000000;1.002802
9703.000000;1.002606
9702.000000;1.001524
9701.000000;0.999809
9700.000000;0.998704
9699.000000;0.999287
9698.000000;1.001236
9697.000000;1.002903
9696.000000;1.002831
9695.000000;1.001186
9694.000000;0.999471
9693.000000;0.998883
9692.000000;0.999247
9691.000000;0.999565
9690.000000;0.999260
9689.000000;0.998599
9688.000000;0.998047
9687.000000;0.997649
9686.000000;0.997175
9685.000000;0.996541
9684.000000;0.995789
9683.000000;0.994893
9682.000000;0.993905
9681.000000;0.993165
9680.000000;0.992931
9679.000000;0.992831
9678.000000;0.992117
9677.000000;0.990669
9676.000000;0.989340
9675.000000;0.989019
9674.000000;0.989623
9673.000000;0.990342
9672.000000;0.990640
9671.000000;0.990527
9670.000000;0.990005
9669.000000;0.988911
9668.000000;0.987523
9667.000000;0.986783
9666.000000;0.987469
9665.000000;0.989370
9664.000000;0.991574
9663.000000;0.993331
9662.000000;0.994282
9661.000000;0.994118
9660.000000;0.992660
9659.000000;0.990326
9658.000000;0.988020
9657.000000;0.986401
9656.000000;0.985543
9655.000000;0.985291
9654.000000;0.985497
9653.000000;0.985751
9652.000000;0.985344
9651.000000;0.983928
9650.000000;0.982067
9649.000000;0.980763
9648.000000;0.980517
9647.000000;0.981022
9646.000000;0.981606
9645.000000;0.981785
9644.000000;0.981499
9643.000000;0.981074
9642.000000;0.980927
9641.000000;0.981178
9640.000000;0.981573
9639.000000;0.981890
9638.000000;0.982228
9637.000000;0.982714
9636.000000;0.983117
9635.000000;0.983050
9634.000000;0.982450
9633.000000;0.981544
9632.000000;0.980446
9631.000000;0.979134
9630.000000;0.977763
9629.000000;0.976617
9628.000000;0.975764
9627.000000;0.975120
9626.000000;0.974876
9625.000000;0.975417
9624.000000;0.976647
9623.000000;0.977786
9622.000000;0.978130
9621.000000;0.977772
9620.000000;0.977322
9619.000000;0.977086
9618.000000;0.976840
9617.000000;0.976317
9616.000000;0.975584
9615.000000;0.974932
9614.000000;0.974552
9613.000000;0.974340
9612.000000;0.973993
9611.000000;0.973369
9610.000000;0.972729
9609.000000;0.972459
9608.000000;0.972568
9607.000000;0.972679
9606.000000;0.972576
9605.000000;0.972430
9604.000000;0.972363
9603.000000;0.972142
9602.000000;0.971568
9601.000000;0.970853
9600.000000;0.970270
9599.000000;0.969706
9598.000000;0.968981
9597.000000;0.968402
9596.000000;0.968442
9595.000000;0.968896
9594.000000;0.968855
9593.000000;0.967729
9592.000000;0.965985
9591.000000;0.964665
9590.000000;0.964355
9589.000000;0.964776
9588.000000;0.965239
9587.000000;0.965309
9586.000000;0.965090
9585.000000;0.965006
9584.000000;0.965312
9583.000000;0.965826
9582.000000;0.966125
9581.000000;0.965926
9580.000000;0.965303
9579.000000;0.964623
9578.000000;0.964301
9577.000000;0.964498
9576.000000;0.964889
9575.000000;0.964794
9574.000000;0.963786
9573.000000;0.962193
9572.000000;0.960853
9571.000000;0.960400
9570.000000;0.960889
9569.000000;0.961963
9568.000000;0.963139
9567.000000;0.964008
9566.000000;0.964370
9565.000000;0.964267
9564.000000;0.963858
9563.000000;0.963274
9562.000000;0.962679
9561.000000;0.962272
9560.000000;0.962035
9559.000000;0.961598
9558.000000;0.960633
9557.000000;0.959366
9556.000000;0.958454
9555.000000;0.958326
9554.000000;0.958828
9553.000000;0.959477
9552.000000;0.959894
9551.000000;0.960017
9550.000000;0.960078
9549.000000;0.960352
9548.000000;0.960761
9547.000000;0.960789
9546.000000;0.959993
9545.000000;0.958525
9544.000000;0.956974
9543.000000;0.955806
9542.000000;0.955163
9541.000000;0.955028
9540.000000;0.955194
9539.000000;0.955194
9538.000000;0.954745
9537.000000;0.954251
9536.000000;0.954402
9535.000000;0.955165
9534.000000;0.955675
9533.000000;0.955279
9532.000000;0.954246
9531.000000;0.953250
9530.000000;0.952601
9529.000000;0.952266
9528.000000;0.952199
9527.000000;0.952265
9526.000000;0.952166
9525.000000;0.951876
9524.000000;0.951860
9523.000000;0.952368
9522.000000;0.952734
9521.000000;0.951937
9520.000000;0.949896
9519.000000;0.947739
9518.000000;0.946680
9517.000000;0.946983
9516.000000;0.948105
9515.000000;0.949429
9514.000000;0.950562
9513.000000;0.951185
9512.000000;0.950971
9511.000000;0.949821
9510.000000;0.948125
9509.000000;0.946709
9508.000000;0.946309
9507.000000;0.946884
9506.000000;0.947507
9505.000000;0.947177
9504.000000;0.945810
9503.000000;0.944314
9502.000000;0.943625
9501.000000;0.943817
9500.000000;0.944208
9499.000000;0.944199
9498.000000;0.943865
9497.000000;0.943751
9496.000000;0.944223
9495.000000;0.945114
9494.000000;0.945954
9493.000000;0.946417
9492.000000;0.946465
9491.000000;0.946209
9490.000000;0.945806
9489.000000;0.945439
9488.000000;0.945204
9487.000000;0.944970
9486.000000;0.944504
9485.000000;0.943781
9484.000000;0.943020
9483.000000;0.942394
9482.000000;0.941863
9481.000000;0.941359
9480.000000;0.940903
9479.000000;0.940476
9478.000000;0.939975
9477.000000;0.939448
9476.000000;0.939167
9475.000000;0.939333
9474.000000;0.939838
9473.000000;0.940397
9472.000000;0.940718
9471.000000;0.940439
9470.000000;0.939276
9469.000000;0.937522
9468.000000;0.936133
9467.000000;0.935917
9466.000000;0.936711
9465.000000;0.937695
9464.000000;0.938333
9463.000000;0.938612
9462.000000;0.938511
9461.000000;0.937831
9460.000000;0.936704
9459.000000;0.935775
9458.000000;0.935566
9457.000000;0.935953
9456.000000;0.936505
9455.000000;0.937076
9454.000000;0.937748
9453.000000;0.938374
9452.000000;0.938523
9451.000000;0.937934
9450.000000;0.936779
9449.000000;0.935485
9448.000000;0.934433
9447.000000;0.933859
9446.000000;0.933823
9445.000000;0.934191
9444.000000;0.934681
9443.000000;0.934987
9442.000000;0.934874
9441.000000;0.934268
9440.000000;0.933380
9439.000000;0.932756
9438.000000;0.932955
9437.000000;0.933995
9436.000000;0.935139
9435.000000;0.935434
9434.000000;0.934539
9433.000000;0.932938
9432.000000;0.931373
9431.000000;0.930263
9430.000000;0.929710
9429.000000;0.929761
9428.000000;0.930336
9427.000000;0.931025
9426.000000;0.931319
9425.000000;0.931111
9424.000000;0.930710
9423.000000;0.930357
9422.000000;0.930056
9421.000000;0.929898
9420.000000;0.930127
9419.000000;0.930603
9418.000000;0.930610
9417.000000;0.929627
9416.000000;0.928130
9415.000000;0.927136
9414.000000;0.927052
9413.000000;0.927386
9412.000000;0.927566
9411.000000;0.927547
9410.000000;0.927511
9409.000000;0.927359
9408.000000;0.926853
9407.000000;0.926111
9406.000000;0.925643
9405.000000;0.925793
9404.000000;0.926279
9403.000000;0.926392
9402.000000;0.925683
9401.000000;0.924439
9400.000000;0.923429
9399.000000;0.923161
9398.000000;0.923425
9397.000000;0.923566
9396.000000;0.923143
9395.000000;0.922281
9394.000000;0.921542
9393.000000;0.921528
9392.000000;0.922446
9391.000000;0.923813
9390.000000;0.924713
9389.000000;0.924593
9388.000000;0.923775
9387.000000;0.923058
9386.000000;0.922878
9385.000000;0.923047
9384.000000;0.923156
9383.000000;0.922934
9382.000000;0.922220
9381.000000;0.920989
9380.000000;0.919519
9379.000000;0.918316
9378.000000;0.917722
9377.000000;0.917731
9376.000000;0.918194
9375.000000;0.918941
9374.000000;0.919661
9373.000000;0.919981
9372.000000;0.919873
9371.000000;0.919731
9370.000000;0.919836
9369.000000;0.919954
9368.000000;0.919704
9367.000000;0.919143
9366.000000;0.918692
9365.000000;0.918539
9364.000000;0.918441
9363.000000;0.918129
9362.000000;0.917680
9361.000000;0.917394
9360.000000;0.917446
9359.000000;0.917759
9358.000000;0.918078
9357.000000;0.918053
9356.000000;0.917360
9355.000000;0.915965
9354.000000;0.914313
9353.000000;0.913166
9352.000000;0.913038
9351.000000;0.913697
9350.000000;0.914328
9349.000000;0.914279
9348.000000;0.913666
9347.000000;0.913179
9346.000000;0.913299
9345.000000;0.913864
9344.000000;0.914370
9343.000000;0.914547
9342.000000;0.914519
9341.000000;0.914496
9340.000000;0.914440
9339.000000;0.914052
9338.000000;0.913067
9337.000000;0.911605
9336.000000;0.910202
9335.000000;0.909420
9334.000000;0.909406
9333.000000;0.909868
9332.000000;0.910426
9331.000000;0.910866
9330.000000;0.911081
9329.000000;0.910999
9328.000000;0.910725
9327.000000;0.910607
9326.000000;0.910965
9325.000000;0.911725
9324.000000;0.912442
9323.000000;0.912662
9322.000000;0.912226
9321.000000;0.911330
9320.000000;0.910414
9319.000000;0.909927
9318.000000;0.909941
9317.000000;0.909980
9316.000000;0.909397
9315.000000;0.908057
9314.000000;0.906542
9313.000000;0.905613
9312.000000;0.905521
9311.000000;0.905932
9310.000000;0.906405
9309.000000;0.906719
9308.000000;0.906750
9307.000000;0.906337
9306.000000;0.905467
9305.000000;0.904455
9304.000000;0.903753
9303.000000;0.903591
9302.000000;0.903939
9301.000000;0.904711
9300.000000;0.905756
9299.000000;0.906715
9298.000000;0.907203
9297.000000;0.907209
9296.000000;0.907086
9295.000000;0.906996
9294.000000;0.906585
9293.000000;0.905455
9292.000000;0.903807
9291.000000;0.902393
9290.000000;0.901900
9289.000000;0.902515
9288.000000;0.903891
9287.000000;0.905312
9286.000000;0.906030
9285.000000;0.905754
9284.000000;0.904917
9283.000000;0.904293
9282.000000;0.904377
9281.000000;0.905159
9280.000000;0.906236
9279.000000;0.906915
9278.000000;0.906484
9277.000000;0.904875
9276.000000;0.903006
9275.000000;0.901984
9274.000000;0.901924
9273.000000;0.901960
9272.000000;0.901441
9271.000000;0.900648
9270.000000;0.900165
9269.000000;0.900075
9268.000000;0.900110
9267.000000;0.900165
9266.000000;0.900192
9265.000000;0.899875
9264.000000;0.898934
9263.000000;0.897699
9262.000000;0.896948
9261.000000;0.897124
9260.000000;0.897936
9259.000000;0.898687
9258.000000;0.898795
9257.000000;0.898129
9256.000000;0.897124
9255.000000;0.896515
9254.000000;0.896663
9253.000000;0.897171
9252.000000;0.897365
9251.000000;0.897086
9250.000000;0.896669
9249.000000;0.896238
9248.000000;0.895501
9247.000000;0.894344
9246.000000;0.893224
9245.000000;0.892722
9244.000000;0.892963
9243.000000;0.893689
9242.000000;0.894668
9241.000000;0.895784
9240.000000;0.896830
9239.000000;0.897482
9238.000000;0.897508
9237.000000;0.896938
9236.000000;0.896084
9235.000000;0.895429
9234.000000;0.895333
9233.000000;0.895700
9232.000000;0.895996
9231.000000;0.895762
9230.000000;0.895043
9229.000000;0.894225
9228.000000;0.893583
9227.000000;0.893166
9226.000000;0.893028
9225.000000;0.893289
9224.000000;0.893945
9223.000000;0.894763
9222.000000;0.895468
9221.000000;0.895873
9220.000000;0.895790
9219.000000;0.895000
9218.000000;0.893509
9217.000000;0.891762
9216.000000;0.890385
9215.000000;0.889696
9214.000000;0.889580
9213.000000;0.889846
9212.000000;0.890518
9211.000000;0.891611
9210.000000;0.892724
9209.000000;0.893186
9208.000000;0.892752
9207.000000;0.891955
9206.000000;0.891551
9205.000000;0.891665
9204.000000;0.891738
9203.000000;0.891345
9202.000000;0.890778
9201.000000;0.890693
9200.000000;0.891328
9199.000000;0.892282
9198.000000;0.892957
9197.000000;0.893003
9196.000000;0.892362
9195.000000;0.891216
9194.000000;0.890010
9193.000000;0.889303
9192.000000;0.889281
9191.000000;0.889458
9190.000000;0.889111
9189.000000;0.888129
9188.000000;0.887215
9187.000000;0.887118
9186.000000;0.887762
9185.000000;0.888343
9184.000000;0.888247
9183.000000;0.887661
9182.000000;0.887194
9181.000000;0.887090
9180.000000;0.887016
9179.000000;0.886541
9178.000000;0.885634
9177.000000;0.884678
9176.000000;0.884098
9175.000000;0.884025
9174.000000;0.884264
9173.000000;0.884527
9172.000000;0.884717
9171.000000;0.884954
9170.000000;0.885293
9169.000000;0.885525
9168.000000;0.885397
9167.000000;0.884999
9166.000000;0.884751
9165.000000;0.884914
9164.000000;0.885226
9163.000000;0.885168
9162.000000;0.884538
9161.000000;0.883654
9160.000000;0.883012
9159.000000;0.882875
9158.000000;0.883187
9157.000000;0.883744
9156.000000;0.884334
9155.000000;0.884768
9154.000000;0.884889
9153.000000;0.884681
9152.000000;0.884351
9151.000000;0.884220
9150.000000;0.884444
9149.000000;0.884845
9148.000000;0.885054
9147.000000;0.884849
9146.000000;0.884305
9145.000000;0.883651
9144.000000;0.883101
9143.000000;0.882803
9142.000000;0.882782
9141.000000;0.882830
9140.000000;0.882616
9139.000000;0.882065
9138.000000;0.881529
9137.000000;0.881397
9136.000000;0.881570
9135.000000;0.881572
9134.000000;0.881166
9133.000000;0.880649
9132.000000;0.880434
9131.000000;0.880566
9130.000000;0.880793
9129.000000;0.880907
9128.000000;0.880822
9127.000000;0.880454
9126.000000;0.879836
9125.000000;0.879326
9124.000000;0.879461
9123.000000;0.880428
9122.000000;0.881779
9121.000000;0.882771
9120.000000;0.882969
9119.000000;0.882527
9118.000000;0.881981
9117.000000;0.881797
9116.000000;0.881999
9115.000000;0.882155
9114.000000;0.881755
9113.000000;0.880710
9112.000000;0.879456
9111.000000;0.878536
9110.000000;0.878124
9109.000000;0.877981
9108.000000;0.877822
9107.000000;0.877632
9106.000000;0.877629
9105.000000;0.877953
9104.000000;0.878486
9103.000000;0.878964
9102.000000;0.879233
9101.000000;0.879327
9100.000000;0.879320
9099.000000;0.879234
9098.000000;0.879111
9097.000000;0.879007
9096.000000;0.878871
9095.000000;0.878601
9094.000000;0.878321
9093.000000;0.878389
9092.000000;0.878857
9091.000000;0.879089
9090.000000;0.878333
9089.000000;0.876717
9088.000000;0.875286
9087.000000;0.874898
9086.000000;0.875398
9085.000000;0.876036
9084.000000;0.876336
9083.000000;0.876282
9082.000000;0.875944
9081.000000;0.875364
9080.000000;0.874778
9079.000000;0.874522
9078.000000;0.874660
9077.000000;0.874957
9076.000000;0.875275
9075.000000;0.875716
9074.000000;0.876295
9073.000000;0.876689
9072.000000;0.876511
9071.000000;0.875749
9070.000000;0.874851
9069.000000;0.874425
9068.000000;0.874835
9067.000000;0.875923
9066.000000;0.877048
9065.000000;0.877549
9064.000000;0.877260
9063.000000;0.876529
9062.000000;0.875748
9061.000000;0.874999
9060.000000;0.874223
9059.000000;0.873534
9058.000000;0.873190
9057.000000;0.873277
9056.000000;0.873547
9055.000000;0.873614
9054.000000;0.873296
9053.000000;0.872782
