Criado como novo conjunto de dados;"e0108.spp","-4212881.0 Secs"
cm-1;Abs
10000.000000;1.175129
9999.000000;1.175571
9998.000000;1.175263
9997.000000;1.173549
9996.000000;1.170387
9995.000000;1.166836
9994.000000;1.164626
9993.000000;1.164733
9992.000000;1.166653
9991.000000;1.168940
9990.000000;1.170399
9989.000000;1.170598
9988.000000;1.169584
9987.000000;1.167743
9986.000000;1.166012
9985.000000;1.165489
9984.000000;1.166276
9983.000000;1.167066
9982.000000;1.166521
9981.000000;1.164850
9980.000000;1.163318
9979.000000;1.162450
9978.000000;1.161687
9977.000000;1.160816
9976.000000;1.160610
9975.000000;1.161504
9974.000000;1.162571
9973.000000;1.162723
9972.000000;1.162343
9971.000000;1.162638
9970.000000;1.163718
9969.000000;1.164372
9968.000000;1.163691
9967.000000;1.161968
9966.000000;1.159829
9965.000000;1.157501
9964.000000;1.155436
9963.000000;1.154796
9962.000000;1.156416
9961.000000;1.159500
9960.000000;1.161940
9959.000000;1.162071
9958.000000;1.159948
9957.000000;1.156981
9956.000000;1.154663
9955.000000;1.153702
9954.000000;1.153936
9953.000000;1.154774
9952.000000;1.155642
9951.000000;1.156114
9950.000000;1.155885
9949.000000;1.154967
9948.000000;1.153880
9947.000000;1.153386
9946.000000;1.153877
9945.000000;1.155066
9944.000000;1.156327
9943.000000;1.157168
9942.000000;1.157344
9941.000000;1.156748
9940.000000;1.155460
9939.000000;1.153869
9938.000000;1.152586
9937.000000;1.152118
9936.000000;1.152445
9935.000000;1.152902
9934.000000;1.152606
9933.000000;1.151233
9932.000000;1.149370
9931.000000;1.147922
9930.000000;1.147157
9929.000000;1.146528
9928.000000;1.145513
9927.000000;1.144457
9926.000000;1.144310
9925.000000;1.145482
9924.000000;1.146997
9923.000000;1.147032
9922.000000;1.144621
9921.000000;1.140822
9920.000000;1.137899
9919.000000;1.137292
9918.000000;1.138484
9917.000000;1.139775
9916.000000;1.139928
9915.000000;1.138899
9914.000000;1.137332
9913.000000;1.135959
9912.000000;1.135293
9911.000000;1.135370
9910.000000;1.135648
9909.000000;1.135423
9908.000000;1.134536
9907.000000;1.133485
9906.000000;1.132794
9905.000000;1.132574
9904.000000;1.132713
9903.000000;1.133171
9902.000000;1.133844
9901.000000;1.134353
9900.000000;1.134256
9899.000000;1.133479
9898.000000;1.132509
9897.000000;1.132131
9896.000000;1.132810
9895.000000;1.134125
9894.000000;1.134944
9893.000000;1.134414
9892.000000;1.132742
9891.000000;1.130794
9890.000000;1.129127
9889.000000;1.127768
9888.000000;1.126768
9887.000000;1.126398
9886.000000;1.126665
9885.000000;1.127045
9884.000000;1.126932
9883.000000;1.126161
9882.000000;1.124923
9881.000000;1.123422
9880.000000;1.121842
9879.000000;1.120482
9878.000000;1.119686
9877.000000;1.119614
9876.000000;1.120105
9875.000000;1.120762
9874.000000;1.121234
9873.000000;1.121489
9872.000000;1.121728
9871.000000;1.121966
9870.000000;1.121948
9869.000000;1.121562
9868.000000;1.121028
9867.000000;1.120390
9866.000000;1.119210
9865.000000;1.117300
9864.000000;1.115519
9863.000000;1.115144
9862.000000;1.116394
9861.000000;1.118089
9860.000000;1.118914
9859.000000;1.118597
9858.000000;1.117721
9857.000000;1.116964
9856.000000;1.116760
9855.000000;1.117161
9854.000000;1.117625
9853.000000;1.117315
9852.000000;1.116022
9851.000000;1.114486
9850.000000;1.113503
9849.000000;1.113033
9848.000000;1.112564
9847.000000;1.112034
9846.000000;1.111870
9845.000000;1.112216
9844.000000;1.112631
9843.000000;1.112662
9842.000000;1.112287
9841.000000;1.111580
9840.000000;1.110366
9839.000000;1.108597
9838.000000;1.106913
9837.000000;1.106388
9836.000000;1.107411
9835.000000;1.108967
9834.000000;1.109429
9833.000000;1.108213
9832.000000;1.106427
9831.000000;1.105740
9830.000000;1.106801
9829.000000;1.108826
9828.000000;1.110479
9827.000000;1.110953
9826.000000;1.110404
9825.000000;1.109643
9824.000000;1.109349
9823.000000;1.109356
9822.000000;1.108850
9821.000000;1.107389
9820.000000;1.105424
9819.000000;1.103606
9818.000000;1.102057
9817.000000;1.100775
9816.000000;1.100274
9815.000000;1.101104
9814.000000;1.102734
9813.000000;1.103665
9812.000000;1.103036
9811.000000;1.101591
9810.000000;1.100729
9809.000000;1.101061
9808.000000;1.102160
9807.000000;1.103196
9806.000000;1.103427
9805.000000;1.102472
9804.000000;1.100587
9803.000000;1.098614
9802.000000;1.097351
9801.000000;1.096960
9800.000000;1.096981
9799.000000;1.096799
9798.000000;1.096087
9797.000000;1.095012
9796.000000;1.094110
9795.000000;1.093802
9794.000000;1.093946
9793.000000;1.093977
9792.000000;1.093463
9791.000000;1.092398
9790.000000;1.091117
9789.000000;1.090203
9788.000000;1.090332
9787.000000;1.091708
9786.000000;1.093587
9785.000000;1.094779
9784.000000;1.094660
9783.000000;1.093421
9782.000000;1.091547
9781.000000;1.089501
9780.000000;1.087771
9779.000000;1.086580
9778.000000;1.085490
9777.000000;1.083946
9776.000000;1.082317
9775.000000;1.081710
9774.000000;1.082588
9773.000000;1.084264
9772.000000;1.085996
9771.000000;1.087751
9770.000000;1.089377
9769.000000;1.089885
9768.000000;1.088451
9767.000000;1.085804
9766.000000;1.083733
9765.000000;1.083329
9764.000000;1.084183
9763.000000;1.085143
9762.000000;1.085342
9761.000000;1.084621
9760.000000;1.083495
9759.000000;1.082725
9758.000000;1.082542
9757.000000;1.082296
9756.000000;1.081159
9755.000000;1.079160
9754.000000;1.077205
9753.000000;1.076176
9752.000000;1.076233
9751.000000;1.076879
9750.000000;1.077396
9749.000000;1.077265
9748.000000;1.076434
9747.000000;1.075300
9746.000000;1.074361
9745.000000;1.073895
9744.000000;1.073946
9743.000000;1.074410
9742.000000;1.075046
9741.000000;1.075582
9740.000000;1.075916
9739.000000;1.076061
9738.000000;1.075909
9737.000000;1.075365
9736.000000;1.074732
9735.000000;1.074536
9734.000000;1.074841
9733.000000;1.075165
9732.000000;1.075158
9731.000000;1.074858
9730.000000;1.074196
9729.000000;1.072974
9728.000000;1.071573
9727.000000;1.070931
9726.000000;1.071296
9725.000000;1.071622
9724.000000;1.070815
9723.000000;1.069190
9722.000000;1.067949
9721.000000;1.067562
9720.000000;1.067429
9719.000000;1.066916
9718.000000;1.065972
9717.000000;1.064852
9716.000000;1.063893
9715.000000;1.063484
9714.000000;1.063602
9713.000000;1.063458
9712.000000;1.062316
9711.000000;1.060701
9710.000000;1.060048
9709.000000;1.061002
9708.000000;1.062658
9707.000000;1.063626
9706.000000;1.063300
9705.000000;1.061899
9704.000000;1.059940
9703.000000;1.058090
9702.000000;1.057092
9701.000000;1.057275
9700.000000;1.058145
9699.000000;1.058694
9698.000000;1.058187
9697.000000;1.056720
9696.000000;1.055199
9695.000000;1.054705
9694.000000;1.055555
9693.000000;1.056911
9692.000000;1.057553
9691.000000;1.057056
9690.000000;1.055936
9689.000000;1.054805
9688.000000;1.053867
9687.000000;1.053229
9686.000000;1.053101
9685.000000;1.053462
9684.000000;1.053941
9683.000000;1.054250
9682.000000;1.054455
9681.000000;1.054690
9680.000000;1.054899
9679.000000;1.054995
9678.000000;1.054898
9677.000000;1.054272
9676.000000;1.052709
9675.000000;1.050485
9674.000000;1.048659
9673.000000;1.047967
9672.000000;1.047928
9671.000000;1.047488
9670.000000;1.046372
9669.000000;1.045315
9668.000000;1.045037
9667.000000;1.045493
9666.000000;1.046222
9665.000000;1.046949
9664.000000;1.047547
9663.000000;1.047691
9662.000000;1.046942
9661.000000;1.045281
9660.000000;1.043415
9659.000000;1.042238
9658.000000;1.041946
9657.000000;1.041898
9656.000000;1.041486
9655.000000;1.040958
9654.000000;1.041069
9653.000000;1.042040
9652.000000;1.043240
9651.000000;1.043977
9650.000000;1.044267
9649.000000;1.044538
9648.000000;1.044918
9647.000000;1.045076
9646.000000;1.044545
9645.000000;1.043109
9644.000000;1.041049
9643.000000;1.039120
9642.000000;1.038080
9641.000000;1.038040
9640.000000;1.038349
9639.000000;1.038280
9638.000000;1.037704
9637.000000;1.036984
9636.000000;1.036487
9635.000000;1.036442
9634.000000;1.036994
9633.000000;1.038002
9632.000000;1.038882
9631.000000;1.039074
9630.000000;1.038657
9629.000000;1.038142
9628.000000;1.037707
9627.000000;1.037069
9626.000000;1.036154
9625.000000;1.035392
9624.000000;1.035136
9623.000000;1.035144
9622.000000;1.034939
9621.000000;1.034439
9620.000000;1.033956
9619.000000;1.033728
9618.000000;1.033722
9617.000000;1.033797
9616.000000;1.033757
9615.000000;1.033293
9614.000000;1.032155
9613.000000;1.030456
9612.000000;1.028644
9611.000000;1.027104
9610.000000;1.025894
9609.000000;1.024884
9608.000000;1.024008
9607.000000;1.023426
9606.000000;1.023478
9605.000000;1.024433
9604.000000;1.026152
9603.000000;1.028045
9602.000000;1.029443
9601.000000;1.030009
9600.000000;1.029730
9599.000000;1.028691
9598.000000;1.027056
9597.000000;1.025135
9596.000000;1.023204
9595.000000;1.021344
9594.000000;1.019736
9593.000000;1.018991
9592.000000;1.019659
9591.000000;1.021256
9590.000000;1.022247
9589.000000;1.021445
9588.000000;1.019280
9587.000000;1.017340
9586.000000;1.016803
9585.000000;1.017681
9584.000000;1.019351
9583.000000;1.021218
9582.000000;1.022686
9581.000000;1.023070
9580.000000;1.022097
9579.000000;1.020407
9578.000000;1.019178
9577.000000;1.019121
9576.000000;1.019906
9575.000000;1.020510
9574.000000;1.020074
9573.000000;1.018569
9572.000000;1.016832
9571.000000;1.015969
9570.000000;1.016427
9569.000000;1.017470
9568.000000;1.017664
9567.000000;1.016150
9566.000000;1.013515
9565.000000;1.011293
9564.000000;1.010656
9563.000000;1.011641
9562.000000;1.013403
9561.000000;1.014916
9560.000000;1.015459
9559.000000;1.014810
9558.000000;1.013317
9557.000000;1.011741
9556.000000;1.010789
9555.000000;1.010724
9554.000000;1.011371
9553.000000;1.012361
9552.000000;1.013299
9551.000000;1.013883
9550.000000;1.014032
9549.000000;1.013787
9548.000000;1.012972
9547.000000;1.011212
9546.000000;1.008555
9545.000000;1.005859
9544.000000;1.004189
9543.000000;1.003898
9542.000000;1.004543
9541.000000;1.005518
9540.000000;1.006404
9539.000000;1.006800
9538.000000;1.006442
9537.000000;1.005647
9536.000000;1.005166
9535.000000;1.005363
9534.000000;1.005906
9533.000000;1.006379
9532.000000;1.006741
9531.000000;1.006940
9530.000000;1.006559
9529.000000;1.005357
9528.000000;1.003912
9527.000000;1.003192
9526.000000;1.003566
9525.000000;1.004509
9524.000000;1.005155
9523.000000;1.004890
9522.000000;1.003617
9521.000000;1.001722
9520.000000;0.999827
9519.000000;0.998400
9518.000000;0.997560
9517.000000;0.997396
9516.000000;0.998091
9515.000000;0.999361
9514.000000;1.000200
9513.000000;0.999754
9512.000000;0.998320
9511.000000;0.997046
9510.000000;0.996746
9509.000000;0.997372
9508.000000;0.998360
9507.000000;0.998975
9506.000000;0.998503
9505.000000;0.996765
9504.000000;0.994610
9503.000000;0.993349
9502.000000;0.993449
9501.000000;0.994053
9500.000000;0.993960
9499.000000;0.992859
9498.000000;0.991455
9497.000000;0.990668
9496.000000;0.990886
9495.000000;0.991832
9494.000000;0.992920
9493.000000;0.993760
9492.000000;0.994294
9491.000000;0.994435
9490.000000;0.993825
9489.000000;0.992239
9488.000000;0.990146
9487.000000;0.988483
9486.000000;0.987863
9485.000000;0.988188
9484.000000;0.988887
9483.000000;0.989286
9482.000000;0.988964
9481.000000;0.988199
9480.000000;0.987936
9479.000000;0.988791
9478.000000;0.990050
9477.000000;0.990196
9476.000000;0.988710
9475.000000;0.986832
9474.000000;0.986147
9473.000000;0.986899
9472.000000;0.988040
9471.000000;0.988540
9470.000000;0.988194
9469.000000;0.987274
9468.000000;0.985956
9467.000000;0.984342
9466.000000;0.982820
9465.000000;0.982027
9464.000000;0.982292
9463.000000;0.983169
9462.000000;0.983721
9461.000000;0.983445
9460.000000;0.982789
9459.000000;0.982495
9458.000000;0.982635
9457.000000;0.982663
9456.000000;0.982241
9455.000000;0.981564
9454.000000;0.980913
9453.000000;0.980382
9452.000000;0.980149
9451.000000;0.980417
9450.000000;0.980850
9449.000000;0.980599
9448.000000;0.979300
9447.000000;0.977703
9446.000000;0.976878
9445.000000;0.977036
9444.000000;0.977519
9443.000000;0.977765
9442.000000;0.977824
9441.000000;0.977987
9440.000000;0.978316
9439.000000;0.978651
9438.000000;0.978783
9437.000000;0.978477
9436.000000;0.977501
9435.000000;0.975826
9434.000000;0.973830
9433.000000;0.972259
9432.000000;0.971839
9431.000000;0.972706
9430.000000;0.974174
9429.000000;0.975213
9428.000000;0.975267
9427.000000;0.974592
9426.000000;0.973826
9425.000000;0.973329
9424.000000;0.972969
9423.000000;0.972432
9422.000000;0.971673
9421.000000;0.971065
9420.000000;0.971028
9419.000000;0.971454
9418.000000;0.971691
9417.000000;0.971326
9416.000000;0.970789
9415.000000;0.970784
9414.000000;0.971234
9413.000000;0.971265
9412.000000;0.970314
9411.000000;0.968822
9410.000000;0.967660
9409.000000;0.967251
9408.000000;0.967470
9407.000000;0.968005
9406.000000;0.968548
9405.000000;0.968917
9404.000000;0.969263
9403.000000;0.969882
9402.000000;0.970654
9401.000000;0.970961
9400.000000;0.970424
9399.000000;0.969421
9398.000000;0.968511
9397.000000;0.967610
9396.000000;0.966241
9395.000000;0.964497
9394.000000;0.963229
9393.000000;0.963141
9392.000000;0.964049
9391.000000;0.965151
9390.000000;0.965783
9389.000000;0.965804
9388.000000;0.965406
9387.000000;0.964783
9386.000000;0.963960
9385.000000;0.962878
9384.000000;0.961619
9383.000000;0.960524
9382.000000;0.959987
9381.000000;0.960102
9380.000000;0.960553
9379.000000;0.960851
9378.000000;0.960699
9377.000000;0.960156
9376.000000;0.959485
9375.000000;0.958895
9374.000000;0.958431
9373.000000;0.958077
9372.000000;0.957851
9371.000000;0.957738
9370.000000;0.957610
9369.000000;0.957313
9368.000000;0.956793
9367.000000;0.956130
9366.000000;0.955599
9365.000000;0.955741
9364.000000;0.957038
9363.000000;0.959146
9362.000000;0.960651
9361.000000;0.960154
9360.000000;0.957733
9359.000000;0.954939
9358.000000;0.953296
9357.000000;0.953130
9356.000000;0.953782
9355.000000;0.954466
9354.000000;0.954790
9353.000000;0.954820
9352.000000;0.954891
9351.000000;0.955120
9350.000000;0.954997
9349.000000;0.953773
9348.000000;0.951471
9347.000000;0.949173
9346.000000;0.948065
9345.000000;0.948430
9344.000000;0.949682
9343.000000;0.951054
9342.000000;0.951979
9341.000000;0.952130
9340.000000;0.951553
9339.000000;0.950698
9338.000000;0.950051
9337.000000;0.949793
9336.000000;0.949955
9335.000000;0.950623
9334.000000;0.951705
9333.000000;0.952742
9332.000000;0.953279
9331.000000;0.953326
9330.000000;0.953105
9329.000000;0.952539
9328.000000;0.951385
9327.000000;0.949744
9326.000000;0.948026
9325.000000;0.946498
9324.000000;0.945222
9323.000000;0.944394
9322.000000;0.944347
9321.000000;0.945098
9320.000000;0.946153
9319.000000;0.946811
9318.000000;0.946559
9317.000000;0.945334
9316.000000;0.943649
9315.000000;0.942359
9314.000000;0.941930
9313.000000;0.941948
9312.000000;0.941641
9311.000000;0.940854
9310.000000;0.940130
9309.000000;0.939844
9308.000000;0.939774
9307.000000;0.939669
9306.000000;0.939779
9305.000000;0.940473
9304.000000;0.941631
9303.000000;0.942722
9302.000000;0.943319
9301.000000;0.943297
9300.000000;0.942707
9299.000000;0.941737
9298.000000;0.940674
9297.000000;0.939712
9296.000000;0.938872
9295.000000;0.938215
9294.000000;0.937883
9293.000000;0.937723
9292.000000;0.937157
9291.000000;0.935831
9290.000000;0.934298
9289.000000;0.933586
9288.000000;0.934048
9287.000000;0.935017
9286.000000;0.935713
9285.000000;0.936085
9284.000000;0.936533
9283.000000;0.937142
9282.000000;0.937566
9281.000000;0.937554
9280.000000;0.937194
9279.000000;0.936692
9278.000000;0.936167
9277.000000;0.935716
9276.000000;0.935402
9275.000000;0.935153
9274.000000;0.934903
9273.000000;0.934845
9272.000000;0.935261
9271.000000;0.935967
9270.000000;0.936221
9269.000000;0.935499
9268.000000;0.934221
9267.000000;0.933406
9266.000000;0.933572
9265.000000;0.934175
9264.000000;0.934218
9263.000000;0.933368
9262.000000;0.932394
9261.000000;0.932408
9260.000000;0.933621
9259.000000;0.934917
9258.000000;0.934844
9257.000000;0.933060
9256.000000;0.930568
9255.000000;0.928544
9254.000000;0.927365
9253.000000;0.926875
9252.000000;0.927075
9251.000000;0.928005
9250.000000;0.929181
9249.000000;0.929816
9248.000000;0.929664
9247.000000;0.929207
9246.000000;0.928901
9245.000000;0.928706
9244.000000;0.928524
9243.000000;0.928587
9242.000000;0.929025
9241.000000;0.929368
9240.000000;0.928986
9239.000000;0.927945
9238.000000;0.927035
9237.000000;0.926841
9236.000000;0.927080
9235.000000;0.927036
9234.000000;0.926512
9233.000000;0.926112
9232.000000;0.926472
9231.000000;0.927384
9230.000000;0.927899
9229.000000;0.927361
9228.000000;0.926120
9227.000000;0.925066
9226.000000;0.924679
9225.000000;0.924743
9224.000000;0.924794
9223.000000;0.924543
9222.000000;0.923962
9221.000000;0.923281
9220.000000;0.922862
9219.000000;0.922806
9218.000000;0.922757
9217.000000;0.922495
9216.000000;0.922570
9215.000000;0.923774
9214.000000;0.925849
9213.000000;0.927295
9212.000000;0.926847
9211.000000;0.924821
9210.000000;0.922623
9209.000000;0.921316
9208.000000;0.921054
9207.000000;0.921529
9206.000000;0.922359
9205.000000;0.923094
9204.000000;0.923319
9203.000000;0.922889
9202.000000;0.921935
9201.000000;0.920719
9200.000000;0.919606
9199.000000;0.919009
9198.000000;0.919061
9197.000000;0.919414
9196.000000;0.919588
9195.000000;0.919454
9194.000000;0.919162
9193.000000;0.918788
9192.000000;0.918357
9191.000000;0.918091
9190.000000;0.918231
9189.000000;0.918611
9188.000000;0.918746
9187.000000;0.918439
9186.000000;0.918009
9185.000000;0.917841
9184.000000;0.917948
9183.000000;0.918089
9182.000000;0.918088
9181.000000;0.917873
9180.000000;0.917377
9179.000000;0.916557
9178.000000;0.915475
9177.000000;0.914304
9176.000000;0.913273
9175.000000;0.912589
9174.000000;0.912297
9173.000000;0.912239
9172.000000;0.912247
9171.000000;0.912368
9170.000000;0.912756
9169.000000;0.913342
9168.000000;0.913821
9167.000000;0.914023
9166.000000;0.914127
9165.000000;0.914337
9164.000000;0.914479
9163.000000;0.914097
9162.000000;0.912982
9161.000000;0.911507
9160.000000;0.910398
9159.000000;0.910199
9158.000000;0.910901
9157.000000;0.911981
9156.000000;0.912790
9155.000000;0.912967
9154.000000;0.912597
9153.000000;0.912007
9152.000000;0.911422
9151.000000;0.910838
9150.000000;0.910209
9149.000000;0.909679
9148.000000;0.909475
9147.000000;0.909539
9146.000000;0.909489
9145.000000;0.909090
9144.000000;0.908615
9143.000000;0.908466
9142.000000;0.908521
9141.000000;0.908209
9140.000000;0.907314
9139.000000;0.906368
9138.000000;0.906007
9137.000000;0.906192
9136.000000;0.906336
9135.000000;0.906072
9134.000000;0.905639
9133.000000;0.905539
9132.000000;0.905991
9131.000000;0.906735
9130.000000;0.907247
9129.000000;0.907188
9128.000000;0.906726
9127.000000;0.906319
9126.000000;0.906147
9125.000000;0.905944
9124.000000;0.905476
9123.000000;0.904938
9122.000000;0.904652
9121.000000;0.904580
9120.000000;0.904480
9119.000000;0.904368
9118.000000;0.904479
9117.000000;0.904783
9116.000000;0.904933
9115.000000;0.904762
9114.000000;0.904513
9113.000000;0.904428
9112.000000;0.904345
9111.000000;0.903891
9110.000000;0.902961
9109.000000;0.901874
9108.000000;0.901095
9107.000000;0.900884
9106.000000;0.901141
9105.000000;0.901552
9104.000000;0.901908
9103.000000;0.902230
9102.000000;0.902515
9101.000000;0.902503
9100.000000;0.901904
9099.000000;0.900799
9098.000000;0.899572
9097.000000;0.898514
9096.000000;0.897750
9095.000000;0.897473
9094.000000;0.897851
9093.000000;0.898623
9092.000000;0.899135
9091.000000;0.899033
9090.000000;0.898655
9089.000000;0.898562
9088.000000;0.898915
9087.000000;0.899526
9086.000000;0.900248
9085.000000;0.900994
9084.000000;0.901508
9083.000000;0.901455
9082.000000;0.900779
9081.000000;0.899780
9080.000000;0.898839
9079.000000;0.898219
9078.000000;0.898040
9077.000000;0.898188
9076.000000;0.898299
9075.000000;0.898087
9074.000000;0.897680
9073.000000;0.897406
9072.000000;0.897242
9071.000000;0.896800
9070.000000;0.895951
9069.000000;0.895199
9068.000000;0.895196
9067.000000;0.896025
9066.000000;0.897116
9065.000000;0.897786
9064.000000;0.897742
9063.000000;0.897202
9062.000000;0.896684
9061.000000;0.896575
9060.000000;0.896729
9059.000000;0.896559
9058.000000;0.895734
9057.000000;0.894728
9056.000000;0.894377
9055.000000;0.894861
9054.000000;0.895406
9053.000000;0.895159
