Criado como novo conjunto de dados;"e0108.spp","-4247263.1 Secs"
cm-1;Abs
10000.000000;1.000328
9999.000000;1.001765
9998.000000;1.003598
9997.000000;1.004834
9996.000000;1.004493
9995.000000;1.003038
9994.000000;1.001613
9993.000000;1.000568
9992.000000;0.999303
9991.000000;0.997782
9990.000000;0.996894
9989.000000;0.997098
9988.000000;0.997593
9987.000000;0.997419
9986.000000;0.996590
9985.000000;0.995507
9984.000000;0.993985
9983.000000;0.991711
9982.000000;0.989204
9981.000000;0.987427
9980.000000;0.986711
9979.000000;0.986777
9978.000000;0.987575
9977.000000;0.989267
9976.000000;0.991429
9975.000000;0.993107
9974.000000;0.993864
9973.000000;0.994113
9972.000000;0.994227
9971.000000;0.993947
9970.000000;0.992975
9969.000000;0.991677
9968.000000;0.990709
9967.000000;0.990199
9966.000000;0.989680
9965.000000;0.988758
9964.000000;0.987606
9963.000000;0.986773
9962.000000;0.986583
9961.000000;0.986762
9960.000000;0.986707
9959.000000;0.986158
9958.000000;0.985426
9957.000000;0.984851
9956.000000;0.984339
9955.000000;0.983756
9954.000000;0.983502
9953.000000;0.984094
9952.000000;0.985210
9951.000000;0.985735
9950.000000;0.984981
9949.000000;0.983440
9948.000000;0.982046
9947.000000;0.981122
9946.000000;0.980331
9945.000000;0.979369
9944.000000;0.978324
9943.000000;0.977478
9942.000000;0.977032
9941.000000;0.976958
9940.000000;0.977003
9939.000000;0.976924
9938.000000;0.976853
9937.000000;0.977238
9936.000000;0.978226
9935.000000;0.979279
9934.000000;0.979628
9933.000000;0.979070
9932.000000;0.978113
9931.000000;0.977417
9930.000000;0.977188
9929.000000;0.977072
9928.000000;0.976539
9927.000000;0.975475
9926.000000;0.974432
9925.000000;0.974107
9924.000000;0.974466
9923.000000;0.974570
9922.000000;0.973528
9921.000000;0.971519
9920.000000;0.969653
9919.000000;0.968914
9918.000000;0.969442
9917.000000;0.970698
9916.000000;0.971970
9915.000000;0.972700
9914.000000;0.972625
9913.000000;0.971812
9912.000000;0.970556
9911.000000;0.969212
9910.000000;0.968151
9909.000000;0.967741
9908.000000;0.968130
9907.000000;0.968981
9906.000000;0.969595
9905.000000;0.969463
9904.000000;0.968699
9903.000000;0.967877
9902.000000;0.967415
9901.000000;0.967144
9900.000000;0.966544
9899.000000;0.965443
9898.000000;0.964362
9897.000000;0.964048
9896.000000;0.964685
9895.000000;0.965692
9894.000000;0.966368
9893.000000;0.966527
9892.000000;0.966397
9891.000000;0.966137
9890.000000;0.965737
9889.000000;0.965253
9888.000000;0.964784
9887.000000;0.964174
9886.000000;0.963021
9885.000000;0.961180
9884.000000;0.959173
9883.000000;0.957956
9882.000000;0.958225
9881.000000;0.959816
9880.000000;0.961670
9879.000000;0.962516
9878.000000;0.961838
9877.000000;0.960181
9876.000000;0.958494
9875.000000;0.957284
9874.000000;0.956543
9873.000000;0.956233
9872.000000;0.956446
9871.000000;0.957013
9870.000000;0.957318
9869.000000;0.956747
9868.000000;0.955244
9867.000000;0.953305
9866.000000;0.951569
9865.000000;0.950467
9864.000000;0.950073
9863.000000;0.950102
9862.000000;0.950102
9861.000000;0.949824
9860.000000;0.949416
9859.000000;0.949171
9858.000000;0.949101
9857.000000;0.948857
9856.000000;0.948127
9855.000000;0.947123
9854.000000;0.946631
9853.000000;0.947394
9852.000000;0.949272
9851.000000;0.951068
9850.000000;0.951512
9849.000000;0.950565
9848.000000;0.949389
9847.000000;0.948923
9846.000000;0.948835
9845.000000;0.948158
9844.000000;0.946731
9843.000000;0.945513
9842.000000;0.945413
9841.000000;0.946233
9840.000000;0.946974
9839.000000;0.946948
9838.000000;0.946328
9837.000000;0.945675
9836.000000;0.945180
9835.000000;0.944516
9834.000000;0.943406
9833.000000;0.942193
9832.000000;0.941646
9831.000000;0.942175
9830.000000;0.943379
9829.000000;0.944499
9828.000000;0.945162
9827.000000;0.945447
9826.000000;0.945339
9825.000000;0.944548
9824.000000;0.942972
9823.000000;0.941025
9822.000000;0.939266
9821.000000;0.937929
9820.000000;0.937025
9819.000000;0.936673
9818.000000;0.936952
9817.000000;0.937492
9816.000000;0.937586
9815.000000;0.936880
9814.000000;0.935761
9813.000000;0.934902
9812.000000;0.934593
9811.000000;0.934648
9810.000000;0.934846
9809.000000;0.935225
9808.000000;0.935887
9807.000000;0.936659
9806.000000;0.937129
9805.000000;0.937018
9804.000000;0.936439
9803.000000;0.935798
9802.000000;0.935491
9801.000000;0.935650
9800.000000;0.936056
9799.000000;0.936199
9798.000000;0.935567
9797.000000;0.934173
9796.000000;0.932780
9795.000000;0.932364
9794.000000;0.933152
9793.000000;0.934288
9792.000000;0.934701
9791.000000;0.934240
9790.000000;0.933620
9789.000000;0.933301
9788.000000;0.932880
9787.000000;0.931778
9786.000000;0.930156
9785.000000;0.928687
9784.000000;0.927642
9783.000000;0.926714
9782.000000;0.925684
9781.000000;0.924755
9780.000000;0.924078
9779.000000;0.923448
9778.000000;0.922776
9777.000000;0.922535
9776.000000;0.923310
9775.000000;0.924966
9774.000000;0.926576
9773.000000;0.927209
9772.000000;0.926608
9771.000000;0.925203
9770.000000;0.923728
9769.000000;0.922836
9768.000000;0.922750
9767.000000;0.923100
9766.000000;0.923236
9765.000000;0.922879
9764.000000;0.922395
9763.000000;0.922359
9762.000000;0.922950
9761.000000;0.923777
9760.000000;0.924184
9759.000000;0.923677
9758.000000;0.922239
9757.000000;0.920340
9756.000000;0.918562
9755.000000;0.917197
9754.000000;0.916326
9753.000000;0.916201
9752.000000;0.917155
9751.000000;0.918983
9750.000000;0.920757
9749.000000;0.921589
9748.000000;0.921444
9747.000000;0.920898
9746.000000;0.920268
9745.000000;0.919412
9744.000000;0.918301
9743.000000;0.917270
9742.000000;0.916555
9741.000000;0.915953
9740.000000;0.915172
9739.000000;0.914262
9738.000000;0.913446
9737.000000;0.912722
9736.000000;0.911926
9735.000000;0.911144
9734.000000;0.910807
9733.000000;0.911250
9732.000000;0.912282
9731.000000;0.913251
9730.000000;0.913572
9729.000000;0.913269
9728.000000;0.912916
9727.000000;0.912937
9726.000000;0.913037
9725.000000;0.912539
9724.000000;0.911255
9723.000000;0.909718
9722.000000;0.908484
9721.000000;0.907598
9720.000000;0.906961
9719.000000;0.906775
9718.000000;0.907214
9717.000000;0.907882
9716.000000;0.908136
9715.000000;0.907873
9714.000000;0.907540
9713.000000;0.907413
9712.000000;0.907330
9711.000000;0.907180
9710.000000;0.907159
9709.000000;0.907338
9708.000000;0.907448
9707.000000;0.907372
9706.000000;0.907431
9705.000000;0.907826
9704.000000;0.908126
9703.000000;0.907740
9702.000000;0.906679
9701.000000;0.905388
9700.000000;0.904057
9699.000000;0.902613
9698.000000;0.901327
9697.000000;0.900885
9696.000000;0.901732
9695.000000;0.903610
9694.000000;0.905800
9693.000000;0.907517
9692.000000;0.908085
9691.000000;0.907175
9690.000000;0.905086
9689.000000;0.902600
9688.000000;0.900394
9687.000000;0.898772
9686.000000;0.897926
9685.000000;0.898017
9684.000000;0.898755
9683.000000;0.899310
9682.000000;0.899060
9681.000000;0.898238
9680.000000;0.897510
9679.000000;0.897085
9678.000000;0.896652
9677.000000;0.896117
9676.000000;0.895893
9675.000000;0.896247
9674.000000;0.896725
9673.000000;0.896552
9672.000000;0.895511
9671.000000;0.894183
9670.000000;0.893272
9669.000000;0.892879
9668.000000;0.892585
9667.000000;0.892220
9666.000000;0.892249
9665.000000;0.893141
9664.000000;0.894434
9663.000000;0.894849
9662.000000;0.893588
9661.000000;0.891315
9660.000000;0.889530
9659.000000;0.889075
9658.000000;0.889527
9657.000000;0.889965
9656.000000;0.889994
9655.000000;0.889894
9654.000000;0.889984
9653.000000;0.890113
9652.000000;0.889834
9651.000000;0.888982
9650.000000;0.887954
9649.000000;0.887339
9648.000000;0.887292
9647.000000;0.887418
9646.000000;0.887313
9645.000000;0.887039
9644.000000;0.886899
9643.000000;0.886917
9642.000000;0.886883
9641.000000;0.886788
9640.000000;0.886853
9639.000000;0.887051
9638.000000;0.886927
9637.000000;0.886132
9636.000000;0.884959
9635.000000;0.884122
9634.000000;0.884036
9633.000000;0.884456
9632.000000;0.884814
9631.000000;0.884830
9630.000000;0.884778
9629.000000;0.885119
9628.000000;0.885867
9627.000000;0.886434
9626.000000;0.886245
9625.000000;0.885421
9624.000000;0.884642
9623.000000;0.884375
9622.000000;0.884502
9621.000000;0.884706
9620.000000;0.884877
9619.000000;0.884966
9618.000000;0.884764
9617.000000;0.884117
9616.000000;0.883180
9615.000000;0.882143
9614.000000;0.880811
9613.000000;0.878869
9612.000000;0.876604
9611.000000;0.875011
9610.000000;0.874946
9609.000000;0.876282
9608.000000;0.878025
9607.000000;0.879224
9606.000000;0.879645
9605.000000;0.879604
9604.000000;0.879393
9603.000000;0.879053
9602.000000;0.878608
9601.000000;0.878238
9600.000000;0.878097
9599.000000;0.878080
9598.000000;0.877943
9597.000000;0.877610
9596.000000;0.877159
9595.000000;0.876537
9594.000000;0.875556
9593.000000;0.874233
9592.000000;0.872959
9591.000000;0.872169
9590.000000;0.871947
9589.000000;0.872047
9588.000000;0.872169
9587.000000;0.872110
9586.000000;0.871778
9585.000000;0.871260
9584.000000;0.870826
9583.000000;0.870712
9582.000000;0.870893
9581.000000;0.871118
9580.000000;0.871081
9579.000000;0.870565
9578.000000;0.869586
9577.000000;0.868464
9576.000000;0.867598
9575.000000;0.867035
9574.000000;0.866463
9573.000000;0.865775
9572.000000;0.865434
9571.000000;0.865928
9570.000000;0.866979
9569.000000;0.867637
9568.000000;0.867207
9567.000000;0.865891
9566.000000;0.864511
9565.000000;0.863870
9564.000000;0.864354
9563.000000;0.865760
9562.000000;0.867284
9561.000000;0.867975
9560.000000;0.867478
9559.000000;0.866243
9558.000000;0.864918
9557.000000;0.863756
9556.000000;0.862766
9555.000000;0.862160
9554.000000;0.862257
9553.000000;0.863001
9552.000000;0.863877
9551.000000;0.864375
9550.000000;0.864323
9549.000000;0.863794
9548.000000;0.862924
9547.000000;0.861911
9546.000000;0.860984
9545.000000;0.860231
9544.000000;0.859609
9543.000000;0.859248
9542.000000;0.859495
9541.000000;0.860399
9540.000000;0.861261
9539.000000;0.861130
9538.000000;0.859859
9537.000000;0.858406
9536.000000;0.857850
9535.000000;0.858287
9534.000000;0.858925
9533.000000;0.859119
9532.000000;0.858954
9531.000000;0.858766
9530.000000;0.858461
9529.000000;0.857618
9528.000000;0.856127
9527.000000;0.854493
9526.000000;0.853488
9525.000000;0.853613
9524.000000;0.854777
9523.000000;0.856269
9522.000000;0.857095
9521.000000;0.856657
9520.000000;0.855245
9519.000000;0.853766
9518.000000;0.852938
9517.000000;0.852818
9516.000000;0.853071
9515.000000;0.853429
9514.000000;0.853757
9513.000000;0.853891
9512.000000;0.853696
9511.000000;0.853287
9510.000000;0.852983
9509.000000;0.852967
9508.000000;0.853060
9507.000000;0.852890
9506.000000;0.852264
9505.000000;0.851398
9504.000000;0.850823
9503.000000;0.850975
9502.000000;0.851754
9501.000000;0.852552
9500.000000;0.852846
9499.000000;0.852701
9498.000000;0.852571
9497.000000;0.852671
9496.000000;0.852790
9495.000000;0.852689
9494.000000;0.852377
9493.000000;0.851868
9492.000000;0.850971
9491.000000;0.849625
9490.000000;0.848256
9489.000000;0.847458
9488.000000;0.847330
9487.000000;0.847409
9486.000000;0.847287
9485.000000;0.847043
9484.000000;0.847002
9483.000000;0.847320
9482.000000;0.847875
9481.000000;0.848324
9480.000000;0.848154
9479.000000;0.846979
9478.000000;0.845047
9477.000000;0.843268
9476.000000;0.842461
9475.000000;0.842626
9474.000000;0.843126
9473.000000;0.843446
9472.000000;0.843554
9471.000000;0.843612
9470.000000;0.843668
9469.000000;0.843663
9468.000000;0.843472
9467.000000;0.842947
9466.000000;0.842179
9465.000000;0.841697
9464.000000;0.842052
9463.000000;0.843102
9462.000000;0.844002
9461.000000;0.844056
9460.000000;0.843353
9459.000000;0.842411
9458.000000;0.841520
9457.000000;0.840725
9456.000000;0.840196
9455.000000;0.840191
9454.000000;0.840688
9453.000000;0.841329
9452.000000;0.841753
9451.000000;0.841810
9450.000000;0.841479
9449.000000;0.840821
9448.000000;0.840052
9447.000000;0.839464
9446.000000;0.839146
9445.000000;0.838888
9444.000000;0.838450
9443.000000;0.837893
9442.000000;0.837503
9441.000000;0.837366
9440.000000;0.837111
9439.000000;0.836249
9438.000000;0.834889
9437.000000;0.833895
9436.000000;0.834047
9435.000000;0.835135
9434.000000;0.836200
9433.000000;0.836673
9432.000000;0.836860
9431.000000;0.837135
9430.000000;0.837183
9429.000000;0.836519
9428.000000;0.835415
9427.000000;0.834685
9426.000000;0.834641
9425.000000;0.834792
9424.000000;0.834633
9423.000000;0.834231
9422.000000;0.833877
9421.000000;0.833593
9420.000000;0.833270
9419.000000;0.832994
9418.000000;0.832923
9417.000000;0.833005
9416.000000;0.833074
9415.000000;0.833139
9414.000000;0.833372
9413.000000;0.833851
9412.000000;0.834443
9411.000000;0.834853
9410.000000;0.834694
9409.000000;0.833689
9408.000000;0.832007
9407.000000;0.830329
9406.000000;0.829330
9405.000000;0.829049
9404.000000;0.828904
9403.000000;0.828376
9402.000000;0.827578
9401.000000;0.827049
9400.000000;0.827094
9399.000000;0.827452
9398.000000;0.827642
9397.000000;0.827513
9396.000000;0.827333
9395.000000;0.827377
9394.000000;0.827616
9393.000000;0.827892
9392.000000;0.828216
9391.000000;0.828676
9390.000000;0.829130
9389.000000;0.829195
9388.000000;0.828612
9387.000000;0.827515
9386.000000;0.826320
9385.000000;0.825405
9384.000000;0.824854
9383.000000;0.824460
9382.000000;0.824016
9381.000000;0.823654
9380.000000;0.823727
9379.000000;0.824226
9378.000000;0.824549
9377.000000;0.824182
9376.000000;0.823459
9375.000000;0.823250
9374.000000;0.823890
9373.000000;0.824845
9372.000000;0.825484
9371.000000;0.825769
9370.000000;0.825954
9369.000000;0.826068
9368.000000;0.826029
9367.000000;0.825950
9366.000000;0.825921
9365.000000;0.825632
9364.000000;0.824649
9363.000000;0.823029
9362.000000;0.821335
9361.000000;0.820066
9360.000000;0.819324
9359.000000;0.819011
9358.000000;0.819050
9357.000000;0.819339
9356.000000;0.819701
9355.000000;0.819965
9354.000000;0.820015
9353.000000;0.819816
9352.000000;0.819542
9351.000000;0.819561
9350.000000;0.820027
9349.000000;0.820483
9348.000000;0.820169
9347.000000;0.818912
9346.000000;0.817488
9345.000000;0.816912
9344.000000;0.817435
9343.000000;0.818330
9342.000000;0.818600
9341.000000;0.817824
9340.000000;0.816432
9339.000000;0.815282
9338.000000;0.814958
9337.000000;0.815391
9336.000000;0.816071
9335.000000;0.816555
9334.000000;0.816696
9333.000000;0.816465
9332.000000;0.815772
9331.000000;0.814636
9330.000000;0.813430
9329.000000;0.812751
9328.000000;0.812935
9327.000000;0.813732
9326.000000;0.814503
9325.000000;0.814766
9324.000000;0.814558
9323.000000;0.814285
9322.000000;0.814243
9321.000000;0.814334
9320.000000;0.814223
9319.000000;0.813779
9318.000000;0.813321
9317.000000;0.813373
9316.000000;0.814153
9315.000000;0.815290
9314.000000;0.816065
9313.000000;0.815956
9312.000000;0.815010
9311.000000;0.813740
9310.000000;0.812721
9309.000000;0.812266
9308.000000;0.812280
9307.000000;0.812306
9306.000000;0.811869
9305.000000;0.810988
9304.000000;0.810271
9303.000000;0.810301
9302.000000;0.810928
9301.000000;0.811415
9300.000000;0.811283
9299.000000;0.810764
9298.000000;0.810361
9297.000000;0.810272
9296.000000;0.810429
9295.000000;0.810770
9294.000000;0.811141
9293.000000;0.811133
9292.000000;0.810407
9291.000000;0.809158
9290.000000;0.807973
9289.000000;0.807276
9288.000000;0.807132
9287.000000;0.807509
9286.000000;0.808322
9285.000000;0.809191
9284.000000;0.809550
9283.000000;0.809224
9282.000000;0.808635
9281.000000;0.808231
9280.000000;0.807933
9279.000000;0.807393
9278.000000;0.806590
9277.000000;0.805889
9276.000000;0.805573
9275.000000;0.805570
9274.000000;0.805661
9273.000000;0.805747
9272.000000;0.805820
9271.000000;0.805828
9270.000000;0.805678
9269.000000;0.805359
9268.000000;0.804956
9267.000000;0.804541
9266.000000;0.804099
9265.000000;0.803596
9264.000000;0.803115
9263.000000;0.802897
9262.000000;0.803158
9261.000000;0.803856
9260.000000;0.804673
9259.000000;0.805235
9258.000000;0.805332
9257.000000;0.804966
9256.000000;0.804287
9255.000000;0.803537
9254.000000;0.802963
9253.000000;0.802667
9252.000000;0.802530
9251.000000;0.802336
9250.000000;0.801975
9249.000000;0.801500
9248.000000;0.801034
9247.000000;0.800654
9246.000000;0.800368
9245.000000;0.800157
9244.000000;0.800019
9243.000000;0.799953
9242.000000;0.799925
9241.000000;0.799892
9240.000000;0.799865
9239.000000;0.799902
9238.000000;0.800026
9237.000000;0.800183
9236.000000;0.800340
9235.000000;0.800554
9234.000000;0.800865
9233.000000;0.801148
9232.000000;0.801173
9231.000000;0.800827
9230.000000;0.800222
9229.000000;0.799580
9228.000000;0.799084
9227.000000;0.798805
9226.000000;0.798661
9225.000000;0.798495
9224.000000;0.798284
9223.000000;0.798239
9222.000000;0.798515
9221.000000;0.798839
9220.000000;0.798650
9219.000000;0.797717
9218.000000;0.796484
9217.000000;0.795677
9216.000000;0.795677
9215.000000;0.796355
9214.000000;0.797399
9213.000000;0.798568
9212.000000;0.799630
9211.000000;0.800249
9210.000000;0.800071
9209.000000;0.798993
9208.000000;0.797364
9207.000000;0.795906
9206.000000;0.795237
9205.000000;0.795332
9204.000000;0.795524
9203.000000;0.795181
9202.000000;0.794373
9201.000000;0.793729
9200.000000;0.793676
9199.000000;0.794027
9198.000000;0.794326
9197.000000;0.794355
9196.000000;0.794180
9195.000000;0.793888
9194.000000;0.793540
9193.000000;0.793302
9192.000000;0.793352
9191.000000;0.793598
9190.000000;0.793676
9189.000000;0.793318
9188.000000;0.792613
9187.000000;0.791816
9186.000000;0.791036
9185.000000;0.790255
9184.000000;0.789576
9183.000000;0.789235
9182.000000;0.789301
9181.000000;0.789504
9180.000000;0.789483
9179.000000;0.789201
9178.000000;0.789015
9177.000000;0.789292
9176.000000;0.789959
9175.000000;0.790542
9174.000000;0.790718
9173.000000;0.790751
9172.000000;0.791174
9171.000000;0.792008
9170.000000;0.792554
9169.000000;0.792200
9168.000000;0.791240
9167.000000;0.790582
9166.000000;0.790637
9165.000000;0.790845
9164.000000;0.790405
9163.000000;0.789212
9162.000000;0.787884
9161.000000;0.787106
9160.000000;0.787164
9159.000000;0.787932
9158.000000;0.788976
9157.000000;0.789700
9156.000000;0.789674
9155.000000;0.788962
9154.000000;0.788065
9153.000000;0.787514
9152.000000;0.787542
9151.000000;0.788014
9150.000000;0.788550
9149.000000;0.788773
9148.000000;0.788590
9147.000000;0.788219
9146.000000;0.787890
9145.000000;0.787598
9144.000000;0.787265
9143.000000;0.786964
9142.000000;0.786769
9141.000000;0.786503
9140.000000;0.785972
9139.000000;0.785420
9138.000000;0.785382
9137.000000;0.785985
9136.000000;0.786686
9135.000000;0.786914
9134.000000;0.786735
9133.000000;0.786652
9132.000000;0.786893
9131.000000;0.787137
9130.000000;0.786938
9129.000000;0.786252
9128.000000;0.785485
9127.000000;0.785106
9126.000000;0.785223
9125.000000;0.785502
9124.000000;0.785504
9123.000000;0.785085
9122.000000;0.784437
9121.000000;0.783833
9120.000000;0.783463
9119.000000;0.783445
9118.000000;0.783775
9117.000000;0.784229
9116.000000;0.784533
9115.000000;0.784694
9114.000000;0.784959
9113.000000;0.785352
9112.000000;0.785447
9111.000000;0.784791
9110.000000;0.783441
9109.000000;0.781930
9108.000000;0.780804
9107.000000;0.780317
9106.000000;0.780417
9105.000000;0.780846
9104.000000;0.781300
9103.000000;0.781698
9102.000000;0.782243
9101.000000;0.783055
9100.000000;0.783822
9099.000000;0.784037
9098.000000;0.783560
9097.000000;0.782751
9096.000000;0.782087
9095.000000;0.781806
9094.000000;0.781884
9093.000000;0.782118
9092.000000;0.782149
9091.000000;0.781669
9090.000000;0.780763
9089.000000;0.779954
9088.000000;0.779757
9087.000000;0.780227
9086.000000;0.780975
9085.000000;0.781576
9084.000000;0.781841
9083.000000;0.781765
9082.000000;0.781390
9081.000000;0.780793
9080.000000;0.780134
9079.000000;0.779593
9078.000000;0.779209
9077.000000;0.778846
9076.000000;0.778403
9075.000000;0.778013
9074.000000;0.777905
9073.000000;0.778054
9072.000000;0.778118
9071.000000;0.777843
9070.000000;0.777463
9069.000000;0.777498
9068.000000;0.778156
9067.000000;0.779046
9066.000000;0.779534
9065.000000;0.779333
9064.000000;0.778720
9063.000000;0.778234
9062.000000;0.778202
9061.000000;0.778505
9060.000000;0.778771
9059.000000;0.778770
9058.000000;0.778598
9057.000000;0.778471
9056.000000;0.778445
9055.000000;0.778438
9054.000000;0.778439
9053.000000;0.778526
