Criado como novo conjunto de dados;"e0108.spp","-4257343.5 Secs"
cm-1;Abs
10000.000000;1.044545
9999.000000;1.044675
9998.000000;1.044801
9997.000000;1.044933
9996.000000;1.045057
9995.000000;1.045198
9994.000000;1.045283
9993.000000;1.045126
9992.000000;1.045058
9991.000000;1.045753
9990.000000;1.047256
9989.000000;1.048457
9988.000000;1.048125
9987.000000;1.046320
9986.000000;1.044312
9985.000000;1.043112
9984.000000;1.042592
9983.000000;1.042122
9982.000000;1.041583
9981.000000;1.041351
9980.000000;1.041477
9979.000000;1.041332
9978.000000;1.040330
9977.000000;1.038839
9976.000000;1.038019
9975.000000;1.038606
9974.000000;1.040038
9973.000000;1.041001
9972.000000;1.040764
9971.000000;1.039741
9970.000000;1.038798
9969.000000;1.038440
9968.000000;1.038714
9967.000000;1.039374
9966.000000;1.039812
9965.000000;1.039171
9964.000000;1.037081
9963.000000;1.034321
9962.000000;1.032412
9961.000000;1.032306
9960.000000;1.033510
9959.000000;1.034527
9958.000000;1.034177
9957.000000;1.032537
9956.000000;1.030670
9955.000000;1.029533
9954.000000;1.029258
9953.000000;1.029413
9952.000000;1.029702
9951.000000;1.030149
9950.000000;1.030737
9949.000000;1.031214
9948.000000;1.031342
9947.000000;1.031056
9946.000000;1.030313
9945.000000;1.029155
9944.000000;1.028092
9943.000000;1.027977
9942.000000;1.029097
9941.000000;1.030568
9940.000000;1.030995
9939.000000;1.029760
9938.000000;1.027557
9937.000000;1.025698
9936.000000;1.025053
9935.000000;1.025466
9934.000000;1.025927
9933.000000;1.025388
9932.000000;1.023702
9931.000000;1.021789
9930.000000;1.020803
9929.000000;1.021105
9928.000000;1.022134
9927.000000;1.023208
9926.000000;1.024081
9925.000000;1.024663
9924.000000;1.024672
9923.000000;1.023882
9922.000000;1.022497
9921.000000;1.021012
9920.000000;1.019753
9919.000000;1.018712
9918.000000;1.017852
9917.000000;1.017388
9916.000000;1.017639
9915.000000;1.018660
9914.000000;1.020081
9913.000000;1.021267
9912.000000;1.021654
9911.000000;1.021068
9910.000000;1.019858
9909.000000;1.018657
9908.000000;1.017891
9907.000000;1.017470
9906.000000;1.016916
9905.000000;1.015831
9904.000000;1.014244
9903.000000;1.012585
9902.000000;1.011393
9901.000000;1.011043
9900.000000;1.011577
9899.000000;1.012685
9898.000000;1.013823
9897.000000;1.014474
9896.000000;1.014378
9895.000000;1.013594
9894.000000;1.012450
9893.000000;1.011412
9892.000000;1.010811
9891.000000;1.010631
9890.000000;1.010665
9889.000000;1.010858
9888.000000;1.011270
9887.000000;1.011688
9886.000000;1.011620
9885.000000;1.010902
9884.000000;1.010043
9883.000000;1.009622
9882.000000;1.009526
9881.000000;1.009150
9880.000000;1.008250
9879.000000;1.007184
9878.000000;1.006281
9877.000000;1.005389
9876.000000;1.004234
9875.000000;1.002932
9874.000000;1.001958
9873.000000;1.001750
9872.000000;1.002419
9871.000000;1.003645
9870.000000;1.004742
9869.000000;1.005009
9868.000000;1.004248
9867.000000;1.002966
9866.000000;1.002052
9865.000000;1.002185
9864.000000;1.003312
9863.000000;1.004526
9862.000000;1.004650
9861.000000;1.003292
9860.000000;1.001350
9859.000000;1.000183
9858.000000;1.000328
9857.000000;1.001213
9856.000000;1.001952
9855.000000;1.002055
9854.000000;1.001405
9853.000000;1.000140
9852.000000;0.998794
9851.000000;0.998142
9850.000000;0.998499
9849.000000;0.999297
9848.000000;0.999630
9847.000000;0.999093
9846.000000;0.997988
9845.000000;0.996949
9844.000000;0.996518
9843.000000;0.996779
9842.000000;0.997162
9841.000000;0.996819
9840.000000;0.995464
9839.000000;0.993700
9838.000000;0.992348
9837.000000;0.991725
9836.000000;0.991755
9835.000000;0.992366
9834.000000;0.993310
9833.000000;0.993800
9832.000000;0.993004
9831.000000;0.991067
9830.000000;0.989279
9829.000000;0.988961
9828.000000;0.990277
9827.000000;0.992104
9826.000000;0.992947
9825.000000;0.992074
9824.000000;0.990026
9823.000000;0.988051
9822.000000;0.986959
9821.000000;0.986592
9820.000000;0.986405
9819.000000;0.986269
9818.000000;0.986472
9817.000000;0.987123
9816.000000;0.987966
9815.000000;0.988719
9814.000000;0.989176
9813.000000;0.989045
9812.000000;0.988151
9811.000000;0.986850
9810.000000;0.985861
9809.000000;0.985546
9808.000000;0.985658
9807.000000;0.985857
9806.000000;0.986100
9805.000000;0.986356
9804.000000;0.986308
9803.000000;0.985685
9802.000000;0.984636
9801.000000;0.983473
9800.000000;0.982308
9799.000000;0.981259
9798.000000;0.980790
9797.000000;0.981359
9796.000000;0.982726
9795.000000;0.983957
9794.000000;0.984248
9793.000000;0.983533
9792.000000;0.982211
9791.000000;0.980636
9790.000000;0.979095
9789.000000;0.977972
9788.000000;0.977479
9787.000000;0.977318
9786.000000;0.976966
9785.000000;0.976398
9784.000000;0.976230
9783.000000;0.976910
9782.000000;0.977938
9781.000000;0.978237
9780.000000;0.977346
9779.000000;0.975956
9778.000000;0.975118
9777.000000;0.975134
9776.000000;0.975411
9775.000000;0.975232
9774.000000;0.974444
9773.000000;0.973497
9772.000000;0.973022
9771.000000;0.973356
9770.000000;0.974217
9769.000000;0.974774
9768.000000;0.974291
9767.000000;0.972863
9766.000000;0.971405
9765.000000;0.970775
9764.000000;0.970976
9763.000000;0.971246
9762.000000;0.970906
9761.000000;0.970017
9760.000000;0.969228
9759.000000;0.969087
9758.000000;0.969496
9757.000000;0.969775
9756.000000;0.969298
9755.000000;0.968093
9754.000000;0.966841
9753.000000;0.966311
9752.000000;0.966769
9751.000000;0.967808
9750.000000;0.968633
9749.000000;0.968603
9748.000000;0.967661
9747.000000;0.966322
9746.000000;0.965203
9745.000000;0.964517
9744.000000;0.964035
9743.000000;0.963564
9742.000000;0.963291
9741.000000;0.963537
9740.000000;0.964224
9739.000000;0.964799
9738.000000;0.964749
9737.000000;0.964105
9736.000000;0.963342
9735.000000;0.962864
9734.000000;0.962691
9733.000000;0.962600
9732.000000;0.962403
9731.000000;0.962077
9730.000000;0.961715
9729.000000;0.961437
9728.000000;0.961258
9727.000000;0.960965
9726.000000;0.960277
9725.000000;0.959264
9724.000000;0.958418
9723.000000;0.958081
9722.000000;0.957833
9721.000000;0.956833
9720.000000;0.954898
9719.000000;0.952966
9718.000000;0.952299
9717.000000;0.953324
9716.000000;0.955319
9715.000000;0.957039
9714.000000;0.957534
9713.000000;0.956701
9712.000000;0.955374
9711.000000;0.954751
9710.000000;0.955351
9709.000000;0.956504
9708.000000;0.957064
9707.000000;0.956563
9706.000000;0.955419
9705.000000;0.954220
9704.000000;0.953252
9703.000000;0.952723
9702.000000;0.952879
9701.000000;0.953597
9700.000000;0.954207
9699.000000;0.954084
9698.000000;0.953307
9697.000000;0.952525
9696.000000;0.952319
9695.000000;0.952856
9694.000000;0.953907
9693.000000;0.954868
9692.000000;0.954949
9691.000000;0.953748
9690.000000;0.951673
9689.000000;0.949560
9688.000000;0.947891
9687.000000;0.946622
9686.000000;0.945694
9685.000000;0.945289
9684.000000;0.945437
9683.000000;0.945745
9682.000000;0.945826
9681.000000;0.945809
9680.000000;0.946091
9679.000000;0.946610
9678.000000;0.946719
9677.000000;0.945951
9676.000000;0.944673
9675.000000;0.943734
9674.000000;0.943500
9673.000000;0.943491
9672.000000;0.943040
9671.000000;0.942197
9670.000000;0.941786
9669.000000;0.942489
9668.000000;0.943986
9667.000000;0.945125
9666.000000;0.945006
9665.000000;0.943840
9664.000000;0.942653
9663.000000;0.942198
9662.000000;0.942317
9661.000000;0.942394
9660.000000;0.942208
9659.000000;0.942056
9658.000000;0.942077
9657.000000;0.941836
9656.000000;0.940858
9655.000000;0.939390
9654.000000;0.938277
9653.000000;0.938056
9652.000000;0.938442
9651.000000;0.938759
9650.000000;0.938671
9649.000000;0.938372
9648.000000;0.938195
9647.000000;0.938169
9646.000000;0.937988
9645.000000;0.937430
9644.000000;0.936849
9643.000000;0.937057
9642.000000;0.938417
9641.000000;0.940040
9640.000000;0.940315
9639.000000;0.938537
9638.000000;0.935713
9637.000000;0.933486
9636.000000;0.932495
9635.000000;0.932098
9634.000000;0.931479
9633.000000;0.930615
9632.000000;0.930094
9631.000000;0.930364
9630.000000;0.931319
9629.000000;0.932417
9628.000000;0.933023
9627.000000;0.932782
9626.000000;0.931824
9625.000000;0.930609
9624.000000;0.929531
9623.000000;0.928671
9622.000000;0.927937
9621.000000;0.927355
9620.000000;0.927157
9619.000000;0.927534
9618.000000;0.928296
9617.000000;0.928933
9616.000000;0.929169
9615.000000;0.929339
9614.000000;0.929927
9613.000000;0.930707
9612.000000;0.930731
9611.000000;0.929491
9610.000000;0.927772
9609.000000;0.926847
9608.000000;0.926956
9607.000000;0.927145
9606.000000;0.926656
9605.000000;0.925922
9604.000000;0.925866
9603.000000;0.926613
9602.000000;0.927288
9601.000000;0.926943
9600.000000;0.925438
9599.000000;0.923533
9598.000000;0.922307
9597.000000;0.922351
9596.000000;0.923257
9595.000000;0.923875
9594.000000;0.923279
9593.000000;0.921572
9592.000000;0.919758
9591.000000;0.918901
9590.000000;0.919394
9589.000000;0.920751
9588.000000;0.921921
9587.000000;0.922011
9586.000000;0.921012
9585.000000;0.919791
9584.000000;0.919214
9583.000000;0.919376
9582.000000;0.919786
9581.000000;0.920105
9580.000000;0.920399
9579.000000;0.920726
9578.000000;0.920831
9577.000000;0.920374
9576.000000;0.919330
9575.000000;0.918070
9574.000000;0.917123
9573.000000;0.916822
9572.000000;0.917009
9571.000000;0.917116
9570.000000;0.916743
9569.000000;0.916136
9568.000000;0.915864
9567.000000;0.916022
9566.000000;0.916045
9565.000000;0.915439
9564.000000;0.914472
9563.000000;0.913843
9562.000000;0.913823
9561.000000;0.914009
9560.000000;0.913952
9559.000000;0.913741
9558.000000;0.913768
9557.000000;0.914068
9556.000000;0.914170
9555.000000;0.913684
9554.000000;0.912783
9553.000000;0.911953
9552.000000;0.911395
9551.000000;0.910904
9550.000000;0.910322
9549.000000;0.909866
9548.000000;0.909883
9547.000000;0.910385
9546.000000;0.910953
9545.000000;0.911048
9544.000000;0.910443
9543.000000;0.909503
9542.000000;0.909000
9541.000000;0.909381
9540.000000;0.910169
9539.000000;0.910408
9538.000000;0.909816
9537.000000;0.909123
9536.000000;0.909007
9535.000000;0.909177
9534.000000;0.908939
9533.000000;0.908315
9532.000000;0.907963
9531.000000;0.908074
9530.000000;0.908039
9529.000000;0.907337
9528.000000;0.906242
9527.000000;0.905419
9526.000000;0.905232
9525.000000;0.905666
9524.000000;0.906509
9523.000000;0.907311
9522.000000;0.907507
9521.000000;0.906953
9520.000000;0.906134
9519.000000;0.905590
9518.000000;0.905279
9517.000000;0.904716
9516.000000;0.903616
9515.000000;0.902196
9514.000000;0.900980
9513.000000;0.900481
9512.000000;0.900861
9511.000000;0.901704
9510.000000;0.902281
9509.000000;0.902208
9508.000000;0.901713
9507.000000;0.901151
9506.000000;0.900533
9505.000000;0.899801
9504.000000;0.899231
9503.000000;0.899141
9502.000000;0.899347
9501.000000;0.899317
9500.000000;0.898892
9499.000000;0.898500
9498.000000;0.898631
9497.000000;0.899303
9496.000000;0.900075
9495.000000;0.900373
9494.000000;0.899868
9493.000000;0.898758
9492.000000;0.897709
9491.000000;0.897285
9490.000000;0.897441
9489.000000;0.897673
9488.000000;0.897578
9487.000000;0.897113
9486.000000;0.896446
9485.000000;0.895845
9484.000000;0.895640
9483.000000;0.895904
9482.000000;0.896147
9481.000000;0.895712
9480.000000;0.894600
9479.000000;0.893565
9478.000000;0.893231
9477.000000;0.893422
9476.000000;0.893553
9475.000000;0.893436
9474.000000;0.893356
9473.000000;0.893485
9472.000000;0.893585
9471.000000;0.893370
9470.000000;0.892861
9469.000000;0.892254
9468.000000;0.891614
9467.000000;0.890937
9466.000000;0.890446
9465.000000;0.890535
9464.000000;0.891257
9463.000000;0.892042
9462.000000;0.892173
9461.000000;0.891550
9460.000000;0.890765
9459.000000;0.890366
9458.000000;0.890268
9457.000000;0.889979
9456.000000;0.889173
9455.000000;0.887970
9454.000000;0.886912
9453.000000;0.886753
9452.000000;0.887874
9451.000000;0.889592
9450.000000;0.890405
9449.000000;0.889467
9448.000000;0.887606
9447.000000;0.886418
9446.000000;0.886549
9445.000000;0.887413
9444.000000;0.888387
9443.000000;0.889484
9442.000000;0.890648
9441.000000;0.891147
9440.000000;0.890228
9439.000000;0.888069
9438.000000;0.885652
9437.000000;0.883895
9436.000000;0.883180
9435.000000;0.883381
9434.000000;0.883917
9433.000000;0.883971
9432.000000;0.883135
9431.000000;0.881892
9430.000000;0.881175
9429.000000;0.881454
9428.000000;0.882450
9427.000000;0.883582
9426.000000;0.884413
9425.000000;0.884683
9424.000000;0.884231
9423.000000;0.883043
9422.000000;0.881353
9421.000000;0.879685
9420.000000;0.878748
9419.000000;0.878995
9418.000000;0.880088
9417.000000;0.881013
9416.000000;0.881053
9415.000000;0.880536
9414.000000;0.880302
9413.000000;0.880598
9412.000000;0.880895
9411.000000;0.880767
9410.000000;0.880470
9409.000000;0.880438
9408.000000;0.880587
9407.000000;0.880460
9406.000000;0.879877
9405.000000;0.879126
9404.000000;0.878557
9403.000000;0.878257
9402.000000;0.878185
9401.000000;0.878368
9400.000000;0.878789
9399.000000;0.879233
9398.000000;0.879441
9397.000000;0.879408
9396.000000;0.879321
9395.000000;0.879175
9394.000000;0.878708
9393.000000;0.877882
9392.000000;0.877172
9391.000000;0.877043
9390.000000;0.877256
9389.000000;0.877053
9388.000000;0.876078
9387.000000;0.874803
9386.000000;0.873957
9385.000000;0.873804
9384.000000;0.874076
9383.000000;0.874315
9382.000000;0.874104
9381.000000;0.873244
9380.000000;0.871969
9379.000000;0.870818
9378.000000;0.870147
9377.000000;0.869942
9376.000000;0.870209
9375.000000;0.871147
9374.000000;0.872639
9373.000000;0.873930
9372.000000;0.874319
9371.000000;0.873991
9370.000000;0.873699
9369.000000;0.873748
9368.000000;0.873780
9367.000000;0.873496
9366.000000;0.873032
9365.000000;0.872524
9364.000000;0.871840
9363.000000;0.870993
9362.000000;0.870385
9361.000000;0.870376
9360.000000;0.870874
9359.000000;0.871559
9358.000000;0.872209
9357.000000;0.872619
9356.000000;0.872511
9355.000000;0.871870
9354.000000;0.871157
9353.000000;0.870834
9352.000000;0.870792
9351.000000;0.870493
9350.000000;0.869619
9349.000000;0.868355
9348.000000;0.867106
9347.000000;0.866140
9346.000000;0.865488
9345.000000;0.864990
9344.000000;0.864480
9343.000000;0.864045
9342.000000;0.864024
9341.000000;0.864613
9340.000000;0.865552
9339.000000;0.866363
9338.000000;0.866824
9337.000000;0.867003
9336.000000;0.866924
9335.000000;0.866494
9334.000000;0.865806
9333.000000;0.865171
9332.000000;0.864742
9331.000000;0.864301
9330.000000;0.863626
9329.000000;0.862941
9328.000000;0.862759
9327.000000;0.863297
9326.000000;0.864221
9325.000000;0.864995
9324.000000;0.865310
9323.000000;0.865139
9322.000000;0.864617
9321.000000;0.864069
9320.000000;0.863965
9319.000000;0.864489
9318.000000;0.865095
9317.000000;0.864795
9316.000000;0.863156
9315.000000;0.860890
9314.000000;0.859213
9313.000000;0.858705
9312.000000;0.858971
9311.000000;0.859338
9310.000000;0.859602
9309.000000;0.859993
9308.000000;0.860655
9307.000000;0.861397
9306.000000;0.861887
9305.000000;0.861972
9304.000000;0.861814
9303.000000;0.861764
9302.000000;0.862049
9301.000000;0.862533
9300.000000;0.862833
9299.000000;0.862721
9298.000000;0.862337
9297.000000;0.861979
9296.000000;0.861730
9295.000000;0.861372
9294.000000;0.860613
9293.000000;0.859373
9292.000000;0.857900
9291.000000;0.856687
9290.000000;0.856208
9289.000000;0.856612
9288.000000;0.857605
9287.000000;0.858616
9286.000000;0.859094
9285.000000;0.858760
9284.000000;0.857729
9283.000000;0.856432
9282.000000;0.855329
9281.000000;0.854602
9280.000000;0.854135
9279.000000;0.853762
9278.000000;0.853501
9277.000000;0.853516
9276.000000;0.853933
9275.000000;0.854692
9274.000000;0.855504
9273.000000;0.855998
9272.000000;0.855960
9271.000000;0.855468
9270.000000;0.854744
9269.000000;0.853964
9268.000000;0.853319
9267.000000;0.853107
9266.000000;0.853535
9265.000000;0.854396
9264.000000;0.855156
9263.000000;0.855443
9262.000000;0.855321
9261.000000;0.855025
9260.000000;0.854635
9259.000000;0.854138
9258.000000;0.853600
9257.000000;0.853116
9256.000000;0.852666
9255.000000;0.852203
9254.000000;0.851806
9253.000000;0.851603
9252.000000;0.851569
9251.000000;0.851508
9250.000000;0.851222
9249.000000;0.850689
9248.000000;0.850142
9247.000000;0.849969
9246.000000;0.850357
9245.000000;0.850999
9244.000000;0.851305
9243.000000;0.851046
9242.000000;0.850624
9241.000000;0.850572
9240.000000;0.850934
9239.000000;0.851298
9238.000000;0.851338
9237.000000;0.851125
9236.000000;0.850913
9235.000000;0.850801
9234.000000;0.850638
9233.000000;0.850171
9232.000000;0.849275
9231.000000;0.848117
9230.000000;0.847071
9229.000000;0.846431
9228.000000;0.846241
9227.000000;0.846409
9226.000000;0.846851
9225.000000;0.847434
9224.000000;0.847936
9223.000000;0.848234
9222.000000;0.848466
9221.000000;0.848812
9220.000000;0.849169
9219.000000;0.849195
9218.000000;0.848687
9217.000000;0.847804
9216.000000;0.846942
9215.000000;0.846464
9214.000000;0.846486
9213.000000;0.846766
9212.000000;0.846845
9211.000000;0.846428
9210.000000;0.845647
9209.000000;0.844882
9208.000000;0.844414
9207.000000;0.844336
9206.000000;0.844632
9205.000000;0.845142
9204.000000;0.845509
9203.000000;0.845429
9202.000000;0.844991
9201.000000;0.844589
9200.000000;0.844499
9199.000000;0.844684
9198.000000;0.845023
9197.000000;0.845486
9196.000000;0.845976
9195.000000;0.846197
9194.000000;0.845879
9193.000000;0.845087
9192.000000;0.844200
9191.000000;0.843594
9190.000000;0.843382
9189.000000;0.843388
9188.000000;0.843340
9187.000000;0.843085
9186.000000;0.842649
9185.000000;0.842131
9184.000000;0.841644
9183.000000;0.841376
9182.000000;0.841507
9181.000000;0.841947
9180.000000;0.842256
9179.000000;0.842081
9178.000000;0.841584
9177.000000;0.841185
9176.000000;0.840904
9175.000000;0.840306
9174.000000;0.839244
9173.000000;0.838387
9172.000000;0.838658
9171.000000;0.840164
9170.000000;0.841885
9169.000000;0.842536
9168.000000;0.841715
9167.000000;0.840192
9166.000000;0.839094
9165.000000;0.838907
9164.000000;0.839236
9163.000000;0.839406
9162.000000;0.839161
9161.000000;0.838772
9160.000000;0.838635
9159.000000;0.838927
9158.000000;0.839536
9157.000000;0.840127
9156.000000;0.840268
9155.000000;0.839705
9154.000000;0.838603
9153.000000;0.837484
9152.000000;0.836877
9151.000000;0.837037
9150.000000;0.837843
9149.000000;0.838793
9148.000000;0.839215
9147.000000;0.838801
9146.000000;0.837973
9145.000000;0.837470
9144.000000;0.837475
9143.000000;0.837410
9142.000000;0.836736
9141.000000;0.835709
9140.000000;0.835071
9139.000000;0.835166
9138.000000;0.835643
9137.000000;0.835974
9136.000000;0.836004
9135.000000;0.835941
9134.000000;0.836009
9133.000000;0.836244
9132.000000;0.836467
9131.000000;0.836413
9130.000000;0.835986
9129.000000;0.835451
9128.000000;0.835246
9127.000000;0.835508
9126.000000;0.835910
9125.000000;0.836073
9124.000000;0.835966
9123.000000;0.835722
9122.000000;0.835231
9121.000000;0.834279
9120.000000;0.833097
9119.000000;0.832388
9118.000000;0.832555
9117.000000;0.833142
9116.000000;0.833376
9115.000000;0.833090
9114.000000;0.832773
9113.000000;0.832777
9112.000000;0.832933
9111.000000;0.833009
9110.000000;0.833102
9109.000000;0.833299
9108.000000;0.833288
9107.000000;0.832680
9106.000000;0.831550
9105.000000;0.830350
9104.000000;0.829451
9103.000000;0.829051
9102.000000;0.829368
9101.000000;0.830450
9100.000000;0.831816
9099.000000;0.832688
9098.000000;0.832751
9097.000000;0.832390
9096.000000;0.832119
9095.000000;0.832054
9094.000000;0.832077
9093.000000;0.832160
9092.000000;0.832259
9091.000000;0.832112
9090.000000;0.831485
9089.000000;0.830571
9088.000000;0.829906
9087.000000;0.829857
9086.000000;0.830331
9085.000000;0.830959
9084.000000;0.831400
9083.000000;0.831465
9082.000000;0.831098
9081.000000;0.830386
9080.000000;0.829600
9079.000000;0.829149
9078.000000;0.829334
9077.000000;0.830025
9076.000000;0.830669
9075.000000;0.830770
9074.000000;0.830372
9073.000000;0.829913
9072.000000;0.829646
9071.000000;0.829435
9070.000000;0.829197
9069.000000;0.829188
9068.000000;0.829626
9067.000000;0.830185
9066.000000;0.830209
9065.000000;0.829397
9064.000000;0.828104
9063.000000;0.826969
9062.000000;0.826417
9061.000000;0.826494
9060.000000;0.826924
9059.000000;0.827267
9058.000000;0.827227
9057.000000;0.826930
9056.000000;0.826757
9055.000000;0.826810
9054.000000;0.826700
9053.000000;0.826034
