Criado como novo conjunto de dados;"e0108.spp","-4208740.7 Secs"
cm-1;Abs
10000.000000;1.053625
9999.000000;1.053540
9998.000000;1.052402
9997.000000;1.051073
9996.000000;1.050186
9995.000000;1.049066
9994.000000;1.047459
9993.000000;1.046017
9992.000000;1.045464
9991.000000;1.045273
9990.000000;1.044540
9989.000000;1.043315
9988.000000;1.042480
9987.000000;1.042561
9986.000000;1.043347
9985.000000;1.044367
9984.000000;1.045178
9983.000000;1.045294
9982.000000;1.044486
9981.000000;1.043199
9980.000000;1.042207
9979.000000;1.041829
9978.000000;1.041786
9977.000000;1.041734
9976.000000;1.041590
9975.000000;1.041395
9974.000000;1.041179
9973.000000;1.040888
9972.000000;1.040238
9971.000000;1.038866
9970.000000;1.037012
9969.000000;1.035759
9968.000000;1.036068
9967.000000;1.037635
9966.000000;1.039166
9965.000000;1.039730
9964.000000;1.039363
9963.000000;1.038412
9962.000000;1.036966
9961.000000;1.035140
9960.000000;1.033394
9959.000000;1.032200
9958.000000;1.031583
9957.000000;1.031231
9956.000000;1.030930
9955.000000;1.030743
9954.000000;1.030883
9953.000000;1.031534
9952.000000;1.032677
9951.000000;1.034016
9950.000000;1.035144
9949.000000;1.035789
9948.000000;1.035853
9947.000000;1.035302
9946.000000;1.034167
9945.000000;1.032622
9944.000000;1.030880
9943.000000;1.029096
9942.000000;1.027521
9941.000000;1.026515
9940.000000;1.026198
9939.000000;1.026282
9938.000000;1.026402
9937.000000;1.026444
9936.000000;1.026418
9935.000000;1.026311
9934.000000;1.026308
9933.000000;1.026794
9932.000000;1.027726
9931.000000;1.028282
9930.000000;1.027711
9929.000000;1.026430
9928.000000;1.025585
9927.000000;1.025535
9926.000000;1.025435
9925.000000;1.024432
9924.000000;1.022708
9923.000000;1.021091
9922.000000;1.020195
9921.000000;1.020217
9920.000000;1.021025
9919.000000;1.022047
9918.000000;1.022510
9917.000000;1.022264
9916.000000;1.022064
9915.000000;1.022541
9914.000000;1.023117
9913.000000;1.022468
9912.000000;1.020091
9911.000000;1.016970
9910.000000;1.014605
9909.000000;1.013776
9908.000000;1.014328
9907.000000;1.015744
9906.000000;1.017504
9905.000000;1.018940
9904.000000;1.019159
9903.000000;1.017623
9902.000000;1.014886
9901.000000;1.012397
9900.000000;1.011270
9899.000000;1.011300
9898.000000;1.011397
9897.000000;1.010855
9896.000000;1.009939
9895.000000;1.009258
9894.000000;1.008988
9893.000000;1.008890
9892.000000;1.008741
9891.000000;1.008412
9890.000000;1.007749
9889.000000;1.006677
9888.000000;1.005450
9887.000000;1.004576
9886.000000;1.004446
9885.000000;1.005028
9884.000000;1.005861
9883.000000;1.006332
9882.000000;1.006117
9881.000000;1.005471
9880.000000;1.004965
9879.000000;1.004878
9878.000000;1.004968
9877.000000;1.004814
9876.000000;1.004192
9875.000000;1.003126
9874.000000;1.001810
9873.000000;1.000680
9872.000000;1.000314
9871.000000;1.000987
9870.000000;1.002301
9869.000000;1.003361
9868.000000;1.003434
9867.000000;1.002546
9866.000000;1.001455
9865.000000;1.000884
9864.000000;1.000712
9863.000000;1.000083
9862.000000;0.998538
9861.000000;0.996768
9860.000000;0.995868
9859.000000;0.996015
9858.000000;0.996356
9857.000000;0.996128
9856.000000;0.995348
9855.000000;0.994318
9854.000000;0.993089
9853.000000;0.991742
9852.000000;0.990636
9851.000000;0.990022
9850.000000;0.989789
9849.000000;0.989883
9848.000000;0.990552
9847.000000;0.991734
9846.000000;0.992586
9845.000000;0.992196
9844.000000;0.990624
9843.000000;0.988729
9842.000000;0.987176
9841.000000;0.986178
9840.000000;0.985948
9839.000000;0.986663
9838.000000;0.987930
9837.000000;0.988840
9836.000000;0.988785
9835.000000;0.987874
9834.000000;0.986483
9833.000000;0.984885
9832.000000;0.983475
9831.000000;0.982854
9830.000000;0.983354
9829.000000;0.984683
9828.000000;0.986224
9827.000000;0.987469
9826.000000;0.988093
9825.000000;0.987958
9824.000000;0.987280
9823.000000;0.986531
9822.000000;0.985912
9821.000000;0.985142
9820.000000;0.983970
9819.000000;0.982644
9818.000000;0.981562
9817.000000;0.980647
9816.000000;0.979472
9815.000000;0.977968
9814.000000;0.976673
9813.000000;0.976147
9812.000000;0.976366
9811.000000;0.976863
9810.000000;0.977343
9809.000000;0.977914
9808.000000;0.978681
9807.000000;0.979345
9806.000000;0.979436
9805.000000;0.978877
9804.000000;0.978038
9803.000000;0.977157
9802.000000;0.976011
9801.000000;0.974442
9800.000000;0.972990
9799.000000;0.972526
9798.000000;0.973228
9797.000000;0.974263
9796.000000;0.974647
9795.000000;0.974202
9794.000000;0.973405
9793.000000;0.972518
9792.000000;0.971329
9791.000000;0.969800
9790.000000;0.968540
9789.000000;0.968286
9788.000000;0.969036
9787.000000;0.970031
9786.000000;0.970623
9785.000000;0.970814
9784.000000;0.970819
9783.000000;0.970459
9782.000000;0.969433
9781.000000;0.968053
9780.000000;0.967200
9779.000000;0.967360
9778.000000;0.968016
9777.000000;0.968200
9776.000000;0.967552
9775.000000;0.966600
9774.000000;0.966059
9773.000000;0.966045
9772.000000;0.966074
9771.000000;0.965715
9770.000000;0.965091
9769.000000;0.964665
9768.000000;0.964542
9767.000000;0.964223
9766.000000;0.963229
9765.000000;0.961829
9764.000000;0.960803
9763.000000;0.960502
9762.000000;0.960493
9761.000000;0.960238
9760.000000;0.959808
9759.000000;0.959690
9758.000000;0.960078
9757.000000;0.960613
9756.000000;0.960682
9755.000000;0.959884
9754.000000;0.958407
9753.000000;0.957080
9752.000000;0.956745
9751.000000;0.957287
9750.000000;0.957518
9749.000000;0.956426
9748.000000;0.954464
9747.000000;0.953188
9746.000000;0.953642
9745.000000;0.955447
9744.000000;0.957423
9743.000000;0.958734
9742.000000;0.959304
9741.000000;0.959384
9740.000000;0.959030
9739.000000;0.958036
9738.000000;0.956232
9737.000000;0.953770
9736.000000;0.951092
9735.000000;0.948706
9734.000000;0.947121
9733.000000;0.946872
9732.000000;0.948187
9731.000000;0.950410
9730.000000;0.952109
9729.000000;0.952244
9728.000000;0.951083
9727.000000;0.949638
9726.000000;0.948434
9725.000000;0.947350
9724.000000;0.946460
9723.000000;0.946245
9722.000000;0.946722
9721.000000;0.946980
9720.000000;0.946136
9719.000000;0.944485
9718.000000;0.943209
9717.000000;0.943024
9716.000000;0.943516
9715.000000;0.943789
9714.000000;0.943431
9713.000000;0.942754
9712.000000;0.942347
9711.000000;0.942614
9710.000000;0.943570
9709.000000;0.944815
9708.000000;0.945712
9707.000000;0.945781
9706.000000;0.945076
9705.000000;0.944079
9704.000000;0.943107
9703.000000;0.941937
9702.000000;0.940275
9701.000000;0.938495
9700.000000;0.937473
9699.000000;0.937517
9698.000000;0.937853
9697.000000;0.937523
9696.000000;0.936598
9695.000000;0.936032
9694.000000;0.936335
9693.000000;0.936864
9692.000000;0.936585
9691.000000;0.935235
9690.000000;0.933478
9689.000000;0.932111
9688.000000;0.931367
9687.000000;0.930952
9686.000000;0.930578
9685.000000;0.930342
9684.000000;0.930565
9683.000000;0.931288
9682.000000;0.932088
9681.000000;0.932490
9680.000000;0.932391
9679.000000;0.931893
9678.000000;0.930909
9677.000000;0.929380
9676.000000;0.927846
9675.000000;0.927252
9674.000000;0.927876
9673.000000;0.928761
9672.000000;0.928667
9671.000000;0.927499
9670.000000;0.926374
9669.000000;0.926274
9668.000000;0.927045
9667.000000;0.927849
9666.000000;0.928204
9665.000000;0.928258
9664.000000;0.928199
9663.000000;0.927844
9662.000000;0.926932
9661.000000;0.925591
9660.000000;0.924276
9659.000000;0.923304
9658.000000;0.922586
9657.000000;0.921837
9656.000000;0.920981
9655.000000;0.920341
9654.000000;0.920387
9653.000000;0.921190
9652.000000;0.922159
9651.000000;0.922477
9650.000000;0.921827
9649.000000;0.920558
9648.000000;0.919172
9647.000000;0.917924
9646.000000;0.916986
9645.000000;0.916598
9644.000000;0.916694
9643.000000;0.916662
9642.000000;0.915971
9641.000000;0.914931
9640.000000;0.914360
9639.000000;0.914490
9638.000000;0.914675
9637.000000;0.914305
9636.000000;0.913623
9635.000000;0.913423
9634.000000;0.914206
9633.000000;0.915723
9632.000000;0.917060
9631.000000;0.917200
9630.000000;0.915951
9629.000000;0.914430
9628.000000;0.914078
9627.000000;0.914955
9626.000000;0.915487
9625.000000;0.914266
9624.000000;0.911706
9623.000000;0.909425
9622.000000;0.908454
9621.000000;0.908642
9620.000000;0.909439
9619.000000;0.910491
9618.000000;0.911434
9617.000000;0.911816
9616.000000;0.911561
9615.000000;0.911184
9614.000000;0.911261
9613.000000;0.911809
9612.000000;0.912240
9611.000000;0.911849
9610.000000;0.910455
9609.000000;0.908722
9608.000000;0.907708
9607.000000;0.907870
9606.000000;0.908595
9605.000000;0.908880
9604.000000;0.908304
9603.000000;0.907097
9602.000000;0.905534
9601.000000;0.903794
9600.000000;0.902325
9599.000000;0.901779
9598.000000;0.902355
9597.000000;0.903475
9596.000000;0.904250
9595.000000;0.904170
9594.000000;0.903341
9593.000000;0.902277
9592.000000;0.901496
9591.000000;0.901139
9590.000000;0.900957
9589.000000;0.900751
9588.000000;0.900652
9587.000000;0.900777
9586.000000;0.900870
9585.000000;0.900640
9584.000000;0.900271
9583.000000;0.900136
9582.000000;0.900109
9581.000000;0.899688
9580.000000;0.898824
9579.000000;0.898077
9578.000000;0.897792
9577.000000;0.897605
9576.000000;0.897017
9575.000000;0.896136
9574.000000;0.895538
9573.000000;0.895590
9572.000000;0.896095
9571.000000;0.896441
9570.000000;0.896006
9569.000000;0.894667
9568.000000;0.893079
9567.000000;0.892244
9566.000000;0.892598
9565.000000;0.893582
9564.000000;0.894191
9563.000000;0.893861
9562.000000;0.892808
9561.000000;0.891622
9560.000000;0.890671
9559.000000;0.889856
9558.000000;0.888897
9557.000000;0.887845
9556.000000;0.887184
9555.000000;0.887301
9554.000000;0.888027
9553.000000;0.888839
9552.000000;0.889383
9551.000000;0.889596
9550.000000;0.889557
9549.000000;0.889537
9548.000000;0.889939
9547.000000;0.890733
9546.000000;0.891083
9545.000000;0.890082
9544.000000;0.887847
9543.000000;0.885412
9542.000000;0.883586
9541.000000;0.882444
9540.000000;0.881891
9539.000000;0.882048
9538.000000;0.882878
9537.000000;0.884006
9536.000000;0.885189
9535.000000;0.886494
9534.000000;0.887780
9533.000000;0.888479
9532.000000;0.888254
9531.000000;0.887420
9530.000000;0.886358
9529.000000;0.884964
9528.000000;0.883115
9527.000000;0.881280
9526.000000;0.880157
9525.000000;0.879915
9524.000000;0.880180
9523.000000;0.880503
9522.000000;0.880476
9521.000000;0.879693
9520.000000;0.878163
9519.000000;0.876633
9518.000000;0.876019
9517.000000;0.876503
9516.000000;0.877509
9515.000000;0.878410
9514.000000;0.878893
9513.000000;0.878803
9512.000000;0.878151
9511.000000;0.877317
9510.000000;0.876819
9509.000000;0.876757
9508.000000;0.876731
9507.000000;0.876375
9506.000000;0.875736
9505.000000;0.875103
9504.000000;0.874698
9503.000000;0.874558
9502.000000;0.874506
9501.000000;0.874219
9500.000000;0.873564
9499.000000;0.872858
9498.000000;0.872560
9497.000000;0.872704
9496.000000;0.872825
9495.000000;0.872497
9494.000000;0.871737
9493.000000;0.870867
9492.000000;0.870236
9491.000000;0.870134
9490.000000;0.870667
9489.000000;0.871505
9488.000000;0.871880
9487.000000;0.871102
9486.000000;0.869192
9485.000000;0.866988
9484.000000;0.865578
9483.000000;0.865533
9482.000000;0.866503
9481.000000;0.867518
9480.000000;0.867809
9479.000000;0.867380
9478.000000;0.866792
9477.000000;0.866508
9476.000000;0.866549
9475.000000;0.866711
9474.000000;0.866859
9473.000000;0.866975
9472.000000;0.866990
9471.000000;0.866694
9470.000000;0.865845
9469.000000;0.864457
9468.000000;0.863006
9467.000000;0.862208
9466.000000;0.862364
9465.000000;0.862933
9464.000000;0.862963
9463.000000;0.862025
9462.000000;0.860647
9461.000000;0.859798
9460.000000;0.860056
9459.000000;0.861215
9458.000000;0.862501
9457.000000;0.863115
9456.000000;0.862744
9455.000000;0.861726
9454.000000;0.860718
9453.000000;0.860177
9452.000000;0.860149
9451.000000;0.860457
9450.000000;0.860871
9449.000000;0.861053
9448.000000;0.860625
9447.000000;0.859531
9446.000000;0.858291
9445.000000;0.857595
9444.000000;0.857582
9443.000000;0.857718
9442.000000;0.857466
9441.000000;0.856895
9440.000000;0.856433
9439.000000;0.856214
9438.000000;0.855994
9437.000000;0.855698
9436.000000;0.855657
9435.000000;0.856100
9434.000000;0.856683
9433.000000;0.856810
9432.000000;0.856324
9431.000000;0.855637
9430.000000;0.855210
9429.000000;0.855165
9428.000000;0.855386
9427.000000;0.855741
9426.000000;0.856071
9425.000000;0.856140
9424.000000;0.855753
9423.000000;0.854913
9422.000000;0.853790
9421.000000;0.852622
9420.000000;0.851657
9419.000000;0.851113
9418.000000;0.851116
9417.000000;0.851662
9416.000000;0.852566
9415.000000;0.853401
9414.000000;0.853623
9413.000000;0.852989
9412.000000;0.851813
9411.000000;0.850650
9410.000000;0.849732
9409.000000;0.848875
9408.000000;0.847897
9407.000000;0.846934
9406.000000;0.846326
9405.000000;0.846313
9404.000000;0.846840
9403.000000;0.847457
9402.000000;0.847495
9401.000000;0.846635
9400.000000;0.845318
9399.000000;0.844334
9398.000000;0.843956
9397.000000;0.843762
9396.000000;0.843340
9395.000000;0.842833
9394.000000;0.842666
9393.000000;0.843018
9392.000000;0.843751
9391.000000;0.844590
9390.000000;0.845177
9389.000000;0.845198
9388.000000;0.844704
9387.000000;0.844163
9386.000000;0.843982
9385.000000;0.844061
9384.000000;0.843938
9383.000000;0.843234
9382.000000;0.841923
9381.000000;0.840434
9380.000000;0.839558
9379.000000;0.839850
9378.000000;0.840907
9377.000000;0.841559
9376.000000;0.841112
9375.000000;0.840088
9374.000000;0.839395
9373.000000;0.839139
9372.000000;0.838784
9371.000000;0.838199
9370.000000;0.837892
9369.000000;0.838203
9368.000000;0.838822
9367.000000;0.839193
9366.000000;0.838964
9365.000000;0.837974
9364.000000;0.836293
9363.000000;0.834434
9362.000000;0.833142
9361.000000;0.832746
9360.000000;0.832967
9359.000000;0.833447
9358.000000;0.834103
9357.000000;0.834872
9356.000000;0.835506
9355.000000;0.835893
9354.000000;0.836243
9353.000000;0.836692
9352.000000;0.837006
9351.000000;0.836958
9350.000000;0.836662
9349.000000;0.836217
9348.000000;0.835326
9347.000000;0.833773
9346.000000;0.832134
9345.000000;0.831451
9344.000000;0.832103
9343.000000;0.833356
9342.000000;0.834127
9341.000000;0.833909
9340.000000;0.832893
9339.000000;0.831566
9338.000000;0.830451
9337.000000;0.829950
9336.000000;0.830084
9335.000000;0.830389
9334.000000;0.830307
9333.000000;0.829741
9332.000000;0.829125
9331.000000;0.828966
9330.000000;0.829407
9329.000000;0.830175
9328.000000;0.830791
9327.000000;0.830812
9326.000000;0.830027
9325.000000;0.828597
9324.000000;0.827034
9323.000000;0.825956
9322.000000;0.825731
9321.000000;0.826250
9320.000000;0.827026
9319.000000;0.827581
9318.000000;0.827788
9317.000000;0.827831
9316.000000;0.827866
9315.000000;0.827801
9314.000000;0.827437
9313.000000;0.826716
9312.000000;0.825747
9311.000000;0.824674
9310.000000;0.823684
9309.000000;0.823088
9308.000000;0.823183
9307.000000;0.823889
9306.000000;0.824618
9305.000000;0.824683
9304.000000;0.823914
9303.000000;0.822840
9302.000000;0.822194
9301.000000;0.822258
9300.000000;0.822659
9299.000000;0.822778
9298.000000;0.822359
9297.000000;0.821683
9296.000000;0.821175
9295.000000;0.820920
9294.000000;0.820676
9293.000000;0.820279
9292.000000;0.819891
9291.000000;0.819794
9290.000000;0.820040
9289.000000;0.820373
9288.000000;0.820418
9287.000000;0.819934
9286.000000;0.818995
9285.000000;0.818007
9284.000000;0.817457
9283.000000;0.817522
9282.000000;0.817926
9281.000000;0.818252
9280.000000;0.818329
9279.000000;0.818249
9278.000000;0.818129
9277.000000;0.817973
9276.000000;0.817711
9275.000000;0.817249
9274.000000;0.816527
9273.000000;0.815610
9272.000000;0.814653
9271.000000;0.813738
9270.000000;0.812867
9269.000000;0.812216
9268.000000;0.812191
9267.000000;0.812986
9266.000000;0.814153
9265.000000;0.814907
9264.000000;0.814893
9263.000000;0.814455
9262.000000;0.814124
9261.000000;0.814101
9260.000000;0.814219
9259.000000;0.814130
9258.000000;0.813453
9257.000000;0.812079
9256.000000;0.810504
9255.000000;0.809601
9254.000000;0.809782
9253.000000;0.810512
9252.000000;0.810826
9251.000000;0.810254
9250.000000;0.809082
9249.000000;0.807893
9248.000000;0.807098
9247.000000;0.806780
9246.000000;0.806705
9245.000000;0.806526
9244.000000;0.806199
9243.000000;0.806183
9242.000000;0.806996
9241.000000;0.808580
9240.000000;0.810254
9239.000000;0.811311
9238.000000;0.811496
9237.000000;0.810997
9236.000000;0.810181
9235.000000;0.809418
9234.000000;0.808902
9233.000000;0.808518
9232.000000;0.808012
9231.000000;0.807329
9230.000000;0.806668
9229.000000;0.806194
9228.000000;0.805887
9227.000000;0.805733
9226.000000;0.805783
9225.000000;0.805893
9224.000000;0.805651
9223.000000;0.804874
9222.000000;0.803995
9221.000000;0.803674
9220.000000;0.804017
9219.000000;0.804432
9218.000000;0.804282
9217.000000;0.803506
9216.000000;0.802532
9215.000000;0.801785
9214.000000;0.801373
9213.000000;0.801096
9212.000000;0.800670
9211.000000;0.800054
9210.000000;0.799628
9209.000000;0.799922
9208.000000;0.801079
9207.000000;0.802647
9206.000000;0.803962
9205.000000;0.804629
9204.000000;0.804574
9203.000000;0.803878
9202.000000;0.802778
9201.000000;0.801680
9200.000000;0.800878
9199.000000;0.800286
9198.000000;0.799650
9197.000000;0.798945
9196.000000;0.798389
9195.000000;0.798132
9194.000000;0.798150
9193.000000;0.798357
9192.000000;0.798547
9191.000000;0.798310
9190.000000;0.797440
9189.000000;0.796476
9188.000000;0.796343
9187.000000;0.797259
9186.000000;0.798356
9185.000000;0.798681
9184.000000;0.798216
9183.000000;0.797609
9182.000000;0.797217
9181.000000;0.796897
9180.000000;0.796510
9179.000000;0.796090
9178.000000;0.795538
9177.000000;0.794668
9176.000000;0.793621
9175.000000;0.792847
9174.000000;0.792560
9173.000000;0.792587
9172.000000;0.792817
9171.000000;0.793383
9170.000000;0.794181
9169.000000;0.794597
9168.000000;0.794101
9167.000000;0.792975
9166.000000;0.792139
9165.000000;0.792287
9164.000000;0.793298
9163.000000;0.794397
9162.000000;0.794735
9161.000000;0.794003
9160.000000;0.792668
9159.000000;0.791573
9158.000000;0.791184
9157.000000;0.791272
9156.000000;0.791338
9155.000000;0.791188
9154.000000;0.790969
9153.000000;0.790853
9152.000000;0.790887
9151.000000;0.791033
9150.000000;0.791134
9149.000000;0.790934
9148.000000;0.790355
9147.000000;0.789693
9146.000000;0.789346
9145.000000;0.789354
9144.000000;0.789399
9143.000000;0.789230
9142.000000;0.788894
9141.000000;0.788567
9140.000000;0.788396
9139.000000;0.788567
9138.000000;0.789225
9137.000000;0.790167
9136.000000;0.790807
9135.000000;0.790691
9134.000000;0.789977
9133.000000;0.789221
9132.000000;0.788734
9131.000000;0.788334
9130.000000;0.787728
9129.000000;0.786902
9128.000000;0.786013
9127.000000;0.785098
9126.000000;0.784175
9125.000000;0.783536
9124.000000;0.783627
9123.000000;0.784471
9122.000000;0.785461
9121.000000;0.785959
9120.000000;0.785953
9119.000000;0.785864
9118.000000;0.785856
9117.000000;0.785711
9116.000000;0.785364
9115.000000;0.785136
9114.000000;0.785218
9113.000000;0.785283
9112.000000;0.784924
9111.000000;0.784260
9110.000000;0.783788
9109.000000;0.783737
9108.000000;0.783938
9107.000000;0.784264
9106.000000;0.784795
9105.000000;0.785459
9104.000000;0.785840
9103.000000;0.785577
9102.000000;0.784774
9101.000000;0.783838
9100.000000;0.783027
9099.000000;0.782335
9098.000000;0.781686
9097.000000;0.781068
9096.000000;0.780517
9095.000000;0.780125
9094.000000;0.780028
9093.000000;0.780260
9092.000000;0.780601
9091.000000;0.780701
9090.000000;0.780377
9089.000000;0.779724
9088.000000;0.779013
9087.000000;0.778568
9086.000000;0.778652
9085.000000;0.779229
9084.000000;0.779819
9083.000000;0.779829
9082.000000;0.779178
9081.000000;0.778443
9080.000000;0.778242
9079.000000;0.778594
9078.000000;0.779026
9077.000000;0.779179
9076.000000;0.779078
9075.000000;0.778887
9074.000000;0.778684
9073.000000;0.778508
9072.000000;0.778369
9071.000000;0.778158
9070.000000;0.777761
9069.000000;0.777334
9068.000000;0.777230
9067.000000;0.777516
9066.000000;0.777772
9065.000000;0.777543
9064.000000;0.776828
9063.000000;0.775951
9062.000000;0.775156
9061.000000;0.774586
9060.000000;0.774515
9059.000000;0.775206
9058.000000;0.776466
9057.000000;0.777600
9056.000000;0.777943
9055.000000;0.777363
9054.000000;0.776244
9053.000000;0.775147
