Criado como novo conjunto de dados;"e0108.spp","-4282724.4 Secs"
cm-1;Abs
10000.000000;0.876083
9999.000000;0.874173
9998.000000;0.872272
9997.000000;0.870380
9996.000000;0.868495
9995.000000;0.866620
9994.000000;0.864750
9993.000000;0.862894
9992.000000;0.861023
9991.000000;0.859994
9990.000000;0.860263
9989.000000;0.861429
9988.000000;0.862538
9987.000000;0.862867
9986.000000;0.862364
9985.000000;0.861366
9984.000000;0.860200
9983.000000;0.859161
9982.000000;0.858571
9981.000000;0.858570
9980.000000;0.858944
9979.000000;0.859383
9978.000000;0.859808
9977.000000;0.860254
9976.000000;0.860567
9975.000000;0.860517
9974.000000;0.860203
9973.000000;0.860035
9972.000000;0.860162
9971.000000;0.860158
9970.000000;0.859448
9969.000000;0.858006
9968.000000;0.856492
9967.000000;0.855740
9966.000000;0.856140
9965.000000;0.857350
9964.000000;0.858491
9963.000000;0.858754
9962.000000;0.858030
9961.000000;0.856896
9960.000000;0.855937
9959.000000;0.855131
9958.000000;0.853996
9957.000000;0.852274
9956.000000;0.850321
9955.000000;0.848857
9954.000000;0.848412
9953.000000;0.848975
9952.000000;0.850032
9951.000000;0.850900
9950.000000;0.851112
9949.000000;0.850601
9948.000000;0.849644
9947.000000;0.848666
9946.000000;0.848068
9945.000000;0.848062
9944.000000;0.848585
9943.000000;0.849385
9942.000000;0.850230
9941.000000;0.850965
9940.000000;0.851372
9939.000000;0.851137
9938.000000;0.850112
9937.000000;0.848604
9936.000000;0.847265
9935.000000;0.846623
9934.000000;0.846685
9933.000000;0.846924
9932.000000;0.846680
9931.000000;0.845716
9930.000000;0.844503
9929.000000;0.843815
9928.000000;0.843921
9927.000000;0.844262
9926.000000;0.844033
9925.000000;0.842975
9924.000000;0.841494
9923.000000;0.840126
9922.000000;0.839099
9921.000000;0.838377
9920.000000;0.837929
9919.000000;0.837870
9918.000000;0.838367
9917.000000;0.839367
9916.000000;0.840395
9915.000000;0.840793
9914.000000;0.840327
9913.000000;0.839411
9912.000000;0.838571
9911.000000;0.837869
9910.000000;0.837133
9909.000000;0.836554
9908.000000;0.836561
9907.000000;0.837020
9906.000000;0.837078
9905.000000;0.836143
9904.000000;0.834700
9903.000000;0.833765
9902.000000;0.833686
9901.000000;0.833864
9900.000000;0.833633
9899.000000;0.833012
9898.000000;0.832489
9897.000000;0.832356
9896.000000;0.832456
9895.000000;0.832446
9894.000000;0.832136
9893.000000;0.831588
9892.000000;0.830996
9891.000000;0.830503
9890.000000;0.830087
9889.000000;0.829626
9888.000000;0.829095
9887.000000;0.828657
9886.000000;0.828523
9885.000000;0.828724
9884.000000;0.829079
9883.000000;0.829378
9882.000000;0.829527
9881.000000;0.829483
9880.000000;0.829141
9879.000000;0.828401
9878.000000;0.827367
9877.000000;0.826377
9876.000000;0.825755
9875.000000;0.825588
9874.000000;0.825781
9873.000000;0.826244
9872.000000;0.826906
9871.000000;0.827544
9870.000000;0.827708
9869.000000;0.826935
9868.000000;0.825121
9867.000000;0.822742
9866.000000;0.820667
9865.000000;0.819616
9864.000000;0.819708
9863.000000;0.820487
9862.000000;0.821369
9861.000000;0.821971
9860.000000;0.822120
9859.000000;0.821825
9858.000000;0.821370
9857.000000;0.821203
9856.000000;0.821487
9855.000000;0.821826
9854.000000;0.821635
9853.000000;0.820749
9852.000000;0.819520
9851.000000;0.818446
9850.000000;0.817825
9849.000000;0.817632
9848.000000;0.817490
9847.000000;0.816875
9846.000000;0.815662
9845.000000;0.814412
9844.000000;0.813805
9843.000000;0.813810
9842.000000;0.813740
9841.000000;0.813177
9840.000000;0.812451
9839.000000;0.812070
9838.000000;0.812049
9837.000000;0.812043
9836.000000;0.811878
9835.000000;0.811665
9834.000000;0.811541
9833.000000;0.811559
9832.000000;0.811695
9831.000000;0.811795
9830.000000;0.811615
9829.000000;0.811060
9828.000000;0.810262
9827.000000;0.809359
9826.000000;0.808415
9825.000000;0.807674
9824.000000;0.807576
9823.000000;0.808184
9822.000000;0.808831
9821.000000;0.808708
9820.000000;0.807763
9819.000000;0.806662
9818.000000;0.805943
9817.000000;0.805577
9816.000000;0.805369
9815.000000;0.805321
9814.000000;0.805429
9813.000000;0.805440
9812.000000;0.805091
9811.000000;0.804476
9810.000000;0.804037
9809.000000;0.804200
9808.000000;0.805066
9807.000000;0.806323
9806.000000;0.807361
9805.000000;0.807605
9804.000000;0.806891
9803.000000;0.805550
9802.000000;0.804157
9801.000000;0.803179
9800.000000;0.802766
9799.000000;0.802700
9798.000000;0.802529
9797.000000;0.801916
9796.000000;0.800941
9795.000000;0.800039
9794.000000;0.799640
9793.000000;0.799832
9792.000000;0.800299
9791.000000;0.800526
9790.000000;0.800184
9789.000000;0.799465
9788.000000;0.798937
9787.000000;0.798915
9786.000000;0.799076
9785.000000;0.798859
9784.000000;0.798141
9783.000000;0.797281
9782.000000;0.796572
9781.000000;0.795987
9780.000000;0.795450
9779.000000;0.795019
9778.000000;0.794719
9777.000000;0.794490
9776.000000;0.794455
9775.000000;0.794924
9774.000000;0.795888
9773.000000;0.796727
9772.000000;0.796734
9771.000000;0.795849
9770.000000;0.794615
9769.000000;0.793480
9768.000000;0.792423
9767.000000;0.791267
9766.000000;0.790115
9765.000000;0.789332
9764.000000;0.789180
9763.000000;0.789543
9762.000000;0.789982
9761.000000;0.790056
9760.000000;0.789661
9759.000000;0.789096
9758.000000;0.788785
9757.000000;0.788925
9756.000000;0.789364
9755.000000;0.789748
9754.000000;0.789761
9753.000000;0.789316
9752.000000;0.788637
9751.000000;0.788139
9750.000000;0.788138
9749.000000;0.788566
9748.000000;0.788990
9747.000000;0.788941
9746.000000;0.788279
9745.000000;0.787241
9744.000000;0.786153
9743.000000;0.785178
9742.000000;0.784390
9741.000000;0.783958
9740.000000;0.784049
9739.000000;0.784487
9738.000000;0.784743
9737.000000;0.784420
9736.000000;0.783653
9735.000000;0.782878
9734.000000;0.782352
9733.000000;0.782053
9732.000000;0.781940
9731.000000;0.782015
9730.000000;0.782159
9729.000000;0.782159
9728.000000;0.781944
9727.000000;0.781575
9726.000000;0.780997
9725.000000;0.780097
9724.000000;0.779050
9723.000000;0.778308
9722.000000;0.778078
9721.000000;0.778048
9720.000000;0.777809
9719.000000;0.777346
9718.000000;0.776944
9717.000000;0.776792
9716.000000;0.776847
9715.000000;0.776929
9714.000000;0.776806
9713.000000;0.776352
9712.000000;0.775827
9711.000000;0.775738
9710.000000;0.776188
9709.000000;0.776560
9708.000000;0.776182
9707.000000;0.775179
9706.000000;0.774320
9705.000000;0.774075
9704.000000;0.774165
9703.000000;0.774034
9702.000000;0.773488
9701.000000;0.772803
9700.000000;0.772435
9699.000000;0.772649
9698.000000;0.773177
9697.000000;0.773293
9696.000000;0.772514
9695.000000;0.771286
9694.000000;0.770633
9693.000000;0.771023
9692.000000;0.771880
9691.000000;0.772336
9690.000000;0.772140
9689.000000;0.771635
9688.000000;0.771101
9687.000000;0.770517
9686.000000;0.769859
9685.000000;0.769307
9684.000000;0.769059
9683.000000;0.769094
9682.000000;0.769166
9681.000000;0.768974
9680.000000;0.768364
9679.000000;0.767442
9678.000000;0.766475
9677.000000;0.765701
9676.000000;0.765295
9675.000000;0.765435
9674.000000;0.766184
9673.000000;0.767223
9672.000000;0.767947
9671.000000;0.767980
9670.000000;0.767482
9669.000000;0.766817
9668.000000;0.766128
9667.000000;0.765408
9666.000000;0.764777
9665.000000;0.764353
9664.000000;0.763969
9663.000000;0.763359
9662.000000;0.762624
9661.000000;0.762227
9660.000000;0.762418
9659.000000;0.762889
9658.000000;0.763108
9657.000000;0.762819
9656.000000;0.762149
9655.000000;0.761369
9654.000000;0.760708
9653.000000;0.760299
9652.000000;0.760177
9651.000000;0.760269
9650.000000;0.760402
9649.000000;0.760309
9648.000000;0.759756
9647.000000;0.758772
9646.000000;0.757752
9645.000000;0.757204
9644.000000;0.757363
9643.000000;0.758090
9642.000000;0.759052
9641.000000;0.759874
9640.000000;0.760199
9639.000000;0.759828
9638.000000;0.758869
9637.000000;0.757649
9636.000000;0.756494
9635.000000;0.755677
9634.000000;0.755413
9633.000000;0.755641
9632.000000;0.755851
9631.000000;0.755459
9630.000000;0.754468
9629.000000;0.753506
9628.000000;0.753102
9627.000000;0.753160
9626.000000;0.753237
9625.000000;0.753059
9624.000000;0.752565
9623.000000;0.751747
9622.000000;0.750735
9621.000000;0.749916
9620.000000;0.749667
9619.000000;0.750005
9618.000000;0.750661
9617.000000;0.751366
9616.000000;0.751875
9615.000000;0.751865
9614.000000;0.751157
9613.000000;0.750035
9612.000000;0.749080
9611.000000;0.748629
9610.000000;0.748569
9609.000000;0.748635
9608.000000;0.748680
9607.000000;0.748642
9606.000000;0.748490
9605.000000;0.748308
9604.000000;0.748234
9603.000000;0.748220
9602.000000;0.747976
9601.000000;0.747278
9600.000000;0.746292
9599.000000;0.745536
9598.000000;0.745496
9597.000000;0.746210
9596.000000;0.747118
9595.000000;0.747413
9594.000000;0.746727
9593.000000;0.745448
9592.000000;0.744222
9591.000000;0.743252
9590.000000;0.742364
9589.000000;0.741643
9588.000000;0.741546
9587.000000;0.742206
9586.000000;0.742995
9585.000000;0.743120
9584.000000;0.742542
9583.000000;0.741960
9582.000000;0.741937
9581.000000;0.742269
9580.000000;0.742270
9579.000000;0.741525
9578.000000;0.740286
9577.000000;0.739158
9576.000000;0.738428
9575.000000;0.737803
9574.000000;0.736935
9573.000000;0.736103
9572.000000;0.736039
9571.000000;0.736969
9570.000000;0.738125
9569.000000;0.738498
9568.000000;0.737901
9567.000000;0.736998
9566.000000;0.736384
9565.000000;0.736065
9564.000000;0.735844
9563.000000;0.735798
9562.000000;0.736107
9561.000000;0.736628
9560.000000;0.736936
9559.000000;0.736756
9558.000000;0.736167
9557.000000;0.735398
9556.000000;0.734620
9555.000000;0.733940
9554.000000;0.733445
9553.000000;0.733123
9552.000000;0.732821
9551.000000;0.732426
9550.000000;0.732067
9549.000000;0.732025
9548.000000;0.732379
9547.000000;0.732845
9546.000000;0.733049
9545.000000;0.732900
9544.000000;0.732592
9543.000000;0.732283
9542.000000;0.731912
9541.000000;0.731332
9540.000000;0.730517
9539.000000;0.729663
9538.000000;0.729158
9537.000000;0.729420
9536.000000;0.730519
9535.000000;0.731917
9534.000000;0.732766
9533.000000;0.732604
9532.000000;0.731673
9531.000000;0.730535
9530.000000;0.729507
9529.000000;0.728549
9528.000000;0.727512
9527.000000;0.726369
9526.000000;0.725342
9525.000000;0.724893
9524.000000;0.725362
9523.000000;0.726425
9522.000000;0.727116
9521.000000;0.726713
9520.000000;0.725560
9519.000000;0.724724
9518.000000;0.724855
9517.000000;0.725628
9516.000000;0.726326
9515.000000;0.726609
9514.000000;0.726560
9513.000000;0.726271
9512.000000;0.725694
9511.000000;0.724921
9510.000000;0.724336
9509.000000;0.724343
9508.000000;0.724907
9507.000000;0.725441
9506.000000;0.725270
9505.000000;0.724272
9504.000000;0.722987
9503.000000;0.722031
9502.000000;0.721548
9501.000000;0.721316
9500.000000;0.721212
9499.000000;0.721271
9498.000000;0.721330
9497.000000;0.720982
9496.000000;0.720106
9495.000000;0.719192
9494.000000;0.718883
9493.000000;0.719227
9492.000000;0.719597
9491.000000;0.719377
9490.000000;0.718614
9489.000000;0.717910
9488.000000;0.717728
9487.000000;0.717904
9486.000000;0.717874
9485.000000;0.717370
9484.000000;0.716803
9483.000000;0.716862
9482.000000;0.717740
9481.000000;0.718854
9480.000000;0.719329
9479.000000;0.718720
9478.000000;0.717281
9477.000000;0.715650
9476.000000;0.714442
9475.000000;0.714004
9474.000000;0.714330
9473.000000;0.715086
9472.000000;0.715766
9471.000000;0.715933
9470.000000;0.715430
9469.000000;0.714445
9468.000000;0.713375
9467.000000;0.712557
9466.000000;0.712103
9465.000000;0.711955
9464.000000;0.712061
9463.000000;0.712393
9462.000000;0.712814
9461.000000;0.713072
9460.000000;0.713037
9459.000000;0.712889
9458.000000;0.712958
9457.000000;0.713362
9456.000000;0.713829
9455.000000;0.713925
9454.000000;0.713451
9453.000000;0.712630
9452.000000;0.711916
9451.000000;0.711620
9450.000000;0.711706
9449.000000;0.711898
9448.000000;0.711920
9447.000000;0.711646
9446.000000;0.711156
9445.000000;0.710736
9444.000000;0.710734
9443.000000;0.711221
9442.000000;0.711747
9441.000000;0.711603
9440.000000;0.710514
9439.000000;0.709073
9438.000000;0.708311
9437.000000;0.708747
9436.000000;0.709861
9435.000000;0.710580
9434.000000;0.710272
9433.000000;0.709222
9432.000000;0.708174
9431.000000;0.707595
9430.000000;0.707440
9429.000000;0.707459
9428.000000;0.707462
9427.000000;0.707322
9426.000000;0.706980
9425.000000;0.706551
9424.000000;0.706210
9423.000000;0.705893
9422.000000;0.705317
9421.000000;0.704454
9420.000000;0.703770
9419.000000;0.703746
9418.000000;0.704297
9417.000000;0.704921
9416.000000;0.705292
9415.000000;0.705399
9414.000000;0.705210
9413.000000;0.704638
9412.000000;0.703893
9411.000000;0.703437
9410.000000;0.703369
9409.000000;0.703192
9408.000000;0.702474
9407.000000;0.701533
9406.000000;0.701111
9405.000000;0.701463
9404.000000;0.702067
9403.000000;0.702251
9402.000000;0.701861
9401.000000;0.701243
9400.000000;0.700786
9399.000000;0.700614
9398.000000;0.700610
9397.000000;0.700587
9396.000000;0.700422
9395.000000;0.700137
9394.000000;0.699895
9393.000000;0.699918
9392.000000;0.700301
9391.000000;0.700826
9390.000000;0.701056
9389.000000;0.700729
9388.000000;0.700036
9387.000000;0.699400
9386.000000;0.699024
9385.000000;0.698806
9384.000000;0.698632
9383.000000;0.698505
9382.000000;0.698353
9381.000000;0.698002
9380.000000;0.697429
9379.000000;0.696834
9378.000000;0.696325
9377.000000;0.695811
9376.000000;0.695352
9375.000000;0.695314
9374.000000;0.695869
9373.000000;0.696586
9372.000000;0.696911
9371.000000;0.696888
9370.000000;0.696962
9369.000000;0.697171
9368.000000;0.697065
9367.000000;0.696481
9366.000000;0.695874
9365.000000;0.695653
9364.000000;0.695595
9363.000000;0.695212
9362.000000;0.694475
9361.000000;0.693856
9360.000000;0.693789
9359.000000;0.694315
9358.000000;0.695135
9357.000000;0.695779
9356.000000;0.695835
9355.000000;0.695244
9354.000000;0.694358
9353.000000;0.693577
9352.000000;0.693006
9351.000000;0.692540
9350.000000;0.692107
9349.000000;0.691635
9348.000000;0.690991
9347.000000;0.690218
9346.000000;0.689721
9345.000000;0.689864
9344.000000;0.690399
9343.000000;0.690622
9342.000000;0.690140
9341.000000;0.689235
9340.000000;0.688454
9339.000000;0.688131
9338.000000;0.688382
9337.000000;0.689200
9336.000000;0.690297
9335.000000;0.691075
9334.000000;0.691108
9333.000000;0.690601
9332.000000;0.690156
9331.000000;0.690078
9330.000000;0.690113
9329.000000;0.689853
9328.000000;0.689206
9327.000000;0.688416
9326.000000;0.687752
9325.000000;0.687287
9324.000000;0.686953
9323.000000;0.686722
9322.000000;0.686676
9321.000000;0.686871
9320.000000;0.687178
9319.000000;0.687374
9318.000000;0.687386
9317.000000;0.687300
9316.000000;0.687112
9315.000000;0.686646
9314.000000;0.685834
9313.000000;0.684915
9312.000000;0.684215
9311.000000;0.683818
9310.000000;0.683638
9309.000000;0.683675
9308.000000;0.683990
9307.000000;0.684464
9306.000000;0.684846
9305.000000;0.685046
9304.000000;0.685202
9303.000000;0.685394
9302.000000;0.685509
9301.000000;0.685433
9300.000000;0.685198
9299.000000;0.684859
9298.000000;0.684413
9297.000000;0.683911
9296.000000;0.683507
9295.000000;0.683258
9294.000000;0.683003
9293.000000;0.682551
9292.000000;0.681916
9291.000000;0.681287
9290.000000;0.680875
9289.000000;0.680830
9288.000000;0.681156
9287.000000;0.681630
9286.000000;0.681969
9285.000000;0.682149
9284.000000;0.682380
9283.000000;0.682647
9282.000000;0.682523
9281.000000;0.681720
9280.000000;0.680629
9279.000000;0.679967
9278.000000;0.679945
9277.000000;0.680123
9276.000000;0.680101
9275.000000;0.680006
9274.000000;0.680119
9273.000000;0.680321
9272.000000;0.680183
9271.000000;0.679541
9270.000000;0.678754
9269.000000;0.678373
9268.000000;0.678631
9267.000000;0.679221
9266.000000;0.679539
9265.000000;0.679170
9264.000000;0.678236
9263.000000;0.677271
9262.000000;0.676787
9261.000000;0.676933
9260.000000;0.677490
9259.000000;0.678043
9258.000000;0.678153
9257.000000;0.677571
9256.000000;0.676425
9255.000000;0.675184
9254.000000;0.674322
9253.000000;0.673991
9252.000000;0.674016
9251.000000;0.674133
9250.000000;0.674168
9249.000000;0.674065
9248.000000;0.673832
9247.000000;0.673526
9246.000000;0.673269
9245.000000;0.673265
9244.000000;0.673670
9243.000000;0.674368
9242.000000;0.674938
9241.000000;0.674996
9240.000000;0.674624
9239.000000;0.674296
9238.000000;0.674345
9237.000000;0.674633
9236.000000;0.674822
9235.000000;0.674833
9234.000000;0.674835
9233.000000;0.674875
9232.000000;0.674765
9231.000000;0.674374
9230.000000;0.673817
9229.000000;0.673251
9228.000000;0.672634
9227.000000;0.671863
9226.000000;0.671084
9225.000000;0.670687
9224.000000;0.670944
9223.000000;0.671763
9222.000000;0.672787
9221.000000;0.673618
9220.000000;0.673918
9219.000000;0.673503
9218.000000;0.672528
9217.000000;0.671511
9216.000000;0.670952
9215.000000;0.670912
9214.000000;0.671076
9213.000000;0.671203
9212.000000;0.671322
9211.000000;0.671429
9210.000000;0.671248
9209.000000;0.670514
9208.000000;0.669443
9207.000000;0.668705
9206.000000;0.668846
9205.000000;0.669783
9204.000000;0.670856
9203.000000;0.671348
9202.000000;0.671016
9201.000000;0.670196
9200.000000;0.669410
9199.000000;0.668887
9198.000000;0.668498
9197.000000;0.668106
9196.000000;0.667815
9195.000000;0.667795
9194.000000;0.668020
9193.000000;0.668310
9192.000000;0.668521
9191.000000;0.668554
9190.000000;0.668303
9189.000000;0.667787
9188.000000;0.667286
9187.000000;0.667119
9186.000000;0.667258
9185.000000;0.667343
9184.000000;0.667082
9183.000000;0.666493
9182.000000;0.665752
9181.000000;0.664988
9180.000000;0.664305
9179.000000;0.663861
9178.000000;0.663793
9177.000000;0.664085
9176.000000;0.664548
9175.000000;0.664917
9174.000000;0.665041
9173.000000;0.665034
9172.000000;0.665176
9171.000000;0.665548
9170.000000;0.665837
9169.000000;0.665639
9168.000000;0.664931
9167.000000;0.664114
9166.000000;0.663612
9165.000000;0.663581
9164.000000;0.663909
9163.000000;0.664328
9162.000000;0.664544
9161.000000;0.664460
9160.000000;0.664261
9159.000000;0.664122
9158.000000;0.663910
9157.000000;0.663415
9156.000000;0.662814
9155.000000;0.662552
9154.000000;0.662756
9153.000000;0.663098
9152.000000;0.663307
9151.000000;0.663444
9150.000000;0.663589
9149.000000;0.663628
9148.000000;0.663538
9147.000000;0.663520
9146.000000;0.663614
9145.000000;0.663507
9144.000000;0.663030
9143.000000;0.662509
9142.000000;0.662285
9141.000000;0.662182
9140.000000;0.661876
9139.000000;0.661544
9138.000000;0.661598
9137.000000;0.661894
9136.000000;0.661788
9135.000000;0.661071
9134.000000;0.660351
9133.000000;0.660305
9132.000000;0.660916
9131.000000;0.661643
9130.000000;0.662065
9129.000000;0.662151
9128.000000;0.662078
9127.000000;0.662029
9126.000000;0.662073
9125.000000;0.662101
9124.000000;0.661908
9123.000000;0.661366
9122.000000;0.660452
9121.000000;0.659209
9120.000000;0.657905
9119.000000;0.657162
9118.000000;0.657515
9117.000000;0.658703
9116.000000;0.659699
9115.000000;0.659708
9114.000000;0.658966
9113.000000;0.658298
9112.000000;0.658136
9111.000000;0.658269
9110.000000;0.658412
9109.000000;0.658568
9108.000000;0.658771
9107.000000;0.658819
9106.000000;0.658499
9105.000000;0.657894
9104.000000;0.657313
9103.000000;0.657003
9102.000000;0.657076
9101.000000;0.657571
9100.000000;0.658372
9099.000000;0.659092
9098.000000;0.659257
9097.000000;0.658734
9096.000000;0.657887
9095.000000;0.657220
9094.000000;0.656920
9093.000000;0.656810
9092.000000;0.656653
9091.000000;0.656380
9090.000000;0.656023
9089.000000;0.655564
9088.000000;0.654972
9087.000000;0.654359
9086.000000;0.654026
9085.000000;0.654237
9084.000000;0.654896
9083.000000;0.655494
9082.000000;0.655523
9081.000000;0.655021
9080.000000;0.654589
9079.000000;0.654745
9078.000000;0.655371
9077.000000;0.655949
9076.000000;0.656229
9075.000000;0.656410
9074.000000;0.656653
9073.000000;0.656730
9072.000000;0.656280
9071.000000;0.655274
9070.000000;0.654076
9069.000000;0.653201
9068.000000;0.653066
9067.000000;0.653758
9066.000000;0.654875
9065.000000;0.655730
9064.000000;0.655920
9063.000000;0.655633
9062.000000;0.655261
9061.000000;0.654879
9060.000000;0.654309
9059.000000;0.653603
9058.000000;0.653159
9057.000000;0.653299
9056.000000;0.653898
9055.000000;0.654462
9054.000000;0.654522
9053.000000;0.653977
