Criado como novo conjunto de dados;"e0108.spp","-4219361.6 Secs"
cm-1;Abs
10000.000000;1.999048
9999.000000;2.006395
9998.000000;2.013224
9997.000000;2.021570
9996.000000;2.022819
9995.000000;2.015974
9994.000000;2.012323
9993.000000;2.017646
9992.000000;2.031065
9991.000000;2.042989
9990.000000;2.042458
9989.000000;2.027285
9988.000000;2.007070
9987.000000;1.992697
9986.000000;1.986665
9985.000000;1.983453
9984.000000;1.977181
9983.000000;1.968951
9982.000000;1.965666
9981.000000;1.972229
9980.000000;1.986063
9979.000000;1.998748
9978.000000;2.003465
9977.000000;2.000851
9976.000000;1.996378
9975.000000;1.993654
9974.000000;1.991897
9973.000000;1.988896
9972.000000;1.985088
9971.000000;1.983566
9970.000000;1.986086
9969.000000;1.989653
9968.000000;1.987579
9967.000000;1.976562
9966.000000;1.962575
9965.000000;1.955944
9964.000000;1.961649
9963.000000;1.975912
9962.000000;1.990745
9961.000000;2.000724
9960.000000;2.004564
9959.000000;2.002432
9958.000000;1.995656
9957.000000;1.987871
9956.000000;1.982399
9955.000000;1.978783
9954.000000;1.975041
9953.000000;1.972729
9952.000000;1.975701
9951.000000;1.983368
9950.000000;1.989279
9949.000000;1.989006
9948.000000;1.986123
9947.000000;1.986410
9946.000000;1.989917
9945.000000;1.992446
9944.000000;1.992076
9943.000000;1.990052
9942.000000;1.986683
9941.000000;1.981000
9940.000000;1.973828
9939.000000;1.966837
9938.000000;1.959491
9937.000000;1.951382
9936.000000;1.946482
9935.000000;1.950698
9934.000000;1.964860
9933.000000;1.982381
9932.000000;1.995167
9931.000000;2.000968
9930.000000;2.002393
9929.000000;2.000678
9928.000000;1.994861
9927.000000;1.986048
9926.000000;1.977963
9925.000000;1.972633
9924.000000;1.968140
9923.000000;1.961978
9922.000000;1.955627
9921.000000;1.953763
9920.000000;1.958845
9919.000000;1.968027
9918.000000;1.976229
9917.000000;1.981443
9916.000000;1.984763
9915.000000;1.985714
9914.000000;1.981693
9913.000000;1.973157
9912.000000;1.965008
9911.000000;1.960412
9910.000000;1.956872
9909.000000;1.950970
9908.000000;1.944297
9907.000000;1.941314
9906.000000;1.943470
9905.000000;1.948830
9904.000000;1.956179
9903.000000;1.965596
9902.000000;1.974751
9901.000000;1.978958
9900.000000;1.976474
9899.000000;1.969926
9898.000000;1.962685
9897.000000;1.957954
9896.000000;1.959730
9895.000000;1.969796
9894.000000;1.982880
9893.000000;1.988581
9892.000000;1.982316
9891.000000;1.971368
9890.000000;1.966077
9889.000000;1.969123
9888.000000;1.974758
9887.000000;1.975268
9886.000000;1.967780
9885.000000;1.956584
9884.000000;1.949446
9883.000000;1.950629
9882.000000;1.956805
9881.000000;1.960801
9880.000000;1.959289
9879.000000;1.954974
9878.000000;1.951273
9877.000000;1.948384
9876.000000;1.945946
9875.000000;1.944649
9874.000000;1.943852
9873.000000;1.941773
9872.000000;1.939308
9871.000000;1.940578
9870.000000;1.947388
9869.000000;1.955602
9868.000000;1.959448
9867.000000;1.957843
9866.000000;1.953576
9865.000000;1.948245
9864.000000;1.941594
9863.000000;1.934226
9862.000000;1.927797
9861.000000;1.923535
9860.000000;1.922651
9859.000000;1.926116
9858.000000;1.931866
9857.000000;1.934913
9856.000000;1.933189
9855.000000;1.931152
9854.000000;1.934462
9853.000000;1.943165
9852.000000;1.952564
9851.000000;1.958900
9850.000000;1.960869
9849.000000;1.956923
9848.000000;1.946480
9847.000000;1.933910
9846.000000;1.926250
9845.000000;1.926240
9844.000000;1.930273
9843.000000;1.933731
9842.000000;1.936705
9841.000000;1.942834
9840.000000;1.953769
9839.000000;1.966210
9838.000000;1.974303
9837.000000;1.975106
9836.000000;1.970976
9835.000000;1.965643
9834.000000;1.959258
9833.000000;1.949434
9832.000000;1.936704
9831.000000;1.925499
9830.000000;1.918801
9829.000000;1.915061
9828.000000;1.912154
9827.000000;1.911725
9826.000000;1.916555
9825.000000;1.925434
9824.000000;1.933811
9823.000000;1.938700
9822.000000;1.939902
9821.000000;1.937172
9820.000000;1.930413
9819.000000;1.922483
9818.000000;1.917740
9817.000000;1.917632
9816.000000;1.920339
9815.000000;1.923992
9814.000000;1.927465
9813.000000;1.928957
9812.000000;1.927435
9811.000000;1.925299
9810.000000;1.926047
9809.000000;1.929021
9808.000000;1.930071
9807.000000;1.927934
9806.000000;1.925506
9805.000000;1.924476
9804.000000;1.923289
9803.000000;1.921423
9802.000000;1.921771
9801.000000;1.926065
9800.000000;1.931306
9799.000000;1.934017
9798.000000;1.935159
9797.000000;1.936886
9796.000000;1.937144
9795.000000;1.931798
9794.000000;1.921319
9793.000000;1.911275
9792.000000;1.906538
9791.000000;1.908043
9790.000000;1.913510
9789.000000;1.919068
9788.000000;1.921339
9787.000000;1.920128
9786.000000;1.919408
9785.000000;1.923688
9784.000000;1.933112
9783.000000;1.943298
9782.000000;1.948863
9781.000000;1.947163
9780.000000;1.939983
9779.000000;1.932068
9778.000000;1.928272
9777.000000;1.930137
9776.000000;1.933916
9775.000000;1.933745
9774.000000;1.928122
9773.000000;1.921566
9772.000000;1.918873
9771.000000;1.919732
9770.000000;1.919946
9769.000000;1.917137
9768.000000;1.913545
9767.000000;1.912494
9766.000000;1.913744
9765.000000;1.913722
9764.000000;1.910143
9763.000000;1.905092
9762.000000;1.902642
9761.000000;1.904513
9760.000000;1.908899
9759.000000;1.912821
9758.000000;1.914550
9757.000000;1.913927
9756.000000;1.911990
9755.000000;1.910670
9754.000000;1.911846
9753.000000;1.916268
9752.000000;1.923142
9751.000000;1.930051
9750.000000;1.933419
9749.000000;1.931001
9748.000000;1.925354
9747.000000;1.922502
9746.000000;1.924619
9745.000000;1.925843
9744.000000;1.918655
9743.000000;1.904469
9742.000000;1.893452
9741.000000;1.894013
9740.000000;1.905499
9739.000000;1.919161
9738.000000;1.924778
9737.000000;1.918082
9736.000000;1.903348
9735.000000;1.889390
9734.000000;1.882744
9733.000000;1.883858
9732.000000;1.889351
9731.000000;1.896424
9730.000000;1.903239
9729.000000;1.906863
9728.000000;1.904935
9727.000000;1.899891
9726.000000;1.897628
9725.000000;1.900522
9724.000000;1.904567
9723.000000;1.905278
9722.000000;1.904381
9721.000000;1.906793
9720.000000;1.912811
9719.000000;1.917133
9718.000000;1.915028
9717.000000;1.907501
9716.000000;1.899523
9715.000000;1.894645
9714.000000;1.893069
9713.000000;1.893176
9712.000000;1.893072
9711.000000;1.891448
9710.000000;1.887861
9709.000000;1.883332
9708.000000;1.880947
9707.000000;1.884220
9706.000000;1.893358
9705.000000;1.903438
9704.000000;1.908475
9703.000000;1.907777
9702.000000;1.905937
9701.000000;1.906253
9700.000000;1.906623
9699.000000;1.903635
9698.000000;1.898673
9697.000000;1.896065
9696.000000;1.896427
9695.000000;1.895379
9694.000000;1.889294
9693.000000;1.880453
9692.000000;1.874970
9691.000000;1.876808
9690.000000;1.884638
9689.000000;1.893389
9688.000000;1.898356
9687.000000;1.897984
9686.000000;1.892951
9685.000000;1.884652
9684.000000;1.876312
9683.000000;1.873151
9682.000000;1.878320
9681.000000;1.888642
9680.000000;1.896189
9679.000000;1.896043
9678.000000;1.891310
9677.000000;1.888134
9676.000000;1.888129
9675.000000;1.887967
9674.000000;1.884984
9673.000000;1.880557
9672.000000;1.877486
9671.000000;1.876297
9670.000000;1.875036
9669.000000;1.872209
9668.000000;1.869362
9667.000000;1.870136
9666.000000;1.876640
9665.000000;1.886443
9664.000000;1.893129
9663.000000;1.891173
9662.000000;1.881180
9661.000000;1.868981
9660.000000;1.860046
9659.000000;1.856200
9658.000000;1.856064
9657.000000;1.857374
9656.000000;1.859287
9655.000000;1.862717
9654.000000;1.868356
9653.000000;1.874534
9652.000000;1.877943
9651.000000;1.876786
9650.000000;1.872298
9649.000000;1.867026
9648.000000;1.862932
9647.000000;1.861468
9646.000000;1.863665
9645.000000;1.868864
9644.000000;1.874531
9643.000000;1.878619
9642.000000;1.881286
9641.000000;1.883398
9640.000000;1.884330
9639.000000;1.882254
9638.000000;1.876158
9637.000000;1.867414
9636.000000;1.859966
9635.000000;1.858305
9634.000000;1.863959
9633.000000;1.873420
9632.000000;1.880354
9631.000000;1.881417
9630.000000;1.878565
9629.000000;1.874585
9628.000000;1.869806
9627.000000;1.864315
9626.000000;1.860078
9625.000000;1.859188
9624.000000;1.861772
9623.000000;1.866719
9622.000000;1.872576
9621.000000;1.876156
9620.000000;1.873051
9619.000000;1.863044
9618.000000;1.852460
9617.000000;1.848054
9616.000000;1.850827
9615.000000;1.857178
9614.000000;1.864239
9613.000000;1.871626
9612.000000;1.878560
9611.000000;1.882731
9610.000000;1.882612
9609.000000;1.878860
9608.000000;1.873287
9607.000000;1.867996
9606.000000;1.864999
9605.000000;1.864600
9604.000000;1.864423
9603.000000;1.862020
9602.000000;1.858093
9601.000000;1.855113
9600.000000;1.853577
9599.000000;1.852234
9598.000000;1.851383
9597.000000;1.852943
9596.000000;1.856993
9595.000000;1.860787
9594.000000;1.861919
9593.000000;1.860448
9592.000000;1.857313
9591.000000;1.852965
9590.000000;1.848535
9589.000000;1.846344
9588.000000;1.847746
9587.000000;1.851384
9586.000000;1.854712
9585.000000;1.856776
9584.000000;1.858544
9583.000000;1.860937
9582.000000;1.863361
9581.000000;1.864195
9580.000000;1.862483
9579.000000;1.858689
9578.000000;1.853692
9577.000000;1.847656
9576.000000;1.840964
9575.000000;1.836334
9574.000000;1.837667
9573.000000;1.845179
9572.000000;1.853315
9571.000000;1.855958
9570.000000;1.852954
9569.000000;1.848706
9568.000000;1.845697
9567.000000;1.843005
9566.000000;1.840483
9565.000000;1.839768
9564.000000;1.840046
9563.000000;1.837384
9562.000000;1.831180
9561.000000;1.827811
9560.000000;1.834410
9559.000000;1.850781
9558.000000;1.868136
9557.000000;1.875660
9556.000000;1.869592
9555.000000;1.855634
9554.000000;1.842889
9553.000000;1.837066
9552.000000;1.838227
9551.000000;1.842763
9550.000000;1.847328
9549.000000;1.851029
9548.000000;1.853976
9547.000000;1.855480
9546.000000;1.854586
9545.000000;1.850998
9544.000000;1.845120
9543.000000;1.838347
9542.000000;1.833019
9541.000000;1.830920
9540.000000;1.832307
9539.000000;1.836768
9538.000000;1.843687
9537.000000;1.850763
9536.000000;1.853483
9535.000000;1.849343
9534.000000;1.842883
9533.000000;1.842562
9532.000000;1.851337
9531.000000;1.862518
9530.000000;1.866566
9529.000000;1.861283
9528.000000;1.852217
9527.000000;1.844744
9526.000000;1.840224
9525.000000;1.838680
9524.000000;1.840637
9523.000000;1.844872
9522.000000;1.847133
9521.000000;1.843549
9520.000000;1.835006
9519.000000;1.826683
9518.000000;1.823319
9517.000000;1.825309
9516.000000;1.829047
9515.000000;1.830862
9514.000000;1.830507
9513.000000;1.830890
9512.000000;1.834335
9511.000000;1.839875
9510.000000;1.844788
9509.000000;1.846877
9508.000000;1.844856
9507.000000;1.839148
9506.000000;1.833582
9505.000000;1.834213
9504.000000;1.843656
9503.000000;1.856360
9502.000000;1.862122
9501.000000;1.856937
9500.000000;1.847301
9499.000000;1.841274
9498.000000;1.840044
9497.000000;1.839704
9496.000000;1.837978
9495.000000;1.836427
9494.000000;1.836549
9493.000000;1.836518
9492.000000;1.832923
9491.000000;1.824994
9490.000000;1.816065
9489.000000;1.810858
9488.000000;1.811865
9487.000000;1.818029
9486.000000;1.826108
9485.000000;1.832976
9484.000000;1.836748
9483.000000;1.836595
9482.000000;1.832831
9481.000000;1.827222
9480.000000;1.822065
9479.000000;1.818272
9478.000000;1.815165
9477.000000;1.812474
9476.000000;1.810524
9475.000000;1.808779
9474.000000;1.806489
9473.000000;1.804582
9472.000000;1.805428
9471.000000;1.809876
9470.000000;1.815404
9469.000000;1.818572
9468.000000;1.818542
9467.000000;1.816940
9466.000000;1.815435
9465.000000;1.814912
9464.000000;1.816184
9463.000000;1.819638
9462.000000;1.824153
9461.000000;1.827729
9460.000000;1.829682
9459.000000;1.830978
9458.000000;1.831806
9457.000000;1.830621
9456.000000;1.826499
9455.000000;1.820986
9454.000000;1.816713
9453.000000;1.815281
9452.000000;1.816770
9451.000000;1.819783
9450.000000;1.821439
9449.000000;1.819173
9448.000000;1.813780
9447.000000;1.808934
9446.000000;1.806732
9445.000000;1.805648
9444.000000;1.803991
9443.000000;1.803311
9442.000000;1.806120
9441.000000;1.811860
9440.000000;1.817938
9439.000000;1.823775
9438.000000;1.830290
9437.000000;1.835444
9436.000000;1.834706
9435.000000;1.827663
9434.000000;1.819896
9433.000000;1.816065
9432.000000;1.814651
9431.000000;1.811404
9430.000000;1.805865
9429.000000;1.801888
9428.000000;1.802952
9427.000000;1.809168
9426.000000;1.817797
9425.000000;1.825130
9424.000000;1.828645
9423.000000;1.828840
9422.000000;1.828384
9421.000000;1.828690
9420.000000;1.828535
9419.000000;1.826905
9418.000000;1.825270
9417.000000;1.824987
9416.000000;1.824182
9415.000000;1.819909
9414.000000;1.812770
9413.000000;1.806930
9412.000000;1.805775
9411.000000;1.809557
9410.000000;1.816562
9409.000000;1.824255
9408.000000;1.829289
9407.000000;1.828994
9406.000000;1.823960
9405.000000;1.817305
9404.000000;1.811492
9403.000000;1.807471
9402.000000;1.806042
9401.000000;1.807959
9400.000000;1.812240
9399.000000;1.815715
9398.000000;1.815194
9397.000000;1.809642
9396.000000;1.800415
9395.000000;1.790984
9394.000000;1.786287
9393.000000;1.789883
9392.000000;1.800238
9391.000000;1.810556
9390.000000;1.814051
9389.000000;1.809803
9388.000000;1.802060
9387.000000;1.794664
9386.000000;1.788076
9385.000000;1.781267
9384.000000;1.775003
9383.000000;1.772207
9382.000000;1.775082
9381.000000;1.782467
9380.000000;1.790858
9379.000000;1.798099
9378.000000;1.804418
9377.000000;1.809099
9376.000000;1.808873
9375.000000;1.802377
9374.000000;1.793911
9373.000000;1.789034
9372.000000;1.788192
9371.000000;1.787835
9370.000000;1.786727
9369.000000;1.787478
9368.000000;1.791560
9367.000000;1.796585
9366.000000;1.799937
9365.000000;1.802050
9364.000000;1.803737
9363.000000;1.803219
9362.000000;1.799085
9361.000000;1.793781
9360.000000;1.790909
9359.000000;1.790618
9358.000000;1.790160
9357.000000;1.788238
9356.000000;1.786373
9355.000000;1.786457
9354.000000;1.788679
9353.000000;1.791581
9352.000000;1.793039
9351.000000;1.791234
9350.000000;1.786109
9349.000000;1.780044
9348.000000;1.776134
9347.000000;1.775871
9346.000000;1.779061
9345.000000;1.785114
9344.000000;1.792626
9343.000000;1.798118
9342.000000;1.797796
9341.000000;1.791654
9340.000000;1.784118
9339.000000;1.779848
9338.000000;1.779942
9337.000000;1.782156
9336.000000;1.783740
9335.000000;1.783744
9334.000000;1.783197
9333.000000;1.783922
9332.000000;1.786747
9331.000000;1.790479
9330.000000;1.793214
9329.000000;1.794180
9328.000000;1.793650
9327.000000;1.791978
9326.000000;1.789505
9325.000000;1.786907
9324.000000;1.785019
9323.000000;1.784352
9322.000000;1.785162
9321.000000;1.787932
9320.000000;1.792980
9319.000000;1.799456
9318.000000;1.805171
9317.000000;1.807525
9316.000000;1.804946
9315.000000;1.798143
9314.000000;1.790112
9313.000000;1.784308
9312.000000;1.782213
9311.000000;1.782827
9310.000000;1.784712
9309.000000;1.787740
9308.000000;1.792070
9307.000000;1.796262
9306.000000;1.797930
9305.000000;1.796556
9304.000000;1.794382
9303.000000;1.793844
9302.000000;1.795078
9301.000000;1.796114
9300.000000;1.794871
9299.000000;1.791082
9298.000000;1.786806
9297.000000;1.784933
9296.000000;1.786601
9295.000000;1.789972
9294.000000;1.791743
9293.000000;1.789877
9292.000000;1.784786
9291.000000;1.778512
9290.000000;1.773424
9289.000000;1.771047
9288.000000;1.771340
9287.000000;1.773028
9286.000000;1.774960
9285.000000;1.776951
9284.000000;1.779062
9283.000000;1.780901
9282.000000;1.782307
9281.000000;1.783724
9280.000000;1.784917
9279.000000;1.784324
9278.000000;1.781112
9277.000000;1.777080
9276.000000;1.774741
9275.000000;1.774024
9274.000000;1.772600
9273.000000;1.769478
9272.000000;1.766400
9271.000000;1.765126
9270.000000;1.765463
9269.000000;1.766637
9268.000000;1.769125
9267.000000;1.773838
9266.000000;1.779696
9265.000000;1.783528
9264.000000;1.783052
9263.000000;1.779007
9262.000000;1.773835
9261.000000;1.769244
9260.000000;1.765748
9259.000000;1.763441
9258.000000;1.762416
9257.000000;1.762704
9256.000000;1.763975
9255.000000;1.765728
9254.000000;1.768084
9253.000000;1.771633
9252.000000;1.775864
9251.000000;1.778575
9250.000000;1.777737
9249.000000;1.773379
9248.000000;1.767260
9247.000000;1.761908
9246.000000;1.760442
9245.000000;1.765317
9244.000000;1.775065
9243.000000;1.783306
9242.000000;1.784014
9241.000000;1.777984
9240.000000;1.771523
9239.000000;1.768750
9238.000000;1.767325
9237.000000;1.763068
9236.000000;1.757068
9235.000000;1.754700
9234.000000;1.758755
9233.000000;1.766503
9232.000000;1.773075
9231.000000;1.775944
9230.000000;1.775430
9229.000000;1.772487
9228.000000;1.767890
9227.000000;1.762951
9226.000000;1.759444
9225.000000;1.758354
9224.000000;1.759350
9223.000000;1.761727
9222.000000;1.764975
9221.000000;1.768312
9220.000000;1.771059
9219.000000;1.774040
9218.000000;1.778758
9217.000000;1.784042
9216.000000;1.785715
9215.000000;1.781603
9214.000000;1.774864
9213.000000;1.770044
9212.000000;1.767659
9211.000000;1.764801
9210.000000;1.760144
9209.000000;1.755814
9208.000000;1.754253
9207.000000;1.755629
9206.000000;1.758701
9205.000000;1.761985
9204.000000;1.763332
9203.000000;1.760797
9202.000000;1.755703
9201.000000;1.752705
9200.000000;1.754779
9199.000000;1.759450
9198.000000;1.761603
9197.000000;1.759677
9196.000000;1.756948
9195.000000;1.756660
9194.000000;1.758637
9193.000000;1.760892
9192.000000;1.762233
9191.000000;1.762460
9190.000000;1.761373
9189.000000;1.758869
9188.000000;1.755667
9187.000000;1.753021
9186.000000;1.751646
9185.000000;1.750982
9184.000000;1.749475
9183.000000;1.746062
9182.000000;1.741739
9181.000000;1.739134
9180.000000;1.740188
9179.000000;1.744588
9178.000000;1.750446
9177.000000;1.755809
9176.000000;1.759138
9175.000000;1.759368
9174.000000;1.756772
9173.000000;1.753240
9172.000000;1.750490
9171.000000;1.748466
9170.000000;1.746516
9169.000000;1.745526
9168.000000;1.747250
9167.000000;1.751485
9166.000000;1.755298
9165.000000;1.755796
9164.000000;1.753079
9163.000000;1.749805
9162.000000;1.748546
9161.000000;1.750123
9160.000000;1.753755
9159.000000;1.758390
9158.000000;1.763945
9157.000000;1.770525
9156.000000;1.776047
9155.000000;1.776520
9154.000000;1.770705
9153.000000;1.763008
9152.000000;1.759111
9151.000000;1.759766
9150.000000;1.760871
9149.000000;1.759294
9148.000000;1.756045
9147.000000;1.753042
9146.000000;1.750087
9145.000000;1.746807
9144.000000;1.745250
9143.000000;1.748091
9142.000000;1.754782
9141.000000;1.760930
9140.000000;1.761880
9139.000000;1.756770
9138.000000;1.749225
9137.000000;1.744477
9136.000000;1.745394
9135.000000;1.750454
9134.000000;1.755533
9133.000000;1.758142
9132.000000;1.759312
9131.000000;1.760858
9130.000000;1.762485
9129.000000;1.762617
9128.000000;1.760574
9127.000000;1.756589
9126.000000;1.750851
9125.000000;1.744214
9124.000000;1.739022
9123.000000;1.737817
9122.000000;1.741253
9121.000000;1.747511
9120.000000;1.753499
9119.000000;1.756656
9118.000000;1.756559
9117.000000;1.755323
9116.000000;1.755564
9115.000000;1.757324
9114.000000;1.757765
9113.000000;1.754773
9112.000000;1.749789
9111.000000;1.745739
9110.000000;1.743631
9109.000000;1.742966
9108.000000;1.744241
9107.000000;1.748537
9106.000000;1.754569
9105.000000;1.758489
9104.000000;1.757943
9103.000000;1.754807
9102.000000;1.752493
9101.000000;1.751999
9100.000000;1.751797
9099.000000;1.750659
9098.000000;1.749327
9097.000000;1.749423
9096.000000;1.751629
9095.000000;1.755269
9094.000000;1.759133
9093.000000;1.762131
9092.000000;1.763049
9091.000000;1.760273
9090.000000;1.752983
9089.000000;1.743123
9088.000000;1.735036
9087.000000;1.732050
9086.000000;1.733773
9085.000000;1.737109
9084.000000;1.739397
9083.000000;1.740106
9082.000000;1.740018
9081.000000;1.739928
9080.000000;1.740134
9079.000000;1.740081
9078.000000;1.738608
9077.000000;1.735831
9076.000000;1.734335
9075.000000;1.736804
9074.000000;1.742300
9073.000000;1.746438
9072.000000;1.746256
9071.000000;1.743445
9070.000000;1.741602
9069.000000;1.742124
9068.000000;1.744079
9067.000000;1.746598
9066.000000;1.749472
9065.000000;1.751803
9064.000000;1.751982
9063.000000;1.749582
9062.000000;1.746113
9061.000000;1.743547
9060.000000;1.742897
9059.000000;1.743896
9058.000000;1.745008
9057.000000;1.744123
9056.000000;1.740423
9055.000000;1.735665
9054.000000;1.732915
9053.000000;1.733809
