Criado como novo conjunto de dados;"e0108.spp","-4241682.5 Secs"
cm-1;Abs
10000.000000;0.976344
9999.000000;0.976160
9998.000000;0.976153
9997.000000;0.976384
9996.000000;0.976382
9995.000000;0.975846
9994.000000;0.974978
9993.000000;0.974093
9992.000000;0.973324
9991.000000;0.972557
9990.000000;0.971488
9989.000000;0.969812
9988.000000;0.967730
9987.000000;0.966134
9986.000000;0.965839
9985.000000;0.966558
9984.000000;0.967028
9983.000000;0.966371
9982.000000;0.965121
9981.000000;0.964643
9980.000000;0.965654
9979.000000;0.967542
9978.000000;0.969062
9977.000000;0.969511
9976.000000;0.969243
9975.000000;0.969135
9974.000000;0.969617
9973.000000;0.970195
9972.000000;0.969908
9971.000000;0.968227
9970.000000;0.965495
9969.000000;0.962541
9968.000000;0.960041
9967.000000;0.958299
9966.000000;0.957433
9965.000000;0.957488
9964.000000;0.958338
9963.000000;0.959657
9962.000000;0.961078
9961.000000;0.962292
9960.000000;0.962964
9959.000000;0.962734
9958.000000;0.961562
9957.000000;0.960045
9956.000000;0.959095
9955.000000;0.959090
9954.000000;0.959474
9953.000000;0.959426
9952.000000;0.958843
9951.000000;0.958383
9950.000000;0.958507
9949.000000;0.958822
9948.000000;0.958543
9947.000000;0.957380
9946.000000;0.955697
9945.000000;0.953952
9944.000000;0.952355
9943.000000;0.951106
9942.000000;0.950570
9941.000000;0.950933
9940.000000;0.951800
9939.000000;0.952432
9938.000000;0.952451
9937.000000;0.952227
9936.000000;0.952474
9935.000000;0.953408
9934.000000;0.954344
9933.000000;0.954218
9932.000000;0.952638
9931.000000;0.950384
9930.000000;0.948768
9929.000000;0.948482
9928.000000;0.949132
9927.000000;0.949814
9926.000000;0.950018
9925.000000;0.949895
9924.000000;0.949800
9923.000000;0.949815
9922.000000;0.949738
9921.000000;0.949287
9920.000000;0.948168
9919.000000;0.946216
9918.000000;0.943853
9917.000000;0.942322
9916.000000;0.942900
9915.000000;0.945501
9914.000000;0.948264
9913.000000;0.949025
9912.000000;0.947322
9911.000000;0.944668
9910.000000;0.942848
9909.000000;0.942345
9908.000000;0.942420
9907.000000;0.942244
9906.000000;0.941682
9905.000000;0.941216
9904.000000;0.941381
9903.000000;0.942145
9902.000000;0.942732
9901.000000;0.942298
9900.000000;0.940983
9899.000000;0.939941
9898.000000;0.940008
9897.000000;0.940580
9896.000000;0.940270
9895.000000;0.938606
9894.000000;0.936621
9893.000000;0.935679
9892.000000;0.936143
9891.000000;0.937265
9890.000000;0.938039
9889.000000;0.938023
9888.000000;0.937536
9887.000000;0.937234
9886.000000;0.937357
9885.000000;0.937368
9884.000000;0.936488
9883.000000;0.934641
9882.000000;0.932665
9881.000000;0.931539
9880.000000;0.931577
9879.000000;0.932367
9878.000000;0.933191
9877.000000;0.933432
9876.000000;0.932866
9875.000000;0.931826
9874.000000;0.930949
9873.000000;0.930634
9872.000000;0.930789
9871.000000;0.931086
9870.000000;0.931233
9869.000000;0.931015
9868.000000;0.930383
9867.000000;0.929623
9866.000000;0.929140
9865.000000;0.928929
9864.000000;0.928531
9863.000000;0.927691
9862.000000;0.926747
9861.000000;0.926108
9860.000000;0.925677
9859.000000;0.925117
9858.000000;0.924484
9857.000000;0.924201
9856.000000;0.924478
9855.000000;0.925084
9854.000000;0.925648
9853.000000;0.925928
9852.000000;0.925883
9851.000000;0.925731
9850.000000;0.925828
9849.000000;0.926151
9848.000000;0.926065
9847.000000;0.925006
9846.000000;0.923338
9845.000000;0.922101
9844.000000;0.921919
9843.000000;0.922548
9842.000000;0.923453
9841.000000;0.924321
9840.000000;0.924820
9839.000000;0.924440
9838.000000;0.922997
9837.000000;0.921084
9836.000000;0.919650
9835.000000;0.919154
9834.000000;0.919258
9833.000000;0.919211
9832.000000;0.918460
9831.000000;0.917200
9830.000000;0.916411
9829.000000;0.917036
9828.000000;0.918879
9827.000000;0.920617
9826.000000;0.921167
9825.000000;0.920745
9824.000000;0.920203
9823.000000;0.919696
9822.000000;0.918600
9821.000000;0.916636
9820.000000;0.914416
9819.000000;0.912705
9818.000000;0.911638
9817.000000;0.910884
9816.000000;0.910192
9815.000000;0.909483
9814.000000;0.908720
9813.000000;0.908045
9812.000000;0.907812
9811.000000;0.908106
9810.000000;0.908423
9809.000000;0.908243
9808.000000;0.907886
9807.000000;0.908272
9806.000000;0.909635
9805.000000;0.910949
9804.000000;0.910957
9803.000000;0.909586
9802.000000;0.907953
9801.000000;0.907097
9800.000000;0.907059
9799.000000;0.907129
9798.000000;0.906625
9797.000000;0.905419
9796.000000;0.904026
9795.000000;0.903307
9794.000000;0.903786
9793.000000;0.905046
9792.000000;0.906006
9791.000000;0.905995
9790.000000;0.905454
9789.000000;0.905399
9788.000000;0.906306
9787.000000;0.907633
9786.000000;0.908329
9785.000000;0.907650
9784.000000;0.905636
9783.000000;0.903096
9782.000000;0.901120
9781.000000;0.900333
9780.000000;0.900476
9779.000000;0.900724
9778.000000;0.900460
9777.000000;0.899751
9776.000000;0.899233
9775.000000;0.899592
9774.000000;0.901002
9773.000000;0.902844
9772.000000;0.904073
9771.000000;0.904038
9770.000000;0.902946
9769.000000;0.901468
9768.000000;0.900064
9767.000000;0.898913
9766.000000;0.898207
9765.000000;0.898070
9764.000000;0.898250
9763.000000;0.898273
9762.000000;0.897935
9761.000000;0.897385
9760.000000;0.896788
9759.000000;0.896283
9758.000000;0.896190
9757.000000;0.896714
9756.000000;0.897321
9755.000000;0.896926
9754.000000;0.895068
9753.000000;0.892554
9752.000000;0.890626
9751.000000;0.889790
9750.000000;0.889748
9749.000000;0.890106
9748.000000;0.890665
9747.000000;0.891217
9746.000000;0.891557
9745.000000;0.891772
9744.000000;0.892187
9743.000000;0.892918
9742.000000;0.893601
9741.000000;0.893664
9740.000000;0.892842
9739.000000;0.891466
9738.000000;0.890293
9737.000000;0.889905
9736.000000;0.890129
9735.000000;0.890131
9734.000000;0.889297
9733.000000;0.887930
9732.000000;0.886872
9731.000000;0.886604
9730.000000;0.886972
9729.000000;0.887622
9728.000000;0.888295
9727.000000;0.888650
9726.000000;0.888258
9725.000000;0.887076
9724.000000;0.885680
9723.000000;0.884750
9722.000000;0.884393
9721.000000;0.884170
9720.000000;0.883771
9719.000000;0.883403
9718.000000;0.883405
9717.000000;0.883649
9716.000000;0.883582
9715.000000;0.882846
9714.000000;0.881679
9713.000000;0.880643
9712.000000;0.880128
9711.000000;0.880178
9710.000000;0.880552
9709.000000;0.880742
9708.000000;0.880147
9707.000000;0.878694
9706.000000;0.877254
9705.000000;0.877032
9704.000000;0.878333
9703.000000;0.880194
9702.000000;0.881371
9701.000000;0.881458
9700.000000;0.880874
9699.000000;0.880111
9698.000000;0.879376
9697.000000;0.878786
9696.000000;0.878480
9695.000000;0.878495
9694.000000;0.878736
9693.000000;0.879046
9692.000000;0.879220
9691.000000;0.879015
9690.000000;0.878301
9689.000000;0.877142
9688.000000;0.875645
9687.000000;0.873924
9686.000000;0.872326
9685.000000;0.871355
9684.000000;0.871132
9683.000000;0.871206
9682.000000;0.871211
9681.000000;0.871438
9680.000000;0.872270
9679.000000;0.873313
9678.000000;0.873704
9677.000000;0.873269
9676.000000;0.872735
9675.000000;0.872655
9674.000000;0.872719
9673.000000;0.872427
9672.000000;0.871913
9671.000000;0.871662
9670.000000;0.871773
9669.000000;0.871920
9668.000000;0.871874
9667.000000;0.871631
9666.000000;0.871126
9665.000000;0.870240
9664.000000;0.869105
9663.000000;0.868085
9662.000000;0.867408
9661.000000;0.867031
9660.000000;0.866843
9659.000000;0.866739
9658.000000;0.866476
9657.000000;0.865815
9656.000000;0.864968
9655.000000;0.864641
9654.000000;0.865328
9653.000000;0.866650
9652.000000;0.867653
9651.000000;0.867787
9650.000000;0.867353
9649.000000;0.866920
9648.000000;0.866596
9647.000000;0.866126
9646.000000;0.865504
9645.000000;0.865090
9644.000000;0.865059
9643.000000;0.865042
9642.000000;0.864525
9641.000000;0.863451
9640.000000;0.862233
9639.000000;0.861253
9638.000000;0.860543
9637.000000;0.859903
9636.000000;0.859152
9635.000000;0.858265
9634.000000;0.857382
9633.000000;0.856720
9632.000000;0.856415
9631.000000;0.856476
9630.000000;0.856893
9629.000000;0.857666
9628.000000;0.858609
9627.000000;0.859212
9626.000000;0.858959
9625.000000;0.857823
9624.000000;0.856361
9623.000000;0.855252
9622.000000;0.854794
9621.000000;0.854792
9620.000000;0.854866
9619.000000;0.854804
9618.000000;0.854669
9617.000000;0.854610
9616.000000;0.854649
9615.000000;0.854704
9614.000000;0.854715
9613.000000;0.854580
9612.000000;0.854066
9611.000000;0.853088
9610.000000;0.852141
9609.000000;0.852098
9608.000000;0.853301
9607.000000;0.855028
9606.000000;0.856136
9605.000000;0.856136
9604.000000;0.855400
9603.000000;0.854461
9602.000000;0.853511
9601.000000;0.852526
9600.000000;0.851547
9599.000000;0.850738
9598.000000;0.850327
9597.000000;0.850446
9596.000000;0.850840
9595.000000;0.850878
9594.000000;0.850183
9593.000000;0.849209
9592.000000;0.848840
9591.000000;0.849349
9590.000000;0.850064
9589.000000;0.850176
9588.000000;0.849545
9587.000000;0.848573
9586.000000;0.847585
9585.000000;0.846636
9584.000000;0.845740
9583.000000;0.845028
9582.000000;0.844654
9581.000000;0.844667
9580.000000;0.844919
9579.000000;0.845078
9578.000000;0.844832
9577.000000;0.844161
9576.000000;0.843330
9575.000000;0.842603
9574.000000;0.842108
9573.000000;0.841954
9572.000000;0.842214
9571.000000;0.842695
9570.000000;0.842946
9569.000000;0.842659
9568.000000;0.841955
9567.000000;0.841169
9566.000000;0.840469
9565.000000;0.839825
9564.000000;0.839238
9563.000000;0.838837
9562.000000;0.838768
9561.000000;0.839030
9560.000000;0.839432
9559.000000;0.839680
9558.000000;0.839624
9557.000000;0.839437
9556.000000;0.839444
9555.000000;0.839741
9554.000000;0.840068
9553.000000;0.840081
9552.000000;0.839627
9551.000000;0.838754
9550.000000;0.837637
9549.000000;0.836579
9548.000000;0.835916
9547.000000;0.835766
9546.000000;0.835913
9545.000000;0.835957
9544.000000;0.835588
9543.000000;0.834790
9542.000000;0.833913
9541.000000;0.833457
9540.000000;0.833623
9539.000000;0.834133
9538.000000;0.834633
9537.000000;0.835135
9536.000000;0.835809
9535.000000;0.836456
9534.000000;0.836617
9533.000000;0.836237
9532.000000;0.835752
9531.000000;0.835342
9530.000000;0.834588
9529.000000;0.833238
9528.000000;0.831924
9527.000000;0.831559
9526.000000;0.832168
9525.000000;0.832837
9524.000000;0.832841
9523.000000;0.832357
9522.000000;0.831862
9521.000000;0.831325
9520.000000;0.830399
9519.000000;0.829215
9518.000000;0.828492
9517.000000;0.828729
9516.000000;0.829590
9515.000000;0.830323
9514.000000;0.830578
9513.000000;0.830536
9512.000000;0.830294
9511.000000;0.829578
9510.000000;0.828301
9509.000000;0.827064
9508.000000;0.826663
9507.000000;0.827171
9506.000000;0.827872
9505.000000;0.828104
9504.000000;0.827850
9503.000000;0.827440
9502.000000;0.827031
9501.000000;0.826568
9500.000000;0.826025
9499.000000;0.825450
9498.000000;0.824869
9497.000000;0.824271
9496.000000;0.823631
9495.000000;0.822923
9494.000000;0.822252
9493.000000;0.821931
9492.000000;0.822162
9491.000000;0.822613
9490.000000;0.822641
9489.000000;0.822059
9488.000000;0.821404
9487.000000;0.821242
9486.000000;0.821499
9485.000000;0.821727
9484.000000;0.821777
9483.000000;0.821882
9482.000000;0.822240
9481.000000;0.822813
9480.000000;0.823400
9479.000000;0.823647
9478.000000;0.823111
9477.000000;0.821608
9476.000000;0.819539
9475.000000;0.817692
9474.000000;0.816649
9473.000000;0.816422
9472.000000;0.816569
9471.000000;0.816565
9470.000000;0.816201
9469.000000;0.815780
9468.000000;0.815815
9467.000000;0.816413
9466.000000;0.817113
9465.000000;0.817403
9464.000000;0.817199
9463.000000;0.816678
9462.000000;0.815932
9461.000000;0.815079
9460.000000;0.814493
9459.000000;0.814491
9458.000000;0.814866
9457.000000;0.815090
9456.000000;0.814976
9455.000000;0.814816
9454.000000;0.814892
9453.000000;0.815177
9452.000000;0.815548
9451.000000;0.815973
9450.000000;0.816350
9449.000000;0.816446
9448.000000;0.816159
9447.000000;0.815718
9446.000000;0.815473
9445.000000;0.815525
9444.000000;0.815616
9443.000000;0.815296
9442.000000;0.814198
9441.000000;0.812340
9440.000000;0.810224
9439.000000;0.808596
9438.000000;0.808011
9437.000000;0.808568
9436.000000;0.809913
9435.000000;0.811390
9434.000000;0.812320
9433.000000;0.812365
9432.000000;0.811714
9431.000000;0.810875
9430.000000;0.810305
9429.000000;0.810233
9428.000000;0.810637
9427.000000;0.811211
9426.000000;0.811513
9425.000000;0.811379
9424.000000;0.811116
9423.000000;0.811082
9422.000000;0.811177
9421.000000;0.810961
9420.000000;0.810237
9419.000000;0.809266
9418.000000;0.808461
9417.000000;0.808103
9416.000000;0.808316
9415.000000;0.808976
9414.000000;0.809609
9413.000000;0.809659
9412.000000;0.809009
9411.000000;0.808058
9410.000000;0.807229
9409.000000;0.806611
9408.000000;0.806121
9407.000000;0.805768
9406.000000;0.805639
9405.000000;0.805750
9404.000000;0.806019
9403.000000;0.806234
9402.000000;0.806055
9401.000000;0.805295
9400.000000;0.804269
9399.000000;0.803625
9398.000000;0.803665
9397.000000;0.804011
9396.000000;0.804053
9395.000000;0.803548
9394.000000;0.802676
9393.000000;0.801769
9392.000000;0.801203
9391.000000;0.801314
9390.000000;0.802077
9389.000000;0.802911
9388.000000;0.803088
9387.000000;0.802422
9386.000000;0.801399
9385.000000;0.800643
9384.000000;0.800407
9383.000000;0.800586
9382.000000;0.800984
9381.000000;0.801397
9380.000000;0.801557
9379.000000;0.801204
9378.000000;0.800319
9377.000000;0.799257
9376.000000;0.798592
9375.000000;0.798751
9374.000000;0.799703
9373.000000;0.800923
9372.000000;0.801687
9371.000000;0.801526
9370.000000;0.800547
9369.000000;0.799361
9368.000000;0.798606
9367.000000;0.798458
9366.000000;0.798627
9365.000000;0.798792
9364.000000;0.798914
9363.000000;0.799059
9362.000000;0.799111
9361.000000;0.798892
9360.000000;0.798493
9359.000000;0.798219
9358.000000;0.798165
9357.000000;0.798066
9356.000000;0.797625
9355.000000;0.796870
9354.000000;0.796079
9353.000000;0.795477
9352.000000;0.795103
9351.000000;0.794913
9350.000000;0.794851
9349.000000;0.794813
9348.000000;0.794581
9347.000000;0.793910
9346.000000;0.792826
9345.000000;0.791851
9344.000000;0.791706
9343.000000;0.792576
9342.000000;0.793766
9341.000000;0.794305
9340.000000;0.793910
9339.000000;0.793165
9338.000000;0.792732
9337.000000;0.792682
9336.000000;0.792672
9335.000000;0.792527
9334.000000;0.792428
9333.000000;0.792614
9332.000000;0.793048
9331.000000;0.793379
9330.000000;0.793199
9329.000000;0.792402
9328.000000;0.791287
9327.000000;0.790271
9326.000000;0.789528
9325.000000;0.789026
9324.000000;0.788784
9323.000000;0.788849
9322.000000;0.789069
9321.000000;0.789168
9320.000000;0.789120
9319.000000;0.789132
9318.000000;0.789192
9317.000000;0.788967
9316.000000;0.788352
9315.000000;0.787785
9314.000000;0.787698
9313.000000;0.787905
9312.000000;0.787893
9311.000000;0.787545
9310.000000;0.787177
9309.000000;0.786916
9308.000000;0.786513
9307.000000;0.785857
9306.000000;0.785304
9305.000000;0.785307
9304.000000;0.785958
9303.000000;0.786982
9302.000000;0.787954
9301.000000;0.788382
9300.000000;0.787863
9299.000000;0.786448
9298.000000;0.784777
9297.000000;0.783616
9296.000000;0.783278
9295.000000;0.783595
9294.000000;0.784280
9293.000000;0.785071
9292.000000;0.785571
9291.000000;0.785362
9290.000000;0.784451
9289.000000;0.783390
9288.000000;0.782707
9287.000000;0.782368
9286.000000;0.782002
9285.000000;0.781563
9284.000000;0.781421
9283.000000;0.781804
9282.000000;0.782433
9281.000000;0.782859
9280.000000;0.782942
9279.000000;0.782811
9278.000000;0.782564
9277.000000;0.782237
9276.000000;0.781938
9275.000000;0.781751
9274.000000;0.781559
9273.000000;0.781202
9272.000000;0.780762
9271.000000;0.780470
9270.000000;0.780360
9269.000000;0.780268
9268.000000;0.780115
9267.000000;0.779882
9266.000000;0.779361
9265.000000;0.778320
9264.000000;0.777032
9263.000000;0.776247
9262.000000;0.776414
9261.000000;0.777211
9260.000000;0.778026
9259.000000;0.778618
9258.000000;0.779037
9257.000000;0.779200
9256.000000;0.778939
9255.000000;0.778345
9254.000000;0.777717
9253.000000;0.777212
9252.000000;0.776804
9251.000000;0.776503
9250.000000;0.776315
9249.000000;0.776086
9248.000000;0.775681
9247.000000;0.775279
9246.000000;0.775183
9245.000000;0.775377
9244.000000;0.775548
9243.000000;0.775571
9242.000000;0.775670
9241.000000;0.776036
9240.000000;0.776582
9239.000000;0.777106
9238.000000;0.777436
9237.000000;0.777343
9236.000000;0.776659
9235.000000;0.775630
9234.000000;0.774886
9233.000000;0.774827
9232.000000;0.775207
9231.000000;0.775466
9230.000000;0.775320
9229.000000;0.774878
9228.000000;0.774362
9227.000000;0.773899
9226.000000;0.773521
9225.000000;0.773211
9224.000000;0.773028
9223.000000;0.773227
9222.000000;0.774096
9221.000000;0.775470
9220.000000;0.776560
9219.000000;0.776523
9218.000000;0.775273
9217.000000;0.773628
9216.000000;0.772626
9215.000000;0.772722
9214.000000;0.773516
9213.000000;0.774136
9212.000000;0.773981
9211.000000;0.773227
9210.000000;0.772574
9209.000000;0.772507
9208.000000;0.772883
9207.000000;0.773228
9206.000000;0.773220
9205.000000;0.772777
9204.000000;0.771931
9203.000000;0.770877
9202.000000;0.769986
9201.000000;0.769485
9200.000000;0.769186
9199.000000;0.768786
9198.000000;0.768350
9197.000000;0.768221
9196.000000;0.768489
9195.000000;0.768884
9194.000000;0.769225
9193.000000;0.769629
9192.000000;0.770116
9191.000000;0.770331
9190.000000;0.769959
9189.000000;0.769242
9188.000000;0.768782
9187.000000;0.768854
9186.000000;0.769087
9185.000000;0.768871
9184.000000;0.767974
9183.000000;0.766749
9182.000000;0.765810
9181.000000;0.765529
9180.000000;0.765792
9179.000000;0.766205
9178.000000;0.766498
9177.000000;0.766683
9176.000000;0.766850
9175.000000;0.766977
9174.000000;0.766967
9173.000000;0.766765
9172.000000;0.766316
9171.000000;0.765557
9170.000000;0.764573
9169.000000;0.763696
9168.000000;0.763294
9167.000000;0.763450
9166.000000;0.763913
9165.000000;0.764331
9164.000000;0.764480
9163.000000;0.764328
9162.000000;0.764009
9161.000000;0.763716
9160.000000;0.763540
9159.000000;0.763429
9158.000000;0.763343
9157.000000;0.763369
9156.000000;0.763557
9155.000000;0.763737
9154.000000;0.763674
9153.000000;0.763420
9152.000000;0.763282
9151.000000;0.763405
9150.000000;0.763583
9149.000000;0.763599
9148.000000;0.763540
9147.000000;0.763604
9146.000000;0.763704
9145.000000;0.763522
9144.000000;0.763001
9143.000000;0.762545
9142.000000;0.762586
9141.000000;0.763031
9140.000000;0.763310
9139.000000;0.762997
9138.000000;0.762283
9137.000000;0.761749
9136.000000;0.761737
9135.000000;0.762053
9134.000000;0.762265
9133.000000;0.762135
9132.000000;0.761689
9131.000000;0.761017
9130.000000;0.760211
9129.000000;0.759464
9128.000000;0.758990
9127.000000;0.758780
9126.000000;0.758592
9125.000000;0.758323
9124.000000;0.758260
9123.000000;0.758778
9122.000000;0.759783
9121.000000;0.760638
9120.000000;0.760725
9119.000000;0.760054
9118.000000;0.759220
9117.000000;0.758790
9116.000000;0.758814
9115.000000;0.758975
9114.000000;0.759101
9113.000000;0.759363
9112.000000;0.759887
9111.000000;0.760374
9110.000000;0.760307
9109.000000;0.759566
9108.000000;0.758618
9107.000000;0.758000
9106.000000;0.757762
9105.000000;0.757512
9104.000000;0.756907
9103.000000;0.756009
9102.000000;0.755205
9101.000000;0.754915
9100.000000;0.755305
9099.000000;0.756131
9098.000000;0.756873
9097.000000;0.757142
9096.000000;0.757021
9095.000000;0.756927
9094.000000;0.757157
9093.000000;0.757636
9092.000000;0.758080
9091.000000;0.758263
9090.000000;0.758118
9089.000000;0.757690
9088.000000;0.757096
9087.000000;0.756485
9086.000000;0.755993
9085.000000;0.755710
9084.000000;0.755645
9083.000000;0.755650
9082.000000;0.755449
9081.000000;0.754878
9080.000000;0.754131
9079.000000;0.753670
9078.000000;0.753805
9077.000000;0.754429
9076.000000;0.755164
9075.000000;0.755699
9074.000000;0.755932
9073.000000;0.755864
9072.000000;0.755499
9071.000000;0.754892
9070.000000;0.754257
9069.000000;0.753923
9068.000000;0.754095
9067.000000;0.754595
9066.000000;0.754939
9065.000000;0.754740
9064.000000;0.754072
9063.000000;0.753381
9062.000000;0.753029
9061.000000;0.752978
9060.000000;0.752894
9059.000000;0.752536
9058.000000;0.752036
9057.000000;0.751811
9056.000000;0.752149
9055.000000;0.752805
9054.000000;0.753121
9053.000000;0.752689
