Criado como novo conjunto de dados;"e0108.spp","-4240242.6 Secs"
cm-1;Abs
10000.000000;1.000326
9999.000000;0.998983
9998.000000;0.997644
9997.000000;0.996309
9996.000000;0.994979
9995.000000;0.993653
9994.000000;0.992323
9993.000000;0.990852
9992.000000;0.989111
9991.000000;0.987482
9990.000000;0.986736
9989.000000;0.987221
9988.000000;0.988470
9987.000000;0.989644
9986.000000;0.990198
9985.000000;0.990115
9984.000000;0.989775
9983.000000;0.989648
9982.000000;0.989838
9981.000000;0.989795
9980.000000;0.988734
9979.000000;0.986619
9978.000000;0.984534
9977.000000;0.983788
9976.000000;0.984707
9975.000000;0.986484
9974.000000;0.988119
9973.000000;0.989208
9972.000000;0.989739
9971.000000;0.989531
9970.000000;0.988335
9969.000000;0.986452
9968.000000;0.984876
9967.000000;0.984475
9966.000000;0.985049
9965.000000;0.985412
9964.000000;0.984677
9963.000000;0.983439
9962.000000;0.983254
9961.000000;0.984777
9960.000000;0.986725
9959.000000;0.987090
9958.000000;0.985218
9957.000000;0.982268
9956.000000;0.979752
9955.000000;0.978277
9954.000000;0.977697
9953.000000;0.977657
9952.000000;0.977567
9951.000000;0.976712
9950.000000;0.975045
9949.000000;0.973571
9948.000000;0.973392
9947.000000;0.974521
9946.000000;0.976013
9945.000000;0.976982
9944.000000;0.977093
9943.000000;0.976390
9942.000000;0.975251
9941.000000;0.974324
9940.000000;0.973902
9939.000000;0.973494
9938.000000;0.972665
9937.000000;0.972133
9936.000000;0.973092
9935.000000;0.975299
9934.000000;0.976788
9933.000000;0.976007
9932.000000;0.973614
9931.000000;0.971511
9930.000000;0.970650
9929.000000;0.970511
9928.000000;0.970338
9927.000000;0.970066
9926.000000;0.970017
9925.000000;0.970260
9924.000000;0.970459
9923.000000;0.970060
9922.000000;0.968668
9921.000000;0.966465
9920.000000;0.964290
9919.000000;0.963022
9918.000000;0.962851
9917.000000;0.963280
9916.000000;0.963749
9915.000000;0.963991
9914.000000;0.963877
9913.000000;0.963322
9912.000000;0.962485
9911.000000;0.961822
9910.000000;0.961783
9909.000000;0.962450
9908.000000;0.963426
9907.000000;0.963989
9906.000000;0.963476
9905.000000;0.961844
9904.000000;0.959919
9903.000000;0.958870
9902.000000;0.959203
9901.000000;0.960334
9900.000000;0.961175
9899.000000;0.961077
9898.000000;0.960175
9897.000000;0.959006
9896.000000;0.958005
9895.000000;0.957350
9894.000000;0.957084
9893.000000;0.957191
9892.000000;0.957514
9891.000000;0.957694
9890.000000;0.957367
9889.000000;0.956520
9888.000000;0.955612
9887.000000;0.955234
9886.000000;0.955591
9885.000000;0.956284
9884.000000;0.956581
9883.000000;0.955959
9882.000000;0.954524
9881.000000;0.952967
9880.000000;0.951991
9879.000000;0.951700
9878.000000;0.951594
9877.000000;0.951233
9876.000000;0.950734
9875.000000;0.950463
9874.000000;0.950409
9873.000000;0.950210
9872.000000;0.949804
9871.000000;0.949680
9870.000000;0.950215
9869.000000;0.951020
9868.000000;0.951269
9867.000000;0.950670
9866.000000;0.949790
9865.000000;0.949331
9864.000000;0.949354
9863.000000;0.949355
9862.000000;0.948924
9861.000000;0.948098
9860.000000;0.947131
9859.000000;0.946206
9858.000000;0.945432
9857.000000;0.944954
9856.000000;0.944866
9855.000000;0.945061
9854.000000;0.945255
9853.000000;0.945221
9852.000000;0.945040
9851.000000;0.945124
9850.000000;0.945864
9849.000000;0.947087
9848.000000;0.947911
9847.000000;0.947429
9846.000000;0.945685
9845.000000;0.943779
9844.000000;0.942864
9843.000000;0.943110
9842.000000;0.943678
9841.000000;0.943547
9840.000000;0.942272
9839.000000;0.940188
9838.000000;0.938219
9837.000000;0.937350
9836.000000;0.937878
9835.000000;0.939082
9834.000000;0.939841
9833.000000;0.939634
9832.000000;0.938777
9831.000000;0.937818
9830.000000;0.937074
9829.000000;0.936709
9828.000000;0.936785
9827.000000;0.937016
9826.000000;0.936841
9825.000000;0.936103
9824.000000;0.935389
9823.000000;0.935342
9822.000000;0.935763
9821.000000;0.935787
9820.000000;0.934956
9819.000000;0.933774
9818.000000;0.933103
9817.000000;0.933279
9816.000000;0.933922
9815.000000;0.934366
9814.000000;0.934049
9813.000000;0.932673
9812.000000;0.930393
9811.000000;0.927999
9810.000000;0.926637
9809.000000;0.926936
9808.000000;0.928343
9807.000000;0.929535
9806.000000;0.929727
9805.000000;0.929387
9804.000000;0.929477
9803.000000;0.930284
9802.000000;0.931345
9801.000000;0.932231
9800.000000;0.932783
9799.000000;0.932578
9798.000000;0.930969
9797.000000;0.928041
9796.000000;0.924992
9795.000000;0.923074
9794.000000;0.922465
9793.000000;0.922544
9792.000000;0.922875
9791.000000;0.923406
9790.000000;0.923979
9789.000000;0.924340
9788.000000;0.924589
9787.000000;0.925000
9786.000000;0.925355
9785.000000;0.925075
9784.000000;0.924117
9783.000000;0.923135
9782.000000;0.922531
9781.000000;0.921933
9780.000000;0.920911
9779.000000;0.919715
9778.000000;0.918861
9777.000000;0.918439
9776.000000;0.918249
9775.000000;0.918273
9774.000000;0.918521
9773.000000;0.918694
9772.000000;0.918489
9771.000000;0.918046
9770.000000;0.917657
9769.000000;0.917257
9768.000000;0.916702
9767.000000;0.916277
9766.000000;0.916336
9765.000000;0.916568
9764.000000;0.916325
9763.000000;0.915671
9762.000000;0.915333
9761.000000;0.915492
9760.000000;0.915417
9759.000000;0.914688
9758.000000;0.914026
9757.000000;0.914276
9756.000000;0.915118
9755.000000;0.915571
9754.000000;0.915443
9753.000000;0.915452
9752.000000;0.915988
9751.000000;0.916547
9750.000000;0.916543
9749.000000;0.916011
9748.000000;0.915184
9747.000000;0.913958
9746.000000;0.912205
9745.000000;0.910263
9744.000000;0.908709
9743.000000;0.907820
9742.000000;0.907576
9741.000000;0.907924
9740.000000;0.908677
9739.000000;0.909274
9738.000000;0.909096
9737.000000;0.908081
9736.000000;0.906793
9735.000000;0.905901
9734.000000;0.905789
9733.000000;0.906510
9732.000000;0.907708
9731.000000;0.908575
9730.000000;0.908370
9729.000000;0.907247
9728.000000;0.906203
9727.000000;0.905927
9726.000000;0.905996
9725.000000;0.905540
9724.000000;0.904470
9723.000000;0.903550
9722.000000;0.903375
9721.000000;0.903767
9720.000000;0.904264
9719.000000;0.904695
9718.000000;0.904993
9717.000000;0.904843
9716.000000;0.903948
9715.000000;0.902502
9714.000000;0.901027
9713.000000;0.899869
9712.000000;0.899166
9711.000000;0.899181
9710.000000;0.900174
9709.000000;0.901833
9708.000000;0.903224
9707.000000;0.903615
9706.000000;0.903138
9705.000000;0.902420
9704.000000;0.901747
9703.000000;0.900888
9702.000000;0.899638
9701.000000;0.898230
9700.000000;0.897126
9699.000000;0.896592
9698.000000;0.896538
9697.000000;0.896689
9696.000000;0.896837
9695.000000;0.896943
9694.000000;0.897043
9693.000000;0.897090
9692.000000;0.897007
9691.000000;0.896819
9690.000000;0.896568
9689.000000;0.896082
9688.000000;0.895107
9687.000000;0.893833
9686.000000;0.892962
9685.000000;0.892968
9684.000000;0.893469
9683.000000;0.893694
9682.000000;0.893494
9681.000000;0.893432
9680.000000;0.893860
9679.000000;0.894376
9678.000000;0.894400
9677.000000;0.893962
9676.000000;0.893606
9675.000000;0.893663
9674.000000;0.893916
9673.000000;0.893883
9672.000000;0.893226
9671.000000;0.891959
9670.000000;0.890468
9669.000000;0.889301
9668.000000;0.888753
9667.000000;0.888665
9666.000000;0.888659
9665.000000;0.888486
9664.000000;0.888046
9663.000000;0.887266
9662.000000;0.886196
9661.000000;0.885147
9660.000000;0.884469
9659.000000;0.884193
9658.000000;0.884048
9657.000000;0.883839
9656.000000;0.883588
9655.000000;0.883297
9654.000000;0.882798
9653.000000;0.881985
9652.000000;0.881076
9651.000000;0.880499
9650.000000;0.880523
9649.000000;0.881007
9648.000000;0.881475
9647.000000;0.881473
9646.000000;0.881007
9645.000000;0.880628
9644.000000;0.880992
9643.000000;0.882202
9642.000000;0.883596
9641.000000;0.884209
9640.000000;0.883488
9639.000000;0.881653
9638.000000;0.879546
9637.000000;0.878098
9636.000000;0.877736
9635.000000;0.878116
9634.000000;0.878521
9633.000000;0.878587
9632.000000;0.878519
9631.000000;0.878547
9630.000000;0.878461
9629.000000;0.877922
9628.000000;0.877105
9627.000000;0.876632
9626.000000;0.876810
9625.000000;0.877238
9624.000000;0.877381
9623.000000;0.877275
9622.000000;0.877372
9621.000000;0.877791
9620.000000;0.878089
9619.000000;0.877860
9618.000000;0.877312
9617.000000;0.877040
9616.000000;0.877339
9615.000000;0.877855
9614.000000;0.877888
9613.000000;0.877018
9612.000000;0.875503
9611.000000;0.874096
9610.000000;0.873396
9609.000000;0.873333
9608.000000;0.873345
9607.000000;0.873073
9606.000000;0.872708
9605.000000;0.872571
9604.000000;0.872577
9603.000000;0.872363
9602.000000;0.871799
9601.000000;0.871109
9600.000000;0.870540
9599.000000;0.870173
9598.000000;0.870019
9597.000000;0.870025
9596.000000;0.869971
9595.000000;0.869608
9594.000000;0.869014
9593.000000;0.868593
9592.000000;0.868645
9591.000000;0.869123
9590.000000;0.869794
9589.000000;0.870368
9588.000000;0.870413
9587.000000;0.869547
9586.000000;0.867921
9585.000000;0.866269
9584.000000;0.865245
9583.000000;0.864873
9582.000000;0.864813
9581.000000;0.864862
9580.000000;0.864893
9579.000000;0.864556
9578.000000;0.863551
9577.000000;0.862209
9576.000000;0.861374
9575.000000;0.861563
9574.000000;0.862448
9573.000000;0.863256
9572.000000;0.863512
9571.000000;0.863272
9570.000000;0.862823
9569.000000;0.862348
9568.000000;0.861848
9567.000000;0.861256
9566.000000;0.860592
9565.000000;0.860007
9564.000000;0.859673
9563.000000;0.859660
9562.000000;0.859927
9561.000000;0.860346
9560.000000;0.860672
9559.000000;0.860636
9558.000000;0.860228
9557.000000;0.859826
9556.000000;0.859828
9555.000000;0.860101
9554.000000;0.860000
9553.000000;0.859018
9552.000000;0.857341
9551.000000;0.855650
9550.000000;0.854491
9549.000000;0.853971
9548.000000;0.853980
9547.000000;0.854466
9546.000000;0.855322
9545.000000;0.856103
9544.000000;0.856196
9543.000000;0.855488
9542.000000;0.854662
9541.000000;0.854482
9540.000000;0.854844
9539.000000;0.854893
9538.000000;0.854130
9537.000000;0.853002
9536.000000;0.852224
9535.000000;0.851950
9534.000000;0.851946
9533.000000;0.852259
9532.000000;0.853160
9531.000000;0.854476
9530.000000;0.855455
9529.000000;0.855436
9528.000000;0.854458
9527.000000;0.853135
9526.000000;0.852162
9525.000000;0.851915
9524.000000;0.852217
9523.000000;0.852387
9522.000000;0.851814
9521.000000;0.850599
9520.000000;0.849470
9519.000000;0.849017
9518.000000;0.849226
9517.000000;0.849796
9516.000000;0.850555
9515.000000;0.851371
9514.000000;0.851906
9513.000000;0.851813
9512.000000;0.851081
9511.000000;0.850014
9510.000000;0.848923
9509.000000;0.847974
9508.000000;0.847196
9507.000000;0.846466
9506.000000;0.845634
9505.000000;0.844858
9504.000000;0.844683
9503.000000;0.845489
9502.000000;0.846875
9501.000000;0.847895
9500.000000;0.848011
9499.000000;0.847623
9498.000000;0.847476
9497.000000;0.847709
9496.000000;0.847733
9495.000000;0.847019
9494.000000;0.845807
9493.000000;0.844868
9492.000000;0.844674
9491.000000;0.844983
9490.000000;0.845239
9489.000000;0.845172
9488.000000;0.844879
9487.000000;0.844482
9486.000000;0.843969
9485.000000;0.843370
9484.000000;0.842883
9483.000000;0.842668
9482.000000;0.842612
9481.000000;0.842411
9480.000000;0.841862
9479.000000;0.841052
9478.000000;0.840281
9477.000000;0.839800
9476.000000;0.839589
9475.000000;0.839411
9474.000000;0.839123
9473.000000;0.838897
9472.000000;0.839006
9471.000000;0.839410
9470.000000;0.839689
9469.000000;0.839445
9468.000000;0.838725
9467.000000;0.838008
9466.000000;0.837794
9465.000000;0.838177
9464.000000;0.838747
9463.000000;0.838933
9462.000000;0.838525
9461.000000;0.837863
9460.000000;0.837438
9459.000000;0.837343
9458.000000;0.837247
9457.000000;0.836864
9456.000000;0.836269
9455.000000;0.835750
9454.000000;0.835507
9453.000000;0.835539
9452.000000;0.835672
9451.000000;0.835647
9450.000000;0.835341
9449.000000;0.834969
9448.000000;0.834925
9447.000000;0.835330
9446.000000;0.835866
9445.000000;0.836128
9444.000000;0.836037
9443.000000;0.835774
9442.000000;0.835438
9441.000000;0.834944
9440.000000;0.834246
9439.000000;0.833530
9438.000000;0.833151
9437.000000;0.833360
9436.000000;0.834038
9435.000000;0.834670
9434.000000;0.834668
9433.000000;0.833833
9432.000000;0.832502
9431.000000;0.831200
9430.000000;0.830189
9429.000000;0.829395
9428.000000;0.828726
9427.000000;0.828344
9426.000000;0.828545
9425.000000;0.829322
9424.000000;0.830119
9423.000000;0.830211
9422.000000;0.829434
9421.000000;0.828425
9420.000000;0.827976
9419.000000;0.828248
9418.000000;0.828761
9417.000000;0.829044
9416.000000;0.829010
9415.000000;0.828708
9414.000000;0.828111
9413.000000;0.827300
9412.000000;0.826615
9411.000000;0.826362
9410.000000;0.826497
9409.000000;0.826729
9408.000000;0.826830
9407.000000;0.826722
9406.000000;0.826433
9405.000000;0.826109
9404.000000;0.825940
9403.000000;0.825892
9402.000000;0.825664
9401.000000;0.825058
9400.000000;0.824284
9399.000000;0.823720
9398.000000;0.823474
9397.000000;0.823377
9396.000000;0.823307
9395.000000;0.823302
9394.000000;0.823396
9393.000000;0.823588
9392.000000;0.823955
9391.000000;0.824551
9390.000000;0.825176
9389.000000;0.825446
9388.000000;0.825162
9387.000000;0.824470
9386.000000;0.823648
9385.000000;0.822882
9384.000000;0.822239
9383.000000;0.821680
9382.000000;0.821069
9381.000000;0.820333
9380.000000;0.819675
9379.000000;0.819439
9378.000000;0.819686
9377.000000;0.820074
9376.000000;0.820227
9375.000000;0.820058
9374.000000;0.819660
9373.000000;0.819091
9372.000000;0.818476
9371.000000;0.818137
9370.000000;0.818335
9369.000000;0.818898
9368.000000;0.819357
9367.000000;0.819471
9366.000000;0.819424
9365.000000;0.819425
9364.000000;0.819320
9363.000000;0.818766
9362.000000;0.817711
9361.000000;0.816569
9360.000000;0.815917
9359.000000;0.816067
9358.000000;0.816852
9357.000000;0.817743
9356.000000;0.818204
9355.000000;0.818068
9354.000000;0.817580
9353.000000;0.817050
9352.000000;0.816533
9351.000000;0.815923
9350.000000;0.815238
9349.000000;0.814600
9348.000000;0.814002
9347.000000;0.813330
9346.000000;0.812688
9345.000000;0.812437
9344.000000;0.812683
9343.000000;0.812947
9342.000000;0.812646
9341.000000;0.811861
9340.000000;0.811274
9339.000000;0.811302
9338.000000;0.811596
9337.000000;0.811545
9336.000000;0.811034
9335.000000;0.810458
9334.000000;0.810135
9333.000000;0.810005
9332.000000;0.809912
9331.000000;0.809913
9330.000000;0.810188
9329.000000;0.810718
9328.000000;0.811187
9327.000000;0.811224
9326.000000;0.810734
9325.000000;0.810002
9324.000000;0.809430
9323.000000;0.809183
9322.000000;0.809086
9321.000000;0.808875
9320.000000;0.808467
9319.000000;0.807961
9318.000000;0.807483
9317.000000;0.807169
9316.000000;0.807214
9315.000000;0.807726
9314.000000;0.808466
9313.000000;0.808917
9312.000000;0.808763
9311.000000;0.808243
9310.000000;0.807903
9309.000000;0.807994
9308.000000;0.808204
9307.000000;0.807955
9306.000000;0.806958
9305.000000;0.805517
9304.000000;0.804378
9303.000000;0.804219
9302.000000;0.805125
9301.000000;0.806472
9300.000000;0.807399
9299.000000;0.807488
9298.000000;0.806991
9297.000000;0.806386
9296.000000;0.805885
9295.000000;0.805489
9294.000000;0.805294
9293.000000;0.805442
9292.000000;0.805727
9291.000000;0.805607
9290.000000;0.804840
9289.000000;0.803942
9288.000000;0.803699
9287.000000;0.804275
9286.000000;0.805050
9285.000000;0.805314
9284.000000;0.804897
9283.000000;0.804090
9282.000000;0.803275
9281.000000;0.802787
9280.000000;0.802884
9279.000000;0.803531
9278.000000;0.804266
9277.000000;0.804524
9276.000000;0.804149
9275.000000;0.803475
9274.000000;0.802902
9273.000000;0.802526
9272.000000;0.802189
9271.000000;0.801731
9270.000000;0.801149
9269.000000;0.800579
9268.000000;0.800188
9267.000000;0.800013
9266.000000;0.799895
9265.000000;0.799637
9264.000000;0.799267
9263.000000;0.799056
9262.000000;0.799225
9261.000000;0.799701
9260.000000;0.800220
9259.000000;0.800595
9258.000000;0.800781
9257.000000;0.800713
9256.000000;0.800249
9255.000000;0.799381
9254.000000;0.798429
9253.000000;0.797866
9252.000000;0.797903
9251.000000;0.798283
9250.000000;0.798530
9249.000000;0.798356
9248.000000;0.797781
9247.000000;0.796960
9246.000000;0.796044
9245.000000;0.795240
9244.000000;0.794796
9243.000000;0.794802
9242.000000;0.795085
9241.000000;0.795443
9240.000000;0.795913
9239.000000;0.796632
9238.000000;0.797457
9237.000000;0.797927
9236.000000;0.797720
9235.000000;0.797016
9234.000000;0.796283
9233.000000;0.795799
9232.000000;0.795511
9231.000000;0.795282
9230.000000;0.795054
9229.000000;0.794777
9228.000000;0.794379
9227.000000;0.793935
9226.000000;0.793710
9225.000000;0.793885
9224.000000;0.794295
9223.000000;0.794592
9222.000000;0.794648
9221.000000;0.794633
9220.000000;0.794709
9219.000000;0.794768
9218.000000;0.794559
9217.000000;0.794020
9216.000000;0.793432
9215.000000;0.793242
9214.000000;0.793702
9213.000000;0.794610
9212.000000;0.795383
9211.000000;0.795445
9210.000000;0.794612
9209.000000;0.793171
9208.000000;0.791701
9207.000000;0.790836
9206.000000;0.790962
9205.000000;0.791898
9204.000000;0.792920
9203.000000;0.793332
9202.000000;0.793057
9201.000000;0.792526
9200.000000;0.792035
9199.000000;0.791487
9198.000000;0.790811
9197.000000;0.790295
9196.000000;0.790298
9195.000000;0.790836
9194.000000;0.791657
9193.000000;0.792522
9192.000000;0.793161
9191.000000;0.793151
9190.000000;0.792228
9189.000000;0.790699
9188.000000;0.789261
9187.000000;0.788368
9186.000000;0.787992
9185.000000;0.787957
9184.000000;0.788226
9183.000000;0.788733
9182.000000;0.789180
9181.000000;0.789200
9180.000000;0.788685
9179.000000;0.787840
9178.000000;0.786976
9177.000000;0.786334
9176.000000;0.786024
9175.000000;0.786064
9174.000000;0.786433
9173.000000;0.787056
9172.000000;0.787711
9171.000000;0.788038
9170.000000;0.787752
9169.000000;0.786880
9168.000000;0.785741
9167.000000;0.784770
9166.000000;0.784347
9165.000000;0.784602
9164.000000;0.785205
9163.000000;0.785508
9162.000000;0.785163
9161.000000;0.784537
9160.000000;0.784279
9159.000000;0.784536
9158.000000;0.784892
9157.000000;0.785015
9156.000000;0.784973
9155.000000;0.784864
9154.000000;0.784555
9153.000000;0.784051
9152.000000;0.783738
9151.000000;0.783915
9150.000000;0.784298
9149.000000;0.784314
9148.000000;0.783811
9147.000000;0.783156
9146.000000;0.782702
9145.000000;0.782443
9144.000000;0.782224
9143.000000;0.782034
9142.000000;0.781969
9141.000000;0.782042
9140.000000;0.782136
9139.000000;0.782114
9138.000000;0.781934
9137.000000;0.781689
9136.000000;0.781560
9135.000000;0.781716
9134.000000;0.782212
9133.000000;0.782942
9132.000000;0.783664
9131.000000;0.784106
9130.000000;0.784134
9129.000000;0.783817
9128.000000;0.783290
9127.000000;0.782581
9126.000000;0.781731
9125.000000;0.781004
9124.000000;0.780755
9123.000000;0.780991
9122.000000;0.781298
9121.000000;0.781332
9120.000000;0.781217
9119.000000;0.781288
9118.000000;0.781593
9117.000000;0.781845
9116.000000;0.781753
9115.000000;0.781227
9114.000000;0.780366
9113.000000;0.779442
9112.000000;0.778819
9111.000000;0.778646
9110.000000;0.778668
9109.000000;0.778528
9108.000000;0.778228
9107.000000;0.778076
9106.000000;0.778194
9105.000000;0.778377
9104.000000;0.778493
9103.000000;0.778777
9102.000000;0.779524
9101.000000;0.780598
9100.000000;0.781424
9099.000000;0.781475
9098.000000;0.780687
9097.000000;0.779423
9096.000000;0.778144
9095.000000;0.777153
9094.000000;0.776602
9093.000000;0.776563
9092.000000;0.776952
9091.000000;0.777366
9090.000000;0.777231
9089.000000;0.776318
9088.000000;0.775065
9087.000000;0.774236
9086.000000;0.774253
9085.000000;0.774954
9084.000000;0.775889
9083.000000;0.776669
9082.000000;0.777060
9081.000000;0.776997
9080.000000;0.776634
9079.000000;0.776281
9078.000000;0.776145
9077.000000;0.776152
9076.000000;0.776058
9075.000000;0.775695
9074.000000;0.775111
9073.000000;0.774518
9072.000000;0.774118
9071.000000;0.773956
9070.000000;0.773930
9069.000000;0.773968
9068.000000;0.774171
9067.000000;0.774670
9066.000000;0.775374
9065.000000;0.775963
9064.000000;0.776172
9063.000000;0.776008
9062.000000;0.775686
9061.000000;0.775404
9060.000000;0.775205
9059.000000;0.775004
9058.000000;0.774695
9057.000000;0.774254
9056.000000;0.773734
9055.000000;0.773208
9054.000000;0.772755
9053.000000;0.772487
