Criado como novo conjunto de dados;"e0108.spp","-4209641.0 Secs"
cm-1;Abs
10000.000000;1.081518
9999.000000;1.080821
9998.000000;1.081024
9997.000000;1.081940
9996.000000;1.082157
9995.000000;1.081054
9994.000000;1.079652
9993.000000;1.079415
9992.000000;1.080473
9991.000000;1.081819
9990.000000;1.082627
9989.000000;1.082690
9988.000000;1.081758
9987.000000;1.079498
9986.000000;1.076399
9985.000000;1.073988
9984.000000;1.073568
9983.000000;1.074994
9982.000000;1.076905
9981.000000;1.077903
9980.000000;1.077384
9979.000000;1.075692
9978.000000;1.073831
9977.000000;1.072707
9976.000000;1.072235
9975.000000;1.071462
9974.000000;1.069907
9973.000000;1.068374
9972.000000;1.067939
9971.000000;1.068573
9970.000000;1.069455
9969.000000;1.070313
9968.000000;1.071523
9967.000000;1.072891
9966.000000;1.073391
9965.000000;1.072517
9964.000000;1.071033
9963.000000;1.069887
9962.000000;1.069077
9961.000000;1.068105
9960.000000;1.066933
9959.000000;1.065886
9958.000000;1.065066
9957.000000;1.064444
9956.000000;1.064166
9955.000000;1.064144
9954.000000;1.063691
9953.000000;1.062292
9952.000000;1.060565
9951.000000;1.059758
9950.000000;1.060300
9949.000000;1.061327
9948.000000;1.061638
9947.000000;1.060757
9946.000000;1.059204
9945.000000;1.058170
9944.000000;1.058819
9943.000000;1.061262
9942.000000;1.064019
9941.000000;1.064986
9940.000000;1.063283
9939.000000;1.059903
9938.000000;1.056556
9937.000000;1.054351
9936.000000;1.053551
9935.000000;1.053899
9934.000000;1.054803
9933.000000;1.055538
9932.000000;1.055672
9931.000000;1.055307
9930.000000;1.054778
9929.000000;1.054262
9928.000000;1.053745
9927.000000;1.053193
9926.000000;1.052611
9925.000000;1.052021
9924.000000;1.051436
9923.000000;1.050786
9922.000000;1.049948
9921.000000;1.048962
9920.000000;1.048131
9919.000000;1.047713
9918.000000;1.047572
9917.000000;1.047408
9916.000000;1.047299
9915.000000;1.047664
9914.000000;1.048550
9913.000000;1.049283
9912.000000;1.049041
9911.000000;1.047649
9910.000000;1.045710
9909.000000;1.044083
9908.000000;1.043250
9907.000000;1.043008
9906.000000;1.042639
9905.000000;1.041492
9904.000000;1.039600
9903.000000;1.037768
9902.000000;1.036976
9901.000000;1.037527
9900.000000;1.038676
9899.000000;1.039217
9898.000000;1.038654
9897.000000;1.037763
9896.000000;1.037742
9895.000000;1.038815
9894.000000;1.039954
9893.000000;1.040074
9892.000000;1.039211
9891.000000;1.038290
9890.000000;1.038038
9889.000000;1.038384
9888.000000;1.038700
9887.000000;1.038380
9886.000000;1.037386
9885.000000;1.036408
9884.000000;1.036221
9883.000000;1.036632
9882.000000;1.036396
9881.000000;1.034616
9880.000000;1.032008
9879.000000;1.030275
9878.000000;1.030400
9877.000000;1.031934
9876.000000;1.033695
9875.000000;1.034736
9874.000000;1.034793
9873.000000;1.034305
9872.000000;1.034060
9871.000000;1.034525
9870.000000;1.035441
9869.000000;1.036172
9868.000000;1.036157
9867.000000;1.034822
9866.000000;1.031691
9865.000000;1.027275
9864.000000;1.023497
9863.000000;1.022360
9862.000000;1.024073
9861.000000;1.026903
9860.000000;1.028823
9859.000000;1.028936
9858.000000;1.027521
9857.000000;1.025543
9856.000000;1.024297
9855.000000;1.024612
9854.000000;1.025912
9853.000000;1.026659
9852.000000;1.026179
9851.000000;1.025450
9850.000000;1.025630
9849.000000;1.026370
9848.000000;1.026261
9847.000000;1.024661
9846.000000;1.022404
9845.000000;1.020793
9844.000000;1.020445
9843.000000;1.021060
9842.000000;1.021782
9841.000000;1.021660
9840.000000;1.020229
9839.000000;1.017938
9838.000000;1.015899
9837.000000;1.014953
9836.000000;1.014924
9835.000000;1.014875
9834.000000;1.014163
9833.000000;1.013163
9832.000000;1.012773
9831.000000;1.013309
9830.000000;1.014189
9829.000000;1.014801
9828.000000;1.015276
9827.000000;1.016057
9826.000000;1.017043
9825.000000;1.017635
9824.000000;1.017427
9823.000000;1.016378
9822.000000;1.014508
9821.000000;1.012110
9820.000000;1.010139
9819.000000;1.009611
9818.000000;1.010394
9817.000000;1.011146
9816.000000;1.010696
9815.000000;1.009104
9814.000000;1.007199
9813.000000;1.005583
9812.000000;1.004442
9811.000000;1.003883
9810.000000;1.003966
9809.000000;1.004632
9808.000000;1.005749
9807.000000;1.006944
9806.000000;1.007423
9805.000000;1.006571
9804.000000;1.004922
9803.000000;1.003863
9802.000000;1.004052
9801.000000;1.004748
9800.000000;1.005050
9799.000000;1.005090
9798.000000;1.005317
9797.000000;1.005283
9796.000000;1.004150
9795.000000;1.002126
9794.000000;1.000397
9793.000000;0.999574
9792.000000;0.999023
9791.000000;0.997899
9790.000000;0.996297
9789.000000;0.995069
9788.000000;0.994854
9787.000000;0.995598
9786.000000;0.996806
9785.000000;0.998027
9784.000000;0.999115
9783.000000;1.000027
9782.000000;1.000441
9781.000000;0.999877
9780.000000;0.998400
9779.000000;0.996897
9778.000000;0.996268
9777.000000;0.996486
9776.000000;0.996705
9775.000000;0.996250
9774.000000;0.995261
9773.000000;0.994410
9772.000000;0.994224
9771.000000;0.994664
9770.000000;0.995097
9769.000000;0.994827
9768.000000;0.993851
9767.000000;0.992897
9766.000000;0.992500
9765.000000;0.992324
9764.000000;0.991700
9763.000000;0.990546
9762.000000;0.989262
9761.000000;0.987975
9760.000000;0.986592
9759.000000;0.985579
9758.000000;0.985873
9757.000000;0.987728
9756.000000;0.990104
9755.000000;0.991546
9754.000000;0.991432
9753.000000;0.990161
9752.000000;0.988454
9751.000000;0.986830
9750.000000;0.985560
9749.000000;0.984729
9748.000000;0.984304
9747.000000;0.984254
9746.000000;0.984538
9745.000000;0.984904
9744.000000;0.984854
9743.000000;0.984018
9742.000000;0.982577
9741.000000;0.981229
9740.000000;0.980644
9739.000000;0.980863
9738.000000;0.981193
9737.000000;0.980802
9736.000000;0.979473
9735.000000;0.977806
9734.000000;0.976685
9733.000000;0.976634
9732.000000;0.977669
9731.000000;0.979462
9730.000000;0.981433
9729.000000;0.982844
9728.000000;0.983134
9727.000000;0.982218
9726.000000;0.980373
9725.000000;0.978021
9724.000000;0.975791
9723.000000;0.974451
9722.000000;0.974303
9721.000000;0.974756
9720.000000;0.974912
9719.000000;0.974518
9718.000000;0.974018
9717.000000;0.973681
9716.000000;0.973190
9715.000000;0.972237
9714.000000;0.971038
9713.000000;0.970014
9712.000000;0.969361
9711.000000;0.969179
9710.000000;0.969613
9709.000000;0.970554
9708.000000;0.971458
9707.000000;0.971788
9706.000000;0.971485
9705.000000;0.970798
9704.000000;0.969888
9703.000000;0.968879
9702.000000;0.968042
9701.000000;0.967584
9700.000000;0.967333
9699.000000;0.966962
9698.000000;0.966485
9697.000000;0.966224
9696.000000;0.966340
9695.000000;0.966643
9694.000000;0.966880
9693.000000;0.967001
9692.000000;0.967067
9691.000000;0.967094
9690.000000;0.967033
9689.000000;0.966795
9688.000000;0.966280
9687.000000;0.965416
9686.000000;0.964202
9685.000000;0.962722
9684.000000;0.961221
9683.000000;0.960169
9682.000000;0.960007
9681.000000;0.960650
9680.000000;0.961365
9679.000000;0.961328
9678.000000;0.960298
9677.000000;0.958707
9676.000000;0.957288
9675.000000;0.956737
9674.000000;0.957433
9673.000000;0.959083
9672.000000;0.960736
9671.000000;0.961451
9670.000000;0.961031
9669.000000;0.959928
9668.000000;0.958583
9667.000000;0.957183
9666.000000;0.956004
9665.000000;0.955434
9664.000000;0.955436
9663.000000;0.955391
9662.000000;0.954798
9661.000000;0.953874
9660.000000;0.953246
9659.000000;0.953222
9658.000000;0.953541
9657.000000;0.953665
9656.000000;0.953112
9655.000000;0.951714
9654.000000;0.949904
9653.000000;0.948655
9652.000000;0.948777
9651.000000;0.950103
9650.000000;0.951489
9649.000000;0.951764
9648.000000;0.950705
9647.000000;0.949106
9646.000000;0.947984
9645.000000;0.947765
9644.000000;0.948099
9643.000000;0.948269
9642.000000;0.947769
9641.000000;0.946650
9640.000000;0.945454
9639.000000;0.944850
9638.000000;0.945137
9637.000000;0.945931
9636.000000;0.946412
9635.000000;0.946076
9634.000000;0.945213
9633.000000;0.944475
9632.000000;0.944106
9631.000000;0.943901
9630.000000;0.943864
9629.000000;0.944377
9628.000000;0.945447
9627.000000;0.946253
9626.000000;0.945883
9625.000000;0.944366
9624.000000;0.942567
9623.000000;0.941226
9622.000000;0.940476
9621.000000;0.940216
9620.000000;0.940441
9619.000000;0.941011
9618.000000;0.941468
9617.000000;0.941391
9616.000000;0.940799
9615.000000;0.940084
9614.000000;0.939647
9613.000000;0.939620
9612.000000;0.939805
9611.000000;0.939796
9610.000000;0.939237
9609.000000;0.938055
9608.000000;0.936421
9607.000000;0.934650
9606.000000;0.933280
9605.000000;0.933006
9604.000000;0.934096
9603.000000;0.935810
9602.000000;0.936799
9601.000000;0.936305
9600.000000;0.934799
9599.000000;0.933328
9598.000000;0.932530
9597.000000;0.932390
9596.000000;0.932571
9595.000000;0.932680
9594.000000;0.932414
9593.000000;0.931770
9592.000000;0.931106
9591.000000;0.930828
9590.000000;0.931037
9589.000000;0.931550
9588.000000;0.932095
9587.000000;0.932336
9586.000000;0.931899
9585.000000;0.930655
9584.000000;0.928991
9583.000000;0.927621
9582.000000;0.927087
9581.000000;0.927382
9580.000000;0.927923
9579.000000;0.927902
9578.000000;0.926909
9577.000000;0.925349
9576.000000;0.924072
9575.000000;0.923561
9574.000000;0.923655
9573.000000;0.924045
9572.000000;0.924618
9571.000000;0.925164
9570.000000;0.925202
9569.000000;0.924511
9568.000000;0.923549
9567.000000;0.922910
9566.000000;0.922601
9565.000000;0.922243
9564.000000;0.921802
9563.000000;0.921602
9562.000000;0.921709
9561.000000;0.921821
9560.000000;0.921768
9559.000000;0.921632
9558.000000;0.921308
9557.000000;0.920475
9556.000000;0.919175
9555.000000;0.917958
9554.000000;0.917245
9553.000000;0.916881
9552.000000;0.916562
9551.000000;0.916297
9550.000000;0.916152
9549.000000;0.915836
9548.000000;0.914979
9547.000000;0.913739
9546.000000;0.912789
9545.000000;0.912683
9544.000000;0.913375
9543.000000;0.914331
9542.000000;0.914958
9541.000000;0.914980
9540.000000;0.914546
9539.000000;0.914045
9538.000000;0.913848
9537.000000;0.914167
9536.000000;0.914964
9535.000000;0.915806
9534.000000;0.915995
9533.000000;0.915198
9532.000000;0.913937
9531.000000;0.913123
9530.000000;0.913055
9529.000000;0.913199
9528.000000;0.912996
9527.000000;0.912487
9526.000000;0.911983
9525.000000;0.911562
9524.000000;0.911186
9523.000000;0.910912
9522.000000;0.910563
9521.000000;0.909573
9520.000000;0.907716
9519.000000;0.905817
9518.000000;0.905126
9517.000000;0.905939
9516.000000;0.907319
9515.000000;0.908209
9514.000000;0.908346
9513.000000;0.907963
9512.000000;0.907172
9511.000000;0.906093
9510.000000;0.905226
9509.000000;0.905139
9508.000000;0.905749
9507.000000;0.906274
9506.000000;0.906013
9505.000000;0.904989
9504.000000;0.903775
9503.000000;0.902889
9502.000000;0.902448
9501.000000;0.902271
9500.000000;0.902130
9499.000000;0.901951
9498.000000;0.901871
9497.000000;0.902116
9496.000000;0.902734
9495.000000;0.903399
9494.000000;0.903585
9493.000000;0.903056
9492.000000;0.902121
9491.000000;0.901345
9490.000000;0.901044
9489.000000;0.901093
9488.000000;0.901120
9487.000000;0.900731
9486.000000;0.899620
9485.000000;0.897780
9484.000000;0.895773
9483.000000;0.894552
9482.000000;0.894660
9481.000000;0.895587
9480.000000;0.896113
9479.000000;0.895442
9478.000000;0.893901
9477.000000;0.892492
9476.000000;0.891898
9475.000000;0.892035
9474.000000;0.892407
9473.000000;0.892640
9472.000000;0.892644
9471.000000;0.892461
9470.000000;0.892152
9469.000000;0.891843
9468.000000;0.891744
9467.000000;0.892005
9466.000000;0.892546
9465.000000;0.893089
9464.000000;0.893355
9463.000000;0.893236
9462.000000;0.892801
9461.000000;0.892201
9460.000000;0.891617
9459.000000;0.891281
9458.000000;0.891376
9457.000000;0.891799
9456.000000;0.892078
9455.000000;0.891714
9454.000000;0.890711
9453.000000;0.889683
9452.000000;0.889294
9451.000000;0.889636
9450.000000;0.890223
9449.000000;0.890501
9448.000000;0.890231
9447.000000;0.889441
9446.000000;0.888318
9445.000000;0.887275
9444.000000;0.886857
9443.000000;0.887276
9442.000000;0.888067
9441.000000;0.888396
9440.000000;0.887755
9439.000000;0.886323
9438.000000;0.884734
9437.000000;0.883661
9436.000000;0.883517
9435.000000;0.884245
9434.000000;0.885263
9433.000000;0.885784
9432.000000;0.885402
9431.000000;0.884375
9430.000000;0.883317
9429.000000;0.882688
9428.000000;0.882585
9427.000000;0.882845
9426.000000;0.883188
9425.000000;0.883384
9424.000000;0.883432
9423.000000;0.883545
9422.000000;0.883812
9421.000000;0.883895
9420.000000;0.883212
9419.000000;0.881532
9418.000000;0.879383
9417.000000;0.877739
9416.000000;0.877229
9415.000000;0.877574
9414.000000;0.877797
9413.000000;0.877111
9412.000000;0.875690
9411.000000;0.874503
9410.000000;0.874301
9409.000000;0.874841
9408.000000;0.875243
9407.000000;0.875079
9406.000000;0.874856
9405.000000;0.875305
9404.000000;0.876376
9403.000000;0.877229
9402.000000;0.877188
9401.000000;0.876450
9400.000000;0.875729
9399.000000;0.875394
9398.000000;0.875190
9397.000000;0.874714
9396.000000;0.873937
9395.000000;0.873196
9394.000000;0.872873
9393.000000;0.873167
9392.000000;0.873999
9391.000000;0.874979
9390.000000;0.875528
9389.000000;0.875240
9388.000000;0.874200
9387.000000;0.872921
9386.000000;0.871956
9385.000000;0.871549
9384.000000;0.871561
9383.000000;0.871639
9382.000000;0.871515
9381.000000;0.871199
9380.000000;0.870842
9379.000000;0.870424
9378.000000;0.869704
9377.000000;0.868613
9376.000000;0.867572
9375.000000;0.867204
9374.000000;0.867742
9373.000000;0.868785
9372.000000;0.869640
9371.000000;0.869783
9370.000000;0.869126
9369.000000;0.868086
9368.000000;0.867372
9367.000000;0.867433
9366.000000;0.867976
9365.000000;0.868165
9364.000000;0.867436
9363.000000;0.866035
9362.000000;0.864677
9361.000000;0.863830
9360.000000;0.863490
9359.000000;0.863456
9358.000000;0.863559
9357.000000;0.863665
9356.000000;0.863725
9355.000000;0.863874
9354.000000;0.864294
9353.000000;0.864862
9352.000000;0.865103
9351.000000;0.864648
9350.000000;0.863632
9349.000000;0.862535
9348.000000;0.861708
9347.000000;0.861211
9346.000000;0.861024
9345.000000;0.861151
9344.000000;0.861458
9343.000000;0.861611
9342.000000;0.861376
9341.000000;0.860863
9340.000000;0.860292
9339.000000;0.859634
9338.000000;0.858759
9337.000000;0.857908
9336.000000;0.857665
9335.000000;0.858264
9334.000000;0.859159
9333.000000;0.859537
9332.000000;0.859172
9331.000000;0.858558
9330.000000;0.858278
9329.000000;0.858461
9328.000000;0.858836
9327.000000;0.859042
9326.000000;0.858804
9325.000000;0.858021
9324.000000;0.856857
9323.000000;0.855701
9322.000000;0.854965
9321.000000;0.854872
9320.000000;0.855322
9319.000000;0.855824
9318.000000;0.855679
9317.000000;0.854555
9316.000000;0.852960
9315.000000;0.851866
9314.000000;0.851742
9313.000000;0.852159
9312.000000;0.852482
9311.000000;0.852679
9310.000000;0.853106
9309.000000;0.853705
9308.000000;0.853870
9307.000000;0.853187
9306.000000;0.851951
9305.000000;0.850837
9304.000000;0.850326
9303.000000;0.850577
9302.000000;0.851513
9301.000000;0.852717
9300.000000;0.853455
9299.000000;0.853214
9298.000000;0.852239
9297.000000;0.851330
9296.000000;0.851066
9295.000000;0.851374
9294.000000;0.851767
9293.000000;0.851759
9292.000000;0.851072
9291.000000;0.849780
9290.000000;0.848390
9289.000000;0.847539
9288.000000;0.847429
9287.000000;0.847698
9286.000000;0.847950
9285.000000;0.848186
9284.000000;0.848546
9283.000000;0.848877
9282.000000;0.848872
9281.000000;0.848523
9280.000000;0.848086
9279.000000;0.847636
9278.000000;0.846989
9277.000000;0.846124
9276.000000;0.845383
9275.000000;0.845133
9274.000000;0.845427
9273.000000;0.846063
9272.000000;0.846753
9271.000000;0.847100
9270.000000;0.846687
9269.000000;0.845429
9268.000000;0.843763
9267.000000;0.842361
9266.000000;0.841691
9265.000000;0.841825
9264.000000;0.842444
9263.000000;0.842980
9262.000000;0.843029
9261.000000;0.842811
9260.000000;0.842980
9259.000000;0.843734
9258.000000;0.844352
9257.000000;0.843921
9256.000000;0.842408
9255.000000;0.840706
9254.000000;0.839676
9253.000000;0.839423
9252.000000;0.839486
9251.000000;0.839428
9250.000000;0.839125
9249.000000;0.838712
9248.000000;0.838418
9247.000000;0.838346
9246.000000;0.838352
9245.000000;0.838203
9244.000000;0.837889
9243.000000;0.837687
9242.000000;0.837903
9241.000000;0.838586
9240.000000;0.839466
9239.000000;0.840100
9238.000000;0.840178
9237.000000;0.839807
9236.000000;0.839423
9235.000000;0.839299
9234.000000;0.839223
9233.000000;0.838810
9232.000000;0.838015
9231.000000;0.837148
9230.000000;0.836443
9229.000000;0.835888
9228.000000;0.835414
9227.000000;0.834992
9226.000000;0.834543
9225.000000;0.834051
9224.000000;0.833812
9223.000000;0.834252
9222.000000;0.835322
9221.000000;0.836276
9220.000000;0.836309
9219.000000;0.835332
9218.000000;0.833967
9217.000000;0.832913
9216.000000;0.832470
9215.000000;0.832572
9214.000000;0.833023
9213.000000;0.833559
9212.000000;0.833858
9211.000000;0.833706
9210.000000;0.833223
9209.000000;0.832798
9208.000000;0.832694
9207.000000;0.832736
9206.000000;0.832518
9205.000000;0.831903
9204.000000;0.831159
9203.000000;0.830567
9202.000000;0.830105
9201.000000;0.829613
9200.000000;0.829105
9199.000000;0.828740
9198.000000;0.828606
9197.000000;0.828668
9196.000000;0.828834
9195.000000;0.828900
9194.000000;0.828572
9193.000000;0.827779
9192.000000;0.826875
9191.000000;0.826336
9190.000000;0.826294
9189.000000;0.826560
9188.000000;0.826985
9187.000000;0.827491
9186.000000;0.827794
9185.000000;0.827543
9184.000000;0.826817
9183.000000;0.826117
9182.000000;0.825684
9181.000000;0.825141
9180.000000;0.824087
9179.000000;0.822842
9178.000000;0.822292
9177.000000;0.822961
9176.000000;0.824405
9175.000000;0.825556
9174.000000;0.825695
9173.000000;0.825113
9172.000000;0.824710
9171.000000;0.824931
9170.000000;0.825234
9169.000000;0.824823
9168.000000;0.823753
9167.000000;0.822923
9166.000000;0.822960
9165.000000;0.823487
9164.000000;0.823651
9163.000000;0.823055
9162.000000;0.821972
9161.000000;0.820924
9160.000000;0.820323
9159.000000;0.820341
9158.000000;0.820818
9157.000000;0.821339
9156.000000;0.821595
9155.000000;0.821615
9154.000000;0.821565
9153.000000;0.821462
9152.000000;0.821250
9151.000000;0.821008
9150.000000;0.820897
9149.000000;0.820986
9148.000000;0.821262
9147.000000;0.821674
9146.000000;0.822020
9145.000000;0.821932
9144.000000;0.821244
9143.000000;0.820294
9142.000000;0.819647
9141.000000;0.819513
9140.000000;0.819598
9139.000000;0.819494
9138.000000;0.819049
9137.000000;0.818351
9136.000000;0.817552
9135.000000;0.816828
9134.000000;0.816410
9133.000000;0.816497
9132.000000;0.817047
9131.000000;0.817689
9130.000000;0.817940
9129.000000;0.817622
9128.000000;0.817019
9127.000000;0.816542
9126.000000;0.816327
9125.000000;0.816278
9124.000000;0.816386
9123.000000;0.816698
9122.000000;0.817009
9121.000000;0.816965
9120.000000;0.816619
9119.000000;0.816522
9118.000000;0.817020
9117.000000;0.817700
9116.000000;0.817802
9115.000000;0.817011
9114.000000;0.815603
9113.000000;0.814024
9112.000000;0.812645
9111.000000;0.811785
9110.000000;0.811598
9109.000000;0.811882
9108.000000;0.812225
9107.000000;0.812372
9106.000000;0.812316
9105.000000;0.812107
9104.000000;0.811806
9103.000000;0.811558
9102.000000;0.811491
9101.000000;0.811563
9100.000000;0.811677
9099.000000;0.811865
9098.000000;0.812123
9097.000000;0.812179
9096.000000;0.811762
9095.000000;0.811101
9094.000000;0.810802
9093.000000;0.811096
9092.000000;0.811486
9091.000000;0.811311
9090.000000;0.810493
9089.000000;0.809530
9088.000000;0.808903
9087.000000;0.808707
9086.000000;0.808841
9085.000000;0.809316
9084.000000;0.810216
9083.000000;0.811334
9082.000000;0.812010
9081.000000;0.811577
9080.000000;0.810075
9079.000000;0.808386
9078.000000;0.807493
9077.000000;0.807640
9076.000000;0.808282
9075.000000;0.808705
9074.000000;0.808560
9073.000000;0.807952
9072.000000;0.807246
9071.000000;0.806836
9070.000000;0.806891
9069.000000;0.807261
9068.000000;0.807643
9067.000000;0.807847
9066.000000;0.807827
9065.000000;0.807574
9064.000000;0.807114
9063.000000;0.806573
9062.000000;0.806068
9061.000000;0.805571
9060.000000;0.805015
9059.000000;0.804499
9058.000000;0.804242
9057.000000;0.804347
9056.000000;0.804706
9055.000000;0.805083
9054.000000;0.805183
9053.000000;0.804795
