Criado como novo conjunto de dados;"e0108.spp","-4244022.6 Secs"
cm-1;Abs
10000.000000;0.998984
9999.000000;0.999393
9998.000000;1.000170
9997.000000;1.000883
9996.000000;1.001152
9995.000000;1.000985
9994.000000;1.000401
9993.000000;0.999472
9992.000000;0.998432
9991.000000;0.997771
9990.000000;0.997764
9989.000000;0.998174
9988.000000;0.998492
9987.000000;0.998431
9986.000000;0.998019
9985.000000;0.997387
9984.000000;0.996663
9983.000000;0.995952
9982.000000;0.995256
9981.000000;0.994534
9980.000000;0.993982
9979.000000;0.993937
9978.000000;0.994267
9977.000000;0.994246
9976.000000;0.993417
9975.000000;0.992287
9974.000000;0.991667
9973.000000;0.991514
9972.000000;0.991011
9971.000000;0.989749
9970.000000;0.988273
9969.000000;0.987308
9968.000000;0.986919
9967.000000;0.986667
9966.000000;0.986242
9965.000000;0.985721
9964.000000;0.985434
9963.000000;0.985728
9962.000000;0.986605
9961.000000;0.987482
9960.000000;0.987593
9959.000000;0.986809
9958.000000;0.985767
9957.000000;0.985052
9956.000000;0.984602
9955.000000;0.984103
9954.000000;0.983621
9953.000000;0.983487
9952.000000;0.983814
9951.000000;0.984391
9950.000000;0.984886
9949.000000;0.984937
9948.000000;0.984310
9947.000000;0.983248
9946.000000;0.982409
9945.000000;0.982156
9944.000000;0.982115
9943.000000;0.981724
9942.000000;0.980981
9941.000000;0.980210
9940.000000;0.979359
9939.000000;0.978182
9938.000000;0.977038
9937.000000;0.976825
9936.000000;0.977862
9935.000000;0.979312
9934.000000;0.979971
9933.000000;0.979331
9932.000000;0.977754
9931.000000;0.976057
9930.000000;0.975184
9929.000000;0.975805
9928.000000;0.977632
9927.000000;0.979248
9926.000000;0.979194
9925.000000;0.977454
9924.000000;0.975550
9923.000000;0.975007
9922.000000;0.975923
9921.000000;0.977080
9920.000000;0.977305
9919.000000;0.976578
9918.000000;0.975809
9917.000000;0.975667
9916.000000;0.975872
9915.000000;0.975649
9914.000000;0.974679
9913.000000;0.973311
9912.000000;0.971913
9911.000000;0.970411
9910.000000;0.968656
9909.000000;0.967005
9908.000000;0.966179
9907.000000;0.966557
9906.000000;0.967793
9905.000000;0.969160
9904.000000;0.970094
9903.000000;0.970422
9902.000000;0.970244
9901.000000;0.969699
9900.000000;0.968876
9899.000000;0.967952
9898.000000;0.967297
9897.000000;0.967191
9896.000000;0.967404
9895.000000;0.967282
9894.000000;0.966429
9893.000000;0.965154
9892.000000;0.964039
9891.000000;0.963249
9890.000000;0.962550
9889.000000;0.961874
9888.000000;0.961480
9887.000000;0.961516
9886.000000;0.961747
9885.000000;0.961868
9884.000000;0.961901
9883.000000;0.962052
9882.000000;0.962267
9881.000000;0.962106
9880.000000;0.961120
9879.000000;0.959339
9878.000000;0.957447
9877.000000;0.956389
9876.000000;0.956590
9875.000000;0.957495
9874.000000;0.958055
9873.000000;0.957771
9872.000000;0.957107
9871.000000;0.956744
9870.000000;0.956664
9869.000000;0.956206
9868.000000;0.954947
9867.000000;0.953294
9866.000000;0.952140
9865.000000;0.951974
9864.000000;0.952465
9863.000000;0.952926
9862.000000;0.953085
9861.000000;0.953271
9860.000000;0.953881
9859.000000;0.954834
9858.000000;0.955599
9857.000000;0.955672
9856.000000;0.954912
9855.000000;0.953548
9854.000000;0.952047
9853.000000;0.950955
9852.000000;0.950604
9851.000000;0.950879
9850.000000;0.951337
9849.000000;0.951643
9848.000000;0.951747
9847.000000;0.951656
9846.000000;0.951256
9845.000000;0.950470
9844.000000;0.949437
9843.000000;0.948374
9842.000000;0.947338
9841.000000;0.946319
9840.000000;0.945529
9839.000000;0.945377
9838.000000;0.945995
9837.000000;0.946869
9836.000000;0.947132
9835.000000;0.946380
9834.000000;0.945119
9833.000000;0.944179
9832.000000;0.943730
9831.000000;0.943112
9830.000000;0.941782
9829.000000;0.940184
9828.000000;0.939310
9827.000000;0.939525
9826.000000;0.940273
9825.000000;0.940907
9824.000000;0.941300
9823.000000;0.941447
9822.000000;0.940997
9821.000000;0.939712
9820.000000;0.938137
9819.000000;0.937240
9818.000000;0.937369
9817.000000;0.937950
9816.000000;0.938268
9815.000000;0.938185
9814.000000;0.937957
9813.000000;0.937725
9812.000000;0.937506
9811.000000;0.937474
9810.000000;0.937878
9809.000000;0.938624
9808.000000;0.939185
9807.000000;0.939091
9806.000000;0.938455
9805.000000;0.937868
9804.000000;0.937671
9803.000000;0.937464
9802.000000;0.936523
9801.000000;0.934796
9800.000000;0.933231
9799.000000;0.932835
9798.000000;0.933498
9797.000000;0.934070
9796.000000;0.933690
9795.000000;0.932694
9794.000000;0.931977
9793.000000;0.931752
9792.000000;0.931375
9791.000000;0.930320
9790.000000;0.928878
9789.000000;0.927767
9788.000000;0.927350
9787.000000;0.927497
9786.000000;0.928010
9785.000000;0.928816
9784.000000;0.929733
9783.000000;0.930396
9782.000000;0.930549
9781.000000;0.930273
9780.000000;0.929740
9779.000000;0.928911
9778.000000;0.927687
9777.000000;0.926295
9776.000000;0.925278
9775.000000;0.925071
9774.000000;0.925662
9773.000000;0.926632
9772.000000;0.927413
9771.000000;0.927526
9770.000000;0.926824
9769.000000;0.925622
9768.000000;0.924497
9767.000000;0.923829
9766.000000;0.923592
9765.000000;0.923599
9764.000000;0.923826
9763.000000;0.924397
9762.000000;0.925301
9761.000000;0.926200
9760.000000;0.926548
9759.000000;0.925948
9758.000000;0.924523
9757.000000;0.922935
9756.000000;0.921876
9755.000000;0.921435
9754.000000;0.921101
9753.000000;0.920467
9752.000000;0.919772
9751.000000;0.919550
9750.000000;0.919873
9749.000000;0.920195
9748.000000;0.919953
9747.000000;0.919167
9746.000000;0.918363
9745.000000;0.917987
9744.000000;0.917964
9743.000000;0.917828
9742.000000;0.917252
9741.000000;0.916411
9740.000000;0.915770
9739.000000;0.915495
9738.000000;0.915225
9737.000000;0.914496
9736.000000;0.913257
9735.000000;0.911932
9734.000000;0.911090
9733.000000;0.911160
9732.000000;0.912227
9731.000000;0.913801
9730.000000;0.914911
9729.000000;0.914821
9728.000000;0.913754
9727.000000;0.912650
9726.000000;0.912166
9725.000000;0.912168
9724.000000;0.912251
9723.000000;0.912354
9722.000000;0.912546
9721.000000;0.912441
9720.000000;0.911382
9719.000000;0.909375
9718.000000;0.907535
9717.000000;0.907237
9716.000000;0.908787
9715.000000;0.911044
9714.000000;0.912376
9713.000000;0.912011
9712.000000;0.910479
9711.000000;0.908895
9710.000000;0.907976
9709.000000;0.907720
9708.000000;0.907744
9707.000000;0.907686
9706.000000;0.907336
9705.000000;0.906623
9704.000000;0.905651
9703.000000;0.904717
9702.000000;0.904185
9701.000000;0.904265
9700.000000;0.904869
9699.000000;0.905649
9698.000000;0.906243
9697.000000;0.906532
9696.000000;0.906653
9695.000000;0.906771
9694.000000;0.906896
9693.000000;0.906965
9692.000000;0.906928
9691.000000;0.906635
9690.000000;0.905738
9689.000000;0.904021
9688.000000;0.901855
9687.000000;0.900080
9686.000000;0.899240
9685.000000;0.899074
9684.000000;0.898869
9683.000000;0.898248
9682.000000;0.897449
9681.000000;0.896893
9680.000000;0.896716
9679.000000;0.896774
9678.000000;0.896950
9677.000000;0.897261
9676.000000;0.897677
9675.000000;0.897976
9674.000000;0.897898
9673.000000;0.897423
9672.000000;0.896819
9671.000000;0.896363
9670.000000;0.896051
9669.000000;0.895630
9668.000000;0.894957
9667.000000;0.894252
9666.000000;0.893946
9665.000000;0.894234
9664.000000;0.894807
9663.000000;0.895075
9662.000000;0.894670
9661.000000;0.893716
9660.000000;0.892626
9659.000000;0.891698
9658.000000;0.890994
9657.000000;0.890552
9656.000000;0.890534
9655.000000;0.891032
9654.000000;0.891772
9653.000000;0.892200
9652.000000;0.891957
9651.000000;0.891211
9650.000000;0.890461
9649.000000;0.890027
9648.000000;0.889760
9647.000000;0.889267
9646.000000;0.888365
9645.000000;0.887272
9644.000000;0.886397
9643.000000;0.886049
9642.000000;0.886323
9641.000000;0.887112
9640.000000;0.888096
9639.000000;0.888812
9638.000000;0.888949
9637.000000;0.888611
9636.000000;0.888164
9635.000000;0.887764
9634.000000;0.887173
9633.000000;0.886136
9632.000000;0.884849
9631.000000;0.883858
9630.000000;0.883494
9629.000000;0.883524
9628.000000;0.883404
9627.000000;0.882844
9626.000000;0.882062
9625.000000;0.881514
9624.000000;0.881440
9623.000000;0.881709
9622.000000;0.882031
9621.000000;0.882225
9620.000000;0.882253
9619.000000;0.882149
9618.000000;0.882067
9617.000000;0.882310
9616.000000;0.883030
9615.000000;0.883863
9614.000000;0.884058
9613.000000;0.883153
9612.000000;0.881438
9611.000000;0.879682
9610.000000;0.878511
9609.000000;0.878085
9608.000000;0.878156
9607.000000;0.878266
9606.000000;0.877991
9605.000000;0.877244
9604.000000;0.876338
9603.000000;0.875642
9602.000000;0.875189
9601.000000;0.874763
9600.000000;0.874302
9599.000000;0.874027
9598.000000;0.874162
9597.000000;0.874717
9596.000000;0.875560
9595.000000;0.876506
9594.000000;0.877192
9593.000000;0.877085
9592.000000;0.875893
9591.000000;0.874046
9590.000000;0.872582
9589.000000;0.872421
9588.000000;0.873621
9587.000000;0.875263
9586.000000;0.876130
9585.000000;0.875666
9584.000000;0.874323
9583.000000;0.873009
9582.000000;0.872295
9581.000000;0.872161
9580.000000;0.872299
9579.000000;0.872426
9578.000000;0.872346
9577.000000;0.871965
9576.000000;0.871394
9575.000000;0.870912
9574.000000;0.870696
9573.000000;0.870632
9572.000000;0.870455
9571.000000;0.870031
9570.000000;0.869463
9569.000000;0.868948
9568.000000;0.868580
9567.000000;0.868266
9566.000000;0.867817
9565.000000;0.867157
9564.000000;0.866470
9563.000000;0.866040
9562.000000;0.865929
9561.000000;0.865859
9560.000000;0.865482
9559.000000;0.864750
9558.000000;0.863978
9557.000000;0.863576
9556.000000;0.863721
9555.000000;0.864206
9554.000000;0.864547
9553.000000;0.864288
9552.000000;0.863350
9551.000000;0.862128
9550.000000;0.861221
9549.000000;0.860959
9548.000000;0.861155
9547.000000;0.861301
9546.000000;0.861057
9545.000000;0.860510
9544.000000;0.859962
9543.000000;0.859562
9542.000000;0.859236
9541.000000;0.858935
9540.000000;0.858827
9539.000000;0.859165
9538.000000;0.860025
9537.000000;0.861258
9536.000000;0.862586
9535.000000;0.863658
9534.000000;0.864081
9533.000000;0.863612
9532.000000;0.862401
9531.000000;0.860961
9530.000000;0.859839
9529.000000;0.859325
9528.000000;0.859387
9527.000000;0.859724
9526.000000;0.859907
9525.000000;0.859645
9524.000000;0.859047
9523.000000;0.858500
9522.000000;0.858174
9521.000000;0.857718
9520.000000;0.856652
9519.000000;0.855051
9518.000000;0.853676
9517.000000;0.853271
9516.000000;0.853867
9515.000000;0.854879
9514.000000;0.855773
9513.000000;0.856401
9512.000000;0.856726
9511.000000;0.856609
9510.000000;0.856125
9509.000000;0.855828
9508.000000;0.856249
9507.000000;0.857105
9506.000000;0.857367
9505.000000;0.856300
9504.000000;0.854228
9503.000000;0.852177
9502.000000;0.850950
9501.000000;0.850704
9500.000000;0.851147
9499.000000;0.851835
9498.000000;0.852326
9497.000000;0.852313
9496.000000;0.851715
9495.000000;0.850630
9494.000000;0.849312
9493.000000;0.848174
9492.000000;0.847615
9491.000000;0.847627
9490.000000;0.847738
9489.000000;0.847550
9488.000000;0.847208
9487.000000;0.847106
9486.000000;0.847233
9485.000000;0.847150
9484.000000;0.846612
9483.000000;0.845901
9482.000000;0.845451
9481.000000;0.845381
9480.000000;0.845450
9479.000000;0.845273
9478.000000;0.844537
9477.000000;0.843277
9476.000000;0.842094
9475.000000;0.841850
9474.000000;0.842886
9473.000000;0.844579
9472.000000;0.845765
9471.000000;0.845630
9470.000000;0.844226
9469.000000;0.842350
9468.000000;0.841015
9467.000000;0.840820
9466.000000;0.841630
9465.000000;0.842834
9464.000000;0.843903
9463.000000;0.844612
9462.000000;0.844801
9461.000000;0.844327
9460.000000;0.843399
9459.000000;0.842638
9458.000000;0.842476
9457.000000;0.842673
9456.000000;0.842699
9455.000000;0.842429
9454.000000;0.842151
9453.000000;0.842011
9452.000000;0.841852
9451.000000;0.841599
9450.000000;0.841431
9449.000000;0.841412
9448.000000;0.841264
9447.000000;0.840726
9446.000000;0.839964
9445.000000;0.839453
9444.000000;0.839512
9443.000000;0.840053
9442.000000;0.840650
9441.000000;0.840768
9440.000000;0.840082
9439.000000;0.838789
9438.000000;0.837539
9437.000000;0.836916
9436.000000;0.836982
9435.000000;0.837398
9434.000000;0.837883
9433.000000;0.838344
9432.000000;0.838642
9431.000000;0.838496
9430.000000;0.837770
9429.000000;0.836700
9428.000000;0.835731
9427.000000;0.835196
9426.000000;0.835242
9425.000000;0.835882
9424.000000;0.836914
9423.000000;0.837784
9422.000000;0.837791
9421.000000;0.836596
9420.000000;0.834561
9419.000000;0.832530
9418.000000;0.831271
9417.000000;0.831057
9416.000000;0.831641
9415.000000;0.832502
9414.000000;0.833154
9413.000000;0.833367
9412.000000;0.833203
9411.000000;0.832880
9410.000000;0.832582
9409.000000;0.832360
9408.000000;0.832142
9407.000000;0.831797
9406.000000;0.831216
9405.000000;0.830424
9404.000000;0.829586
9403.000000;0.828906
9402.000000;0.828506
9401.000000;0.828398
9400.000000;0.828526
9399.000000;0.828782
9398.000000;0.829037
9397.000000;0.829201
9396.000000;0.829240
9395.000000;0.829105
9394.000000;0.828713
9393.000000;0.828112
9392.000000;0.827577
9391.000000;0.827382
9390.000000;0.827428
9389.000000;0.827257
9388.000000;0.826562
9387.000000;0.825607
9386.000000;0.825008
9385.000000;0.825102
9384.000000;0.825589
9383.000000;0.825813
9382.000000;0.825396
9381.000000;0.824567
9380.000000;0.823890
9379.000000;0.823700
9378.000000;0.823845
9377.000000;0.823999
9376.000000;0.824130
9375.000000;0.824474
9374.000000;0.825041
9373.000000;0.825409
9372.000000;0.825204
9371.000000;0.824641
9370.000000;0.824312
9369.000000;0.824447
9368.000000;0.824628
9367.000000;0.824300
9366.000000;0.823368
9365.000000;0.822191
9364.000000;0.821180
9363.000000;0.820611
9362.000000;0.820677
9361.000000;0.821436
9360.000000;0.822646
9359.000000;0.823804
9358.000000;0.824455
9357.000000;0.824422
9356.000000;0.823786
9355.000000;0.822808
9354.000000;0.821902
9353.000000;0.821504
9352.000000;0.821753
9351.000000;0.822313
9350.000000;0.822582
9349.000000;0.822136
9348.000000;0.821012
9347.000000;0.819651
9346.000000;0.818607
9345.000000;0.818219
9344.000000;0.818408
9343.000000;0.818744
9342.000000;0.818752
9341.000000;0.818226
9340.000000;0.817363
9339.000000;0.816652
9338.000000;0.816557
9337.000000;0.817174
9336.000000;0.818114
9335.000000;0.818831
9334.000000;0.819086
9333.000000;0.819053
9332.000000;0.818952
9331.000000;0.818781
9330.000000;0.818452
9329.000000;0.817983
9328.000000;0.817383
9327.000000;0.816513
9326.000000;0.815319
9325.000000;0.814149
9324.000000;0.813551
9323.000000;0.813708
9322.000000;0.814254
9321.000000;0.814679
9320.000000;0.814787
9319.000000;0.814730
9318.000000;0.814752
9317.000000;0.814956
9316.000000;0.815168
9315.000000;0.815007
9314.000000;0.814240
9313.000000;0.813151
9312.000000;0.812391
9311.000000;0.812341
9310.000000;0.812741
9309.000000;0.813005
9308.000000;0.812786
9307.000000;0.812135
9306.000000;0.811305
9305.000000;0.810581
9304.000000;0.810215
9303.000000;0.810292
9302.000000;0.810620
9301.000000;0.810830
9300.000000;0.810632
9299.000000;0.810000
9298.000000;0.809221
9297.000000;0.808804
9296.000000;0.809161
9295.000000;0.810199
9294.000000;0.811250
9293.000000;0.811558
9292.000000;0.810889
9291.000000;0.809653
9290.000000;0.808504
9289.000000;0.807864
9288.000000;0.807728
9287.000000;0.807801
9286.000000;0.807818
9285.000000;0.807791
9284.000000;0.807934
9283.000000;0.808312
9282.000000;0.808657
9281.000000;0.808559
9280.000000;0.807794
9279.000000;0.806489
9278.000000;0.805068
9277.000000;0.804068
9276.000000;0.803755
9275.000000;0.803850
9274.000000;0.803819
9273.000000;0.803583
9272.000000;0.803679
9271.000000;0.804521
9270.000000;0.805730
9269.000000;0.806556
9268.000000;0.806774
9267.000000;0.806766
9266.000000;0.806773
9265.000000;0.806546
9264.000000;0.805860
9263.000000;0.804966
9262.000000;0.804284
9261.000000;0.803901
9260.000000;0.803588
9259.000000;0.803170
9258.000000;0.802673
9257.000000;0.802211
9256.000000;0.801852
9255.000000;0.801586
9254.000000;0.801348
9253.000000;0.801107
9252.000000;0.800925
9251.000000;0.800870
9250.000000;0.800859
9249.000000;0.800730
9248.000000;0.800537
9247.000000;0.800581
9246.000000;0.801059
9245.000000;0.801825
9244.000000;0.802616
9243.000000;0.803348
9242.000000;0.804039
9241.000000;0.804588
9240.000000;0.804866
9239.000000;0.804923
9238.000000;0.804885
9237.000000;0.804678
9236.000000;0.804062
9235.000000;0.802998
9234.000000;0.801810
9233.000000;0.800912
9232.000000;0.800442
9231.000000;0.800221
9230.000000;0.800011
9229.000000;0.799770
9228.000000;0.799621
9227.000000;0.799596
9226.000000;0.799475
9225.000000;0.798986
9224.000000;0.798154
9223.000000;0.797334
9222.000000;0.796815
9221.000000;0.796511
9220.000000;0.796116
9219.000000;0.795489
9218.000000;0.794800
9217.000000;0.794396
9216.000000;0.794628
9215.000000;0.795698
9214.000000;0.797442
9213.000000;0.799218
9212.000000;0.800212
9211.000000;0.800012
9210.000000;0.798888
9209.000000;0.797498
9208.000000;0.796435
9207.000000;0.795998
9206.000000;0.796194
9205.000000;0.796745
9204.000000;0.797172
9203.000000;0.797070
9202.000000;0.796420
9201.000000;0.795638
9200.000000;0.795255
9199.000000;0.795529
9198.000000;0.796273
9197.000000;0.796971
9196.000000;0.797081
9195.000000;0.796385
9194.000000;0.795185
9193.000000;0.794083
9192.000000;0.793479
9191.000000;0.793282
9190.000000;0.793176
9189.000000;0.793103
9188.000000;0.793278
9187.000000;0.793699
9186.000000;0.793889
9185.000000;0.793353
9184.000000;0.792195
9183.000000;0.791059
9182.000000;0.790487
9181.000000;0.790480
9180.000000;0.790710
9179.000000;0.790952
9178.000000;0.791213
9177.000000;0.791545
9176.000000;0.791851
9175.000000;0.791879
9174.000000;0.791435
9173.000000;0.790667
9172.000000;0.790082
9171.000000;0.790094
9170.000000;0.790547
9169.000000;0.790843
9168.000000;0.790620
9167.000000;0.790134
9166.000000;0.789873
9165.000000;0.789954
9164.000000;0.790076
9163.000000;0.789965
9162.000000;0.789687
9161.000000;0.789534
9160.000000;0.789747
9159.000000;0.790306
9158.000000;0.790876
9157.000000;0.790982
9156.000000;0.790433
9155.000000;0.789555
9154.000000;0.788910
9153.000000;0.788781
9152.000000;0.789016
9151.000000;0.789322
9150.000000;0.789557
9149.000000;0.789683
9148.000000;0.789617
9147.000000;0.789285
9146.000000;0.788765
9145.000000;0.788289
9144.000000;0.788053
9143.000000;0.788052
9142.000000;0.788059
9141.000000;0.787828
9140.000000;0.787367
9139.000000;0.786990
9138.000000;0.786990
9137.000000;0.787268
9136.000000;0.787406
9135.000000;0.787146
9134.000000;0.786670
9133.000000;0.786308
9132.000000;0.786088
9131.000000;0.785736
9130.000000;0.785113
9129.000000;0.784488
9128.000000;0.784273
9127.000000;0.784569
9126.000000;0.785084
9125.000000;0.785468
9124.000000;0.785625
9123.000000;0.785658
9122.000000;0.785609
9121.000000;0.785393
9120.000000;0.784979
9119.000000;0.784539
9118.000000;0.784310
9117.000000;0.784340
9116.000000;0.784418
9115.000000;0.784279
9114.000000;0.783842
9113.000000;0.783267
9112.000000;0.782844
9111.000000;0.782782
9110.000000;0.783013
9109.000000;0.783140
9108.000000;0.782742
9107.000000;0.781831
9106.000000;0.780938
9105.000000;0.780596
9104.000000;0.780782
9103.000000;0.781010
9102.000000;0.780987
9101.000000;0.780947
9100.000000;0.781267
9099.000000;0.781929
9098.000000;0.782543
9097.000000;0.782815
9096.000000;0.782766
9095.000000;0.782553
9094.000000;0.782290
9093.000000;0.782069
9092.000000;0.781950
9091.000000;0.781854
9090.000000;0.781630
9089.000000;0.781310
9088.000000;0.781140
9087.000000;0.781260
9086.000000;0.781509
9085.000000;0.781673
9084.000000;0.781756
9083.000000;0.781825
9082.000000;0.781721
9081.000000;0.781219
9080.000000;0.780448
9079.000000;0.779880
9078.000000;0.779831
9077.000000;0.780163
9076.000000;0.780535
9075.000000;0.780743
9074.000000;0.780717
9073.000000;0.780367
9072.000000;0.779629
9071.000000;0.778635
9070.000000;0.777719
9069.000000;0.777261
9068.000000;0.777492
9067.000000;0.778347
9066.000000;0.779438
9065.000000;0.780272
9064.000000;0.780567
9063.000000;0.780357
9062.000000;0.779808
9061.000000;0.779057
9060.000000;0.778263
9059.000000;0.777653
9058.000000;0.777398
9057.000000;0.777485
9056.000000;0.777788
9055.000000;0.778148
9054.000000;0.778355
9053.000000;0.778214
