Criado como novo conjunto de dados;"e0108.spp","-4210900.8 Secs"
cm-1;Abs
10000.000000;1.088267
9999.000000;1.087212
9998.000000;1.086143
9997.000000;1.085107
9996.000000;1.084021
9995.000000;1.083041
9994.000000;1.081774
9993.000000;1.079840
9992.000000;1.078639
9991.000000;1.078809
9990.000000;1.079961
9989.000000;1.080761
9988.000000;1.080205
9987.000000;1.078549
9986.000000;1.077091
9985.000000;1.076865
9984.000000;1.077811
9983.000000;1.079155
9982.000000;1.080164
9981.000000;1.080324
9980.000000;1.079224
9979.000000;1.076876
9978.000000;1.074138
9977.000000;1.072302
9976.000000;1.072029
9975.000000;1.072863
9974.000000;1.073797
9973.000000;1.074181
9972.000000;1.073951
9971.000000;1.073136
9970.000000;1.071536
9969.000000;1.069267
9968.000000;1.067435
9967.000000;1.067558
9966.000000;1.069858
9965.000000;1.072510
9964.000000;1.073263
9963.000000;1.071762
9962.000000;1.069533
9961.000000;1.067790
9960.000000;1.066318
9959.000000;1.064661
9958.000000;1.063318
9957.000000;1.063058
9956.000000;1.063690
9955.000000;1.064254
9954.000000;1.064124
9953.000000;1.063412
9952.000000;1.062624
9951.000000;1.062414
9950.000000;1.063190
9949.000000;1.064403
9948.000000;1.064742
9947.000000;1.063653
9946.000000;1.062188
9945.000000;1.061640
9944.000000;1.061951
9943.000000;1.062269
9942.000000;1.062492
9941.000000;1.063008
9940.000000;1.063276
9939.000000;1.062228
9938.000000;1.060170
9937.000000;1.058844
9936.000000;1.059080
9935.000000;1.059538
9934.000000;1.058486
9933.000000;1.056003
9932.000000;1.053591
9931.000000;1.052260
9930.000000;1.051922
9929.000000;1.052283
9928.000000;1.053361
9927.000000;1.055020
9926.000000;1.056628
9925.000000;1.057401
9924.000000;1.056900
9923.000000;1.055231
9922.000000;1.053024
9921.000000;1.051193
9920.000000;1.050435
9919.000000;1.050809
9918.000000;1.051779
9917.000000;1.052593
9916.000000;1.052659
9915.000000;1.051856
9914.000000;1.050629
9913.000000;1.049580
9912.000000;1.048866
9911.000000;1.048123
9910.000000;1.046997
9909.000000;1.045560
9908.000000;1.044133
9907.000000;1.042893
9906.000000;1.041878
9905.000000;1.041265
9904.000000;1.041371
9903.000000;1.042295
9902.000000;1.043647
9901.000000;1.044607
9900.000000;1.044488
9899.000000;1.043490
9898.000000;1.042649
9897.000000;1.042744
9896.000000;1.043452
9895.000000;1.043893
9894.000000;1.043744
9893.000000;1.043312
9892.000000;1.042717
9891.000000;1.041757
9890.000000;1.040636
9889.000000;1.040066
9888.000000;1.040358
9887.000000;1.040970
9886.000000;1.041272
9885.000000;1.041222
9884.000000;1.040865
9883.000000;1.039761
9882.000000;1.037582
9881.000000;1.034936
9880.000000;1.032966
9879.000000;1.032231
9878.000000;1.032374
9877.000000;1.032710
9876.000000;1.032700
9875.000000;1.032047
9874.000000;1.030898
9873.000000;1.029971
9872.000000;1.030065
9871.000000;1.031253
9870.000000;1.032777
9869.000000;1.033697
9868.000000;1.033531
9867.000000;1.032380
9866.000000;1.030737
9865.000000;1.029215
9864.000000;1.028222
9863.000000;1.027788
9862.000000;1.027723
9861.000000;1.027830
9860.000000;1.027815
9859.000000;1.027200
9858.000000;1.025746
9857.000000;1.023917
9856.000000;1.022602
9855.000000;1.022342
9854.000000;1.023023
9853.000000;1.024274
9852.000000;1.025850
9851.000000;1.027456
9850.000000;1.028477
9849.000000;1.028249
9848.000000;1.026616
9847.000000;1.024189
9846.000000;1.022055
9845.000000;1.021109
9844.000000;1.021423
9843.000000;1.022213
9842.000000;1.022495
9841.000000;1.021824
9840.000000;1.020411
9839.000000;1.018734
9838.000000;1.017294
9837.000000;1.016579
9836.000000;1.016785
9835.000000;1.017418
9834.000000;1.017476
9833.000000;1.016344
9832.000000;1.014457
9831.000000;1.012969
9830.000000;1.012752
9829.000000;1.013718
9828.000000;1.014970
9827.000000;1.015505
9826.000000;1.014923
9825.000000;1.013640
9824.000000;1.012388
9823.000000;1.011479
9822.000000;1.010653
9821.000000;1.009691
9820.000000;1.008935
9819.000000;1.008898
9818.000000;1.009481
9817.000000;1.009965
9816.000000;1.009872
9815.000000;1.009500
9814.000000;1.009409
9813.000000;1.009634
9812.000000;1.009725
9811.000000;1.009463
9810.000000;1.009147
9809.000000;1.009111
9808.000000;1.009252
9807.000000;1.009276
9806.000000;1.009255
9805.000000;1.009635
9804.000000;1.010588
9803.000000;1.011470
9802.000000;1.011224
9801.000000;1.009464
9800.000000;1.006983
9799.000000;1.004897
9798.000000;1.003401
9797.000000;1.001746
9796.000000;0.999584
9795.000000;0.997860
9794.000000;0.997905
9793.000000;0.999859
9792.000000;1.002413
9791.000000;1.004071
9790.000000;1.004259
9789.000000;1.003296
9788.000000;1.001880
9787.000000;1.000841
9786.000000;1.000805
9785.000000;1.001597
9784.000000;1.002146
9783.000000;1.001435
9782.000000;0.999528
9781.000000;0.997428
9780.000000;0.996020
9779.000000;0.995405
9778.000000;0.995175
9777.000000;0.995011
9776.000000;0.994946
9775.000000;0.995171
9774.000000;0.995717
9773.000000;0.996361
9772.000000;0.996851
9771.000000;0.997150
9770.000000;0.997301
9769.000000;0.997155
9768.000000;0.996521
9767.000000;0.995552
9766.000000;0.994600
9765.000000;0.993610
9764.000000;0.992142
9763.000000;0.990261
9762.000000;0.988951
9761.000000;0.989163
9760.000000;0.990693
9759.000000;0.992374
9758.000000;0.993224
9757.000000;0.993023
9756.000000;0.992008
9755.000000;0.990597
9754.000000;0.989421
9753.000000;0.989031
9752.000000;0.989318
9751.000000;0.989508
9750.000000;0.988946
9749.000000;0.987736
9748.000000;0.986550
9747.000000;0.985997
9746.000000;0.986171
9745.000000;0.986590
9744.000000;0.986577
9743.000000;0.985876
9742.000000;0.984885
9741.000000;0.984155
9740.000000;0.983845
9739.000000;0.983837
9738.000000;0.984136
9737.000000;0.984709
9736.000000;0.985093
9735.000000;0.984743
9734.000000;0.983837
9733.000000;0.983190
9732.000000;0.983217
9731.000000;0.983410
9730.000000;0.982997
9729.000000;0.981769
9728.000000;0.980100
9727.000000;0.978532
9726.000000;0.977554
9725.000000;0.977432
9724.000000;0.977952
9723.000000;0.978485
9722.000000;0.978459
9721.000000;0.977712
9720.000000;0.976456
9719.000000;0.975185
9718.000000;0.974580
9717.000000;0.974984
9716.000000;0.975827
9715.000000;0.976059
9714.000000;0.975394
9713.000000;0.974680
9712.000000;0.974775
9711.000000;0.975461
9710.000000;0.975827
9709.000000;0.975448
9708.000000;0.974739
9707.000000;0.974304
9706.000000;0.974322
9705.000000;0.974478
9704.000000;0.974230
9703.000000;0.973252
9702.000000;0.971818
9701.000000;0.970607
9700.000000;0.969945
9699.000000;0.969479
9698.000000;0.968800
9697.000000;0.968076
9696.000000;0.967727
9695.000000;0.967747
9694.000000;0.967782
9693.000000;0.967724
9692.000000;0.967749
9691.000000;0.967831
9690.000000;0.967645
9689.000000;0.966976
9688.000000;0.965890
9687.000000;0.964475
9686.000000;0.962858
9685.000000;0.961562
9684.000000;0.961300
9683.000000;0.962072
9682.000000;0.962842
9681.000000;0.962493
9680.000000;0.961025
9679.000000;0.959473
9678.000000;0.958741
9677.000000;0.958822
9676.000000;0.959192
9675.000000;0.959656
9674.000000;0.960536
9673.000000;0.962021
9672.000000;0.963584
9671.000000;0.964306
9670.000000;0.963830
9669.000000;0.962769
9668.000000;0.962002
9667.000000;0.961760
9666.000000;0.961566
9665.000000;0.960922
9664.000000;0.959777
9663.000000;0.958363
9662.000000;0.956909
9661.000000;0.955684
9660.000000;0.955079
9659.000000;0.955305
9658.000000;0.956035
9657.000000;0.956515
9656.000000;0.956113
9655.000000;0.954825
9654.000000;0.953261
9653.000000;0.952175
9652.000000;0.951892
9651.000000;0.952118
9650.000000;0.952301
9649.000000;0.952226
9648.000000;0.952178
9647.000000;0.952461
9646.000000;0.952894
9645.000000;0.952976
9644.000000;0.952481
9643.000000;0.951672
9642.000000;0.950938
9641.000000;0.950425
9640.000000;0.950089
9639.000000;0.949870
9638.000000;0.949651
9637.000000;0.949211
9636.000000;0.948444
9635.000000;0.947603
9634.000000;0.947123
9633.000000;0.947199
9632.000000;0.947712
9631.000000;0.948420
9630.000000;0.948945
9629.000000;0.948686
9628.000000;0.947263
9627.000000;0.945145
9626.000000;0.943414
9625.000000;0.942616
9624.000000;0.942205
9623.000000;0.941406
9622.000000;0.940356
9621.000000;0.939874
9620.000000;0.940220
9619.000000;0.940617
9618.000000;0.940142
9617.000000;0.938701
9616.000000;0.936971
9615.000000;0.935734
9614.000000;0.935428
9613.000000;0.936039
9612.000000;0.937086
9611.000000;0.937826
9610.000000;0.937788
9609.000000;0.937150
9608.000000;0.936489
9607.000000;0.936208
9606.000000;0.936300
9605.000000;0.936563
9604.000000;0.936840
9603.000000;0.937035
9602.000000;0.937011
9601.000000;0.936632
9600.000000;0.935964
9599.000000;0.935352
9598.000000;0.935106
9597.000000;0.935034
9596.000000;0.934473
9595.000000;0.933006
9594.000000;0.931111
9593.000000;0.929833
9592.000000;0.929796
9591.000000;0.930685
9590.000000;0.931665
9589.000000;0.932132
9588.000000;0.932003
9587.000000;0.931520
9586.000000;0.930935
9585.000000;0.930316
9584.000000;0.929582
9583.000000;0.928730
9582.000000;0.927942
9581.000000;0.927333
9580.000000;0.926703
9579.000000;0.925812
9578.000000;0.924909
9577.000000;0.924630
9576.000000;0.925186
9575.000000;0.925921
9574.000000;0.925948
9573.000000;0.925108
9572.000000;0.924107
9571.000000;0.923776
9570.000000;0.924357
9569.000000;0.925396
9568.000000;0.926133
9567.000000;0.926019
9566.000000;0.925106
9565.000000;0.924011
9564.000000;0.923443
9563.000000;0.923646
9562.000000;0.924186
9561.000000;0.924231
9560.000000;0.923183
9559.000000;0.921200
9558.000000;0.919105
9557.000000;0.917731
9556.000000;0.917357
9555.000000;0.917763
9554.000000;0.918603
9553.000000;0.919507
9552.000000;0.919982
9551.000000;0.919640
9550.000000;0.918649
9549.000000;0.917669
9548.000000;0.917201
9547.000000;0.917181
9546.000000;0.917244
9545.000000;0.917087
9544.000000;0.916528
9543.000000;0.915596
9542.000000;0.914759
9541.000000;0.914708
9540.000000;0.915587
9539.000000;0.916679
9538.000000;0.917128
9537.000000;0.916807
9536.000000;0.916204
9535.000000;0.915644
9534.000000;0.915038
9533.000000;0.914296
9532.000000;0.913575
9531.000000;0.913007
9530.000000;0.912486
9529.000000;0.911863
9528.000000;0.911171
9527.000000;0.910570
9526.000000;0.910178
9525.000000;0.910083
9524.000000;0.910381
9523.000000;0.911039
9522.000000;0.911718
9521.000000;0.911875
9520.000000;0.911234
9519.000000;0.910201
9518.000000;0.909633
9517.000000;0.909959
9516.000000;0.910665
9515.000000;0.910877
9514.000000;0.910401
9513.000000;0.909816
9512.000000;0.909547
9511.000000;0.909318
9510.000000;0.908752
9509.000000;0.908032
9508.000000;0.907540
9507.000000;0.907181
9506.000000;0.906604
9505.000000;0.905980
9504.000000;0.905983
9503.000000;0.906847
9502.000000;0.907838
9501.000000;0.907911
9500.000000;0.906768
9499.000000;0.905065
9498.000000;0.903742
9497.000000;0.903290
9496.000000;0.903577
9495.000000;0.904164
9494.000000;0.904604
9493.000000;0.904466
9492.000000;0.903395
9491.000000;0.901496
9490.000000;0.899582
9489.000000;0.898584
9488.000000;0.898502
9487.000000;0.898319
9486.000000;0.897278
9485.000000;0.895902
9484.000000;0.895309
9483.000000;0.895797
9482.000000;0.896663
9481.000000;0.897255
9480.000000;0.897589
9479.000000;0.897810
9478.000000;0.897672
9477.000000;0.896911
9476.000000;0.895778
9475.000000;0.894865
9474.000000;0.894578
9473.000000;0.894965
9472.000000;0.895838
9471.000000;0.896787
9470.000000;0.897234
9469.000000;0.896744
9468.000000;0.895340
9467.000000;0.893508
9466.000000;0.891925
9465.000000;0.891152
9464.000000;0.891310
9463.000000;0.891970
9462.000000;0.892477
9461.000000;0.892517
9460.000000;0.892242
9459.000000;0.891926
9458.000000;0.891748
9457.000000;0.891908
9456.000000;0.892539
9455.000000;0.893336
9454.000000;0.893623
9453.000000;0.893130
9452.000000;0.892398
9451.000000;0.892088
9450.000000;0.892084
9449.000000;0.891670
9448.000000;0.890494
9447.000000;0.889045
9446.000000;0.888184
9445.000000;0.888404
9444.000000;0.889494
9443.000000;0.890644
9442.000000;0.890874
9441.000000;0.889687
9440.000000;0.887511
9439.000000;0.885495
9438.000000;0.884767
9437.000000;0.885712
9436.000000;0.887723
9435.000000;0.889542
9434.000000;0.890017
9433.000000;0.888826
9432.000000;0.886608
9431.000000;0.884384
9430.000000;0.882861
9429.000000;0.882248
9428.000000;0.882511
9427.000000;0.883509
9426.000000;0.884884
9425.000000;0.886016
9424.000000;0.886223
9423.000000;0.885102
9422.000000;0.882824
9421.000000;0.880175
9420.000000;0.878140
9419.000000;0.877281
9418.000000;0.877491
9417.000000;0.878349
9416.000000;0.879485
9415.000000;0.880462
9414.000000;0.880679
9413.000000;0.879824
9412.000000;0.878383
9411.000000;0.877304
9410.000000;0.877042
9409.000000;0.877157
9408.000000;0.876944
9407.000000;0.876279
9406.000000;0.875729
9405.000000;0.875933
9404.000000;0.876946
9403.000000;0.878093
9402.000000;0.878468
9401.000000;0.877717
9400.000000;0.876346
9399.000000;0.875217
9398.000000;0.874786
9397.000000;0.874909
9396.000000;0.875179
9395.000000;0.875181
9394.000000;0.874586
9393.000000;0.873403
9392.000000;0.872156
9391.000000;0.871490
9390.000000;0.871480
9389.000000;0.871586
9388.000000;0.871306
9387.000000;0.870634
9386.000000;0.869871
9385.000000;0.869328
9384.000000;0.869280
9383.000000;0.869810
9382.000000;0.870534
9381.000000;0.870876
9380.000000;0.870814
9379.000000;0.870913
9378.000000;0.871345
9377.000000;0.871382
9376.000000;0.870397
9375.000000;0.868951
9374.000000;0.868219
9373.000000;0.868530
9372.000000;0.869180
9371.000000;0.869576
9370.000000;0.869835
9369.000000;0.870109
9368.000000;0.870053
9367.000000;0.869337
9366.000000;0.868248
9365.000000;0.867328
9364.000000;0.866718
9363.000000;0.866294
9362.000000;0.866217
9361.000000;0.866803
9360.000000;0.867859
9359.000000;0.868569
9358.000000;0.868251
9357.000000;0.867052
9356.000000;0.865780
9355.000000;0.865182
9354.000000;0.865433
9353.000000;0.866146
9352.000000;0.866727
9351.000000;0.866771
9350.000000;0.866253
9349.000000;0.865419
9348.000000;0.864518
9347.000000;0.863608
9346.000000;0.862603
9345.000000;0.861508
9344.000000;0.860571
9343.000000;0.860090
9342.000000;0.860055
9341.000000;0.860123
9340.000000;0.860063
9339.000000;0.860092
9338.000000;0.860547
9337.000000;0.861297
9336.000000;0.861782
9335.000000;0.861684
9334.000000;0.861299
9333.000000;0.861110
9332.000000;0.861246
9331.000000;0.861533
9330.000000;0.861841
9329.000000;0.862115
9328.000000;0.862171
9327.000000;0.861734
9326.000000;0.860728
9325.000000;0.859362
9324.000000;0.857938
9323.000000;0.856726
9322.000000;0.855939
9321.000000;0.855611
9320.000000;0.855489
9319.000000;0.855285
9318.000000;0.855131
9317.000000;0.855536
9316.000000;0.856709
9315.000000;0.858054
9314.000000;0.858569
9313.000000;0.857800
9312.000000;0.856259
9311.000000;0.854875
9310.000000;0.854133
9309.000000;0.853823
9308.000000;0.853464
9307.000000;0.852845
9306.000000;0.852146
9305.000000;0.851660
9304.000000;0.851485
9303.000000;0.851480
9302.000000;0.851445
9301.000000;0.851313
9300.000000;0.851171
9299.000000;0.851141
9298.000000;0.851255
9297.000000;0.851447
9296.000000;0.851632
9295.000000;0.851738
9294.000000;0.851699
9293.000000;0.851496
9292.000000;0.851209
9291.000000;0.850997
9290.000000;0.850997
9289.000000;0.851260
9288.000000;0.851719
9287.000000;0.852108
9286.000000;0.851967
9285.000000;0.850921
9284.000000;0.849122
9283.000000;0.847315
9282.000000;0.846323
9281.000000;0.846443
9280.000000;0.847312
9279.000000;0.848240
9278.000000;0.848657
9277.000000;0.848437
9276.000000;0.847942
9275.000000;0.847648
9274.000000;0.847633
9273.000000;0.847504
9272.000000;0.846934
9271.000000;0.846095
9270.000000;0.845385
9269.000000;0.844919
9268.000000;0.844559
9267.000000;0.844299
9266.000000;0.844276
9265.000000;0.844427
9264.000000;0.844464
9263.000000;0.844266
9262.000000;0.844034
9261.000000;0.843995
9260.000000;0.844181
9259.000000;0.844487
9258.000000;0.844693
9257.000000;0.844427
9256.000000;0.843486
9255.000000;0.842270
9254.000000;0.841553
9253.000000;0.841612
9252.000000;0.841905
9251.000000;0.841782
9250.000000;0.841208
9249.000000;0.840575
9248.000000;0.840129
9247.000000;0.839891
9246.000000;0.839843
9245.000000;0.839875
9244.000000;0.839728
9243.000000;0.839313
9242.000000;0.838911
9241.000000;0.838792
9240.000000;0.838844
9239.000000;0.838892
9238.000000;0.839105
9237.000000;0.839652
9236.000000;0.840160
9235.000000;0.840045
9234.000000;0.839341
9233.000000;0.838667
9232.000000;0.838354
9231.000000;0.838124
9230.000000;0.837760
9229.000000;0.837504
9228.000000;0.837511
9227.000000;0.837381
9226.000000;0.836668
9225.000000;0.835595
9224.000000;0.834852
9223.000000;0.834809
9222.000000;0.835213
9221.000000;0.835559
9220.000000;0.835471
9219.000000;0.834833
9218.000000;0.833833
9217.000000;0.832906
9216.000000;0.832430
9215.000000;0.832489
9214.000000;0.833002
9213.000000;0.833958
9212.000000;0.835263
9211.000000;0.836455
9210.000000;0.836893
9209.000000;0.836333
9208.000000;0.835162
9207.000000;0.833973
9206.000000;0.833066
9205.000000;0.832384
9204.000000;0.831802
9203.000000;0.831352
9202.000000;0.831223
9201.000000;0.831583
9200.000000;0.832337
9199.000000;0.833044
9198.000000;0.833179
9197.000000;0.832561
9196.000000;0.831477
9195.000000;0.830370
9194.000000;0.829536
9193.000000;0.829103
9192.000000;0.829090
9191.000000;0.829335
9190.000000;0.829530
9189.000000;0.829549
9188.000000;0.829640
9187.000000;0.830061
9186.000000;0.830556
9185.000000;0.830465
9184.000000;0.829440
9183.000000;0.827847
9182.000000;0.826350
9181.000000;0.825331
9180.000000;0.824879
9179.000000;0.825026
9178.000000;0.825635
9177.000000;0.826176
9176.000000;0.826096
9175.000000;0.825497
9174.000000;0.825109
9173.000000;0.825445
9172.000000;0.826215
9171.000000;0.826743
9170.000000;0.826706
9169.000000;0.826242
9168.000000;0.825528
9167.000000;0.824618
9166.000000;0.823638
9165.000000;0.822842
9164.000000;0.822373
9163.000000;0.822109
9162.000000;0.821872
9161.000000;0.821660
9160.000000;0.821604
9159.000000;0.821761
9158.000000;0.822062
9157.000000;0.822427
9156.000000;0.822820
9155.000000;0.823118
9154.000000;0.823059
9153.000000;0.822491
9152.000000;0.821700
9151.000000;0.821265
9150.000000;0.821434
9149.000000;0.821753
9148.000000;0.821549
9147.000000;0.820737
9146.000000;0.819926
9145.000000;0.819688
9144.000000;0.820002
9143.000000;0.820458
9142.000000;0.820720
9141.000000;0.820596
9140.000000;0.819955
9139.000000;0.818892
9138.000000;0.817841
9137.000000;0.817252
9136.000000;0.817211
9135.000000;0.817547
9134.000000;0.818130
9133.000000;0.818800
9132.000000;0.819117
9131.000000;0.818638
9130.000000;0.817513
9129.000000;0.816446
9128.000000;0.815949
9127.000000;0.815950
9126.000000;0.816202
9125.000000;0.816713
9124.000000;0.817475
9123.000000;0.818066
9122.000000;0.817955
9121.000000;0.817153
9120.000000;0.816235
9119.000000;0.815668
9118.000000;0.815416
9117.000000;0.815260
9116.000000;0.815241
9115.000000;0.815558
9114.000000;0.816104
9113.000000;0.816373
9112.000000;0.815919
9111.000000;0.814854
9110.000000;0.813786
9109.000000;0.813249
9108.000000;0.813248
9107.000000;0.813359
9106.000000;0.813203
9105.000000;0.812766
9104.000000;0.812296
9103.000000;0.812027
9102.000000;0.812061
9101.000000;0.812385
9100.000000;0.812800
9099.000000;0.812886
9098.000000;0.812274
9097.000000;0.811111
9096.000000;0.810140
9095.000000;0.810129
9094.000000;0.811179
9093.000000;0.812645
9092.000000;0.813692
9091.000000;0.813861
9090.000000;0.813180
9089.000000;0.811985
9088.000000;0.810767
9087.000000;0.810007
9086.000000;0.809926
9085.000000;0.810338
9084.000000;0.810791
9083.000000;0.810845
9082.000000;0.810296
9081.000000;0.809300
9080.000000;0.808390
9079.000000;0.808160
9078.000000;0.808721
9077.000000;0.809513
9076.000000;0.809887
9075.000000;0.809792
9074.000000;0.809677
9073.000000;0.809748
9072.000000;0.809653
9071.000000;0.809006
9070.000000;0.808000
9069.000000;0.807251
9068.000000;0.807124
9067.000000;0.807372
9066.000000;0.807410
9065.000000;0.806914
9064.000000;0.806162
9063.000000;0.805795
9062.000000;0.806171
9061.000000;0.806944
9060.000000;0.807404
9059.000000;0.807237
9058.000000;0.806811
9057.000000;0.806633
9056.000000;0.806734
9055.000000;0.806718
9054.000000;0.806305
9053.000000;0.805648
