Criado como novo conjunto de dados;"e0108.spp","-4258243.6 Secs"
cm-1;Abs
10000.000000;1.050175
9999.000000;1.050860
9998.000000;1.051468
9997.000000;1.051208
9996.000000;1.049679
9995.000000;1.047677
9994.000000;1.046422
9993.000000;1.046297
9992.000000;1.046561
9991.000000;1.046411
9990.000000;1.045763
9989.000000;1.045057
9988.000000;1.044701
9987.000000;1.044823
9986.000000;1.045211
9985.000000;1.045437
9984.000000;1.045290
9983.000000;1.045024
9982.000000;1.044920
9981.000000;1.044831
9980.000000;1.044492
9979.000000;1.044014
9978.000000;1.043649
9977.000000;1.043335
9976.000000;1.043013
9975.000000;1.043078
9974.000000;1.043785
9973.000000;1.044473
9972.000000;1.044241
9971.000000;1.043312
9970.000000;1.042786
9969.000000;1.043002
9968.000000;1.043109
9967.000000;1.042492
9966.000000;1.041571
9965.000000;1.040801
9964.000000;1.039943
9963.000000;1.038826
9962.000000;1.037961
9961.000000;1.037698
9960.000000;1.037471
9959.000000;1.036566
9958.000000;1.035133
9957.000000;1.033796
9956.000000;1.032738
9955.000000;1.031862
9954.000000;1.031405
9953.000000;1.031645
9952.000000;1.032218
9951.000000;1.032461
9950.000000;1.032304
9949.000000;1.032198
9948.000000;1.032260
9947.000000;1.032154
9946.000000;1.031766
9945.000000;1.031378
9944.000000;1.031124
9943.000000;1.030813
9942.000000;1.030328
9941.000000;1.029684
9940.000000;1.028742
9939.000000;1.027383
9938.000000;1.026027
9937.000000;1.025478
9936.000000;1.026053
9935.000000;1.027170
9934.000000;1.027846
9933.000000;1.027334
9932.000000;1.025419
9931.000000;1.022669
9930.000000;1.020434
9929.000000;1.019967
9928.000000;1.021171
9927.000000;1.022537
9926.000000;1.022719
9925.000000;1.021995
9924.000000;1.021802
9923.000000;1.022972
9922.000000;1.024756
9921.000000;1.025597
9920.000000;1.024663
9919.000000;1.022571
9918.000000;1.020712
9917.000000;1.020005
9916.000000;1.020308
9915.000000;1.020899
9914.000000;1.021370
9913.000000;1.021883
9912.000000;1.022587
9911.000000;1.023085
9910.000000;1.022734
9909.000000;1.021422
9908.000000;1.019768
9907.000000;1.018472
9906.000000;1.017631
9905.000000;1.016834
9904.000000;1.015767
9903.000000;1.014516
9902.000000;1.013331
9901.000000;1.012442
9900.000000;1.012177
9899.000000;1.012843
9898.000000;1.014194
9897.000000;1.015288
9896.000000;1.015311
9895.000000;1.014486
9894.000000;1.013739
9893.000000;1.013517
9892.000000;1.013402
9891.000000;1.012899
9890.000000;1.012114
9889.000000;1.011483
9888.000000;1.011261
9887.000000;1.011543
9886.000000;1.012347
9885.000000;1.013316
9884.000000;1.013668
9883.000000;1.012932
9882.000000;1.011652
9881.000000;1.010898
9880.000000;1.011100
9879.000000;1.011646
9878.000000;1.011628
9877.000000;1.010702
9876.000000;1.009222
9875.000000;1.007807
9874.000000;1.006861
9873.000000;1.006397
9872.000000;1.006193
9871.000000;1.006083
9870.000000;1.005971
9869.000000;1.005593
9868.000000;1.004630
9867.000000;1.003280
9866.000000;1.002370
9865.000000;1.002482
9864.000000;1.003130
9863.000000;1.003271
9862.000000;1.002597
9861.000000;1.001834
9860.000000;1.001704
9859.000000;1.002083
9858.000000;1.002356
9857.000000;1.002188
9856.000000;1.001641
9855.000000;1.000814
9854.000000;0.999791
9853.000000;0.998853
9852.000000;0.998389
9851.000000;0.998522
9850.000000;0.998967
9849.000000;0.999294
9848.000000;0.999280
9847.000000;0.999055
9846.000000;0.998959
9845.000000;0.999186
9844.000000;0.999472
9843.000000;0.999242
9842.000000;0.998208
9841.000000;0.996788
9840.000000;0.995762
9839.000000;0.995497
9838.000000;0.995599
9837.000000;0.995369
9836.000000;0.994507
9835.000000;0.993285
9834.000000;0.992171
9833.000000;0.991498
9832.000000;0.991492
9831.000000;0.992329
9830.000000;0.993870
9829.000000;0.995343
9828.000000;0.995648
9827.000000;0.994299
9826.000000;0.992032
9825.000000;0.990261
9824.000000;0.989857
9823.000000;0.990426
9822.000000;0.990773
9821.000000;0.990178
9820.000000;0.989219
9819.000000;0.989163
9818.000000;0.990510
9817.000000;0.992289
9816.000000;0.992945
9815.000000;0.991857
9814.000000;0.989782
9813.000000;0.987878
9812.000000;0.986711
9811.000000;0.986238
9810.000000;0.986313
9809.000000;0.986862
9808.000000;0.987694
9807.000000;0.988471
9806.000000;0.988853
9805.000000;0.988572
9804.000000;0.987487
9803.000000;0.985789
9802.000000;0.984060
9801.000000;0.982864
9800.000000;0.982262
9799.000000;0.981898
9798.000000;0.981481
9797.000000;0.980966
9796.000000;0.980366
9795.000000;0.979744
9794.000000;0.979424
9793.000000;0.979855
9792.000000;0.981048
9791.000000;0.982297
9790.000000;0.982739
9789.000000;0.982168
9788.000000;0.981090
9787.000000;0.980042
9786.000000;0.979169
9785.000000;0.978475
9784.000000;0.978086
9783.000000;0.978060
9782.000000;0.978157
9781.000000;0.978057
9780.000000;0.977741
9779.000000;0.977438
9778.000000;0.977229
9777.000000;0.976946
9776.000000;0.976472
9775.000000;0.975925
9774.000000;0.975472
9773.000000;0.975168
9772.000000;0.975099
9771.000000;0.975409
9770.000000;0.975973
9769.000000;0.976235
9768.000000;0.975704
9767.000000;0.974539
9766.000000;0.973360
9765.000000;0.972534
9764.000000;0.971977
9763.000000;0.971617
9762.000000;0.971648
9761.000000;0.972113
9760.000000;0.972610
9759.000000;0.972707
9758.000000;0.972486
9757.000000;0.972358
9756.000000;0.972459
9755.000000;0.972510
9754.000000;0.972229
9753.000000;0.971592
9752.000000;0.970698
9751.000000;0.969584
9750.000000;0.968300
9749.000000;0.967005
9748.000000;0.965899
9747.000000;0.965114
9746.000000;0.964659
9745.000000;0.964473
9744.000000;0.964498
9743.000000;0.964750
9742.000000;0.965273
9741.000000;0.965943
9740.000000;0.966407
9739.000000;0.966405
9738.000000;0.966090
9737.000000;0.965843
9736.000000;0.965707
9735.000000;0.965242
9734.000000;0.964134
9733.000000;0.962839
9732.000000;0.962322
9731.000000;0.963054
9730.000000;0.964389
9729.000000;0.965084
9728.000000;0.964502
9727.000000;0.963162
9726.000000;0.962035
9725.000000;0.961522
9724.000000;0.961290
9723.000000;0.960927
9722.000000;0.960382
9721.000000;0.959704
9720.000000;0.958789
9719.000000;0.957688
9718.000000;0.956938
9717.000000;0.957145
9716.000000;0.958197
9715.000000;0.959191
9714.000000;0.959254
9713.000000;0.958333
9712.000000;0.957123
9711.000000;0.956409
9710.000000;0.956531
9709.000000;0.957263
9708.000000;0.958040
9707.000000;0.958334
9706.000000;0.957954
9705.000000;0.957075
9704.000000;0.956029
9703.000000;0.955135
9702.000000;0.954651
9701.000000;0.954693
9700.000000;0.955064
9699.000000;0.955338
9698.000000;0.955246
9697.000000;0.954897
9696.000000;0.954438
9695.000000;0.953683
9694.000000;0.952375
9693.000000;0.950795
9692.000000;0.949706
9691.000000;0.949493
9690.000000;0.949621
9689.000000;0.949282
9688.000000;0.948527
9687.000000;0.948343
9686.000000;0.949479
9685.000000;0.951506
9684.000000;0.953205
9683.000000;0.953704
9682.000000;0.953108
9681.000000;0.952146
9680.000000;0.951438
9679.000000;0.951034
9678.000000;0.950446
9677.000000;0.949187
9676.000000;0.947441
9675.000000;0.946074
9674.000000;0.945760
9673.000000;0.946264
9672.000000;0.946822
9671.000000;0.947134
9670.000000;0.947579
9669.000000;0.948397
9668.000000;0.949081
9667.000000;0.948867
9666.000000;0.947597
9665.000000;0.945862
9664.000000;0.944429
9663.000000;0.943714
9662.000000;0.943640
9661.000000;0.943720
9660.000000;0.943312
9659.000000;0.942034
9658.000000;0.940067
9657.000000;0.938010
9656.000000;0.936492
9655.000000;0.935858
9654.000000;0.936069
9653.000000;0.936753
9652.000000;0.937477
9651.000000;0.938058
9650.000000;0.938542
9649.000000;0.938867
9648.000000;0.938786
9647.000000;0.938286
9646.000000;0.937843
9645.000000;0.937986
9644.000000;0.938692
9643.000000;0.939462
9642.000000;0.939923
9641.000000;0.940097
9640.000000;0.940093
9639.000000;0.939820
9638.000000;0.939172
9637.000000;0.938332
9636.000000;0.937680
9635.000000;0.937349
9634.000000;0.936908
9633.000000;0.935638
9632.000000;0.933358
9631.000000;0.930974
9630.000000;0.929904
9629.000000;0.930735
9628.000000;0.932538
9627.000000;0.933718
9626.000000;0.933456
9625.000000;0.932132
9624.000000;0.930549
9623.000000;0.929245
9622.000000;0.928510
9621.000000;0.928503
9620.000000;0.929061
9619.000000;0.929679
9618.000000;0.929976
9617.000000;0.930030
9616.000000;0.930092
9615.000000;0.930169
9614.000000;0.930135
9613.000000;0.930039
9612.000000;0.930050
9611.000000;0.930178
9610.000000;0.930305
9609.000000;0.930463
9608.000000;0.930845
9607.000000;0.931527
9606.000000;0.932315
9605.000000;0.932856
9604.000000;0.932783
9603.000000;0.931839
9602.000000;0.930076
9601.000000;0.927985
9600.000000;0.926276
9599.000000;0.925456
9598.000000;0.925562
9597.000000;0.926187
9596.000000;0.926661
9595.000000;0.926412
9594.000000;0.925475
9593.000000;0.924622
9592.000000;0.924682
9591.000000;0.925592
9590.000000;0.926374
9589.000000;0.926189
9588.000000;0.925191
9587.000000;0.924149
9586.000000;0.923516
9585.000000;0.923121
9584.000000;0.922616
9583.000000;0.921849
9582.000000;0.920835
9581.000000;0.919717
9580.000000;0.918872
9579.000000;0.918735
9578.000000;0.919296
9577.000000;0.919936
9576.000000;0.920004
9575.000000;0.919508
9574.000000;0.919058
9573.000000;0.919187
9572.000000;0.919829
9571.000000;0.920414
9570.000000;0.920402
9569.000000;0.919725
9568.000000;0.918785
9567.000000;0.918079
9566.000000;0.917800
9565.000000;0.917767
9564.000000;0.917757
9563.000000;0.917816
9562.000000;0.918129
9561.000000;0.918653
9560.000000;0.919010
9559.000000;0.918790
9558.000000;0.917885
9557.000000;0.916547
9556.000000;0.915205
9555.000000;0.914216
9554.000000;0.913646
9553.000000;0.913249
9552.000000;0.912770
9551.000000;0.912278
9550.000000;0.912060
9549.000000;0.912151
9548.000000;0.912193
9547.000000;0.911887
9546.000000;0.911410
9545.000000;0.911149
9544.000000;0.911174
9543.000000;0.911249
9542.000000;0.911280
9541.000000;0.911442
9540.000000;0.911767
9539.000000;0.911935
9538.000000;0.911654
9537.000000;0.911058
9536.000000;0.910500
9535.000000;0.910107
9534.000000;0.909777
9533.000000;0.909517
9532.000000;0.909500
9531.000000;0.909756
9530.000000;0.910014
9529.000000;0.909934
9528.000000;0.909380
9527.000000;0.908475
9526.000000;0.907557
9525.000000;0.907053
9524.000000;0.907150
9523.000000;0.907455
9522.000000;0.907229
9521.000000;0.906168
9520.000000;0.904850
9519.000000;0.904172
9518.000000;0.904417
9517.000000;0.905057
9516.000000;0.905415
9515.000000;0.905299
9514.000000;0.904988
9513.000000;0.904796
9512.000000;0.904768
9511.000000;0.904704
9510.000000;0.904413
9509.000000;0.903932
9508.000000;0.903441
9507.000000;0.902998
9506.000000;0.902490
9505.000000;0.901953
9504.000000;0.901713
9503.000000;0.901957
9502.000000;0.902294
9501.000000;0.902099
9500.000000;0.901336
9499.000000;0.900681
9498.000000;0.900715
9497.000000;0.901300
9496.000000;0.901888
9495.000000;0.902149
9494.000000;0.902074
9493.000000;0.901693
9492.000000;0.901023
9491.000000;0.900219
9490.000000;0.899519
9489.000000;0.899051
9488.000000;0.898810
9487.000000;0.898718
9486.000000;0.898567
9485.000000;0.898037
9484.000000;0.897035
9483.000000;0.895968
9482.000000;0.895422
9481.000000;0.895571
9480.000000;0.896065
9479.000000;0.896453
9478.000000;0.896510
9477.000000;0.896201
9476.000000;0.895617
9475.000000;0.895006
9474.000000;0.894638
9473.000000;0.894558
9472.000000;0.894602
9471.000000;0.894652
9470.000000;0.894732
9469.000000;0.894786
9468.000000;0.894602
9467.000000;0.894093
9466.000000;0.893466
9465.000000;0.892962
9464.000000;0.892565
9463.000000;0.892145
9462.000000;0.891786
9461.000000;0.891747
9460.000000;0.892083
9459.000000;0.892494
9458.000000;0.892651
9457.000000;0.892542
9456.000000;0.892387
9455.000000;0.892268
9454.000000;0.891998
9453.000000;0.891427
9452.000000;0.890771
9451.000000;0.890474
9450.000000;0.890676
9449.000000;0.890957
9448.000000;0.890738
9447.000000;0.889951
9446.000000;0.889201
9445.000000;0.889195
9444.000000;0.890019
9443.000000;0.891017
9442.000000;0.891357
9441.000000;0.890691
9440.000000;0.889309
9439.000000;0.887818
9438.000000;0.886774
9437.000000;0.886516
9436.000000;0.887027
9435.000000;0.887789
9434.000000;0.887970
9433.000000;0.887068
9432.000000;0.885428
9431.000000;0.883929
9430.000000;0.883133
9429.000000;0.882928
9428.000000;0.882938
9427.000000;0.882987
9426.000000;0.883099
9425.000000;0.883324
9424.000000;0.883748
9423.000000;0.884438
9422.000000;0.885208
9421.000000;0.885640
9420.000000;0.885531
9419.000000;0.885115
9418.000000;0.884632
9417.000000;0.883956
9416.000000;0.882947
9415.000000;0.881946
9414.000000;0.881486
9413.000000;0.881605
9412.000000;0.881825
9411.000000;0.881774
9410.000000;0.881454
9409.000000;0.880906
9408.000000;0.880047
9407.000000;0.879039
9406.000000;0.878426
9405.000000;0.878624
9404.000000;0.879401
9403.000000;0.880103
9402.000000;0.880337
9401.000000;0.880260
9400.000000;0.880219
9399.000000;0.880252
9398.000000;0.880030
9397.000000;0.879346
9396.000000;0.878605
9395.000000;0.878575
9394.000000;0.879510
9393.000000;0.880689
9392.000000;0.881040
9391.000000;0.880195
9390.000000;0.878760
9389.000000;0.877641
9388.000000;0.877296
9387.000000;0.877496
9386.000000;0.877537
9385.000000;0.876801
9384.000000;0.875418
9383.000000;0.874293
9382.000000;0.874190
9381.000000;0.874866
9380.000000;0.875389
9379.000000;0.875240
9378.000000;0.874746
9377.000000;0.874428
9376.000000;0.874373
9375.000000;0.874358
9374.000000;0.874198
9373.000000;0.873822
9372.000000;0.873286
9371.000000;0.872820
9370.000000;0.872668
9369.000000;0.872847
9368.000000;0.873236
9367.000000;0.873792
9366.000000;0.874346
9365.000000;0.874310
9364.000000;0.873173
9363.000000;0.871383
9362.000000;0.870109
9361.000000;0.869839
9360.000000;0.869792
9359.000000;0.869073
9358.000000;0.867894
9357.000000;0.867153
9356.000000;0.867271
9355.000000;0.868030
9354.000000;0.869234
9353.000000;0.870832
9352.000000;0.872452
9351.000000;0.873414
9350.000000;0.873337
9349.000000;0.872347
9348.000000;0.870715
9347.000000;0.868721
9346.000000;0.866911
9345.000000;0.866013
9344.000000;0.866305
9343.000000;0.867280
9342.000000;0.868088
9341.000000;0.868238
9340.000000;0.867853
9339.000000;0.867442
9338.000000;0.867470
9337.000000;0.868007
9336.000000;0.868662
9335.000000;0.868906
9334.000000;0.868528
9333.000000;0.867770
9332.000000;0.867114
9331.000000;0.866961
9330.000000;0.867372
9329.000000;0.867987
9328.000000;0.868313
9327.000000;0.868244
9326.000000;0.868170
9325.000000;0.868440
9324.000000;0.868882
9323.000000;0.869052
9322.000000;0.868759
9321.000000;0.868112
9320.000000;0.867189
9319.000000;0.865990
9318.000000;0.864714
9317.000000;0.863778
9316.000000;0.863502
9315.000000;0.863915
9314.000000;0.864761
9313.000000;0.865491
9312.000000;0.865397
9311.000000;0.864162
9310.000000;0.862351
9309.000000;0.861023
9308.000000;0.860747
9307.000000;0.861180
9306.000000;0.861633
9305.000000;0.861814
9304.000000;0.861896
9303.000000;0.862044
9302.000000;0.862135
9301.000000;0.861914
9300.000000;0.861341
9299.000000;0.860728
9298.000000;0.860499
9297.000000;0.860774
9296.000000;0.861251
9295.000000;0.861579
9294.000000;0.861717
9293.000000;0.861785
9292.000000;0.861672
9291.000000;0.861067
9290.000000;0.859913
9289.000000;0.858622
9288.000000;0.857786
9287.000000;0.857755
9286.000000;0.858438
9285.000000;0.859327
9284.000000;0.859745
9283.000000;0.859338
9282.000000;0.858411
9281.000000;0.857641
9280.000000;0.857414
9279.000000;0.857562
9278.000000;0.857661
9277.000000;0.857384
9276.000000;0.856570
9275.000000;0.855289
9274.000000;0.854052
9273.000000;0.853691
9272.000000;0.854667
9271.000000;0.856442
9270.000000;0.857755
9269.000000;0.857692
9268.000000;0.856477
9267.000000;0.855107
9266.000000;0.854288
9265.000000;0.853888
9264.000000;0.853457
9263.000000;0.853035
9262.000000;0.853182
9261.000000;0.854215
9260.000000;0.855705
9259.000000;0.856853
9258.000000;0.857136
9257.000000;0.856457
9256.000000;0.854960
9255.000000;0.853048
9254.000000;0.851425
9253.000000;0.850674
9252.000000;0.850744
9251.000000;0.851070
9250.000000;0.851223
9249.000000;0.851199
9248.000000;0.851096
9247.000000;0.850855
9246.000000;0.850485
9245.000000;0.850273
9244.000000;0.850521
9243.000000;0.851161
9242.000000;0.851781
9241.000000;0.851981
9240.000000;0.851654
9239.000000;0.851030
9238.000000;0.850533
9237.000000;0.850462
9236.000000;0.850672
9235.000000;0.850677
9234.000000;0.850186
9233.000000;0.849502
9232.000000;0.849228
9231.000000;0.849591
9230.000000;0.850162
9229.000000;0.850278
9228.000000;0.849675
9227.000000;0.848688
9226.000000;0.847876
9225.000000;0.847558
9224.000000;0.847720
9223.000000;0.848226
9222.000000;0.848935
9221.000000;0.849579
9220.000000;0.849734
9219.000000;0.849127
9218.000000;0.847965
9217.000000;0.846866
9216.000000;0.846428
9215.000000;0.846858
9214.000000;0.847859
9213.000000;0.848785
9212.000000;0.849009
9211.000000;0.848373
9210.000000;0.847343
9209.000000;0.846645
9208.000000;0.846705
9207.000000;0.847411
9206.000000;0.848279
9205.000000;0.848760
9204.000000;0.848515
9203.000000;0.847610
9202.000000;0.846481
9201.000000;0.845607
9200.000000;0.845172
9199.000000;0.845051
9198.000000;0.845013
9197.000000;0.844858
9196.000000;0.844503
9195.000000;0.844139
9194.000000;0.844231
9193.000000;0.845085
9192.000000;0.846365
9191.000000;0.847245
9190.000000;0.847168
9189.000000;0.846370
9188.000000;0.845576
9187.000000;0.845282
9186.000000;0.845355
9185.000000;0.845245
9184.000000;0.844550
9183.000000;0.843420
9182.000000;0.842439
9181.000000;0.842054
9180.000000;0.842150
9179.000000;0.842253
9178.000000;0.842089
9177.000000;0.841830
9176.000000;0.841765
9175.000000;0.841923
9174.000000;0.842091
9173.000000;0.842103
9172.000000;0.841981
9171.000000;0.841805
9170.000000;0.841513
9169.000000;0.840928
9168.000000;0.840027
9167.000000;0.839133
9166.000000;0.838705
9165.000000;0.838846
9164.000000;0.839174
9163.000000;0.839274
9162.000000;0.839182
9161.000000;0.839231
9160.000000;0.839538
9159.000000;0.839874
9158.000000;0.840013
9157.000000;0.839983
9156.000000;0.839917
9155.000000;0.839822
9154.000000;0.839641
9153.000000;0.839418
9152.000000;0.839297
9151.000000;0.839353
9150.000000;0.839518
9149.000000;0.839675
9148.000000;0.839800
9147.000000;0.839964
9146.000000;0.840191
9145.000000;0.840365
9144.000000;0.840396
9143.000000;0.840377
9142.000000;0.840404
9141.000000;0.840276
9140.000000;0.839705
9139.000000;0.838904
9138.000000;0.838605
9137.000000;0.839178
9136.000000;0.840002
9135.000000;0.840094
9134.000000;0.839237
9133.000000;0.838089
9132.000000;0.837243
9131.000000;0.836654
9130.000000;0.836074
9129.000000;0.835604
9128.000000;0.835561
9127.000000;0.836018
9126.000000;0.836707
9125.000000;0.837282
9124.000000;0.837516
9123.000000;0.837361
9122.000000;0.836963
9121.000000;0.836617
9120.000000;0.836599
9119.000000;0.836964
9118.000000;0.837431
9117.000000;0.837451
9116.000000;0.836593
9115.000000;0.835052
9114.000000;0.833647
9113.000000;0.833067
9112.000000;0.833179
9111.000000;0.833320
9110.000000;0.833229
9109.000000;0.833314
9108.000000;0.833906
9107.000000;0.834617
9106.000000;0.834665
9105.000000;0.833718
9104.000000;0.832216
9103.000000;0.830976
9102.000000;0.830596
9101.000000;0.831073
9100.000000;0.831829
9099.000000;0.832193
9098.000000;0.831994
9097.000000;0.831629
9096.000000;0.831541
9095.000000;0.831776
9094.000000;0.832123
9093.000000;0.832470
9092.000000;0.832848
9091.000000;0.833237
9090.000000;0.833525
9089.000000;0.833610
9088.000000;0.833453
9087.000000;0.833107
9086.000000;0.832766
9085.000000;0.832693
9084.000000;0.832944
9083.000000;0.833228
9082.000000;0.833184
9081.000000;0.832772
9080.000000;0.832316
9079.000000;0.832154
9078.000000;0.832311
9077.000000;0.832503
9076.000000;0.832435
9075.000000;0.832059
9074.000000;0.831572
9073.000000;0.831165
9072.000000;0.830867
9071.000000;0.830651
9070.000000;0.830596
9069.000000;0.830796
9068.000000;0.831157
9067.000000;0.831455
9066.000000;0.831591
9065.000000;0.831651
9064.000000;0.831712
9063.000000;0.831722
9062.000000;0.831599
9061.000000;0.831285
9060.000000;0.830710
9059.000000;0.829892
9058.000000;0.829118
9057.000000;0.828816
9056.000000;0.829123
9055.000000;0.829699
9054.000000;0.830041
9053.000000;0.829873
