Criado como novo conjunto de dados;"e0108.spp","-4291185.2 Secs"
cm-1;Abs
10000.000000;0.437002
9999.000000;0.436964
9998.000000;0.436926
9997.000000;0.436889
9996.000000;0.436851
9995.000000;0.436813
9994.000000;0.436776
9993.000000;0.436737
9992.000000;0.436701
9991.000000;0.436659
9990.000000;0.436631
9989.000000;0.436532
9988.000000;0.436278
9987.000000;0.435911
9986.000000;0.435470
9985.000000;0.434981
9984.000000;0.434511
9983.000000;0.434190
9982.000000;0.434086
9981.000000;0.434033
9980.000000;0.433691
9979.000000;0.432883
9978.000000;0.431896
9977.000000;0.431350
9976.000000;0.431666
9975.000000;0.432659
9974.000000;0.433648
9973.000000;0.433960
9972.000000;0.433405
9971.000000;0.432328
9970.000000;0.431266
9969.000000;0.430519
9968.000000;0.430043
9967.000000;0.429691
9966.000000;0.429432
9965.000000;0.429235
9964.000000;0.428896
9963.000000;0.428237
9962.000000;0.427483
9961.000000;0.427150
9960.000000;0.427408
9959.000000;0.427722
9958.000000;0.427360
9957.000000;0.426202
9956.000000;0.424891
9955.000000;0.424188
9954.000000;0.424280
9953.000000;0.424693
9952.000000;0.424764
9951.000000;0.424164
9950.000000;0.423095
9949.000000;0.422078
9948.000000;0.421522
9947.000000;0.421480
9946.000000;0.421722
9945.000000;0.422012
9944.000000;0.422271
9943.000000;0.422536
9942.000000;0.422768
9941.000000;0.422712
9940.000000;0.422055
9939.000000;0.420847
9938.000000;0.419692
9937.000000;0.419296
9936.000000;0.419732
9935.000000;0.420301
9934.000000;0.420206
9933.000000;0.419253
9932.000000;0.417846
9931.000000;0.416536
9930.000000;0.415718
9929.000000;0.415548
9928.000000;0.415859
9927.000000;0.416221
9926.000000;0.416273
9925.000000;0.416004
9924.000000;0.415619
9923.000000;0.415178
9922.000000;0.414549
9921.000000;0.413652
9920.000000;0.412603
9919.000000;0.411654
9918.000000;0.411129
9917.000000;0.411286
9916.000000;0.412035
9915.000000;0.412810
9914.000000;0.412973
9913.000000;0.412373
9912.000000;0.411380
9911.000000;0.410428
9910.000000;0.409750
9909.000000;0.409479
9908.000000;0.409687
9907.000000;0.410160
9906.000000;0.410397
9905.000000;0.410058
9904.000000;0.409326
9903.000000;0.408678
9902.000000;0.408348
9901.000000;0.408142
9900.000000;0.407731
9899.000000;0.406994
9898.000000;0.406070
9897.000000;0.405171
9896.000000;0.404427
9895.000000;0.403904
9894.000000;0.403674
9893.000000;0.403783
9892.000000;0.404133
9891.000000;0.404499
9890.000000;0.404744
9889.000000;0.404932
9888.000000;0.405129
9887.000000;0.405179
9886.000000;0.404815
9885.000000;0.403972
9884.000000;0.402885
9883.000000;0.401902
9882.000000;0.401280
9881.000000;0.401090
9880.000000;0.401167
9879.000000;0.401149
9878.000000;0.400726
9877.000000;0.399872
9876.000000;0.398786
9875.000000;0.397656
9874.000000;0.396625
9873.000000;0.395913
9872.000000;0.395748
9871.000000;0.396092
9870.000000;0.396561
9869.000000;0.396716
9868.000000;0.396387
9867.000000;0.395750
9866.000000;0.395171
9865.000000;0.394933
9864.000000;0.395003
9863.000000;0.395051
9862.000000;0.394791
9861.000000;0.394277
9860.000000;0.393794
9859.000000;0.393515
9858.000000;0.393410
9857.000000;0.393400
9856.000000;0.393410
9855.000000;0.393295
9854.000000;0.392928
9853.000000;0.392404
9852.000000;0.392001
9851.000000;0.391879
9850.000000;0.391918
9849.000000;0.391837
9848.000000;0.391370
9847.000000;0.390391
9846.000000;0.389083
9845.000000;0.387984
9844.000000;0.387625
9843.000000;0.388033
9842.000000;0.388717
9841.000000;0.389145
9840.000000;0.389100
9839.000000;0.388626
9838.000000;0.387933
9837.000000;0.387387
9836.000000;0.387276
9835.000000;0.387417
9834.000000;0.387223
9833.000000;0.386332
9832.000000;0.385024
9831.000000;0.383937
9830.000000;0.383537
9829.000000;0.383898
9828.000000;0.384715
9827.000000;0.385410
9826.000000;0.385453
9825.000000;0.384807
9824.000000;0.383912
9823.000000;0.383125
9822.000000;0.382402
9821.000000;0.381659
9820.000000;0.381089
9819.000000;0.380809
9818.000000;0.380511
9817.000000;0.379910
9816.000000;0.379351
9815.000000;0.379439
9814.000000;0.380083
9813.000000;0.380408
9812.000000;0.379802
9811.000000;0.378664
9810.000000;0.377887
9809.000000;0.377868
9808.000000;0.378303
9807.000000;0.378735
9806.000000;0.378983
9805.000000;0.379071
9804.000000;0.378994
9803.000000;0.378660
9802.000000;0.378004
9801.000000;0.377114
9800.000000;0.376226
9799.000000;0.375550
9798.000000;0.375063
9797.000000;0.374549
9796.000000;0.373897
9795.000000;0.373295
9794.000000;0.373049
9793.000000;0.373240
9792.000000;0.373631
9791.000000;0.373893
9790.000000;0.373827
9789.000000;0.373423
9788.000000;0.372796
9787.000000;0.372136
9786.000000;0.371611
9785.000000;0.371242
9784.000000;0.370882
9783.000000;0.370376
9782.000000;0.369774
9781.000000;0.369295
9780.000000;0.369058
9779.000000;0.368928
9778.000000;0.368710
9777.000000;0.368445
9776.000000;0.368371
9775.000000;0.368596
9774.000000;0.368922
9773.000000;0.369076
9772.000000;0.369030
9771.000000;0.368952
9770.000000;0.368869
9769.000000;0.368473
9768.000000;0.367409
9767.000000;0.365733
9766.000000;0.364014
9765.000000;0.362890
9764.000000;0.362538
9763.000000;0.362648
9762.000000;0.362865
9761.000000;0.363059
9760.000000;0.363164
9759.000000;0.363019
9758.000000;0.362611
9757.000000;0.362290
9756.000000;0.362416
9755.000000;0.362822
9754.000000;0.362907
9753.000000;0.362348
9752.000000;0.361458
9751.000000;0.360758
9750.000000;0.360468
9749.000000;0.360528
9748.000000;0.360806
9747.000000;0.361060
9746.000000;0.360916
9745.000000;0.360209
9744.000000;0.359268
9743.000000;0.358632
9742.000000;0.358528
9741.000000;0.358786
9740.000000;0.359125
9739.000000;0.359280
9738.000000;0.358971
9737.000000;0.358082
9736.000000;0.356957
9735.000000;0.356213
9734.000000;0.356148
9733.000000;0.356477
9732.000000;0.356721
9731.000000;0.356660
9730.000000;0.356339
9729.000000;0.355853
9728.000000;0.355307
9727.000000;0.354837
9726.000000;0.354505
9725.000000;0.354229
9724.000000;0.353930
9723.000000;0.353654
9722.000000;0.353419
9721.000000;0.353048
9720.000000;0.352381
9719.000000;0.351618
9718.000000;0.351222
9717.000000;0.351381
9716.000000;0.351707
9715.000000;0.351597
9714.000000;0.350847
9713.000000;0.349848
9712.000000;0.349214
9711.000000;0.349293
9710.000000;0.349932
9709.000000;0.350627
9708.000000;0.350869
9707.000000;0.350495
9706.000000;0.349752
9705.000000;0.349023
9704.000000;0.348469
9703.000000;0.347957
9702.000000;0.347336
9701.000000;0.346689
9700.000000;0.346220
9699.000000;0.345954
9698.000000;0.345669
9697.000000;0.345186
9696.000000;0.344678
9695.000000;0.344593
9694.000000;0.345186
9693.000000;0.346134
9692.000000;0.346697
9691.000000;0.346341
9690.000000;0.345201
9689.000000;0.343862
9688.000000;0.342751
9687.000000;0.341892
9686.000000;0.341262
9685.000000;0.341075
9684.000000;0.341468
9683.000000;0.342074
9682.000000;0.342254
9681.000000;0.341789
9680.000000;0.341076
9679.000000;0.340557
9678.000000;0.340206
9677.000000;0.339768
9676.000000;0.339278
9675.000000;0.339052
9674.000000;0.339200
9673.000000;0.339405
9672.000000;0.339284
9671.000000;0.338803
9670.000000;0.338221
9669.000000;0.337707
9668.000000;0.337137
9667.000000;0.336332
9666.000000;0.335416
9665.000000;0.334801
9664.000000;0.334785
9663.000000;0.335238
9662.000000;0.335763
9661.000000;0.336107
9660.000000;0.336314
9659.000000;0.336461
9658.000000;0.336457
9657.000000;0.336157
9656.000000;0.335574
9655.000000;0.334881
9654.000000;0.334298
9653.000000;0.334031
9652.000000;0.334186
9651.000000;0.334552
9650.000000;0.334580
9649.000000;0.333831
9648.000000;0.332494
9647.000000;0.331291
9646.000000;0.330782
9645.000000;0.330881
9644.000000;0.331098
9643.000000;0.331136
9642.000000;0.331073
9641.000000;0.331049
9640.000000;0.330987
9639.000000;0.330706
9638.000000;0.330191
9637.000000;0.329624
9636.000000;0.329210
9635.000000;0.329014
9634.000000;0.328941
9633.000000;0.328798
9632.000000;0.328396
9631.000000;0.327747
9630.000000;0.327146
9629.000000;0.326956
9628.000000;0.327227
9627.000000;0.327586
9626.000000;0.327560
9625.000000;0.326956
9624.000000;0.325922
9623.000000;0.324812
9622.000000;0.324061
9621.000000;0.324029
9620.000000;0.324708
9619.000000;0.325591
9618.000000;0.326030
9617.000000;0.325773
9616.000000;0.325043
9615.000000;0.324164
9614.000000;0.323283
9613.000000;0.322478
9612.000000;0.321862
9611.000000;0.321474
9610.000000;0.321210
9609.000000;0.321020
9608.000000;0.321036
9607.000000;0.321377
9606.000000;0.321921
9605.000000;0.322389
9604.000000;0.322583
9603.000000;0.322428
9602.000000;0.321870
9601.000000;0.320928
9600.000000;0.319862
9599.000000;0.319130
9598.000000;0.319067
9597.000000;0.319580
9596.000000;0.320162
9595.000000;0.320220
9594.000000;0.319533
9593.000000;0.318472
9592.000000;0.317707
9591.000000;0.317599
9590.000000;0.317908
9589.000000;0.318121
9588.000000;0.318002
9587.000000;0.317680
9586.000000;0.317310
9585.000000;0.316857
9584.000000;0.316272
9583.000000;0.315706
9582.000000;0.315400
9581.000000;0.315371
9580.000000;0.315326
9579.000000;0.314928
9578.000000;0.314166
9577.000000;0.313389
9576.000000;0.312952
9575.000000;0.312862
9574.000000;0.312827
9573.000000;0.312656
9572.000000;0.312482
9571.000000;0.312526
9570.000000;0.312746
9569.000000;0.312830
9568.000000;0.312528
9567.000000;0.311860
9566.000000;0.311035
9565.000000;0.310279
9564.000000;0.309773
9563.000000;0.309624
9562.000000;0.309780
9561.000000;0.310021
9560.000000;0.310099
9559.000000;0.309914
9558.000000;0.309534
9557.000000;0.309066
9556.000000;0.308585
9555.000000;0.308187
9554.000000;0.307993
9553.000000;0.307986
9552.000000;0.307916
9551.000000;0.307511
9550.000000;0.306834
9549.000000;0.306313
9548.000000;0.306272
9547.000000;0.306517
9546.000000;0.306519
9545.000000;0.305986
9544.000000;0.305129
9543.000000;0.304396
9542.000000;0.304050
9541.000000;0.304051
9540.000000;0.304208
9539.000000;0.304388
9538.000000;0.304602
9537.000000;0.304935
9536.000000;0.305339
9535.000000;0.305557
9534.000000;0.305350
9533.000000;0.304787
9532.000000;0.304156
9531.000000;0.303596
9530.000000;0.302985
9529.000000;0.302224
9528.000000;0.301450
9527.000000;0.300851
9526.000000;0.300441
9525.000000;0.300143
9524.000000;0.299980
9523.000000;0.299957
9522.000000;0.299872
9521.000000;0.299477
9520.000000;0.298877
9519.000000;0.298555
9518.000000;0.298879
9517.000000;0.299679
9516.000000;0.300404
9515.000000;0.300662
9514.000000;0.300490
9513.000000;0.300143
9512.000000;0.299736
9511.000000;0.299202
9510.000000;0.298554
9509.000000;0.298030
9508.000000;0.297862
9507.000000;0.297965
9506.000000;0.297998
9505.000000;0.297770
9504.000000;0.297456
9503.000000;0.297358
9502.000000;0.297508
9501.000000;0.297598
9500.000000;0.297283
9499.000000;0.296530
9498.000000;0.295663
9497.000000;0.295050
9496.000000;0.294769
9495.000000;0.294606
9494.000000;0.294395
9493.000000;0.294206
9492.000000;0.294138
9491.000000;0.294076
9490.000000;0.293858
9489.000000;0.293586
9488.000000;0.293495
9487.000000;0.293522
9486.000000;0.293323
9485.000000;0.292802
9484.000000;0.292350
9483.000000;0.292401
9482.000000;0.292916
9481.000000;0.293461
9480.000000;0.293640
9479.000000;0.293310
9478.000000;0.292546
9477.000000;0.291605
9476.000000;0.290834
9475.000000;0.290438
9474.000000;0.290360
9473.000000;0.290444
9472.000000;0.290569
9471.000000;0.290531
9470.000000;0.290055
9469.000000;0.289146
9468.000000;0.288269
9467.000000;0.287904
9466.000000;0.288010
9465.000000;0.288158
9464.000000;0.288080
9463.000000;0.287818
9462.000000;0.287440
9461.000000;0.286943
9460.000000;0.286461
9459.000000;0.286223
9458.000000;0.286225
9457.000000;0.286194
9456.000000;0.285965
9455.000000;0.285698
9454.000000;0.285597
9453.000000;0.285644
9452.000000;0.285706
9451.000000;0.285744
9450.000000;0.285762
9449.000000;0.285679
9448.000000;0.285430
9447.000000;0.285105
9446.000000;0.284884
9445.000000;0.284873
9444.000000;0.285075
9443.000000;0.285421
9442.000000;0.285700
9441.000000;0.285584
9440.000000;0.284874
9439.000000;0.283773
9438.000000;0.282797
9437.000000;0.282361
9436.000000;0.282463
9435.000000;0.282755
9434.000000;0.282872
9433.000000;0.282677
9432.000000;0.282242
9431.000000;0.281704
9430.000000;0.281211
9429.000000;0.280919
9428.000000;0.280911
9427.000000;0.281074
9426.000000;0.281173
9425.000000;0.281105
9424.000000;0.280981
9423.000000;0.280890
9422.000000;0.280715
9421.000000;0.280289
9420.000000;0.279639
9419.000000;0.278955
9418.000000;0.278435
9417.000000;0.278281
9416.000000;0.278683
9415.000000;0.279550
9414.000000;0.280328
9413.000000;0.280387
9412.000000;0.279648
9411.000000;0.278625
9410.000000;0.277813
9409.000000;0.277273
9408.000000;0.276853
9407.000000;0.276548
9406.000000;0.276441
9405.000000;0.276451
9404.000000;0.276351
9403.000000;0.276023
9402.000000;0.275585
9401.000000;0.275252
9400.000000;0.275121
9399.000000;0.275093
9398.000000;0.274977
9397.000000;0.274698
9396.000000;0.274371
9395.000000;0.274131
9394.000000;0.273984
9393.000000;0.273909
9392.000000;0.274001
9391.000000;0.274305
9390.000000;0.274588
9389.000000;0.274509
9388.000000;0.274032
9387.000000;0.273454
9386.000000;0.273007
9385.000000;0.272658
9384.000000;0.272348
9383.000000;0.272164
9382.000000;0.272135
9381.000000;0.272107
9380.000000;0.271954
9379.000000;0.271722
9378.000000;0.271451
9377.000000;0.271055
9376.000000;0.270564
9375.000000;0.270270
9374.000000;0.270394
9373.000000;0.270763
9372.000000;0.271046
9371.000000;0.271167
9370.000000;0.271255
9369.000000;0.271297
9368.000000;0.271138
9367.000000;0.270762
9366.000000;0.270309
9365.000000;0.269840
9364.000000;0.269313
9363.000000;0.268788
9362.000000;0.268452
9361.000000;0.268374
9360.000000;0.268446
9359.000000;0.268565
9358.000000;0.268680
9357.000000;0.268642
9356.000000;0.268254
9355.000000;0.267570
9354.000000;0.266953
9353.000000;0.266703
9352.000000;0.266732
9351.000000;0.266693
9350.000000;0.266324
9349.000000;0.265571
9348.000000;0.264543
9347.000000;0.263532
9346.000000;0.263000
9345.000000;0.263298
9344.000000;0.264286
9343.000000;0.265317
9342.000000;0.265722
9341.000000;0.265352
9340.000000;0.264650
9339.000000;0.264178
9338.000000;0.264120
9337.000000;0.264247
9336.000000;0.264319
9335.000000;0.264358
9334.000000;0.264501
9333.000000;0.264708
9332.000000;0.264768
9331.000000;0.264524
9330.000000;0.263996
9329.000000;0.263308
9328.000000;0.262621
9327.000000;0.262128
9326.000000;0.261932
9325.000000;0.261914
9324.000000;0.261842
9323.000000;0.261646
9322.000000;0.261486
9321.000000;0.261483
9320.000000;0.261525
9319.000000;0.261404
9318.000000;0.261090
9317.000000;0.260749
9316.000000;0.260544
9315.000000;0.260483
9314.000000;0.260419
9313.000000;0.260161
9312.000000;0.259622
9311.000000;0.258933
9310.000000;0.258376
9309.000000;0.258136
9308.000000;0.258144
9307.000000;0.258204
9306.000000;0.258220
9305.000000;0.258252
9304.000000;0.258369
9303.000000;0.258563
9302.000000;0.258788
9301.000000;0.259017
9300.000000;0.259187
9299.000000;0.259175
9298.000000;0.258909
9297.000000;0.258484
9296.000000;0.258112
9295.000000;0.257920
9294.000000;0.257813
9293.000000;0.257582
9292.000000;0.257131
9291.000000;0.256570
9290.000000;0.256080
9289.000000;0.255733
9288.000000;0.255469
9287.000000;0.255247
9286.000000;0.255159
9285.000000;0.255360
9284.000000;0.255874
9283.000000;0.256486
9282.000000;0.256877
9281.000000;0.256876
9280.000000;0.256562
9279.000000;0.256111
9278.000000;0.255609
9277.000000;0.255087
9276.000000;0.254661
9275.000000;0.254497
9274.000000;0.254582
9273.000000;0.254658
9272.000000;0.254446
9271.000000;0.253917
9270.000000;0.253320
9269.000000;0.252978
9268.000000;0.253062
9267.000000;0.253475
9266.000000;0.253890
9265.000000;0.253966
9264.000000;0.253610
9263.000000;0.253038
9262.000000;0.252570
9261.000000;0.252388
9260.000000;0.252457
9259.000000;0.252558
9258.000000;0.252389
9257.000000;0.251796
9256.000000;0.250997
9255.000000;0.250450
9254.000000;0.250392
9253.000000;0.250598
9252.000000;0.250703
9251.000000;0.250613
9250.000000;0.250437
9249.000000;0.250153
9248.000000;0.249615
9247.000000;0.248879
9246.000000;0.248270
9245.000000;0.248067
9244.000000;0.248274
9243.000000;0.248723
9242.000000;0.249219
9241.000000;0.249552
9240.000000;0.249570
9239.000000;0.249367
9238.000000;0.249256
9237.000000;0.249428
9236.000000;0.249729
9235.000000;0.249857
9234.000000;0.249701
9233.000000;0.249372
9232.000000;0.248981
9231.000000;0.248522
9230.000000;0.247961
9229.000000;0.247361
9228.000000;0.246890
9227.000000;0.246703
9226.000000;0.246795
9225.000000;0.246954
9224.000000;0.246944
9223.000000;0.246763
9222.000000;0.246640
9221.000000;0.246737
9220.000000;0.246929
9219.000000;0.246918
9218.000000;0.246525
9217.000000;0.245852
9216.000000;0.245237
9215.000000;0.245043
9214.000000;0.245393
9213.000000;0.246040
9212.000000;0.246541
9211.000000;0.246604
9210.000000;0.246241
9209.000000;0.245654
9208.000000;0.245099
9207.000000;0.244843
9206.000000;0.245021
9205.000000;0.245432
9204.000000;0.245633
9203.000000;0.245368
9202.000000;0.244789
9201.000000;0.244186
9200.000000;0.243637
9199.000000;0.243076
9198.000000;0.242573
9197.000000;0.242332
9196.000000;0.242438
9195.000000;0.242793
9194.000000;0.243268
9193.000000;0.243766
9192.000000;0.244122
9191.000000;0.244123
9190.000000;0.243711
9189.000000;0.243103
9188.000000;0.242639
9187.000000;0.242505
9186.000000;0.242568
9185.000000;0.242477
9184.000000;0.241978
9183.000000;0.241201
9182.000000;0.240571
9181.000000;0.240369
9180.000000;0.240447
9179.000000;0.240450
9178.000000;0.240213
9177.000000;0.239843
9176.000000;0.239512
9175.000000;0.239332
9174.000000;0.239411
9173.000000;0.239797
9172.000000;0.240360
9171.000000;0.240833
9170.000000;0.241031
9169.000000;0.240932
9168.000000;0.240612
9167.000000;0.240222
9166.000000;0.239981
9165.000000;0.240008
9164.000000;0.240153
9163.000000;0.240155
9162.000000;0.239995
9161.000000;0.239872
9160.000000;0.239831
9159.000000;0.239647
9158.000000;0.239184
9157.000000;0.238648
9156.000000;0.238302
9155.000000;0.238103
9154.000000;0.237836
9153.000000;0.237514
9152.000000;0.237414
9151.000000;0.237697
9150.000000;0.238179
9149.000000;0.238513
9148.000000;0.238489
9147.000000;0.238133
9146.000000;0.237625
9145.000000;0.237211
9144.000000;0.237069
9143.000000;0.237174
9142.000000;0.237264
9141.000000;0.237043
9140.000000;0.236471
9139.000000;0.235864
9138.000000;0.235657
9137.000000;0.235975
9136.000000;0.236477
9135.000000;0.236694
9134.000000;0.236533
9133.000000;0.236333
9132.000000;0.236412
9131.000000;0.236679
9130.000000;0.236798
9129.000000;0.236605
9128.000000;0.236233
9127.000000;0.235880
9126.000000;0.235642
9125.000000;0.235557
9124.000000;0.235651
9123.000000;0.235844
9122.000000;0.235930
9121.000000;0.235762
9120.000000;0.235403
9119.000000;0.235039
9118.000000;0.234781
9117.000000;0.234622
9116.000000;0.234525
9115.000000;0.234465
9114.000000;0.234382
9113.000000;0.234186
9112.000000;0.233860
9111.000000;0.233517
9110.000000;0.233296
9109.000000;0.233208
9108.000000;0.233123
9107.000000;0.232923
9106.000000;0.232623
9105.000000;0.232331
9104.000000;0.232112
9103.000000;0.231995
9102.000000;0.232088
9101.000000;0.232537
9100.000000;0.233273
9099.000000;0.233886
9098.000000;0.233915
9097.000000;0.233328
9096.000000;0.232605
9095.000000;0.232285
9094.000000;0.232481
9093.000000;0.232860
9092.000000;0.233011
9091.000000;0.232754
9090.000000;0.232183
9089.000000;0.231556
9088.000000;0.231148
9087.000000;0.231113
9086.000000;0.231388
9085.000000;0.231749
9084.000000;0.231962
9083.000000;0.231878
9082.000000;0.231486
9081.000000;0.230968
9080.000000;0.230657
9079.000000;0.230788
9078.000000;0.231231
9077.000000;0.231566
9076.000000;0.231501
9075.000000;0.231124
9074.000000;0.230699
9073.000000;0.230356
9072.000000;0.230088
9071.000000;0.229958
9070.000000;0.230107
9069.000000;0.230530
9068.000000;0.231007
9067.000000;0.231287
9066.000000;0.231264
9065.000000;0.230949
9064.000000;0.230397
9063.000000;0.229722
9062.000000;0.229126
9061.000000;0.228797
9060.000000;0.228794
9059.000000;0.229045
9058.000000;0.229425
9057.000000;0.229799
9056.000000;0.230043
9055.000000;0.230067
9054.000000;0.229840
9053.000000;0.229415
