Criado como novo conjunto de dados;"e0108.spp","-4238082.5 Secs"
cm-1;Abs
10000.000000;0.987817
9999.000000;0.987757
9998.000000;0.987099
9997.000000;0.986481
9996.000000;0.986206
9995.000000;0.985677
9994.000000;0.984546
9993.000000;0.983116
9992.000000;0.982127
9991.000000;0.981845
9990.000000;0.981883
9989.000000;0.981511
9988.000000;0.980200
9987.000000;0.978054
9986.000000;0.975930
9985.000000;0.974962
9984.000000;0.975673
9983.000000;0.977497
9982.000000;0.979261
9981.000000;0.980155
9980.000000;0.980141
9979.000000;0.979498
9978.000000;0.978373
9977.000000;0.976989
9976.000000;0.975960
9975.000000;0.975849
9974.000000;0.976342
9973.000000;0.976326
9972.000000;0.975152
9971.000000;0.973622
9970.000000;0.973214
9969.000000;0.974354
9968.000000;0.975920
9967.000000;0.976551
9966.000000;0.976081
9965.000000;0.975350
9964.000000;0.974999
9963.000000;0.974980
9962.000000;0.975057
9961.000000;0.975181
9960.000000;0.975241
9959.000000;0.974920
9958.000000;0.974087
9957.000000;0.973054
9956.000000;0.972196
9955.000000;0.971512
9954.000000;0.970782
9953.000000;0.970015
9952.000000;0.969419
9951.000000;0.969015
9950.000000;0.968564
9949.000000;0.967925
9948.000000;0.967239
9947.000000;0.966759
9946.000000;0.966619
9945.000000;0.966793
9944.000000;0.967132
9943.000000;0.967437
9942.000000;0.967612
9941.000000;0.967725
9940.000000;0.967810
9939.000000;0.967672
9938.000000;0.967110
9937.000000;0.966298
9936.000000;0.965687
9935.000000;0.965427
9934.000000;0.965045
9933.000000;0.963848
9932.000000;0.961642
9931.000000;0.959112
9930.000000;0.957534
9929.000000;0.957922
9928.000000;0.960116
9927.000000;0.962686
9926.000000;0.964036
9925.000000;0.963794
9924.000000;0.962912
9923.000000;0.962335
9922.000000;0.962012
9921.000000;0.961454
9920.000000;0.960759
9919.000000;0.960475
9918.000000;0.960623
9917.000000;0.960536
9916.000000;0.959855
9915.000000;0.959136
9914.000000;0.959088
9913.000000;0.959578
9912.000000;0.959755
9911.000000;0.959072
9910.000000;0.957828
9909.000000;0.956689
9908.000000;0.956063
9907.000000;0.956004
9906.000000;0.956306
9905.000000;0.956473
9904.000000;0.955917
9903.000000;0.954548
9902.000000;0.953022
9901.000000;0.952111
9900.000000;0.951914
9899.000000;0.951947
9898.000000;0.951873
9897.000000;0.951767
9896.000000;0.951663
9895.000000;0.951324
9894.000000;0.950660
9893.000000;0.950040
9892.000000;0.949851
9891.000000;0.949980
9890.000000;0.950007
9889.000000;0.949748
9888.000000;0.949313
9887.000000;0.948777
9886.000000;0.948116
9885.000000;0.947360
9884.000000;0.946528
9883.000000;0.945487
9882.000000;0.944255
9881.000000;0.943355
9880.000000;0.943414
9879.000000;0.944349
9878.000000;0.945304
9877.000000;0.945554
9876.000000;0.945192
9875.000000;0.944755
9874.000000;0.944475
9873.000000;0.944179
9872.000000;0.943738
9871.000000;0.943326
9870.000000;0.943189
9869.000000;0.943264
9868.000000;0.943134
9867.000000;0.942460
9866.000000;0.941487
9865.000000;0.940920
9864.000000;0.941109
9863.000000;0.941549
9862.000000;0.941475
9861.000000;0.940816
9860.000000;0.940094
9859.000000;0.939506
9858.000000;0.938655
9857.000000;0.937334
9856.000000;0.936001
9855.000000;0.935202
9854.000000;0.934937
9853.000000;0.934899
9852.000000;0.934971
9851.000000;0.935175
9850.000000;0.935424
9849.000000;0.935635
9848.000000;0.935852
9847.000000;0.935979
9846.000000;0.935681
9845.000000;0.934863
9844.000000;0.933938
9843.000000;0.933280
9842.000000;0.932684
9841.000000;0.931826
9840.000000;0.931006
9839.000000;0.930885
9838.000000;0.931581
9837.000000;0.932520
9836.000000;0.933156
9835.000000;0.933388
9834.000000;0.933230
9833.000000;0.932579
9832.000000;0.931499
9831.000000;0.930385
9830.000000;0.929663
9829.000000;0.929507
9828.000000;0.929890
9827.000000;0.930644
9826.000000;0.931368
9825.000000;0.931478
9824.000000;0.930570
9823.000000;0.928742
9822.000000;0.926554
9821.000000;0.924688
9820.000000;0.923549
9819.000000;0.923051
9818.000000;0.922884
9817.000000;0.923023
9816.000000;0.923716
9815.000000;0.924808
9814.000000;0.925496
9813.000000;0.925202
9812.000000;0.924402
9811.000000;0.924019
9810.000000;0.924172
9809.000000;0.924141
9808.000000;0.923549
9807.000000;0.922906
9806.000000;0.922771
9805.000000;0.922951
9804.000000;0.922886
9803.000000;0.922427
9802.000000;0.921894
9801.000000;0.921553
9800.000000;0.921353
9799.000000;0.921031
9798.000000;0.920328
9797.000000;0.919243
9796.000000;0.918196
9795.000000;0.917731
9794.000000;0.917893
9793.000000;0.918111
9792.000000;0.917866
9791.000000;0.917263
9790.000000;0.916794
9789.000000;0.916734
9788.000000;0.917007
9787.000000;0.917475
9786.000000;0.918059
9785.000000;0.918594
9784.000000;0.918800
9783.000000;0.918454
9782.000000;0.917584
9781.000000;0.916490
9780.000000;0.915554
9779.000000;0.914971
9778.000000;0.914656
9777.000000;0.914436
9776.000000;0.914243
9775.000000;0.914010
9774.000000;0.913515
9773.000000;0.912618
9772.000000;0.911591
9771.000000;0.910945
9770.000000;0.910877
9769.000000;0.911133
9768.000000;0.911430
9767.000000;0.911720
9766.000000;0.911905
9765.000000;0.911628
9764.000000;0.910651
9763.000000;0.909312
9762.000000;0.908335
9761.000000;0.908172
9760.000000;0.908638
9759.000000;0.909166
9758.000000;0.909370
9757.000000;0.909361
9756.000000;0.909470
9755.000000;0.909606
9754.000000;0.909081
9753.000000;0.907377
9752.000000;0.905059
9751.000000;0.903525
9750.000000;0.903667
9749.000000;0.904966
9748.000000;0.906038
9747.000000;0.905972
9746.000000;0.905013
9745.000000;0.904049
9744.000000;0.903647
9743.000000;0.903644
9742.000000;0.903539
9741.000000;0.903163
9740.000000;0.902787
9739.000000;0.902535
9738.000000;0.901990
9737.000000;0.900718
9736.000000;0.899013
9735.000000;0.897733
9734.000000;0.897427
9733.000000;0.897941
9732.000000;0.898827
9731.000000;0.899670
9730.000000;0.900017
9729.000000;0.899551
9728.000000;0.898533
9727.000000;0.897617
9726.000000;0.897036
9725.000000;0.896430
9724.000000;0.895674
9723.000000;0.895291
9722.000000;0.895629
9721.000000;0.896133
9720.000000;0.896044
9719.000000;0.895512
9718.000000;0.895355
9717.000000;0.895865
9716.000000;0.896502
9715.000000;0.896729
9714.000000;0.896563
9713.000000;0.896227
9712.000000;0.895792
9711.000000;0.895297
9710.000000;0.894845
9709.000000;0.894434
9708.000000;0.894010
9707.000000;0.893733
9706.000000;0.893840
9705.000000;0.894099
9704.000000;0.893825
9703.000000;0.892671
9702.000000;0.891128
9701.000000;0.890007
9700.000000;0.889666
9699.000000;0.889898
9698.000000;0.890271
9697.000000;0.890336
9696.000000;0.889792
9695.000000;0.888822
9694.000000;0.888131
9693.000000;0.888212
9692.000000;0.888622
9691.000000;0.888336
9690.000000;0.886948
9689.000000;0.885187
9688.000000;0.884089
9687.000000;0.883924
9686.000000;0.884238
9685.000000;0.884716
9684.000000;0.885544
9683.000000;0.886833
9682.000000;0.888085
9681.000000;0.888573
9680.000000;0.888128
9679.000000;0.887248
9678.000000;0.886468
9677.000000;0.885888
9676.000000;0.885348
9675.000000;0.884773
9674.000000;0.884226
9673.000000;0.883794
9672.000000;0.883538
9671.000000;0.883401
9670.000000;0.883054
9669.000000;0.882057
9668.000000;0.880419
9667.000000;0.878889
9666.000000;0.878401
9665.000000;0.879168
9664.000000;0.880416
9663.000000;0.881048
9662.000000;0.880566
9661.000000;0.879374
9660.000000;0.878277
9659.000000;0.877737
9658.000000;0.877587
9657.000000;0.877420
9656.000000;0.877099
9655.000000;0.876766
9654.000000;0.876470
9653.000000;0.876114
9652.000000;0.875845
9651.000000;0.876066
9650.000000;0.876838
9649.000000;0.877558
9648.000000;0.877598
9647.000000;0.877028
9646.000000;0.876364
9645.000000;0.875794
9644.000000;0.875158
9643.000000;0.874593
9642.000000;0.874545
9641.000000;0.874953
9640.000000;0.874979
9639.000000;0.873952
9638.000000;0.872265
9637.000000;0.870924
9636.000000;0.870457
9635.000000;0.870624
9634.000000;0.871004
9633.000000;0.871388
9632.000000;0.871608
9631.000000;0.871418
9630.000000;0.870741
9629.000000;0.869798
9628.000000;0.868844
9627.000000;0.867942
9626.000000;0.867107
9625.000000;0.866489
9624.000000;0.866248
9623.000000;0.866377
9622.000000;0.866782
9621.000000;0.867437
9620.000000;0.868280
9619.000000;0.869026
9618.000000;0.869304
9617.000000;0.869009
9616.000000;0.868392
9615.000000;0.867780
9614.000000;0.867326
9613.000000;0.867094
9612.000000;0.867223
9611.000000;0.867822
9610.000000;0.868666
9609.000000;0.869147
9608.000000;0.868658
9607.000000;0.867159
9606.000000;0.865371
9605.000000;0.864294
9604.000000;0.864363
9603.000000;0.864993
9602.000000;0.865092
9601.000000;0.864166
9600.000000;0.862851
9599.000000;0.862246
9598.000000;0.862789
9597.000000;0.863852
9596.000000;0.864356
9595.000000;0.863660
9594.000000;0.861979
9593.000000;0.860181
9592.000000;0.859197
9591.000000;0.859361
9590.000000;0.860155
9589.000000;0.860680
9588.000000;0.860481
9587.000000;0.859851
9586.000000;0.859321
9585.000000;0.859073
9584.000000;0.858903
9583.000000;0.858579
9582.000000;0.858032
9581.000000;0.857338
9580.000000;0.856706
9579.000000;0.856424
9578.000000;0.856658
9577.000000;0.857279
9576.000000;0.857972
9575.000000;0.858532
9574.000000;0.858969
9573.000000;0.859286
9572.000000;0.859298
9571.000000;0.858707
9570.000000;0.857387
9569.000000;0.855569
9568.000000;0.853699
9567.000000;0.852083
9566.000000;0.850718
9565.000000;0.849589
9564.000000;0.849067
9563.000000;0.849743
9562.000000;0.851679
9561.000000;0.853967
9560.000000;0.855297
9559.000000;0.855021
9558.000000;0.853546
9557.000000;0.851788
9556.000000;0.850468
9555.000000;0.849871
9554.000000;0.849923
9553.000000;0.850276
9552.000000;0.850477
9551.000000;0.850293
9550.000000;0.849893
9549.000000;0.849619
9548.000000;0.849584
9547.000000;0.849560
9546.000000;0.849262
9545.000000;0.848660
9544.000000;0.848003
9543.000000;0.847589
9542.000000;0.847535
9541.000000;0.847714
9540.000000;0.847863
9539.000000;0.847763
9538.000000;0.847398
9537.000000;0.846968
9536.000000;0.846701
9535.000000;0.846648
9534.000000;0.846674
9533.000000;0.846660
9532.000000;0.846645
9531.000000;0.846699
9530.000000;0.846711
9529.000000;0.846402
9528.000000;0.845601
9527.000000;0.844483
9526.000000;0.843486
9525.000000;0.842964
9524.000000;0.842881
9523.000000;0.842823
9522.000000;0.842415
9521.000000;0.841785
9520.000000;0.841500
9519.000000;0.841924
9518.000000;0.842716
9517.000000;0.843146
9516.000000;0.842906
9515.000000;0.842325
9514.000000;0.841788
9513.000000;0.841227
9512.000000;0.840384
9511.000000;0.839352
9510.000000;0.838609
9509.000000;0.838561
9508.000000;0.839197
9507.000000;0.840103
9506.000000;0.840699
9505.000000;0.840551
9504.000000;0.839696
9503.000000;0.838672
9502.000000;0.838076
9501.000000;0.838045
9500.000000;0.838227
9499.000000;0.838227
9498.000000;0.837959
9497.000000;0.837630
9496.000000;0.837486
9495.000000;0.837595
9494.000000;0.837781
9493.000000;0.837792
9492.000000;0.837594
9491.000000;0.837413
9490.000000;0.837375
9489.000000;0.837201
9488.000000;0.836513
9487.000000;0.835445
9486.000000;0.834641
9485.000000;0.834489
9484.000000;0.834615
9483.000000;0.834356
9482.000000;0.833595
9481.000000;0.832831
9480.000000;0.832459
9479.000000;0.832350
9478.000000;0.832224
9477.000000;0.832115
9476.000000;0.832204
9475.000000;0.832357
9474.000000;0.832190
9473.000000;0.831614
9472.000000;0.831017
9471.000000;0.830813
9470.000000;0.831022
9469.000000;0.831404
9468.000000;0.831775
9467.000000;0.832015
9466.000000;0.831923
9465.000000;0.831363
9464.000000;0.830522
9463.000000;0.829803
9462.000000;0.829456
9461.000000;0.829473
9460.000000;0.829759
9459.000000;0.830169
9458.000000;0.830404
9457.000000;0.830180
9456.000000;0.829582
9455.000000;0.829015
9454.000000;0.828721
9453.000000;0.828570
9452.000000;0.828400
9451.000000;0.828287
9450.000000;0.828284
9449.000000;0.828154
9448.000000;0.827686
9447.000000;0.827117
9446.000000;0.826942
9445.000000;0.827334
9444.000000;0.827973
9443.000000;0.828413
9442.000000;0.828404
9441.000000;0.827872
9440.000000;0.826856
9439.000000;0.825595
9438.000000;0.824539
9437.000000;0.824116
9436.000000;0.824411
9435.000000;0.825049
9434.000000;0.825356
9433.000000;0.824785
9432.000000;0.823334
9431.000000;0.821545
9430.000000;0.820038
9429.000000;0.819113
9428.000000;0.818806
9427.000000;0.819115
9426.000000;0.819948
9425.000000;0.820931
9424.000000;0.821555
9423.000000;0.821604
9422.000000;0.821300
9421.000000;0.820981
9420.000000;0.820728
9419.000000;0.820355
9418.000000;0.819697
9417.000000;0.818904
9416.000000;0.818406
9415.000000;0.818538
9414.000000;0.819138
9413.000000;0.819676
9412.000000;0.819828
9411.000000;0.819749
9410.000000;0.819627
9409.000000;0.819193
9408.000000;0.818023
9407.000000;0.816291
9406.000000;0.814879
9405.000000;0.814614
9404.000000;0.815554
9403.000000;0.817039
9402.000000;0.818245
9401.000000;0.818658
9400.000000;0.818264
9399.000000;0.817438
9398.000000;0.816619
9397.000000;0.816005
9396.000000;0.815567
9395.000000;0.815220
9394.000000;0.814853
9393.000000;0.814301
9392.000000;0.813574
9391.000000;0.813070
9390.000000;0.813287
9389.000000;0.814229
9388.000000;0.815311
9387.000000;0.815910
9386.000000;0.815873
9385.000000;0.815396
9384.000000;0.814639
9383.000000;0.813652
9382.000000;0.812588
9381.000000;0.811786
9380.000000;0.811570
9379.000000;0.811944
9378.000000;0.812461
9377.000000;0.812508
9376.000000;0.811897
9375.000000;0.811121
9374.000000;0.810856
9373.000000;0.811218
9372.000000;0.811776
9371.000000;0.812216
9370.000000;0.812651
9369.000000;0.813181
9368.000000;0.813518
9367.000000;0.813300
9366.000000;0.812560
9365.000000;0.811634
9364.000000;0.810755
9363.000000;0.809972
9362.000000;0.809352
9361.000000;0.809003
9360.000000;0.808951
9359.000000;0.809139
9358.000000;0.809492
9357.000000;0.809871
9356.000000;0.810073
9355.000000;0.810000
9354.000000;0.809723
9353.000000;0.809265
9352.000000;0.808521
9351.000000;0.807546
9350.000000;0.806687
9349.000000;0.806160
9348.000000;0.805696
9347.000000;0.804958
9346.000000;0.804202
9345.000000;0.804063
9344.000000;0.804640
9343.000000;0.805224
9342.000000;0.805135
9341.000000;0.804533
9340.000000;0.804167
9339.000000;0.804480
9338.000000;0.805203
9337.000000;0.805713
9336.000000;0.805580
9335.000000;0.804786
9334.000000;0.803653
9333.000000;0.802606
9332.000000;0.801885
9331.000000;0.801409
9330.000000;0.800945
9329.000000;0.800441
9328.000000;0.800127
9327.000000;0.800225
9326.000000;0.800662
9325.000000;0.801177
9324.000000;0.801688
9323.000000;0.802373
9322.000000;0.803258
9321.000000;0.803926
9320.000000;0.803895
9319.000000;0.803244
9318.000000;0.802556
9317.000000;0.802188
9316.000000;0.801887
9315.000000;0.801302
9314.000000;0.800586
9313.000000;0.800181
9312.000000;0.800169
9311.000000;0.800167
9310.000000;0.799840
9309.000000;0.799245
9308.000000;0.798661
9307.000000;0.798326
9306.000000;0.798375
9305.000000;0.798827
9304.000000;0.799513
9303.000000;0.800179
9302.000000;0.800674
9301.000000;0.800929
9300.000000;0.800802
9299.000000;0.800176
9298.000000;0.799253
9297.000000;0.798477
9296.000000;0.798077
9295.000000;0.797883
9294.000000;0.797662
9293.000000;0.797373
9292.000000;0.796971
9291.000000;0.796240
9290.000000;0.795085
9289.000000;0.793877
9288.000000;0.793221
9287.000000;0.793418
9286.000000;0.794293
9285.000000;0.795458
9284.000000;0.796533
9283.000000;0.797203
9282.000000;0.797303
9281.000000;0.796965
9280.000000;0.796513
9279.000000;0.796167
9278.000000;0.795891
9277.000000;0.795531
9276.000000;0.795012
9275.000000;0.794379
9274.000000;0.793749
9273.000000;0.793247
9272.000000;0.792907
9271.000000;0.792619
9270.000000;0.792237
9269.000000;0.791756
9268.000000;0.791333
9267.000000;0.791110
9266.000000;0.791077
9265.000000;0.791106
9264.000000;0.791086
9263.000000;0.790990
9262.000000;0.790900
9261.000000;0.790946
9260.000000;0.791187
9259.000000;0.791519
9258.000000;0.791722
9257.000000;0.791626
9256.000000;0.791207
9255.000000;0.790561
9254.000000;0.789849
9253.000000;0.789284
9252.000000;0.789086
9251.000000;0.789369
9250.000000;0.789994
9249.000000;0.790516
9248.000000;0.790360
9247.000000;0.789232
9246.000000;0.787503
9245.000000;0.786111
9244.000000;0.785863
9243.000000;0.786731
9242.000000;0.787909
9241.000000;0.788595
9240.000000;0.788638
9239.000000;0.788417
9238.000000;0.788324
9237.000000;0.788523
9236.000000;0.789068
9235.000000;0.789957
9234.000000;0.790967
9233.000000;0.791638
9232.000000;0.791593
9231.000000;0.790863
9230.000000;0.789821
9229.000000;0.788834
9228.000000;0.788043
9227.000000;0.787410
9226.000000;0.786844
9225.000000;0.786288
9224.000000;0.785762
9223.000000;0.785377
9222.000000;0.785251
9221.000000;0.785343
9220.000000;0.785411
9219.000000;0.785190
9218.000000;0.784669
9217.000000;0.784196
9216.000000;0.784279
9215.000000;0.785203
9214.000000;0.786733
9213.000000;0.788185
9212.000000;0.788850
9211.000000;0.788444
9210.000000;0.787201
9209.000000;0.785615
9208.000000;0.784192
9207.000000;0.783379
9206.000000;0.783448
9205.000000;0.784240
9204.000000;0.785115
9203.000000;0.785393
9202.000000;0.784919
9201.000000;0.784096
9200.000000;0.783345
9199.000000;0.782703
9198.000000;0.782028
9197.000000;0.781408
9196.000000;0.781119
9195.000000;0.781240
9194.000000;0.781524
9193.000000;0.781677
9192.000000;0.781565
9191.000000;0.781123
9190.000000;0.780338
9189.000000;0.779486
9188.000000;0.779170
9187.000000;0.779792
9186.000000;0.780996
9185.000000;0.781906
9184.000000;0.782001
9183.000000;0.781531
9182.000000;0.780996
9181.000000;0.780491
9180.000000;0.779799
9179.000000;0.778903
9178.000000;0.778093
9177.000000;0.777597
9176.000000;0.777395
9175.000000;0.777438
9174.000000;0.777790
9173.000000;0.778456
9172.000000;0.779230
9171.000000;0.779812
9170.000000;0.779994
9169.000000;0.779704
9168.000000;0.779047
9167.000000;0.778374
9166.000000;0.778108
9165.000000;0.778317
9164.000000;0.778592
9163.000000;0.778498
9162.000000;0.778063
9161.000000;0.777652
9160.000000;0.777498
9159.000000;0.777512
9158.000000;0.777496
9157.000000;0.777309
9156.000000;0.776908
9155.000000;0.776422
9154.000000;0.776154
9153.000000;0.776312
9152.000000;0.776727
9151.000000;0.777039
9150.000000;0.777147
9149.000000;0.777253
9148.000000;0.777406
9147.000000;0.777313
9146.000000;0.776734
9145.000000;0.775883
9144.000000;0.775242
9143.000000;0.775075
9142.000000;0.775246
9141.000000;0.775421
9140.000000;0.775362
9139.000000;0.775105
9138.000000;0.774917
9137.000000;0.774960
9136.000000;0.774983
9135.000000;0.774571
9134.000000;0.773798
9133.000000;0.773328
9132.000000;0.773607
9131.000000;0.774197
9130.000000;0.774274
9129.000000;0.773707
9128.000000;0.773233
9127.000000;0.773503
9126.000000;0.774344
9125.000000;0.775111
9124.000000;0.775448
9123.000000;0.775471
9122.000000;0.775386
9121.000000;0.775258
9120.000000;0.775123
9119.000000;0.775061
9118.000000;0.775103
9117.000000;0.775137
9116.000000;0.774972
9115.000000;0.774468
9114.000000;0.773668
9113.000000;0.772871
9112.000000;0.772460
9111.000000;0.772556
9110.000000;0.772844
9109.000000;0.772857
9108.000000;0.772410
9107.000000;0.771697
9106.000000;0.771000
9105.000000;0.770466
9104.000000;0.770152
9103.000000;0.770102
9102.000000;0.770275
9101.000000;0.770474
9100.000000;0.770490
9099.000000;0.770313
9098.000000;0.770120
9097.000000;0.770068
9096.000000;0.770170
9095.000000;0.770364
9094.000000;0.770617
9093.000000;0.770871
9092.000000;0.770928
9091.000000;0.770530
9090.000000;0.769640
9089.000000;0.768606
9088.000000;0.767946
9087.000000;0.767958
9086.000000;0.768541
9085.000000;0.769341
9084.000000;0.769946
9083.000000;0.769975
9082.000000;0.769234
9081.000000;0.767975
9080.000000;0.766909
9079.000000;0.766684
9078.000000;0.767273
9077.000000;0.767994
9076.000000;0.768187
9075.000000;0.767780
9074.000000;0.767143
9073.000000;0.766565
9072.000000;0.766063
9071.000000;0.765648
9070.000000;0.765544
9069.000000;0.766000
9068.000000;0.766921
9067.000000;0.767795
9066.000000;0.768081
9065.000000;0.767677
9064.000000;0.766994
9063.000000;0.766546
9062.000000;0.766502
9061.000000;0.766661
9060.000000;0.766818
9059.000000;0.766981
9058.000000;0.767219
9057.000000;0.767406
9056.000000;0.767300
9055.000000;0.766820
9054.000000;0.766171
9053.000000;0.765666
