Criado como novo conjunto de dados;"e0108.spp","-4250143.2 Secs"
cm-1;Abs
10000.000000;1.043987
9999.000000;1.042830
9998.000000;1.041498
9997.000000;1.040713
9996.000000;1.040555
9995.000000;1.040456
9994.000000;1.040166
9993.000000;1.039984
9992.000000;1.040335
9991.000000;1.040949
9990.000000;1.040899
9989.000000;1.039410
9988.000000;1.036661
9987.000000;1.033727
9986.000000;1.031782
9985.000000;1.031276
9984.000000;1.031724
9983.000000;1.032196
9982.000000;1.032066
9981.000000;1.031330
9980.000000;1.030326
9979.000000;1.029384
9978.000000;1.028847
9977.000000;1.029147
9976.000000;1.030453
9975.000000;1.032222
9974.000000;1.033389
9973.000000;1.033153
9972.000000;1.031412
9971.000000;1.028462
9970.000000;1.024719
9969.000000;1.021010
9968.000000;1.018667
9967.000000;1.018644
9966.000000;1.020535
9965.000000;1.022870
9964.000000;1.024591
9963.000000;1.025967
9962.000000;1.027843
9961.000000;1.030296
9960.000000;1.032286
9959.000000;1.032524
9958.000000;1.030582
9957.000000;1.027285
9956.000000;1.024191
9955.000000;1.022555
9954.000000;1.022524
9953.000000;1.023283
9952.000000;1.023938
9951.000000;1.024050
9950.000000;1.023373
9949.000000;1.021731
9948.000000;1.019623
9947.000000;1.018461
9946.000000;1.019389
9945.000000;1.021864
9944.000000;1.023966
9943.000000;1.024262
9942.000000;1.022909
9941.000000;1.020807
9940.000000;1.018498
9939.000000;1.016408
9938.000000;1.015392
9937.000000;1.016136
9936.000000;1.018123
9935.000000;1.019826
9934.000000;1.020085
9933.000000;1.018958
9932.000000;1.017242
9931.000000;1.015630
9930.000000;1.014433
9929.000000;1.013721
9928.000000;1.013409
9927.000000;1.013340
9926.000000;1.013463
9925.000000;1.013810
9924.000000;1.014227
9923.000000;1.014282
9922.000000;1.013593
9921.000000;1.012280
9920.000000;1.011036
9919.000000;1.010630
9918.000000;1.011178
9917.000000;1.011878
9916.000000;1.011660
9915.000000;1.010294
9914.000000;1.008693
9913.000000;1.007939
9912.000000;1.008196
9911.000000;1.008772
9910.000000;1.009042
9909.000000;1.008957
9908.000000;1.008728
9907.000000;1.008452
9906.000000;1.008142
9905.000000;1.007730
9904.000000;1.006913
9903.000000;1.005353
9902.000000;1.003273
9901.000000;1.001608
9900.000000;1.001367
9899.000000;1.002855
9898.000000;1.005479
9897.000000;1.008069
9896.000000;1.009408
9895.000000;1.008860
9894.000000;1.006821
9893.000000;1.004499
9892.000000;1.003050
9891.000000;1.002819
9890.000000;1.003337
9889.000000;1.003834
9888.000000;1.003729
9887.000000;1.002820
9886.000000;1.001253
9885.000000;0.999394
9884.000000;0.997710
9883.000000;0.996742
9882.000000;0.996932
9881.000000;0.998161
9880.000000;0.999533
9879.000000;1.000028
9878.000000;0.999426
9877.000000;0.998428
9876.000000;0.997833
9875.000000;0.997843
9874.000000;0.998200
9873.000000;0.998640
9872.000000;0.999017
9871.000000;0.999165
9870.000000;0.998895
9869.000000;0.998062
9868.000000;0.996626
9867.000000;0.994834
9866.000000;0.993332
9865.000000;0.992789
9864.000000;0.993241
9863.000000;0.994031
9862.000000;0.994529
9861.000000;0.994654
9860.000000;0.994554
9859.000000;0.994121
9858.000000;0.993166
9857.000000;0.991837
9856.000000;0.990501
9855.000000;0.989328
9854.000000;0.988281
9853.000000;0.987452
9852.000000;0.987135
9851.000000;0.987544
9850.000000;0.988586
9849.000000;0.989850
9848.000000;0.990746
9847.000000;0.990793
9846.000000;0.989931
9845.000000;0.988510
9844.000000;0.986946
9843.000000;0.985537
9842.000000;0.984599
9841.000000;0.984401
9840.000000;0.984780
9839.000000;0.985131
9838.000000;0.985043
9837.000000;0.984677
9836.000000;0.984294
9835.000000;0.983771
9834.000000;0.982980
9833.000000;0.982303
9832.000000;0.982214
9831.000000;0.982528
9830.000000;0.982582
9829.000000;0.982066
9828.000000;0.981228
9827.000000;0.980377
9826.000000;0.979746
9825.000000;0.979729
9824.000000;0.980564
9823.000000;0.981632
9822.000000;0.981762
9821.000000;0.980643
9820.000000;0.979374
9819.000000;0.979166
9818.000000;0.979909
9817.000000;0.980413
9816.000000;0.979791
9815.000000;0.978192
9814.000000;0.976383
9813.000000;0.975101
9812.000000;0.974733
9811.000000;0.975175
9810.000000;0.975823
9809.000000;0.975887
9808.000000;0.974868
9807.000000;0.972858
9806.000000;0.970564
9805.000000;0.969082
9804.000000;0.969267
9803.000000;0.970942
9802.000000;0.972860
9801.000000;0.973804
9800.000000;0.973730
9799.000000;0.973539
9798.000000;0.973824
9797.000000;0.974232
9796.000000;0.974104
9795.000000;0.973333
9794.000000;0.972325
9793.000000;0.971342
9792.000000;0.970238
9791.000000;0.968848
9790.000000;0.967426
9789.000000;0.966574
9788.000000;0.966689
9787.000000;0.967536
9786.000000;0.968394
9785.000000;0.968687
9784.000000;0.968468
9783.000000;0.968268
9782.000000;0.968506
9781.000000;0.969058
9780.000000;0.969381
9779.000000;0.969065
9778.000000;0.968233
9777.000000;0.967375
9776.000000;0.966815
9775.000000;0.966392
9774.000000;0.965722
9773.000000;0.964700
9772.000000;0.963663
9771.000000;0.963095
9770.000000;0.963203
9769.000000;0.963704
9768.000000;0.963927
9767.000000;0.963213
9766.000000;0.961487
9765.000000;0.959524
9764.000000;0.958479
9763.000000;0.958977
9762.000000;0.960609
9761.000000;0.962334
9760.000000;0.963357
9759.000000;0.963621
9758.000000;0.963533
9757.000000;0.963331
9756.000000;0.962787
9755.000000;0.961545
9754.000000;0.959720
9753.000000;0.958033
9752.000000;0.957271
9751.000000;0.957636
9750.000000;0.958666
9749.000000;0.959718
9748.000000;0.960385
9747.000000;0.960521
9746.000000;0.960121
9745.000000;0.959315
9744.000000;0.958345
9743.000000;0.957408
9742.000000;0.956572
9741.000000;0.955905
9740.000000;0.955637
9739.000000;0.956032
9738.000000;0.957035
9737.000000;0.958088
9736.000000;0.958353
9735.000000;0.957267
9734.000000;0.955051
9733.000000;0.952629
9732.000000;0.950870
9731.000000;0.949897
9730.000000;0.949291
9729.000000;0.948904
9728.000000;0.949108
9727.000000;0.950039
9726.000000;0.950949
9725.000000;0.950801
9724.000000;0.949487
9723.000000;0.947961
9722.000000;0.947042
9721.000000;0.946523
9720.000000;0.945741
9719.000000;0.944688
9718.000000;0.944093
9717.000000;0.944486
9716.000000;0.945620
9715.000000;0.946890
9714.000000;0.947965
9713.000000;0.948861
9712.000000;0.949662
9711.000000;0.950364
9710.000000;0.950794
9709.000000;0.950540
9708.000000;0.949223
9707.000000;0.947121
9706.000000;0.945301
9705.000000;0.944699
9704.000000;0.945077
9703.000000;0.945234
9702.000000;0.944358
9701.000000;0.942854
9700.000000;0.941703
9699.000000;0.941369
9698.000000;0.941530
9697.000000;0.941623
9696.000000;0.941430
9695.000000;0.941233
9694.000000;0.941460
9693.000000;0.942071
9692.000000;0.942332
9691.000000;0.941461
9690.000000;0.939597
9689.000000;0.937791
9688.000000;0.936895
9687.000000;0.936818
9686.000000;0.937055
9685.000000;0.937505
9684.000000;0.938346
9683.000000;0.939417
9682.000000;0.940235
9681.000000;0.940507
9680.000000;0.940277
9679.000000;0.939672
9678.000000;0.938881
9677.000000;0.938229
9676.000000;0.937868
9675.000000;0.937497
9674.000000;0.936766
9673.000000;0.935848
9672.000000;0.935180
9671.000000;0.934795
9670.000000;0.934439
9669.000000;0.934233
9668.000000;0.934588
9667.000000;0.935346
9666.000000;0.935666
9665.000000;0.935055
9664.000000;0.934041
9663.000000;0.933452
9662.000000;0.933475
9661.000000;0.933749
9660.000000;0.933961
9659.000000;0.933942
9658.000000;0.933519
9657.000000;0.932737
9656.000000;0.931999
9655.000000;0.931563
9654.000000;0.931073
9653.000000;0.930057
9652.000000;0.928768
9651.000000;0.928054
9650.000000;0.928370
9649.000000;0.929285
9648.000000;0.930010
9647.000000;0.930144
9646.000000;0.929850
9645.000000;0.929539
9644.000000;0.929505
9643.000000;0.929719
9642.000000;0.929821
9641.000000;0.929388
9640.000000;0.928287
9639.000000;0.926728
9638.000000;0.925053
9637.000000;0.923584
9636.000000;0.922635
9635.000000;0.922449
9634.000000;0.922956
9633.000000;0.923646
9632.000000;0.923868
9631.000000;0.923375
9630.000000;0.922576
9629.000000;0.922164
9628.000000;0.922433
9627.000000;0.923041
9626.000000;0.923460
9625.000000;0.923489
9624.000000;0.923220
9623.000000;0.922703
9622.000000;0.921938
9621.000000;0.921101
9620.000000;0.920458
9619.000000;0.920077
9618.000000;0.919876
9617.000000;0.919936
9616.000000;0.920343
9615.000000;0.920719
9614.000000;0.920414
9613.000000;0.919394
9612.000000;0.918423
9611.000000;0.918032
9610.000000;0.917770
9609.000000;0.916946
9608.000000;0.915751
9607.000000;0.915005
9606.000000;0.914990
9605.000000;0.915179
9604.000000;0.915113
9603.000000;0.914915
9602.000000;0.914798
9601.000000;0.914553
9600.000000;0.913845
9599.000000;0.912759
9598.000000;0.911750
9597.000000;0.911176
9596.000000;0.911074
9595.000000;0.911268
9594.000000;0.911526
9593.000000;0.911692
9592.000000;0.911739
9591.000000;0.911675
9590.000000;0.911442
9589.000000;0.911034
9588.000000;0.910690
9587.000000;0.910739
9586.000000;0.911148
9585.000000;0.911408
9584.000000;0.911035
9583.000000;0.910079
9582.000000;0.909064
9581.000000;0.908538
9580.000000;0.908731
9579.000000;0.909444
9578.000000;0.910123
9577.000000;0.910198
9576.000000;0.909560
9575.000000;0.908647
9574.000000;0.907927
9573.000000;0.907380
9572.000000;0.906614
9571.000000;0.905449
9570.000000;0.904224
9569.000000;0.903505
9568.000000;0.903605
9567.000000;0.904312
9566.000000;0.905009
9565.000000;0.905114
9564.000000;0.904563
9563.000000;0.903858
9562.000000;0.903554
9561.000000;0.903692
9560.000000;0.903775
9559.000000;0.903273
9558.000000;0.902120
9557.000000;0.900810
9556.000000;0.900103
9555.000000;0.900464
9554.000000;0.901555
9553.000000;0.902324
9552.000000;0.901926
9551.000000;0.900659
9550.000000;0.899700
9549.000000;0.899850
9548.000000;0.900796
9547.000000;0.901724
9546.000000;0.902314
9545.000000;0.902690
9544.000000;0.902657
9543.000000;0.901643
9542.000000;0.899573
9541.000000;0.897352
9540.000000;0.896204
9539.000000;0.896722
9538.000000;0.898631
9537.000000;0.901052
9536.000000;0.902788
9535.000000;0.902807
9534.000000;0.900951
9533.000000;0.898151
9532.000000;0.895684
9531.000000;0.894214
9530.000000;0.893608
9529.000000;0.893398
9528.000000;0.893169
9527.000000;0.892688
9526.000000;0.892074
9525.000000;0.891813
9524.000000;0.892307
9523.000000;0.893389
9522.000000;0.894529
9521.000000;0.895430
9520.000000;0.896115
9519.000000;0.896449
9518.000000;0.896062
9517.000000;0.894891
9516.000000;0.893434
9515.000000;0.892284
9514.000000;0.891642
9513.000000;0.891407
9512.000000;0.891469
9511.000000;0.891748
9510.000000;0.892104
9509.000000;0.892383
9508.000000;0.892451
9507.000000;0.892153
9506.000000;0.891467
9505.000000;0.890773
9504.000000;0.890706
9503.000000;0.891501
9502.000000;0.892611
9501.000000;0.893132
9500.000000;0.892565
9499.000000;0.891144
9498.000000;0.889596
9497.000000;0.888626
9496.000000;0.888427
9495.000000;0.888555
9494.000000;0.888408
9493.000000;0.887884
9492.000000;0.887416
9491.000000;0.887397
9490.000000;0.887804
9489.000000;0.888349
9488.000000;0.888668
9487.000000;0.888344
9486.000000;0.887197
9485.000000;0.885701
9484.000000;0.884727
9483.000000;0.884625
9482.000000;0.884914
9481.000000;0.885037
9480.000000;0.885002
9479.000000;0.884932
9478.000000;0.884478
9477.000000;0.883246
9476.000000;0.881604
9475.000000;0.880504
9474.000000;0.880545
9473.000000;0.881558
9472.000000;0.882977
9471.000000;0.884223
9470.000000;0.884798
9469.000000;0.884505
9468.000000;0.883686
9467.000000;0.882976
9466.000000;0.882744
9465.000000;0.882881
9464.000000;0.883006
9463.000000;0.882683
9462.000000;0.881695
9461.000000;0.880468
9460.000000;0.879947
9459.000000;0.880606
9458.000000;0.881712
9457.000000;0.882079
9456.000000;0.881472
9455.000000;0.880723
9454.000000;0.880483
9453.000000;0.880445
9452.000000;0.879969
9451.000000;0.878949
9450.000000;0.877804
9449.000000;0.876999
9448.000000;0.876855
9447.000000;0.877486
9446.000000;0.878612
9445.000000;0.879652
9444.000000;0.880239
9443.000000;0.880477
9442.000000;0.880555
9441.000000;0.880340
9440.000000;0.879562
9439.000000;0.878231
9438.000000;0.876686
9437.000000;0.875352
9436.000000;0.874553
9435.000000;0.874348
9434.000000;0.874448
9433.000000;0.874427
9432.000000;0.874158
9431.000000;0.873866
9430.000000;0.873692
9429.000000;0.873448
9428.000000;0.872940
9427.000000;0.872335
9426.000000;0.871980
9425.000000;0.871984
9424.000000;0.872131
9423.000000;0.872088
9422.000000;0.871610
9421.000000;0.870719
9420.000000;0.869801
9419.000000;0.869386
9418.000000;0.869660
9417.000000;0.870316
9416.000000;0.870963
9415.000000;0.871482
9414.000000;0.871868
9413.000000;0.871967
9412.000000;0.871647
9411.000000;0.871068
9410.000000;0.870520
9409.000000;0.870030
9408.000000;0.869394
9407.000000;0.868611
9406.000000;0.868105
9405.000000;0.868327
9404.000000;0.869206
9403.000000;0.870074
9402.000000;0.870192
9401.000000;0.869424
9400.000000;0.868388
9399.000000;0.867836
9398.000000;0.867863
9397.000000;0.867861
9396.000000;0.867277
9395.000000;0.866256
9394.000000;0.865473
9393.000000;0.865494
9392.000000;0.866355
9391.000000;0.867534
9390.000000;0.868211
9389.000000;0.867737
9388.000000;0.866082
9387.000000;0.863889
9386.000000;0.862084
9385.000000;0.861430
9384.000000;0.862231
9383.000000;0.864055
9382.000000;0.865746
9381.000000;0.866195
9380.000000;0.865348
9379.000000;0.864180
9378.000000;0.863517
9377.000000;0.863215
9376.000000;0.862712
9375.000000;0.861965
9374.000000;0.861446
9373.000000;0.861439
9372.000000;0.861840
9371.000000;0.862523
9370.000000;0.863419
9369.000000;0.864208
9368.000000;0.864367
9367.000000;0.863724
9366.000000;0.862694
9365.000000;0.861845
9364.000000;0.861436
9363.000000;0.861399
9362.000000;0.861523
9361.000000;0.861561
9360.000000;0.861365
9359.000000;0.861006
9358.000000;0.860626
9357.000000;0.860179
9356.000000;0.859546
9355.000000;0.858880
9354.000000;0.858528
9353.000000;0.858526
9352.000000;0.858438
9351.000000;0.857870
9350.000000;0.856903
9349.000000;0.855876
9348.000000;0.855024
9347.000000;0.854545
9346.000000;0.854749
9345.000000;0.855743
9344.000000;0.857011
9343.000000;0.857666
9342.000000;0.857235
9341.000000;0.856068
9340.000000;0.854974
9339.000000;0.854586
9338.000000;0.855026
9337.000000;0.855945
9336.000000;0.856802
9335.000000;0.857221
9334.000000;0.857175
9333.000000;0.856849
9332.000000;0.856401
9331.000000;0.855927
9330.000000;0.855557
9329.000000;0.855391
9328.000000;0.855341
9327.000000;0.855205
9326.000000;0.854940
9325.000000;0.854687
9324.000000;0.854500
9323.000000;0.854216
9322.000000;0.853700
9321.000000;0.853076
9320.000000;0.852595
9319.000000;0.852341
9318.000000;0.852195
9317.000000;0.852008
9316.000000;0.851714
9315.000000;0.851335
9314.000000;0.850982
9313.000000;0.850781
9312.000000;0.850685
9311.000000;0.850450
9310.000000;0.849962
9309.000000;0.849490
9308.000000;0.849434
9307.000000;0.849841
9306.000000;0.850378
9305.000000;0.850770
9304.000000;0.851032
9303.000000;0.851237
9302.000000;0.851321
9301.000000;0.851240
9300.000000;0.851105
9299.000000;0.850957
9298.000000;0.850626
9297.000000;0.850022
9296.000000;0.849388
9295.000000;0.848987
9294.000000;0.848670
9293.000000;0.848081
9292.000000;0.847269
9291.000000;0.846763
9290.000000;0.846930
9289.000000;0.847478
9288.000000;0.847743
9287.000000;0.847357
9286.000000;0.846559
9285.000000;0.845940
9284.000000;0.845971
9283.000000;0.846633
9282.000000;0.847433
9281.000000;0.847836
9280.000000;0.847712
9279.000000;0.847276
9278.000000;0.846720
9277.000000;0.846093
9276.000000;0.845505
9275.000000;0.845135
9274.000000;0.844956
9273.000000;0.844719
9272.000000;0.844326
9271.000000;0.843949
9270.000000;0.843647
9269.000000;0.843153
9268.000000;0.842315
9267.000000;0.841532
9266.000000;0.841411
9265.000000;0.842084
9264.000000;0.843099
9263.000000;0.843909
9262.000000;0.844236
9261.000000;0.844066
9260.000000;0.843580
9259.000000;0.843092
9258.000000;0.842742
9257.000000;0.842224
9256.000000;0.841104
9255.000000;0.839528
9254.000000;0.838349
9253.000000;0.838335
9252.000000;0.839367
9251.000000;0.840546
9250.000000;0.841026
9249.000000;0.840701
9248.000000;0.840164
9247.000000;0.840057
9246.000000;0.840415
9245.000000;0.840624
9244.000000;0.840102
9243.000000;0.839029
9242.000000;0.838263
9241.000000;0.838490
9240.000000;0.839570
9239.000000;0.840734
9238.000000;0.841264
9237.000000;0.840974
9236.000000;0.840223
9235.000000;0.839622
9234.000000;0.839582
9233.000000;0.839940
9232.000000;0.840083
9231.000000;0.839588
9230.000000;0.838696
9229.000000;0.837975
9228.000000;0.837605
9227.000000;0.837241
9226.000000;0.836593
9225.000000;0.835893
9224.000000;0.835612
9223.000000;0.835857
9222.000000;0.836248
9221.000000;0.836362
9220.000000;0.836127
9219.000000;0.835784
9218.000000;0.835632
9217.000000;0.835871
9216.000000;0.836524
9215.000000;0.837376
9214.000000;0.838063
9213.000000;0.838372
9212.000000;0.838397
9211.000000;0.838253
9210.000000;0.837741
9209.000000;0.836583
9208.000000;0.835047
9207.000000;0.833979
9206.000000;0.833970
9205.000000;0.834616
9204.000000;0.834925
9203.000000;0.834435
9202.000000;0.833653
9201.000000;0.833356
9200.000000;0.833736
9199.000000;0.834368
9198.000000;0.834796
9197.000000;0.834926
9196.000000;0.834898
9195.000000;0.834818
9194.000000;0.834708
9193.000000;0.834601
9192.000000;0.834543
9191.000000;0.834448
9190.000000;0.834107
9189.000000;0.833461
9188.000000;0.832846
9187.000000;0.832713
9186.000000;0.833033
9185.000000;0.833185
9184.000000;0.832639
9183.000000;0.831587
9182.000000;0.830652
9181.000000;0.830093
9180.000000;0.829648
9179.000000;0.829093
9178.000000;0.828557
9177.000000;0.828180
9176.000000;0.827853
9175.000000;0.827483
9174.000000;0.827257
9173.000000;0.827399
9172.000000;0.827845
9171.000000;0.828360
9170.000000;0.828776
9169.000000;0.828920
9168.000000;0.828566
9167.000000;0.827788
9166.000000;0.827169
9165.000000;0.827288
9164.000000;0.828045
9163.000000;0.828804
9162.000000;0.829134
9161.000000;0.829068
9160.000000;0.828706
9159.000000;0.828003
9158.000000;0.827060
9157.000000;0.826242
9156.000000;0.825816
9155.000000;0.825710
9154.000000;0.825782
9153.000000;0.826097
9152.000000;0.826722
9151.000000;0.827428
9150.000000;0.827825
9149.000000;0.827747
9148.000000;0.827357
9147.000000;0.826972
9146.000000;0.826850
9145.000000;0.827028
9144.000000;0.827232
9143.000000;0.827084
9142.000000;0.826549
9141.000000;0.826065
9140.000000;0.826087
9139.000000;0.826590
9138.000000;0.827117
9137.000000;0.827202
9136.000000;0.826702
9135.000000;0.825844
9134.000000;0.825078
9133.000000;0.824740
9132.000000;0.824693
9131.000000;0.824453
9130.000000;0.823799
9129.000000;0.823086
9128.000000;0.822721
9127.000000;0.822580
9126.000000;0.822320
9125.000000;0.822083
9124.000000;0.822373
9123.000000;0.823172
9122.000000;0.823717
9121.000000;0.823424
9120.000000;0.822665
9119.000000;0.822279
9118.000000;0.822561
9117.000000;0.823078
9116.000000;0.823342
9115.000000;0.823279
9114.000000;0.823068
9113.000000;0.822838
9112.000000;0.822648
9111.000000;0.822525
9110.000000;0.822362
9109.000000;0.821924
9108.000000;0.821119
9107.000000;0.820237
9106.000000;0.819767
9105.000000;0.819932
9104.000000;0.820439
9103.000000;0.820754
9102.000000;0.820658
9101.000000;0.820443
9100.000000;0.820512
9099.000000;0.820865
9098.000000;0.821123
9097.000000;0.821041
9096.000000;0.820823
9095.000000;0.820834
9094.000000;0.821116
9093.000000;0.821341
9092.000000;0.821176
9091.000000;0.820589
9090.000000;0.819855
9089.000000;0.819353
9088.000000;0.819346
9087.000000;0.819811
9086.000000;0.820447
9085.000000;0.820877
9084.000000;0.820872
9083.000000;0.820375
9082.000000;0.819449
9081.000000;0.818316
9080.000000;0.817386
9079.000000;0.817064
9078.000000;0.817459
9077.000000;0.818310
9076.000000;0.819210
9075.000000;0.819842
9074.000000;0.820101
9073.000000;0.820081
9072.000000;0.819939
9071.000000;0.819731
9070.000000;0.819398
9069.000000;0.818923
9068.000000;0.818428
9067.000000;0.818026
9066.000000;0.817691
9065.000000;0.817361
9064.000000;0.817085
9063.000000;0.816938
9062.000000;0.816852
9061.000000;0.816741
9060.000000;0.816724
9059.000000;0.816999
9058.000000;0.817457
9057.000000;0.817649
9056.000000;0.817236
9055.000000;0.816330
9054.000000;0.815312
9053.000000;0.814472
