Criado como novo conjunto de dados;"e0108.spp","-4258603.4 Secs"
cm-1;Abs
10000.000000;1.050035
9999.000000;1.049936
9998.000000;1.049841
9997.000000;1.049740
9996.000000;1.049651
9995.000000;1.049537
9994.000000;1.049503
9993.000000;1.049862
9992.000000;1.050661
9991.000000;1.051826
9990.000000;1.053023
9989.000000;1.053731
9988.000000;1.053509
9987.000000;1.052368
9986.000000;1.050683
9985.000000;1.048754
9984.000000;1.046648
9983.000000;1.044577
9982.000000;1.043148
9981.000000;1.042868
9980.000000;1.043456
9979.000000;1.043920
9978.000000;1.043471
9977.000000;1.042326
9976.000000;1.041530
9975.000000;1.041985
9974.000000;1.043579
9973.000000;1.045158
9972.000000;1.045453
9971.000000;1.044195
9970.000000;1.042311
9969.000000;1.040993
9968.000000;1.040694
9967.000000;1.041064
9966.000000;1.041625
9965.000000;1.042185
9964.000000;1.042678
9963.000000;1.042951
9962.000000;1.042911
9961.000000;1.042716
9960.000000;1.042572
9959.000000;1.042362
9958.000000;1.041679
9957.000000;1.040366
9956.000000;1.038912
9955.000000;1.038071
9954.000000;1.038020
9953.000000;1.038104
9952.000000;1.037582
9951.000000;1.036457
9950.000000;1.035329
9949.000000;1.034604
9948.000000;1.034235
9947.000000;1.034150
9946.000000;1.034356
9945.000000;1.034472
9944.000000;1.033701
9943.000000;1.031742
9942.000000;1.029370
9941.000000;1.027586
9940.000000;1.026471
9939.000000;1.025441
9938.000000;1.024473
9937.000000;1.024412
9936.000000;1.025889
9935.000000;1.028405
9934.000000;1.030739
9933.000000;1.031930
9932.000000;1.031680
9931.000000;1.030249
9930.000000;1.028438
9929.000000;1.027419
9928.000000;1.027975
9927.000000;1.029670
9926.000000;1.030959
9925.000000;1.030412
9924.000000;1.028025
9923.000000;1.025305
9922.000000;1.023929
9921.000000;1.024220
9920.000000;1.024879
9919.000000;1.024395
9918.000000;1.022724
9917.000000;1.021244
9916.000000;1.021086
9915.000000;1.022006
9914.000000;1.023017
9913.000000;1.023595
9912.000000;1.023835
9911.000000;1.023766
9910.000000;1.023201
9909.000000;1.022252
9908.000000;1.021425
9907.000000;1.021015
9906.000000;1.020829
9905.000000;1.020608
9904.000000;1.020328
9903.000000;1.019958
9902.000000;1.019337
9901.000000;1.018575
9900.000000;1.018180
9899.000000;1.018464
9898.000000;1.019079
9897.000000;1.019528
9896.000000;1.019849
9895.000000;1.020280
9894.000000;1.020403
9893.000000;1.019343
9892.000000;1.016967
9891.000000;1.014333
9890.000000;1.012652
9889.000000;1.012212
9888.000000;1.012579
9887.000000;1.013432
9886.000000;1.014680
9885.000000;1.015913
9884.000000;1.016339
9883.000000;1.015503
9882.000000;1.013838
9881.000000;1.012332
9880.000000;1.011739
9879.000000;1.012081
9878.000000;1.012694
9877.000000;1.012710
9876.000000;1.011687
9875.000000;1.009986
9874.000000;1.008532
9873.000000;1.008096
9872.000000;1.008706
9871.000000;1.009636
9870.000000;1.009936
9869.000000;1.009153
9868.000000;1.007703
9867.000000;1.006570
9866.000000;1.006501
9865.000000;1.007400
9864.000000;1.008475
9863.000000;1.008963
9862.000000;1.008622
9861.000000;1.007624
9860.000000;1.006296
9859.000000;1.005065
9858.000000;1.004364
9857.000000;1.004314
9856.000000;1.004601
9855.000000;1.004848
9854.000000;1.005034
9853.000000;1.005349
9852.000000;1.005757
9851.000000;1.005968
9850.000000;1.005828
9849.000000;1.005385
9848.000000;1.004500
9847.000000;1.002724
9846.000000;0.999934
9845.000000;0.996955
9844.000000;0.995205
9843.000000;0.995528
9842.000000;0.997411
9841.000000;0.999364
9840.000000;1.000121
9839.000000;0.999497
9838.000000;0.998192
9837.000000;0.996928
9836.000000;0.995911
9835.000000;0.995073
9834.000000;0.994524
9833.000000;0.994482
9832.000000;0.994832
9831.000000;0.995055
9830.000000;0.994750
9829.000000;0.994020
9828.000000;0.993200
9827.000000;0.992407
9826.000000;0.991672
9825.000000;0.991335
9824.000000;0.991813
9823.000000;0.992825
9822.000000;0.993257
9821.000000;0.992249
9820.000000;0.990289
9819.000000;0.988837
9818.000000;0.988847
9817.000000;0.989953
9816.000000;0.991082
9815.000000;0.991546
9814.000000;0.991376
9813.000000;0.990878
9812.000000;0.990280
9811.000000;0.989689
9810.000000;0.989072
9809.000000;0.988304
9808.000000;0.987473
9807.000000;0.987030
9806.000000;0.987358
9805.000000;0.988190
9804.000000;0.988747
9803.000000;0.988518
9802.000000;0.987666
9801.000000;0.986603
9800.000000;0.985509
9799.000000;0.984447
9798.000000;0.983646
9797.000000;0.983314
9796.000000;0.983300
9795.000000;0.983249
9794.000000;0.983076
9793.000000;0.983048
9792.000000;0.983402
9791.000000;0.984097
9790.000000;0.984902
9789.000000;0.985504
9788.000000;0.985502
9787.000000;0.984608
9786.000000;0.983047
9785.000000;0.981554
9784.000000;0.980745
9783.000000;0.980508
9782.000000;0.980207
9781.000000;0.979529
9780.000000;0.978875
9779.000000;0.978726
9778.000000;0.978853
9777.000000;0.978549
9776.000000;0.977677
9775.000000;0.977036
9774.000000;0.977395
9773.000000;0.978532
9772.000000;0.979671
9771.000000;0.980575
9770.000000;0.981528
9769.000000;0.982378
9768.000000;0.982362
9767.000000;0.981107
9766.000000;0.979269
9765.000000;0.977750
9764.000000;0.976641
9763.000000;0.975389
9762.000000;0.973709
9761.000000;0.971916
9760.000000;0.970522
9759.000000;0.969891
9758.000000;0.970144
9757.000000;0.971016
9756.000000;0.971916
9755.000000;0.972460
9754.000000;0.972805
9753.000000;0.973149
9752.000000;0.973190
9751.000000;0.972542
9750.000000;0.971540
9749.000000;0.971005
9748.000000;0.971194
9747.000000;0.971532
9746.000000;0.971461
9745.000000;0.971047
9744.000000;0.970590
9743.000000;0.970166
9742.000000;0.969779
9741.000000;0.969534
9740.000000;0.969360
9739.000000;0.968917
9738.000000;0.968097
9737.000000;0.967334
9736.000000;0.967095
9735.000000;0.967265
9734.000000;0.967325
9733.000000;0.966967
9732.000000;0.966241
9731.000000;0.965302
9730.000000;0.964343
9729.000000;0.963678
9728.000000;0.963532
9727.000000;0.963716
9726.000000;0.963741
9725.000000;0.963326
9724.000000;0.962669
9723.000000;0.962183
9722.000000;0.962009
9721.000000;0.961858
9720.000000;0.961359
9719.000000;0.960608
9718.000000;0.960230
9717.000000;0.960747
9716.000000;0.961941
9715.000000;0.963038
9714.000000;0.963470
9713.000000;0.963236
9712.000000;0.962604
9711.000000;0.961883
9710.000000;0.961514
9709.000000;0.961852
9708.000000;0.962602
9707.000000;0.962925
9706.000000;0.962426
9705.000000;0.961670
9704.000000;0.961344
9703.000000;0.961240
9702.000000;0.960546
9701.000000;0.958975
9700.000000;0.957109
9699.000000;0.955698
9698.000000;0.955071
9697.000000;0.955184
9696.000000;0.955819
9695.000000;0.956634
9694.000000;0.957265
9693.000000;0.957524
9692.000000;0.957409
9691.000000;0.956968
9690.000000;0.956260
9689.000000;0.955338
9688.000000;0.954128
9687.000000;0.952525
9686.000000;0.950813
9685.000000;0.949743
9684.000000;0.949837
9683.000000;0.950726
9682.000000;0.951517
9681.000000;0.951732
9680.000000;0.951582
9679.000000;0.951451
9678.000000;0.951512
9677.000000;0.951786
9676.000000;0.952125
9675.000000;0.952073
9674.000000;0.951172
9673.000000;0.949571
9672.000000;0.948039
9671.000000;0.947243
9670.000000;0.947261
9669.000000;0.947803
9668.000000;0.948598
9667.000000;0.949395
9666.000000;0.949877
9665.000000;0.949854
9664.000000;0.949404
9663.000000;0.948687
9662.000000;0.947813
9661.000000;0.946946
9660.000000;0.946256
9659.000000;0.945601
9658.000000;0.944549
9657.000000;0.942974
9656.000000;0.941441
9655.000000;0.940702
9654.000000;0.940927
9653.000000;0.941679
9652.000000;0.942518
9651.000000;0.943263
9650.000000;0.943643
9649.000000;0.943111
9648.000000;0.941374
9647.000000;0.939010
9646.000000;0.937247
9645.000000;0.936965
9644.000000;0.938018
9643.000000;0.939515
9642.000000;0.940647
9641.000000;0.941125
9640.000000;0.940970
9639.000000;0.940269
9638.000000;0.939264
9637.000000;0.938384
9636.000000;0.937888
9635.000000;0.937616
9634.000000;0.937252
9633.000000;0.936722
9632.000000;0.936140
9631.000000;0.935547
9630.000000;0.934953
9629.000000;0.934540
9628.000000;0.934485
9627.000000;0.934620
9626.000000;0.934635
9625.000000;0.934595
9624.000000;0.934852
9623.000000;0.935379
9622.000000;0.935602
9621.000000;0.935100
9620.000000;0.934148
9619.000000;0.933332
9618.000000;0.932940
9617.000000;0.932967
9616.000000;0.933374
9615.000000;0.933989
9614.000000;0.934331
9613.000000;0.934003
9612.000000;0.933217
9611.000000;0.932572
9610.000000;0.932293
9609.000000;0.932032
9608.000000;0.931524
9607.000000;0.931088
9606.000000;0.931217
9605.000000;0.931848
9604.000000;0.932335
9603.000000;0.932113
9602.000000;0.931160
9601.000000;0.929801
9600.000000;0.928344
9599.000000;0.927037
9598.000000;0.926134
9597.000000;0.925743
9596.000000;0.925650
9595.000000;0.925561
9594.000000;0.925504
9593.000000;0.925759
9592.000000;0.926345
9591.000000;0.926861
9590.000000;0.926965
9589.000000;0.926745
9588.000000;0.926415
9587.000000;0.925918
9586.000000;0.925185
9585.000000;0.924547
9584.000000;0.924443
9583.000000;0.924717
9582.000000;0.924658
9581.000000;0.923835
9580.000000;0.922572
9579.000000;0.921426
9578.000000;0.920520
9577.000000;0.919683
9576.000000;0.918987
9575.000000;0.918768
9574.000000;0.919154
9573.000000;0.919834
9572.000000;0.920389
9571.000000;0.920688
9570.000000;0.920896
9569.000000;0.921145
9568.000000;0.921287
9567.000000;0.921016
9566.000000;0.920233
9565.000000;0.919266
9564.000000;0.918630
9563.000000;0.918606
9562.000000;0.919087
9561.000000;0.919721
9560.000000;0.920077
9559.000000;0.919785
9558.000000;0.918812
9557.000000;0.917667
9556.000000;0.917048
9555.000000;0.917107
9554.000000;0.917245
9553.000000;0.916771
9552.000000;0.915657
9551.000000;0.914476
9550.000000;0.913775
9549.000000;0.913681
9548.000000;0.913938
9547.000000;0.914098
9546.000000;0.913760
9545.000000;0.912852
9544.000000;0.911685
9543.000000;0.910622
9542.000000;0.909805
9541.000000;0.909313
9540.000000;0.909418
9539.000000;0.910324
9538.000000;0.911746
9537.000000;0.913079
9536.000000;0.914036
9535.000000;0.914795
9534.000000;0.915351
9533.000000;0.915119
9532.000000;0.913526
9531.000000;0.910903
9530.000000;0.908414
9529.000000;0.907107
9528.000000;0.907177
9527.000000;0.908022
9526.000000;0.908770
9525.000000;0.908755
9524.000000;0.907786
9523.000000;0.906192
9522.000000;0.904634
9521.000000;0.903774
9520.000000;0.904030
9519.000000;0.905446
9518.000000;0.907550
9517.000000;0.909379
9516.000000;0.910000
9515.000000;0.909327
9514.000000;0.908283
9513.000000;0.907900
9512.000000;0.908274
9511.000000;0.908637
9510.000000;0.908417
9509.000000;0.907869
9508.000000;0.907521
9507.000000;0.907369
9506.000000;0.906957
9505.000000;0.906096
9504.000000;0.905067
9503.000000;0.904129
9502.000000;0.903176
9501.000000;0.902087
9500.000000;0.901134
9499.000000;0.900808
9498.000000;0.901294
9497.000000;0.902284
9496.000000;0.903286
9495.000000;0.903962
9494.000000;0.904163
9493.000000;0.903830
9492.000000;0.903017
9491.000000;0.901950
9490.000000;0.900902
9489.000000;0.899985
9488.000000;0.899167
9487.000000;0.898534
9486.000000;0.898355
9485.000000;0.898703
9484.000000;0.899113
9483.000000;0.898946
9482.000000;0.898164
9481.000000;0.897453
9480.000000;0.897394
9479.000000;0.897729
9478.000000;0.897681
9477.000000;0.896885
9476.000000;0.895782
9475.000000;0.895137
9474.000000;0.895418
9473.000000;0.896517
9472.000000;0.897755
9471.000000;0.898143
9470.000000;0.897087
9469.000000;0.895096
9468.000000;0.893558
9467.000000;0.893533
9466.000000;0.894778
9465.000000;0.896049
9464.000000;0.896277
9463.000000;0.895356
9462.000000;0.893942
9461.000000;0.892740
9460.000000;0.892065
9459.000000;0.891868
9458.000000;0.891974
9457.000000;0.892226
9456.000000;0.892508
9455.000000;0.892738
9454.000000;0.892934
9453.000000;0.893215
9452.000000;0.893625
9451.000000;0.893984
9450.000000;0.894069
9449.000000;0.893908
9448.000000;0.893759
9447.000000;0.893728
9446.000000;0.893591
9445.000000;0.893109
9444.000000;0.892409
9443.000000;0.891851
9442.000000;0.891535
9441.000000;0.891145
9440.000000;0.890370
9439.000000;0.889385
9438.000000;0.888794
9437.000000;0.889066
9436.000000;0.890033
9435.000000;0.890948
9434.000000;0.891031
9433.000000;0.890007
9432.000000;0.888258
9431.000000;0.886520
9430.000000;0.885398
9429.000000;0.885044
9428.000000;0.885207
9427.000000;0.885563
9426.000000;0.885972
9425.000000;0.886374
9424.000000;0.886544
9423.000000;0.886186
9422.000000;0.885307
9421.000000;0.884273
9420.000000;0.883365
9419.000000;0.882521
9418.000000;0.881717
9417.000000;0.881364
9416.000000;0.881978
9415.000000;0.883456
9414.000000;0.884988
9413.000000;0.885767
9412.000000;0.885649
9411.000000;0.885079
9410.000000;0.884577
9409.000000;0.884349
9408.000000;0.884218
9407.000000;0.883872
9406.000000;0.883255
9405.000000;0.882686
9404.000000;0.882461
9403.000000;0.882434
9402.000000;0.882226
9401.000000;0.881781
9400.000000;0.881423
9399.000000;0.881392
9398.000000;0.881631
9397.000000;0.882023
9396.000000;0.882447
9395.000000;0.882547
9394.000000;0.881909
9393.000000;0.880711
9392.000000;0.879785
9391.000000;0.879703
9390.000000;0.880090
9389.000000;0.880173
9388.000000;0.879715
9387.000000;0.879039
9386.000000;0.878385
9385.000000;0.877821
9384.000000;0.877657
9383.000000;0.878304
9382.000000;0.879562
9381.000000;0.880513
9380.000000;0.880398
9379.000000;0.879388
9378.000000;0.878324
9377.000000;0.877893
9376.000000;0.878176
9375.000000;0.878713
9374.000000;0.878827
9373.000000;0.878114
9372.000000;0.876838
9371.000000;0.875700
9370.000000;0.875111
9369.000000;0.874839
9368.000000;0.874473
9367.000000;0.874030
9366.000000;0.873841
9365.000000;0.873995
9364.000000;0.874152
9363.000000;0.873910
9362.000000;0.873207
9361.000000;0.872366
9360.000000;0.871867
9359.000000;0.872028
9358.000000;0.872711
9357.000000;0.873347
9356.000000;0.873427
9355.000000;0.873014
9354.000000;0.872636
9353.000000;0.872642
9352.000000;0.872831
9351.000000;0.872763
9350.000000;0.872282
9349.000000;0.871611
9348.000000;0.871068
9347.000000;0.870816
9346.000000;0.870828
9345.000000;0.870984
9344.000000;0.871147
9343.000000;0.871265
9342.000000;0.871387
9341.000000;0.871545
9340.000000;0.871627
9339.000000;0.871465
9338.000000;0.871059
9337.000000;0.870597
9336.000000;0.870236
9335.000000;0.869936
9334.000000;0.869558
9333.000000;0.869049
9332.000000;0.868467
9331.000000;0.867923
9330.000000;0.867606
9329.000000;0.867792
9328.000000;0.868626
9327.000000;0.869811
9326.000000;0.870637
9325.000000;0.870509
9324.000000;0.869474
9323.000000;0.868164
9322.000000;0.867238
9321.000000;0.866900
9320.000000;0.866919
9319.000000;0.866954
9318.000000;0.866789
9317.000000;0.866336
9316.000000;0.865592
9315.000000;0.864681
9314.000000;0.863854
9313.000000;0.863325
9312.000000;0.863107
9311.000000;0.863058
9310.000000;0.863042
9309.000000;0.862986
9308.000000;0.862795
9307.000000;0.862365
9306.000000;0.861791
9305.000000;0.861452
9304.000000;0.861729
9303.000000;0.862574
9302.000000;0.863446
9301.000000;0.863779
9300.000000;0.863493
9299.000000;0.863008
9298.000000;0.862724
9297.000000;0.862575
9296.000000;0.862171
9295.000000;0.861366
9294.000000;0.860531
9293.000000;0.860167
9292.000000;0.860351
9291.000000;0.860727
9290.000000;0.860966
9289.000000;0.861045
9288.000000;0.861042
9287.000000;0.860904
9286.000000;0.860597
9285.000000;0.860312
9284.000000;0.860278
9283.000000;0.860427
9282.000000;0.860480
9281.000000;0.860320
9280.000000;0.860083
9279.000000;0.859821
9278.000000;0.859330
9277.000000;0.858502
9276.000000;0.857715
9275.000000;0.857604
9274.000000;0.858385
9273.000000;0.859521
9272.000000;0.860179
9271.000000;0.860021
9270.000000;0.859475
9269.000000;0.859190
9268.000000;0.859318
9267.000000;0.859401
9266.000000;0.858891
9265.000000;0.857662
9264.000000;0.856041
9263.000000;0.854581
9262.000000;0.853861
9261.000000;0.854241
9260.000000;0.855548
9259.000000;0.857055
9258.000000;0.857972
9257.000000;0.858030
9256.000000;0.857550
9255.000000;0.857023
9254.000000;0.856750
9253.000000;0.856769
9252.000000;0.856887
9251.000000;0.856780
9250.000000;0.856249
9249.000000;0.855443
9248.000000;0.854695
9247.000000;0.854136
9246.000000;0.853628
9245.000000;0.853096
9244.000000;0.852705
9243.000000;0.852641
9242.000000;0.852900
9241.000000;0.853393
9240.000000;0.854025
9239.000000;0.854582
9238.000000;0.854753
9237.000000;0.854434
9236.000000;0.853891
9235.000000;0.853476
9234.000000;0.853295
9233.000000;0.853249
9232.000000;0.853220
9231.000000;0.853077
9230.000000;0.852631
9229.000000;0.851811
9228.000000;0.850807
9227.000000;0.849866
9226.000000;0.849053
9225.000000;0.848441
9224.000000;0.848423
9223.000000;0.849470
9222.000000;0.851445
9221.000000;0.853345
9220.000000;0.853960
9219.000000;0.852819
9218.000000;0.850507
9217.000000;0.848156
9216.000000;0.846667
9215.000000;0.846300
9214.000000;0.846840
9213.000000;0.848031
9212.000000;0.849737
9211.000000;0.851635
9210.000000;0.852983
9209.000000;0.853043
9208.000000;0.851883
9207.000000;0.850503
9206.000000;0.849928
9205.000000;0.850204
9204.000000;0.850462
9203.000000;0.849976
9202.000000;0.848981
9201.000000;0.848335
9200.000000;0.848479
9199.000000;0.848949
9198.000000;0.849001
9197.000000;0.848540
9196.000000;0.848193
9195.000000;0.848504
9194.000000;0.849292
9193.000000;0.849898
9192.000000;0.849856
9191.000000;0.849189
9190.000000;0.848203
9189.000000;0.847250
9188.000000;0.846618
9187.000000;0.846352
9186.000000;0.846134
9185.000000;0.845562
9184.000000;0.844688
9183.000000;0.844091
9182.000000;0.844261
9181.000000;0.845019
9180.000000;0.845688
9179.000000;0.845808
9178.000000;0.845488
9177.000000;0.845061
9176.000000;0.844592
9175.000000;0.843901
9174.000000;0.843024
9173.000000;0.842382
9172.000000;0.842317
9171.000000;0.842551
9170.000000;0.842367
9169.000000;0.841419
9168.000000;0.840197
9167.000000;0.839496
9166.000000;0.839573
9165.000000;0.840015
9164.000000;0.840350
9163.000000;0.840498
9162.000000;0.840606
9161.000000;0.840735
9160.000000;0.840861
9159.000000;0.840973
9158.000000;0.841027
9157.000000;0.840975
9156.000000;0.840961
9155.000000;0.841289
9154.000000;0.842007
9153.000000;0.842726
9152.000000;0.843056
9151.000000;0.843056
9150.000000;0.842953
9149.000000;0.842581
9148.000000;0.841573
9147.000000;0.840107
9146.000000;0.839021
9145.000000;0.838997
9144.000000;0.839870
9143.000000;0.840923
9142.000000;0.841623
9141.000000;0.841876
9140.000000;0.841808
9139.000000;0.841592
9138.000000;0.841380
9137.000000;0.841114
9136.000000;0.840505
9135.000000;0.839435
9134.000000;0.838326
9133.000000;0.837765
9132.000000;0.837808
9131.000000;0.837947
9130.000000;0.837854
9129.000000;0.837815
9128.000000;0.838247
9127.000000;0.839094
9126.000000;0.839952
9125.000000;0.840603
9124.000000;0.841046
9123.000000;0.841123
9122.000000;0.840558
9121.000000;0.839490
9120.000000;0.838592
9119.000000;0.838425
9118.000000;0.838841
9117.000000;0.839226
9116.000000;0.839198
9115.000000;0.838885
9114.000000;0.838577
9113.000000;0.838390
9112.000000;0.838307
9111.000000;0.838302
9110.000000;0.838275
9109.000000;0.837998
9108.000000;0.837311
9107.000000;0.836349
9106.000000;0.835484
9105.000000;0.835008
9104.000000;0.834926
9103.000000;0.835048
9102.000000;0.835241
9101.000000;0.835530
9100.000000;0.835978
9099.000000;0.836483
9098.000000;0.836754
9097.000000;0.836530
9096.000000;0.835839
9095.000000;0.835028
9094.000000;0.834493
9093.000000;0.834398
9092.000000;0.834592
9091.000000;0.834768
9090.000000;0.834702
9089.000000;0.834427
9088.000000;0.834230
9087.000000;0.834400
9086.000000;0.834926
9085.000000;0.835451
9084.000000;0.835565
9083.000000;0.835163
9082.000000;0.834483
9081.000000;0.833842
9080.000000;0.833372
9079.000000;0.832986
9078.000000;0.832559
9077.000000;0.832096
9076.000000;0.831718
9075.000000;0.831495
9074.000000;0.831327
9073.000000;0.831018
9072.000000;0.830500
9071.000000;0.829932
9070.000000;0.829607
9069.000000;0.829790
9068.000000;0.830568
9067.000000;0.831701
9066.000000;0.832625
9065.000000;0.832804
9064.000000;0.832219
9063.000000;0.831403
9062.000000;0.830907
9061.000000;0.830792
9060.000000;0.830750
9059.000000;0.830570
9058.000000;0.830325
9057.000000;0.830166
9056.000000;0.830131
9055.000000;0.830139
9054.000000;0.830070
9053.000000;0.829880
