Criado como novo conjunto de dados;"e0108.spp","-4212521.2 Secs"
cm-1;Abs
10000.000000;1.087892
9999.000000;1.087487
9998.000000;1.087454
9997.000000;1.087777
9996.000000;1.087870
9995.000000;1.087295
9994.000000;1.086193
9993.000000;1.085031
9992.000000;1.084155
9991.000000;1.083544
9990.000000;1.082758
9989.000000;1.081254
9988.000000;1.079095
9987.000000;1.077257
9986.000000;1.076843
9985.000000;1.077929
9984.000000;1.079440
9983.000000;1.080182
9982.000000;1.079794
9981.000000;1.078832
9980.000000;1.078334
9979.000000;1.079174
9978.000000;1.081224
9977.000000;1.083018
9976.000000;1.082923
9975.000000;1.080990
9974.000000;1.079006
9973.000000;1.078456
9972.000000;1.079101
9971.000000;1.079820
9970.000000;1.080137
9969.000000;1.080241
9968.000000;1.080078
9967.000000;1.079390
9966.000000;1.078442
9965.000000;1.077821
9964.000000;1.077549
9963.000000;1.077181
9962.000000;1.076771
9961.000000;1.076876
9960.000000;1.077468
9959.000000;1.077648
9958.000000;1.076792
9957.000000;1.075287
9956.000000;1.073754
9955.000000;1.072223
9954.000000;1.070551
9953.000000;1.069094
9952.000000;1.068331
9951.000000;1.068122
9950.000000;1.067870
9949.000000;1.067204
9948.000000;1.066110
9947.000000;1.064608
9946.000000;1.062831
9945.000000;1.061359
9944.000000;1.061005
9943.000000;1.062122
9942.000000;1.064238
9941.000000;1.066306
9940.000000;1.067252
9939.000000;1.066590
9938.000000;1.064805
9937.000000;1.063008
9936.000000;1.061961
9935.000000;1.061479
9934.000000;1.060885
9933.000000;1.059905
9932.000000;1.058916
9931.000000;1.058426
9930.000000;1.058594
9929.000000;1.059165
9928.000000;1.059655
9927.000000;1.059710
9926.000000;1.059497
9925.000000;1.059606
9924.000000;1.060353
9923.000000;1.061268
9922.000000;1.061474
9921.000000;1.060482
9920.000000;1.058478
9919.000000;1.056064
9918.000000;1.053959
9917.000000;1.052659
9916.000000;1.052078
9915.000000;1.051682
9914.000000;1.051208
9913.000000;1.050952
9912.000000;1.051077
9911.000000;1.051104
9910.000000;1.050654
9909.000000;1.050298
9908.000000;1.050904
9907.000000;1.052278
9906.000000;1.053273
9905.000000;1.053293
9904.000000;1.052915
9903.000000;1.052796
9902.000000;1.052689
9901.000000;1.051992
9900.000000;1.050735
9899.000000;1.049548
9898.000000;1.048929
9897.000000;1.048842
9896.000000;1.048864
9895.000000;1.048583
9894.000000;1.047939
9893.000000;1.047196
9892.000000;1.046452
9891.000000;1.045411
9890.000000;1.044061
9889.000000;1.043292
9888.000000;1.044012
9887.000000;1.045618
9886.000000;1.046196
9885.000000;1.044684
9884.000000;1.042142
9883.000000;1.040331
9882.000000;1.039792
9881.000000;1.039963
9880.000000;1.040442
9879.000000;1.041284
9878.000000;1.042350
9877.000000;1.043136
9876.000000;1.043310
9875.000000;1.042898
9874.000000;1.041992
9873.000000;1.040786
9872.000000;1.039788
9871.000000;1.039378
9870.000000;1.039191
9869.000000;1.038442
9868.000000;1.036907
9867.000000;1.035144
9866.000000;1.033787
9865.000000;1.033080
9864.000000;1.033080
9863.000000;1.033710
9862.000000;1.034482
9861.000000;1.034714
9860.000000;1.034341
9859.000000;1.034021
9858.000000;1.034207
9857.000000;1.034502
9856.000000;1.034249
9855.000000;1.033386
9854.000000;1.032326
9853.000000;1.031328
9852.000000;1.030458
9851.000000;1.029936
9850.000000;1.029986
9849.000000;1.030316
9848.000000;1.030236
9847.000000;1.029512
9846.000000;1.028768
9845.000000;1.028790
9844.000000;1.029564
9843.000000;1.030266
9842.000000;1.030170
9841.000000;1.029333
9840.000000;1.028286
9839.000000;1.027319
9838.000000;1.026305
9837.000000;1.025190
9836.000000;1.024365
9835.000000;1.024356
9834.000000;1.025149
9833.000000;1.025941
9832.000000;1.025702
9831.000000;1.024097
9830.000000;1.021907
9829.000000;1.020439
9828.000000;1.020406
9827.000000;1.021350
9826.000000;1.022142
9825.000000;1.021999
9824.000000;1.021014
9823.000000;1.019898
9822.000000;1.019344
9821.000000;1.019523
9820.000000;1.019910
9819.000000;1.019682
9818.000000;1.018583
9817.000000;1.017371
9816.000000;1.017095
9815.000000;1.017836
9814.000000;1.018456
9813.000000;1.017765
9812.000000;1.015728
9811.000000;1.013247
9810.000000;1.011044
9809.000000;1.009204
9808.000000;1.007685
9807.000000;1.006794
9806.000000;1.006910
9805.000000;1.007885
9804.000000;1.008921
9803.000000;1.009143
9802.000000;1.008343
9801.000000;1.007100
9800.000000;1.006084
9799.000000;1.005384
9798.000000;1.004733
9797.000000;1.004275
9796.000000;1.004634
9795.000000;1.005998
9794.000000;1.007506
9793.000000;1.007991
9792.000000;1.007217
9791.000000;1.006024
9790.000000;1.005403
9789.000000;1.005726
9788.000000;1.006720
9787.000000;1.007739
9786.000000;1.008016
9785.000000;1.007114
9784.000000;1.005361
9783.000000;1.003632
9782.000000;1.002632
9781.000000;1.002427
9780.000000;1.002542
9779.000000;1.002387
9778.000000;1.001653
9777.000000;1.000552
9776.000000;0.999709
9775.000000;0.999568
9774.000000;0.999792
9773.000000;0.999540
9772.000000;0.998537
9771.000000;0.997584
9770.000000;0.997647
9769.000000;0.998549
9768.000000;0.998966
9767.000000;0.997905
9766.000000;0.995891
9765.000000;0.994358
9764.000000;0.994021
9763.000000;0.994298
9762.000000;0.994344
9761.000000;0.994103
9760.000000;0.994019
9759.000000;0.994154
9758.000000;0.994179
9757.000000;0.994034
9756.000000;0.993956
9755.000000;0.993883
9754.000000;0.993502
9753.000000;0.992981
9752.000000;0.992925
9751.000000;0.993326
9750.000000;0.993238
9749.000000;0.991975
9748.000000;0.990134
9747.000000;0.988863
9746.000000;0.988513
9745.000000;0.988535
9744.000000;0.988358
9743.000000;0.987812
9742.000000;0.986979
9741.000000;0.986197
9740.000000;0.985979
9739.000000;0.986373
9738.000000;0.986639
9737.000000;0.986174
9736.000000;0.985496
9735.000000;0.985532
9734.000000;0.986143
9733.000000;0.986262
9732.000000;0.985539
9731.000000;0.984830
9730.000000;0.984775
9729.000000;0.984843
9728.000000;0.984255
9727.000000;0.983086
9726.000000;0.981832
9725.000000;0.980565
9724.000000;0.979219
9723.000000;0.978243
9722.000000;0.978155
9721.000000;0.978680
9720.000000;0.979078
9719.000000;0.979233
9718.000000;0.979734
9717.000000;0.980771
9716.000000;0.981534
9715.000000;0.980980
9714.000000;0.978905
9713.000000;0.976066
9712.000000;0.973518
9711.000000;0.971964
9710.000000;0.971504
9709.000000;0.971775
9708.000000;0.972350
9707.000000;0.973029
9706.000000;0.973796
9705.000000;0.974636
9704.000000;0.975464
9703.000000;0.976174
9702.000000;0.976625
9701.000000;0.976621
9700.000000;0.976115
9699.000000;0.975385
9698.000000;0.974773
9697.000000;0.974338
9696.000000;0.973910
9695.000000;0.973453
9694.000000;0.973110
9693.000000;0.972808
9692.000000;0.972070
9691.000000;0.970448
9690.000000;0.968147
9689.000000;0.966083
9688.000000;0.965202
9687.000000;0.965680
9686.000000;0.966807
9685.000000;0.967654
9684.000000;0.967787
9683.000000;0.967344
9682.000000;0.966613
9681.000000;0.965782
9680.000000;0.965025
9679.000000;0.964514
9678.000000;0.964196
9677.000000;0.963851
9676.000000;0.963515
9675.000000;0.963584
9674.000000;0.964230
9673.000000;0.964932
9672.000000;0.964962
9671.000000;0.964236
9670.000000;0.963367
9669.000000;0.962837
9668.000000;0.962486
9667.000000;0.961932
9666.000000;0.961162
9665.000000;0.960470
9664.000000;0.959982
9663.000000;0.959548
9662.000000;0.959087
9661.000000;0.958778
9660.000000;0.958806
9659.000000;0.959064
9658.000000;0.959241
9657.000000;0.959151
9656.000000;0.958815
9655.000000;0.958271
9654.000000;0.957521
9653.000000;0.956821
9652.000000;0.956721
9651.000000;0.957502
9650.000000;0.958560
9649.000000;0.958674
9648.000000;0.957092
9647.000000;0.954248
9646.000000;0.951320
9645.000000;0.949230
9644.000000;0.948200
9643.000000;0.948011
9642.000000;0.948350
9641.000000;0.948878
9640.000000;0.949274
9639.000000;0.949440
9638.000000;0.949611
9637.000000;0.950122
9636.000000;0.950975
9635.000000;0.951687
9634.000000;0.951635
9633.000000;0.950615
9632.000000;0.949044
9631.000000;0.947565
9630.000000;0.946523
9629.000000;0.945870
9628.000000;0.945454
9627.000000;0.945269
9626.000000;0.945414
9625.000000;0.945924
9624.000000;0.946637
9623.000000;0.947133
9622.000000;0.946912
9621.000000;0.945847
9620.000000;0.944481
9619.000000;0.943593
9618.000000;0.943389
9617.000000;0.943334
9616.000000;0.942915
9615.000000;0.942323
9614.000000;0.942124
9613.000000;0.942408
9612.000000;0.942630
9611.000000;0.942321
9610.000000;0.941628
9609.000000;0.940997
9608.000000;0.940580
9607.000000;0.940227
9606.000000;0.939948
9605.000000;0.939951
9604.000000;0.940085
9603.000000;0.939641
9602.000000;0.938104
9601.000000;0.936010
9600.000000;0.934617
9599.000000;0.934600
9598.000000;0.935352
9597.000000;0.935761
9596.000000;0.935447
9595.000000;0.934948
9594.000000;0.934918
9593.000000;0.935546
9592.000000;0.936626
9591.000000;0.937738
9590.000000;0.938314
9589.000000;0.937920
9588.000000;0.936659
9587.000000;0.935087
9586.000000;0.933639
9585.000000;0.932420
9584.000000;0.931610
9583.000000;0.931629
9582.000000;0.932587
9581.000000;0.933849
9580.000000;0.934480
9579.000000;0.934042
9578.000000;0.932739
9577.000000;0.930968
9576.000000;0.929083
9575.000000;0.927481
9574.000000;0.926547
9573.000000;0.926409
9572.000000;0.926825
9571.000000;0.927275
9570.000000;0.927179
9569.000000;0.926292
9568.000000;0.925055
9567.000000;0.924364
9566.000000;0.924729
9565.000000;0.925753
9564.000000;0.926637
9563.000000;0.927075
9562.000000;0.927337
9561.000000;0.927614
9560.000000;0.927761
9559.000000;0.927661
9558.000000;0.927397
9557.000000;0.926921
9556.000000;0.925952
9555.000000;0.924433
9554.000000;0.922808
9553.000000;0.921547
9552.000000;0.920661
9551.000000;0.919942
9550.000000;0.919475
9549.000000;0.919546
9548.000000;0.920100
9547.000000;0.920596
9546.000000;0.920487
9545.000000;0.919669
9544.000000;0.918476
9543.000000;0.917455
9542.000000;0.917171
9541.000000;0.917879
9540.000000;0.919135
9539.000000;0.919971
9538.000000;0.919737
9537.000000;0.918705
9536.000000;0.917637
9535.000000;0.916873
9534.000000;0.916256
9533.000000;0.915871
9532.000000;0.916253
9531.000000;0.917540
9530.000000;0.918843
9529.000000;0.919035
9528.000000;0.918074
9527.000000;0.917017
9526.000000;0.916700
9525.000000;0.916953
9524.000000;0.917151
9523.000000;0.916936
9522.000000;0.916104
9521.000000;0.914369
9520.000000;0.911864
9519.000000;0.909569
9518.000000;0.908560
9517.000000;0.908876
9516.000000;0.909623
9515.000000;0.910146
9514.000000;0.910583
9513.000000;0.911189
9512.000000;0.911707
9511.000000;0.911704
9510.000000;0.911148
9509.000000;0.910309
9508.000000;0.909404
9507.000000;0.908642
9506.000000;0.908386
9505.000000;0.908842
9504.000000;0.909672
9503.000000;0.910228
9502.000000;0.910171
9501.000000;0.909629
9500.000000;0.908812
9499.000000;0.907825
9498.000000;0.906870
9497.000000;0.906245
9496.000000;0.905988
9495.000000;0.905719
9494.000000;0.905014
9493.000000;0.903847
9492.000000;0.902551
9491.000000;0.901491
9490.000000;0.900894
9489.000000;0.900830
9488.000000;0.901155
9487.000000;0.901501
9486.000000;0.901535
9485.000000;0.901317
9484.000000;0.901281
9483.000000;0.901771
9482.000000;0.902614
9481.000000;0.903193
9480.000000;0.902954
9479.000000;0.901828
9478.000000;0.900200
9477.000000;0.898563
9476.000000;0.897269
9475.000000;0.896551
9474.000000;0.896589
9473.000000;0.897361
9472.000000;0.898409
9471.000000;0.898929
9470.000000;0.898268
9469.000000;0.896529
9468.000000;0.894688
9467.000000;0.893980
9466.000000;0.894906
9465.000000;0.896696
9464.000000;0.897807
9463.000000;0.897223
9462.000000;0.895377
9461.000000;0.893691
9460.000000;0.893172
9459.000000;0.893529
9458.000000;0.893697
9457.000000;0.893071
9456.000000;0.892062
9455.000000;0.891488
9454.000000;0.891699
9453.000000;0.892351
9452.000000;0.892833
9451.000000;0.892760
9450.000000;0.892188
9449.000000;0.891521
9448.000000;0.891193
9447.000000;0.891312
9446.000000;0.891562
9445.000000;0.891580
9444.000000;0.891414
9443.000000;0.891454
9442.000000;0.891865
9441.000000;0.892221
9440.000000;0.891866
9439.000000;0.890618
9438.000000;0.889013
9437.000000;0.887817
9436.000000;0.887371
9435.000000;0.887407
9434.000000;0.887415
9433.000000;0.887079
9432.000000;0.886414
9431.000000;0.885614
9430.000000;0.884893
9429.000000;0.884434
9428.000000;0.884357
9427.000000;0.884588
9426.000000;0.884803
9425.000000;0.884688
9424.000000;0.884327
9423.000000;0.884198
9422.000000;0.884677
9421.000000;0.885596
9420.000000;0.886376
9419.000000;0.886539
9418.000000;0.886011
9417.000000;0.885043
9416.000000;0.884020
9415.000000;0.883326
9414.000000;0.883144
9413.000000;0.883282
9412.000000;0.883321
9411.000000;0.883039
9410.000000;0.882578
9409.000000;0.882098
9408.000000;0.881448
9407.000000;0.880402
9406.000000;0.879162
9405.000000;0.878345
9404.000000;0.878374
9403.000000;0.879034
9402.000000;0.879726
9401.000000;0.880004
9400.000000;0.879755
9399.000000;0.879052
9398.000000;0.878074
9397.000000;0.877165
9396.000000;0.876678
9395.000000;0.876582
9394.000000;0.876392
9393.000000;0.875696
9392.000000;0.874705
9391.000000;0.874062
9390.000000;0.874099
9389.000000;0.874477
9388.000000;0.874584
9387.000000;0.874157
9386.000000;0.873445
9385.000000;0.872910
9384.000000;0.872820
9383.000000;0.873029
9382.000000;0.873058
9381.000000;0.872554
9380.000000;0.871796
9379.000000;0.871492
9378.000000;0.871887
9377.000000;0.872326
9376.000000;0.872034
9375.000000;0.871142
9374.000000;0.870501
9373.000000;0.870505
9372.000000;0.870678
9371.000000;0.870533
9370.000000;0.870324
9369.000000;0.870584
9368.000000;0.871232
9367.000000;0.871572
9366.000000;0.871052
9365.000000;0.869764
9364.000000;0.868355
9363.000000;0.867670
9362.000000;0.868223
9361.000000;0.869594
9360.000000;0.870540
9359.000000;0.870187
9358.000000;0.869003
9357.000000;0.868097
9356.000000;0.867704
9355.000000;0.867005
9354.000000;0.865496
9353.000000;0.863894
9352.000000;0.863287
9351.000000;0.863847
9350.000000;0.864798
9349.000000;0.865356
9348.000000;0.865298
9347.000000;0.864841
9346.000000;0.864363
9345.000000;0.864175
9344.000000;0.864189
9343.000000;0.863917
9342.000000;0.863054
9341.000000;0.861989
9340.000000;0.861449
9339.000000;0.861735
9338.000000;0.862564
9337.000000;0.863545
9336.000000;0.864415
9335.000000;0.864849
9334.000000;0.864502
9333.000000;0.863421
9332.000000;0.862143
9331.000000;0.861200
9330.000000;0.860720
9329.000000;0.860610
9328.000000;0.860847
9327.000000;0.861367
9326.000000;0.861799
9325.000000;0.861575
9324.000000;0.860425
9323.000000;0.858729
9322.000000;0.857399
9321.000000;0.857278
9320.000000;0.858432
9319.000000;0.859927
9318.000000;0.860502
9317.000000;0.859653
9316.000000;0.858006
9315.000000;0.856589
9314.000000;0.855898
9313.000000;0.855684
9312.000000;0.855413
9311.000000;0.854787
9310.000000;0.853918
9309.000000;0.853172
9308.000000;0.852833
9307.000000;0.852846
9306.000000;0.852886
9305.000000;0.852686
9304.000000;0.852279
9303.000000;0.851909
9302.000000;0.851795
9301.000000;0.851988
9300.000000;0.852321
9299.000000;0.852457
9298.000000;0.852115
9297.000000;0.851379
9296.000000;0.850703
9295.000000;0.850485
9294.000000;0.850700
9293.000000;0.851034
9292.000000;0.851295
9291.000000;0.851544
9290.000000;0.851811
9289.000000;0.851839
9288.000000;0.851257
9287.000000;0.850023
9286.000000;0.848607
9285.000000;0.847649
9284.000000;0.847445
9283.000000;0.847813
9282.000000;0.848395
9281.000000;0.848926
9280.000000;0.849178
9279.000000;0.848933
9278.000000;0.848242
9277.000000;0.847547
9276.000000;0.847229
9275.000000;0.847076
9274.000000;0.846527
9273.000000;0.845468
9272.000000;0.844476
9271.000000;0.844156
9270.000000;0.844491
9269.000000;0.844992
9268.000000;0.845254
9267.000000;0.845148
9266.000000;0.844697
9265.000000;0.844056
9264.000000;0.843562
9263.000000;0.843543
9262.000000;0.844034
9261.000000;0.844737
9260.000000;0.845194
9259.000000;0.844992
9258.000000;0.843969
9257.000000;0.842401
9256.000000;0.840939
9255.000000;0.840143
9254.000000;0.840049
9253.000000;0.840221
9252.000000;0.840216
9251.000000;0.839955
9250.000000;0.839681
9249.000000;0.839627
9248.000000;0.839703
9247.000000;0.839520
9246.000000;0.838880
9245.000000;0.838233
9244.000000;0.838358
9243.000000;0.839378
9242.000000;0.840336
9241.000000;0.840071
9240.000000;0.838473
9239.000000;0.836599
9238.000000;0.835637
9237.000000;0.835971
9236.000000;0.837163
9235.000000;0.838484
9234.000000;0.839379
9233.000000;0.839689
9232.000000;0.839619
9231.000000;0.839382
9230.000000;0.838851
9229.000000;0.837706
9228.000000;0.835990
9227.000000;0.834342
9226.000000;0.833488
9225.000000;0.833560
9224.000000;0.834053
9223.000000;0.834427
9222.000000;0.834642
9221.000000;0.835010
9220.000000;0.835622
9219.000000;0.836084
9218.000000;0.835915
9217.000000;0.835129
9216.000000;0.834248
9215.000000;0.833757
9214.000000;0.833730
9213.000000;0.834007
9212.000000;0.834409
9211.000000;0.834613
9210.000000;0.834126
9209.000000;0.832796
9208.000000;0.831240
9207.000000;0.830403
9206.000000;0.830651
9205.000000;0.831539
9204.000000;0.832415
9203.000000;0.832931
9202.000000;0.832956
9201.000000;0.832416
9200.000000;0.831484
9199.000000;0.830596
9198.000000;0.830037
9197.000000;0.829687
9196.000000;0.829380
9195.000000;0.829283
9194.000000;0.829611
9193.000000;0.830185
9192.000000;0.830597
9191.000000;0.830722
9190.000000;0.830685
9189.000000;0.830386
9188.000000;0.829504
9187.000000;0.828074
9186.000000;0.826641
9185.000000;0.825651
9184.000000;0.824984
9183.000000;0.824367
9182.000000;0.823933
9181.000000;0.823971
9180.000000;0.824261
9179.000000;0.824159
9178.000000;0.823438
9177.000000;0.822646
9176.000000;0.822415
9175.000000;0.822725
9174.000000;0.823145
9173.000000;0.823550
9172.000000;0.824172
9171.000000;0.824986
9170.000000;0.825455
9169.000000;0.825048
9168.000000;0.823809
9167.000000;0.822307
9166.000000;0.821243
9165.000000;0.821136
9164.000000;0.822030
9163.000000;0.823255
9162.000000;0.823749
9161.000000;0.823019
9160.000000;0.821750
9159.000000;0.821108
9158.000000;0.821428
9157.000000;0.821861
9156.000000;0.821404
9155.000000;0.820029
9154.000000;0.818643
9153.000000;0.818140
9152.000000;0.818685
9151.000000;0.819757
9150.000000;0.820679
9149.000000;0.821102
9148.000000;0.821082
9147.000000;0.820796
9146.000000;0.820286
9145.000000;0.819573
9144.000000;0.818886
9143.000000;0.818528
9142.000000;0.818478
9141.000000;0.818341
9140.000000;0.817882
9139.000000;0.817396
9138.000000;0.817347
9137.000000;0.817695
9136.000000;0.817870
9135.000000;0.817466
9134.000000;0.816763
9133.000000;0.816403
9132.000000;0.816623
9131.000000;0.816987
9130.000000;0.816926
9129.000000;0.816426
9128.000000;0.816032
9127.000000;0.816164
9126.000000;0.816620
9125.000000;0.816874
9124.000000;0.816728
9123.000000;0.816456
9122.000000;0.816333
9121.000000;0.816318
9120.000000;0.816256
9119.000000;0.816169
9118.000000;0.816148
9117.000000;0.816104
9116.000000;0.815810
9115.000000;0.815188
9114.000000;0.814412
9113.000000;0.813741
9112.000000;0.813342
9111.000000;0.813244
9110.000000;0.813363
9109.000000;0.813545
9108.000000;0.813617
9107.000000;0.813412
9106.000000;0.812787
9105.000000;0.811756
9104.000000;0.810645
9103.000000;0.809965
9102.000000;0.810004
9101.000000;0.810563
9100.000000;0.811161
9099.000000;0.811424
9098.000000;0.811229
9097.000000;0.810646
9096.000000;0.809929
9095.000000;0.809458
9094.000000;0.809463
9093.000000;0.809758
9092.000000;0.809882
9091.000000;0.809535
9090.000000;0.808812
9089.000000;0.808082
9088.000000;0.807757
9087.000000;0.808081
9086.000000;0.808948
9085.000000;0.809888
9084.000000;0.810401
9083.000000;0.810375
9082.000000;0.810114
9081.000000;0.809969
9080.000000;0.810056
9079.000000;0.810303
9078.000000;0.810529
9077.000000;0.810419
9076.000000;0.809686
9075.000000;0.808421
9074.000000;0.807136
9073.000000;0.806267
9072.000000;0.805740
9071.000000;0.805201
9070.000000;0.804580
9069.000000;0.804182
9068.000000;0.804220
9067.000000;0.804497
9066.000000;0.804667
9065.000000;0.804638
9064.000000;0.804558
9063.000000;0.804505
9062.000000;0.804417
9061.000000;0.804308
9060.000000;0.804327
9059.000000;0.804503
9058.000000;0.804628
9057.000000;0.804590
9056.000000;0.804634
9055.000000;0.805028
9054.000000;0.805525
9053.000000;0.805520
