Criado como novo conjunto de dados;"e0108.spp","-4244923.0 Secs"
cm-1;Abs
10000.000000;1.002599
9999.000000;1.000479
9998.000000;0.998987
9997.000000;0.998880
9996.000000;0.999960
9995.000000;1.000976
9994.000000;1.000740
9993.000000;0.999288
9992.000000;0.997742
9991.000000;0.997120
9990.000000;0.997302
9989.000000;0.997124
9988.000000;0.995596
9987.000000;0.993095
9986.000000;0.991153
9985.000000;0.990968
9984.000000;0.992314
9983.000000;0.994038
9982.000000;0.995286
9981.000000;0.995950
9980.000000;0.996188
9979.000000;0.996067
9978.000000;0.995653
9977.000000;0.995031
9976.000000;0.994187
9975.000000;0.993220
9974.000000;0.992643
9973.000000;0.993004
9972.000000;0.994023
9971.000000;0.994506
9970.000000;0.993458
9969.000000;0.991096
9968.000000;0.988545
9967.000000;0.986752
9966.000000;0.985940
9965.000000;0.985853
9964.000000;0.986176
9963.000000;0.986757
9962.000000;0.987648
9961.000000;0.988853
9960.000000;0.989995
9959.000000;0.990401
9958.000000;0.989715
9957.000000;0.988359
9956.000000;0.987221
9955.000000;0.986858
9954.000000;0.987070
9953.000000;0.987191
9952.000000;0.986708
9951.000000;0.985659
9950.000000;0.984560
9949.000000;0.983867
9948.000000;0.983460
9947.000000;0.982776
9946.000000;0.981584
9945.000000;0.980420
9944.000000;0.980029
9943.000000;0.980472
9942.000000;0.981047
9941.000000;0.981022
9940.000000;0.980235
9939.000000;0.979036
9938.000000;0.977966
9937.000000;0.977559
9936.000000;0.978128
9935.000000;0.979491
9934.000000;0.981007
9933.000000;0.982023
9932.000000;0.982314
9931.000000;0.982077
9930.000000;0.981593
9929.000000;0.980963
9928.000000;0.980059
9927.000000;0.978692
9926.000000;0.976893
9925.000000;0.975076
9924.000000;0.973769
9923.000000;0.973125
9922.000000;0.972814
9921.000000;0.972499
9920.000000;0.972206
9919.000000;0.972052
9918.000000;0.971894
9917.000000;0.971605
9916.000000;0.971492
9915.000000;0.971992
9914.000000;0.972888
9913.000000;0.973236
9912.000000;0.972336
9911.000000;0.970580
9910.000000;0.969089
9909.000000;0.968647
9908.000000;0.969146
9907.000000;0.969874
9906.000000;0.970117
9905.000000;0.969587
9904.000000;0.968555
9903.000000;0.967571
9902.000000;0.966928
9901.000000;0.966479
9900.000000;0.966058
9899.000000;0.965835
9898.000000;0.965975
9897.000000;0.966154
9896.000000;0.965826
9895.000000;0.965008
9894.000000;0.964364
9893.000000;0.964418
9892.000000;0.964983
9891.000000;0.965476
9890.000000;0.965509
9889.000000;0.965028
9888.000000;0.964254
9887.000000;0.963677
9886.000000;0.963761
9885.000000;0.964285
9884.000000;0.964311
9883.000000;0.963257
9882.000000;0.961735
9881.000000;0.960825
9880.000000;0.960698
9879.000000;0.960572
9878.000000;0.959964
9877.000000;0.959237
9876.000000;0.958709
9875.000000;0.957942
9874.000000;0.956463
9873.000000;0.954753
9872.000000;0.953846
9871.000000;0.954135
9870.000000;0.955091
9869.000000;0.956040
9868.000000;0.956699
9867.000000;0.956958
9866.000000;0.956749
9865.000000;0.956358
9864.000000;0.956405
9863.000000;0.957128
9862.000000;0.957944
9861.000000;0.958019
9860.000000;0.957121
9859.000000;0.955663
9858.000000;0.954128
9857.000000;0.952802
9856.000000;0.951924
9855.000000;0.951638
9854.000000;0.951705
9853.000000;0.951597
9852.000000;0.951099
9851.000000;0.950611
9850.000000;0.950673
9849.000000;0.951309
9848.000000;0.952038
9847.000000;0.952408
9846.000000;0.952371
9845.000000;0.952176
9844.000000;0.952068
9843.000000;0.952088
9842.000000;0.952048
9841.000000;0.951652
9840.000000;0.950760
9839.000000;0.949574
9838.000000;0.948499
9837.000000;0.947788
9836.000000;0.947357
9835.000000;0.946968
9834.000000;0.946530
9833.000000;0.946161
9832.000000;0.945990
9831.000000;0.945987
9830.000000;0.945973
9829.000000;0.945761
9828.000000;0.945274
9827.000000;0.944582
9826.000000;0.943877
9825.000000;0.943380
9824.000000;0.943172
9823.000000;0.943051
9822.000000;0.942625
9821.000000;0.941642
9820.000000;0.940253
9819.000000;0.938980
9818.000000;0.938423
9817.000000;0.938904
9816.000000;0.940167
9815.000000;0.941309
9814.000000;0.941258
9813.000000;0.939693
9812.000000;0.937489
9811.000000;0.935971
9810.000000;0.935705
9809.000000;0.936202
9808.000000;0.936768
9807.000000;0.937190
9806.000000;0.937491
9805.000000;0.937493
9804.000000;0.937026
9803.000000;0.936333
9802.000000;0.935825
9801.000000;0.935528
9800.000000;0.935179
9799.000000;0.934785
9798.000000;0.934569
9797.000000;0.934395
9796.000000;0.933839
9795.000000;0.933005
9794.000000;0.932687
9793.000000;0.933332
9792.000000;0.934276
9791.000000;0.934483
9790.000000;0.933813
9789.000000;0.933068
9788.000000;0.932892
9787.000000;0.933106
9786.000000;0.933187
9785.000000;0.932954
9784.000000;0.932523
9783.000000;0.931877
9782.000000;0.930851
9781.000000;0.929539
9780.000000;0.928438
9779.000000;0.928037
9778.000000;0.928320
9777.000000;0.928811
9776.000000;0.929117
9775.000000;0.929287
9774.000000;0.929501
9773.000000;0.929571
9772.000000;0.929075
9771.000000;0.928002
9770.000000;0.926928
9769.000000;0.926350
9768.000000;0.926058
9767.000000;0.925401
9766.000000;0.924065
9765.000000;0.922373
9764.000000;0.920884
9763.000000;0.919945
9762.000000;0.919641
9761.000000;0.919979
9760.000000;0.920976
9759.000000;0.922520
9758.000000;0.924142
9757.000000;0.925045
9756.000000;0.924645
9755.000000;0.923198
9754.000000;0.921677
9753.000000;0.920870
9752.000000;0.920733
9751.000000;0.920703
9750.000000;0.920370
9749.000000;0.919659
9748.000000;0.918631
9747.000000;0.917545
9746.000000;0.916972
9745.000000;0.917366
9744.000000;0.918424
9743.000000;0.919200
9742.000000;0.918987
9741.000000;0.917846
9740.000000;0.916270
9739.000000;0.914721
9738.000000;0.913600
9737.000000;0.913230
9736.000000;0.913533
9735.000000;0.913945
9734.000000;0.914012
9733.000000;0.913946
9732.000000;0.914235
9731.000000;0.914818
9730.000000;0.915079
9729.000000;0.914699
9728.000000;0.914068
9727.000000;0.913640
9726.000000;0.913246
9725.000000;0.912464
9724.000000;0.911518
9723.000000;0.911217
9722.000000;0.911820
9721.000000;0.912447
9720.000000;0.912059
9719.000000;0.910803
9718.000000;0.909856
9717.000000;0.910026
9716.000000;0.910978
9715.000000;0.911888
9714.000000;0.912324
9713.000000;0.912234
9712.000000;0.911563
9711.000000;0.910437
9710.000000;0.909431
9709.000000;0.909107
9708.000000;0.909270
9707.000000;0.909062
9706.000000;0.907850
9705.000000;0.905793
9704.000000;0.903629
9703.000000;0.902202
9702.000000;0.902058
9701.000000;0.903029
9700.000000;0.904138
9699.000000;0.904348
9698.000000;0.903594
9697.000000;0.902785
9696.000000;0.902716
9695.000000;0.903334
9694.000000;0.904129
9693.000000;0.904771
9692.000000;0.905116
9691.000000;0.904970
9690.000000;0.904286
9689.000000;0.903477
9688.000000;0.903082
9687.000000;0.903079
9686.000000;0.902830
9685.000000;0.901807
9684.000000;0.900180
9683.000000;0.898622
9682.000000;0.897679
9681.000000;0.897432
9680.000000;0.897630
9679.000000;0.897997
9678.000000;0.898397
9677.000000;0.898784
9676.000000;0.899109
9675.000000;0.899258
9674.000000;0.899045
9673.000000;0.898294
9672.000000;0.897095
9671.000000;0.896018
9670.000000;0.895794
9669.000000;0.896502
9668.000000;0.897242
9667.000000;0.896973
9666.000000;0.895672
9665.000000;0.894307
9664.000000;0.893623
9663.000000;0.893372
9662.000000;0.892883
9661.000000;0.892014
9660.000000;0.891226
9659.000000;0.890920
9658.000000;0.891049
9657.000000;0.891364
9656.000000;0.891738
9655.000000;0.892172
9654.000000;0.892587
9653.000000;0.892784
9652.000000;0.892641
9651.000000;0.892300
9650.000000;0.892038
9649.000000;0.891863
9648.000000;0.891380
9647.000000;0.890244
9646.000000;0.888675
9645.000000;0.887309
9644.000000;0.886556
9643.000000;0.886307
9642.000000;0.886239
9641.000000;0.886121
9640.000000;0.885823
9639.000000;0.885341
9638.000000;0.884899
9637.000000;0.884759
9636.000000;0.884802
9635.000000;0.884628
9634.000000;0.884190
9633.000000;0.883991
9632.000000;0.884430
9631.000000;0.885245
9630.000000;0.885881
9629.000000;0.886102
9628.000000;0.885947
9627.000000;0.885353
9626.000000;0.884301
9625.000000;0.883202
9624.000000;0.882667
9623.000000;0.882877
9622.000000;0.883484
9621.000000;0.884143
9620.000000;0.884827
9619.000000;0.885566
9618.000000;0.886188
9617.000000;0.886464
9616.000000;0.886318
9615.000000;0.885791
9614.000000;0.884961
9613.000000;0.883977
9612.000000;0.883016
9611.000000;0.882120
9610.000000;0.881165
9609.000000;0.880061
9608.000000;0.878948
9607.000000;0.878149
9606.000000;0.877965
9605.000000;0.878418
9604.000000;0.879138
9603.000000;0.879569
9602.000000;0.879430
9601.000000;0.878939
9600.000000;0.878512
9599.000000;0.878303
9598.000000;0.878125
9597.000000;0.877716
9596.000000;0.876918
9595.000000;0.875746
9594.000000;0.874486
9593.000000;0.873621
9592.000000;0.873393
9591.000000;0.873480
9590.000000;0.873340
9589.000000;0.872849
9588.000000;0.872328
9587.000000;0.871999
9586.000000;0.871755
9585.000000;0.871525
9584.000000;0.871532
9583.000000;0.871977
9582.000000;0.872694
9581.000000;0.873297
9580.000000;0.873533
9579.000000;0.873366
9578.000000;0.872913
9577.000000;0.872478
9576.000000;0.872424
9575.000000;0.872747
9574.000000;0.872876
9573.000000;0.872210
9572.000000;0.870862
9571.000000;0.869600
9570.000000;0.868978
9569.000000;0.868749
9568.000000;0.868271
9567.000000;0.867353
9566.000000;0.866500
9565.000000;0.866337
9564.000000;0.866957
9563.000000;0.867866
9562.000000;0.868434
9561.000000;0.868311
9560.000000;0.867522
9559.000000;0.866342
9558.000000;0.865144
9557.000000;0.864253
9556.000000;0.863811
9555.000000;0.863753
9554.000000;0.863880
9553.000000;0.863939
9552.000000;0.863740
9551.000000;0.863343
9550.000000;0.863102
9549.000000;0.863349
9548.000000;0.863950
9547.000000;0.864329
9546.000000;0.864005
9545.000000;0.863003
9544.000000;0.861703
9543.000000;0.860505
9542.000000;0.859710
9541.000000;0.859485
9540.000000;0.859719
9539.000000;0.860026
9538.000000;0.860085
9537.000000;0.859930
9536.000000;0.859802
9535.000000;0.859889
9534.000000;0.860321
9533.000000;0.861145
9532.000000;0.861982
9531.000000;0.861905
9530.000000;0.860168
9529.000000;0.857143
9528.000000;0.854238
9527.000000;0.852812
9526.000000;0.853338
9525.000000;0.855432
9524.000000;0.858211
9523.000000;0.860541
9522.000000;0.861459
9521.000000;0.860805
9520.000000;0.859339
9519.000000;0.858045
9518.000000;0.857374
9517.000000;0.857200
9516.000000;0.857268
9515.000000;0.857432
9514.000000;0.857556
9513.000000;0.857386
9512.000000;0.856621
9511.000000;0.855183
9510.000000;0.853532
9509.000000;0.852562
9508.000000;0.852814
9507.000000;0.853712
9506.000000;0.853993
9505.000000;0.853157
9504.000000;0.852093
9503.000000;0.851889
9502.000000;0.852414
9501.000000;0.852640
9500.000000;0.852164
9499.000000;0.851645
9498.000000;0.851666
9497.000000;0.851881
9496.000000;0.851655
9495.000000;0.851022
9494.000000;0.850495
9493.000000;0.850228
9492.000000;0.849928
9491.000000;0.849490
9490.000000;0.849205
9489.000000;0.849253
9488.000000;0.849403
9487.000000;0.849351
9486.000000;0.849080
9485.000000;0.848729
9484.000000;0.848377
9483.000000;0.848091
9482.000000;0.847972
9481.000000;0.847954
9480.000000;0.847796
9479.000000;0.847426
9478.000000;0.847132
9477.000000;0.847143
9476.000000;0.847208
9475.000000;0.846896
9474.000000;0.846200
9473.000000;0.845462
9472.000000;0.844737
9471.000000;0.843687
9470.000000;0.842272
9469.000000;0.841144
9468.000000;0.841071
9467.000000;0.842105
9466.000000;0.843520
9465.000000;0.844480
9464.000000;0.844630
9463.000000;0.844168
9462.000000;0.843546
9461.000000;0.843071
9460.000000;0.842688
9459.000000;0.842208
9458.000000;0.841792
9457.000000;0.841959
9456.000000;0.842950
9455.000000;0.844267
9454.000000;0.845092
9453.000000;0.845062
9452.000000;0.844397
9451.000000;0.843405
9450.000000;0.842278
9449.000000;0.841316
9448.000000;0.840919
9447.000000;0.841145
9446.000000;0.841501
9445.000000;0.841418
9444.000000;0.840833
9443.000000;0.840181
9442.000000;0.839884
9441.000000;0.839960
9440.000000;0.840080
9439.000000;0.839939
9438.000000;0.839585
9437.000000;0.839327
9436.000000;0.839247
9435.000000;0.838929
9434.000000;0.837877
9433.000000;0.836185
9432.000000;0.834578
9431.000000;0.833780
9430.000000;0.833983
9429.000000;0.834895
9428.000000;0.836041
9427.000000;0.836944
9426.000000;0.837308
9425.000000;0.837186
9424.000000;0.836857
9423.000000;0.836425
9422.000000;0.835679
9421.000000;0.834476
9420.000000;0.833107
9419.000000;0.832122
9418.000000;0.831874
9417.000000;0.832340
9416.000000;0.833240
9415.000000;0.834165
9414.000000;0.834676
9413.000000;0.834509
9412.000000;0.833796
9411.000000;0.832999
9410.000000;0.832554
9409.000000;0.832510
9408.000000;0.832491
9407.000000;0.832100
9406.000000;0.831444
9405.000000;0.831139
9404.000000;0.831571
9403.000000;0.832250
9402.000000;0.832262
9401.000000;0.831394
9400.000000;0.830456
9399.000000;0.830275
9398.000000;0.830723
9397.000000;0.831033
9396.000000;0.830799
9395.000000;0.830262
9394.000000;0.829767
9393.000000;0.829443
9392.000000;0.829421
9391.000000;0.829893
9390.000000;0.830730
9389.000000;0.831333
9388.000000;0.831092
9387.000000;0.829945
9386.000000;0.828420
9385.000000;0.827193
9384.000000;0.826619
9383.000000;0.826518
9382.000000;0.826366
9381.000000;0.825858
9380.000000;0.825268
9379.000000;0.825091
9378.000000;0.825326
9377.000000;0.825401
9376.000000;0.824930
9375.000000;0.824256
9374.000000;0.824018
9373.000000;0.824342
9372.000000;0.824768
9371.000000;0.824914
9370.000000;0.824914
9369.000000;0.825116
9368.000000;0.825512
9367.000000;0.825618
9366.000000;0.824928
9365.000000;0.823459
9364.000000;0.821834
9363.000000;0.820764
9362.000000;0.820392
9361.000000;0.820209
9360.000000;0.819733
9359.000000;0.819167
9358.000000;0.819193
9357.000000;0.820095
9356.000000;0.821346
9355.000000;0.822197
9354.000000;0.822497
9353.000000;0.822679
9352.000000;0.822990
9351.000000;0.823050
9350.000000;0.822282
9349.000000;0.820627
9348.000000;0.818669
9347.000000;0.817166
9346.000000;0.816588
9345.000000;0.816939
9344.000000;0.817792
9343.000000;0.818502
9342.000000;0.818654
9341.000000;0.818411
9340.000000;0.818308
9339.000000;0.818627
9338.000000;0.819087
9337.000000;0.819233
9336.000000;0.819025
9335.000000;0.818855
9334.000000;0.819004
9333.000000;0.819249
9332.000000;0.819063
9331.000000;0.818132
9330.000000;0.816675
9329.000000;0.815301
9328.000000;0.814602
9327.000000;0.814786
9326.000000;0.815587
9325.000000;0.816477
9324.000000;0.816975
9323.000000;0.816839
9322.000000;0.816096
9321.000000;0.814972
9320.000000;0.813791
9319.000000;0.812863
9318.000000;0.812366
9317.000000;0.812276
9316.000000;0.812382
9315.000000;0.812434
9314.000000;0.812344
9313.000000;0.812205
9312.000000;0.812077
9311.000000;0.811825
9310.000000;0.811285
9309.000000;0.810554
9308.000000;0.809906
9307.000000;0.809450
9306.000000;0.809066
9305.000000;0.808773
9304.000000;0.808940
9303.000000;0.809901
9302.000000;0.811446
9301.000000;0.812870
9300.000000;0.813534
9299.000000;0.813329
9298.000000;0.812667
9297.000000;0.812136
9296.000000;0.812088
9295.000000;0.812344
9294.000000;0.812310
9293.000000;0.811524
9292.000000;0.810164
9291.000000;0.808924
9290.000000;0.808417
9289.000000;0.808754
9288.000000;0.809598
9287.000000;0.810445
9286.000000;0.810895
9285.000000;0.810848
9284.000000;0.810522
9283.000000;0.810218
9282.000000;0.810025
9281.000000;0.809829
9280.000000;0.809550
9279.000000;0.809235
9278.000000;0.808950
9277.000000;0.808755
9276.000000;0.808738
9275.000000;0.808841
9274.000000;0.808712
9273.000000;0.807968
9272.000000;0.806687
9271.000000;0.805442
9270.000000;0.804746
9269.000000;0.804620
9268.000000;0.804771
9267.000000;0.804990
9266.000000;0.805212
9265.000000;0.805357
9264.000000;0.805351
9263.000000;0.805283
9262.000000;0.805395
9261.000000;0.805890
9260.000000;0.806728
9259.000000;0.807522
9258.000000;0.807673
9257.000000;0.806846
9256.000000;0.805411
9255.000000;0.804220
9254.000000;0.803789
9253.000000;0.803835
9252.000000;0.803735
9251.000000;0.803284
9250.000000;0.802793
9249.000000;0.802590
9248.000000;0.802669
9247.000000;0.802787
9246.000000;0.802687
9245.000000;0.802302
9244.000000;0.801928
9243.000000;0.802093
9242.000000;0.803002
9241.000000;0.804118
9240.000000;0.804559
9239.000000;0.804003
9238.000000;0.802987
9237.000000;0.802245
9236.000000;0.801971
9235.000000;0.801841
9234.000000;0.801537
9233.000000;0.801042
9232.000000;0.800512
9231.000000;0.800073
9230.000000;0.799762
9229.000000;0.799577
9228.000000;0.799539
9227.000000;0.799705
9226.000000;0.800093
9225.000000;0.800610
9224.000000;0.801093
9223.000000;0.801452
9222.000000;0.801696
9221.000000;0.801810
9220.000000;0.801682
9219.000000;0.801212
9218.000000;0.800459
9217.000000;0.799619
9216.000000;0.798862
9215.000000;0.798206
9214.000000;0.797590
9213.000000;0.797095
9212.000000;0.797025
9211.000000;0.797624
9210.000000;0.798644
9209.000000;0.799358
9208.000000;0.799204
9207.000000;0.798375
9206.000000;0.797605
9205.000000;0.797358
9204.000000;0.797418
9203.000000;0.797271
9202.000000;0.796686
9201.000000;0.795834
9200.000000;0.794978
9199.000000;0.794233
9198.000000;0.793614
9197.000000;0.793202
9196.000000;0.793190
9195.000000;0.793692
9194.000000;0.794537
9193.000000;0.795326
9192.000000;0.795781
9191.000000;0.795929
9190.000000;0.795886
9189.000000;0.795591
9188.000000;0.794938
9187.000000;0.794099
9186.000000;0.793486
9185.000000;0.793364
9184.000000;0.793646
9183.000000;0.794035
9182.000000;0.794198
9181.000000;0.793856
9180.000000;0.792990
9179.000000;0.792001
9178.000000;0.791413
9177.000000;0.791327
9176.000000;0.791352
9175.000000;0.791156
9174.000000;0.790873
9173.000000;0.790850
9172.000000;0.791175
9171.000000;0.791607
9170.000000;0.791781
9169.000000;0.791389
9168.000000;0.790396
9167.000000;0.789267
9166.000000;0.788753
9165.000000;0.789192
9164.000000;0.790141
9163.000000;0.790911
9162.000000;0.791317
9161.000000;0.791651
9160.000000;0.792057
9159.000000;0.792304
9158.000000;0.792132
9157.000000;0.791515
9156.000000;0.790579
9155.000000;0.789553
9154.000000;0.788850
9153.000000;0.788913
9152.000000;0.789767
9151.000000;0.790854
9150.000000;0.791427
9149.000000;0.791090
9148.000000;0.789997
9147.000000;0.788665
9146.000000;0.787617
9145.000000;0.787064
9144.000000;0.786834
9143.000000;0.786698
9142.000000;0.786711
9141.000000;0.787096
9140.000000;0.787851
9139.000000;0.788686
9138.000000;0.789310
9137.000000;0.789601
9136.000000;0.789479
9135.000000;0.788908
9134.000000;0.788106
9133.000000;0.787495
9132.000000;0.787232
9131.000000;0.787002
9130.000000;0.786490
9129.000000;0.785910
9128.000000;0.785803
9127.000000;0.786342
9126.000000;0.787115
9125.000000;0.787600
9124.000000;0.787668
9123.000000;0.787494
9122.000000;0.787159
9121.000000;0.786541
9120.000000;0.785614
9119.000000;0.784682
9118.000000;0.784162
9117.000000;0.784163
9116.000000;0.784376
9115.000000;0.784433
9114.000000;0.784251
9113.000000;0.783975
9112.000000;0.783725
9111.000000;0.783552
9110.000000;0.783546
9109.000000;0.783747
9108.000000;0.783955
9107.000000;0.783869
9106.000000;0.783458
9105.000000;0.783017
9104.000000;0.782778
9103.000000;0.782641
9102.000000;0.782415
9101.000000;0.782111
9100.000000;0.781833
9099.000000;0.781540
9098.000000;0.781165
9097.000000;0.780904
9096.000000;0.781130
9095.000000;0.781962
9094.000000;0.783032
9093.000000;0.783737
9092.000000;0.783694
9091.000000;0.783011
9090.000000;0.782214
9089.000000;0.781860
9088.000000;0.782070
9087.000000;0.782410
9086.000000;0.782360
9085.000000;0.781871
9084.000000;0.781358
9083.000000;0.781188
9082.000000;0.781343
9081.000000;0.781591
9080.000000;0.781802
9079.000000;0.782007
9078.000000;0.782246
9077.000000;0.782433
9076.000000;0.782337
9075.000000;0.781699
9074.000000;0.780514
9073.000000;0.779215
9072.000000;0.778413
9071.000000;0.778377
9070.000000;0.778874
9069.000000;0.779552
9068.000000;0.780282
9067.000000;0.780980
9066.000000;0.781331
9065.000000;0.781014
9064.000000;0.780184
9063.000000;0.779448
9062.000000;0.779263
9061.000000;0.779506
9060.000000;0.779702
9059.000000;0.779552
9058.000000;0.779162
9057.000000;0.778866
9056.000000;0.778897
9055.000000;0.779155
9054.000000;0.779281
9053.000000;0.779031
