Criado como novo conjunto de dados;"e0108.spp","-4226561.7 Secs"
cm-1;Abs
10000.000000;1.927037
9999.000000;1.919350
9998.000000;1.909320
9997.000000;1.901443
9996.000000;1.899192
9995.000000;1.902749
9994.000000;1.908558
9993.000000;1.911920
9992.000000;1.910357
9991.000000;1.904748
9990.000000;1.898233
9989.000000;1.894380
9988.000000;1.894821
9987.000000;1.897688
9986.000000;1.899243
9985.000000;1.897360
9984.000000;1.893108
9983.000000;1.889112
9982.000000;1.887330
9981.000000;1.888775
9980.000000;1.893373
9979.000000;1.898845
9978.000000;1.901445
9977.000000;1.899175
9976.000000;1.893794
9975.000000;1.888902
9974.000000;1.886211
9973.000000;1.884537
9972.000000;1.882097
9971.000000;1.878436
9970.000000;1.874197
9969.000000;1.870262
9968.000000;1.867147
9967.000000;1.864417
9966.000000;1.860846
9965.000000;1.856119
9964.000000;1.852229
9963.000000;1.851928
9962.000000;1.855901
9961.000000;1.861886
9960.000000;1.866306
9959.000000;1.866982
9958.000000;1.864691
9957.000000;1.862652
9956.000000;1.864694
9955.000000;1.872573
9954.000000;1.883809
9953.000000;1.892571
9952.000000;1.894210
9951.000000;1.889519
9950.000000;1.883380
9949.000000;1.879426
9948.000000;1.877347
9947.000000;1.875065
9946.000000;1.872388
9945.000000;1.871547
9944.000000;1.874941
9943.000000;1.883148
9942.000000;1.893906
9941.000000;1.902585
9940.000000;1.904591
9939.000000;1.897629
9938.000000;1.882254
9937.000000;1.861989
9936.000000;1.842774
9935.000000;1.830301
9934.000000;1.826956
9933.000000;1.831369
9932.000000;1.840798
9931.000000;1.853500
9930.000000;1.868248
9929.000000;1.881890
9928.000000;1.889399
9927.000000;1.888313
9926.000000;1.882302
9925.000000;1.878107
9924.000000;1.878796
9923.000000;1.880911
9922.000000;1.878398
9921.000000;1.869070
9920.000000;1.856584
9919.000000;1.846654
9918.000000;1.842942
9917.000000;1.845731
9916.000000;1.852715
9915.000000;1.860742
9914.000000;1.867755
9913.000000;1.873779
9912.000000;1.879519
9911.000000;1.883592
9910.000000;1.882767
9909.000000;1.876509
9908.000000;1.868705
9907.000000;1.863264
9906.000000;1.860492
9905.000000;1.858823
9904.000000;1.858197
9903.000000;1.859899
9902.000000;1.863799
9901.000000;1.867125
9900.000000;1.866523
9899.000000;1.861186
9898.000000;1.853295
9897.000000;1.846539
9896.000000;1.844294
9895.000000;1.847438
9894.000000;1.852957
9893.000000;1.855825
9892.000000;1.854012
9891.000000;1.850582
9890.000000;1.849780
9889.000000;1.852385
9888.000000;1.855428
9887.000000;1.855481
9886.000000;1.851524
9885.000000;1.845362
9884.000000;1.840551
9883.000000;1.840725
9882.000000;1.847586
9881.000000;1.859303
9880.000000;1.870377
9879.000000;1.874623
9878.000000;1.870887
9877.000000;1.864159
9876.000000;1.860109
9875.000000;1.860419
9874.000000;1.862449
9873.000000;1.862571
9872.000000;1.859805
9871.000000;1.855817
9870.000000;1.852309
9869.000000;1.849912
9868.000000;1.849105
9867.000000;1.850368
9866.000000;1.852888
9865.000000;1.854425
9864.000000;1.853392
9863.000000;1.850137
9862.000000;1.846430
9861.000000;1.845045
9860.000000;1.848222
9859.000000;1.854923
9858.000000;1.860488
9857.000000;1.860691
9856.000000;1.856496
9855.000000;1.853001
9854.000000;1.853384
9853.000000;1.855539
9852.000000;1.854945
9851.000000;1.849669
9850.000000;1.841444
9849.000000;1.832947
9848.000000;1.826185
9847.000000;1.822660
9846.000000;1.822797
9845.000000;1.824924
9844.000000;1.826189
9843.000000;1.825185
9842.000000;1.823045
9841.000000;1.821921
9840.000000;1.823361
9839.000000;1.827656
9838.000000;1.833313
9837.000000;1.837186
9836.000000;1.836480
9835.000000;1.831517
9834.000000;1.825975
9833.000000;1.823952
9832.000000;1.826922
9831.000000;1.832803
9830.000000;1.837188
9829.000000;1.836305
9828.000000;1.830180
9827.000000;1.822828
9826.000000;1.818843
9825.000000;1.820016
9824.000000;1.824751
9823.000000;1.829992
9822.000000;1.834174
9821.000000;1.838166
9820.000000;1.842797
9819.000000;1.846679
9818.000000;1.847418
9817.000000;1.844287
9816.000000;1.838956
9815.000000;1.833838
9814.000000;1.830269
9813.000000;1.828069
9812.000000;1.826379
9811.000000;1.824612
9810.000000;1.822590
9809.000000;1.820695
9808.000000;1.820277
9807.000000;1.822628
9806.000000;1.826690
9805.000000;1.828962
9804.000000;1.827138
9803.000000;1.823021
9802.000000;1.820236
9801.000000;1.819846
9800.000000;1.819964
9799.000000;1.819437
9798.000000;1.819920
9797.000000;1.823418
9796.000000;1.829059
9795.000000;1.833392
9794.000000;1.833797
9793.000000;1.830933
9792.000000;1.827596
9791.000000;1.825631
9790.000000;1.824339
9789.000000;1.821914
9788.000000;1.818319
9787.000000;1.816545
9786.000000;1.820299
9785.000000;1.830119
9784.000000;1.842138
9783.000000;1.850632
9782.000000;1.851863
9781.000000;1.846287
9780.000000;1.837871
9779.000000;1.831216
9778.000000;1.828273
9777.000000;1.827090
9776.000000;1.824378
9775.000000;1.819666
9774.000000;1.815709
9773.000000;1.814525
9772.000000;1.814759
9771.000000;1.813981
9770.000000;1.812242
9769.000000;1.811396
9768.000000;1.811907
9767.000000;1.812713
9766.000000;1.813908
9765.000000;1.817095
9764.000000;1.822263
9763.000000;1.826084
9762.000000;1.824963
9761.000000;1.819324
9760.000000;1.812922
9759.000000;1.808680
9758.000000;1.807065
9757.000000;1.807325
9756.000000;1.808373
9755.000000;1.808643
9754.000000;1.806709
9753.000000;1.802578
9752.000000;1.797661
9751.000000;1.793818
9750.000000;1.792449
9749.000000;1.793641
9748.000000;1.796421
9747.000000;1.799786
9746.000000;1.803098
9745.000000;1.805777
9744.000000;1.806864
9743.000000;1.805456
9742.000000;1.802138
9741.000000;1.799345
9740.000000;1.799236
9739.000000;1.801474
9738.000000;1.803965
9737.000000;1.805746
9736.000000;1.808114
9735.000000;1.812029
9734.000000;1.815656
9733.000000;1.816309
9732.000000;1.813972
9731.000000;1.810864
9730.000000;1.808239
9729.000000;1.805719
9728.000000;1.803531
9727.000000;1.803105
9726.000000;1.804532
9725.000000;1.805442
9724.000000;1.803991
9723.000000;1.801257
9722.000000;1.799409
9721.000000;1.798889
9720.000000;1.798368
9719.000000;1.797024
9718.000000;1.795676
9717.000000;1.795272
9716.000000;1.795197
9715.000000;1.793710
9714.000000;1.789849
9713.000000;1.784525
9712.000000;1.779912
9711.000000;1.778316
9710.000000;1.781040
9709.000000;1.787435
9708.000000;1.795001
9707.000000;1.800762
9706.000000;1.803137
9705.000000;1.802912
9704.000000;1.802039
9703.000000;1.801508
9702.000000;1.800522
9701.000000;1.797659
9700.000000;1.793090
9699.000000;1.789189
9698.000000;1.788117
9697.000000;1.789034
9696.000000;1.788635
9695.000000;1.784769
9694.000000;1.778761
9693.000000;1.773859
9692.000000;1.772102
9691.000000;1.773304
9690.000000;1.776140
9689.000000;1.779031
9688.000000;1.780711
9687.000000;1.781237
9686.000000;1.782228
9685.000000;1.784970
9684.000000;1.788544
9683.000000;1.790770
9682.000000;1.790655
9681.000000;1.789303
9680.000000;1.788056
9679.000000;1.786525
9678.000000;1.783670
9677.000000;1.779539
9676.000000;1.775002
9675.000000;1.770690
9674.000000;1.766396
9673.000000;1.761814
9672.000000;1.758416
9671.000000;1.759405
9670.000000;1.766811
9669.000000;1.778611
9668.000000;1.788908
9667.000000;1.792489
9666.000000;1.789458
9665.000000;1.783854
9664.000000;1.778744
9663.000000;1.774655
9662.000000;1.772043
9661.000000;1.772367
9660.000000;1.776305
9659.000000;1.782706
9658.000000;1.789494
9657.000000;1.794410
9656.000000;1.794809
9655.000000;1.789039
9654.000000;1.779165
9653.000000;1.770325
9652.000000;1.766174
9651.000000;1.766123
9650.000000;1.767434
9649.000000;1.768572
9648.000000;1.769238
9647.000000;1.768571
9646.000000;1.765907
9645.000000;1.762894
9644.000000;1.762459
9643.000000;1.765545
9642.000000;1.770323
9641.000000;1.774680
9640.000000;1.778131
9639.000000;1.780839
9638.000000;1.782222
9637.000000;1.781419
9636.000000;1.778283
9635.000000;1.773456
9634.000000;1.768465
9633.000000;1.765719
9632.000000;1.766707
9631.000000;1.769838
9630.000000;1.771284
9629.000000;1.768969
9628.000000;1.764937
9627.000000;1.762708
9626.000000;1.763570
9625.000000;1.766295
9624.000000;1.769167
9623.000000;1.771214
9622.000000;1.772155
9621.000000;1.772126
9620.000000;1.771244
9619.000000;1.769163
9618.000000;1.765589
9617.000000;1.761465
9616.000000;1.758776
9615.000000;1.758476
9614.000000;1.759453
9613.000000;1.760388
9612.000000;1.761862
9611.000000;1.765321
9610.000000;1.770246
9609.000000;1.773812
9608.000000;1.773964
9607.000000;1.771832
9606.000000;1.770213
9605.000000;1.770306
9604.000000;1.770579
9603.000000;1.768737
9602.000000;1.764656
9601.000000;1.761038
9600.000000;1.760686
9599.000000;1.763410
9598.000000;1.766366
9597.000000;1.767412
9596.000000;1.767193
9595.000000;1.767230
9594.000000;1.766791
9593.000000;1.763748
9592.000000;1.758551
9591.000000;1.754429
9590.000000;1.753174
9589.000000;1.753149
9588.000000;1.751763
9587.000000;1.748906
9586.000000;1.747026
9585.000000;1.747840
9584.000000;1.750150
9583.000000;1.751205
9582.000000;1.749505
9581.000000;1.745994
9580.000000;1.742924
9579.000000;1.742219
9578.000000;1.744547
9577.000000;1.748741
9576.000000;1.751864
9575.000000;1.751055
9574.000000;1.746358
9573.000000;1.741272
9572.000000;1.739806
9571.000000;1.742921
9570.000000;1.747964
9569.000000;1.751509
9568.000000;1.752150
9567.000000;1.750298
9566.000000;1.746697
9565.000000;1.742310
9564.000000;1.738737
9563.000000;1.737565
9562.000000;1.739169
9561.000000;1.742741
9560.000000;1.747357
9559.000000;1.752171
9558.000000;1.755604
9557.000000;1.755678
9556.000000;1.751963
9555.000000;1.746591
9554.000000;1.742768
9553.000000;1.742195
9552.000000;1.744017
9551.000000;1.746291
9550.000000;1.748045
9549.000000;1.749489
9548.000000;1.750423
9547.000000;1.749238
9546.000000;1.744397
9545.000000;1.736865
9544.000000;1.730037
9543.000000;1.726588
9542.000000;1.725809
9541.000000;1.724773
9540.000000;1.722430
9539.000000;1.721793
9538.000000;1.727055
9537.000000;1.738180
9536.000000;1.748594
9535.000000;1.750174
9534.000000;1.742110
9533.000000;1.732266
9532.000000;1.728646
9531.000000;1.731972
9530.000000;1.736836
9529.000000;1.738729
9528.000000;1.738308
9527.000000;1.738269
9526.000000;1.738827
9525.000000;1.738471
9524.000000;1.737053
9523.000000;1.735446
9522.000000;1.733324
9521.000000;1.729873
9520.000000;1.726312
9519.000000;1.725334
9518.000000;1.727696
9517.000000;1.731038
9516.000000;1.732544
9515.000000;1.731625
9514.000000;1.729491
9513.000000;1.727353
9512.000000;1.725846
9511.000000;1.724975
9510.000000;1.723762
9509.000000;1.720942
9508.000000;1.716918
9507.000000;1.714245
9506.000000;1.715318
9505.000000;1.720112
9504.000000;1.726503
9503.000000;1.732286
9502.000000;1.736334
9501.000000;1.738212
9500.000000;1.737718
9499.000000;1.735318
9498.000000;1.732617
9497.000000;1.731706
9496.000000;1.733390
9495.000000;1.735807
9494.000000;1.735538
9493.000000;1.731316
9492.000000;1.726322
9491.000000;1.725256
9490.000000;1.729214
9489.000000;1.734421
9488.000000;1.735938
9487.000000;1.732150
9486.000000;1.725367
9485.000000;1.719113
9484.000000;1.715924
9483.000000;1.716436
9482.000000;1.719082
9481.000000;1.721305
9480.000000;1.722138
9479.000000;1.722921
9478.000000;1.724490
9477.000000;1.724824
9476.000000;1.721554
9475.000000;1.716321
9474.000000;1.713877
9473.000000;1.716481
9472.000000;1.721120
9471.000000;1.723082
9470.000000;1.721195
9469.000000;1.718194
9468.000000;1.716855
9467.000000;1.717567
9466.000000;1.719352
9465.000000;1.721476
9464.000000;1.723523
9463.000000;1.725071
9462.000000;1.726004
9461.000000;1.726580
9460.000000;1.726966
9459.000000;1.727313
9458.000000;1.728343
9457.000000;1.730728
9456.000000;1.733235
9455.000000;1.732900
9454.000000;1.728680
9453.000000;1.723942
9452.000000;1.723221
9451.000000;1.727013
9450.000000;1.731347
9449.000000;1.732498
9448.000000;1.730395
9447.000000;1.726541
9446.000000;1.721168
9445.000000;1.714633
9444.000000;1.709730
9443.000000;1.709730
9442.000000;1.714310
9441.000000;1.719179
9440.000000;1.720067
9439.000000;1.716156
9438.000000;1.709730
9437.000000;1.704267
9436.000000;1.703177
9435.000000;1.708145
9434.000000;1.717152
9433.000000;1.725028
9432.000000;1.727759
9431.000000;1.726255
9430.000000;1.724245
9429.000000;1.723590
9428.000000;1.723470
9427.000000;1.722817
9426.000000;1.721668
9425.000000;1.720208
9424.000000;1.718058
9423.000000;1.715107
9422.000000;1.712143
9421.000000;1.710192
9420.000000;1.709793
9419.000000;1.710933
9418.000000;1.713240
9417.000000;1.716058
9416.000000;1.718370
9415.000000;1.719094
9414.000000;1.717941
9413.000000;1.715834
9412.000000;1.714071
9411.000000;1.713002
9410.000000;1.711609
9409.000000;1.708725
9408.000000;1.704743
9407.000000;1.701697
9406.000000;1.701426
9405.000000;1.703768
9404.000000;1.706453
9403.000000;1.706902
9402.000000;1.704345
9401.000000;1.700375
9400.000000;1.697674
9399.000000;1.697895
9398.000000;1.700445
9397.000000;1.703372
9396.000000;1.705151
9395.000000;1.704921
9394.000000;1.702223
9393.000000;1.698207
9392.000000;1.696039
9391.000000;1.698300
9390.000000;1.703780
9389.000000;1.708288
9388.000000;1.709633
9387.000000;1.710178
9386.000000;1.712855
9385.000000;1.716269
9384.000000;1.716230
9383.000000;1.711661
9382.000000;1.706083
9381.000000;1.702786
9380.000000;1.701242
9379.000000;1.699128
9378.000000;1.696124
9377.000000;1.693985
9376.000000;1.693626
9375.000000;1.693890
9374.000000;1.693049
9373.000000;1.690621
9372.000000;1.687753
9371.000000;1.686501
9370.000000;1.688587
9369.000000;1.693932
9368.000000;1.700122
9367.000000;1.704104
9366.000000;1.704856
9365.000000;1.703632
9364.000000;1.701821
9363.000000;1.699930
9362.000000;1.698532
9361.000000;1.698775
9360.000000;1.700654
9359.000000;1.701737
9358.000000;1.699513
9357.000000;1.694777
9356.000000;1.691223
9355.000000;1.691297
9354.000000;1.693180
9353.000000;1.692427
9352.000000;1.686846
9351.000000;1.679120
9350.000000;1.674114
9349.000000;1.674297
9348.000000;1.677913
9347.000000;1.681188
9346.000000;1.682352
9345.000000;1.683063
9344.000000;1.685730
9343.000000;1.690490
9342.000000;1.695345
9341.000000;1.698695
9340.000000;1.700660
9339.000000;1.701963
9338.000000;1.702624
9337.000000;1.702103
9336.000000;1.700216
9335.000000;1.697502
9334.000000;1.694828
9333.000000;1.692665
9332.000000;1.690408
9331.000000;1.686785
9330.000000;1.681492
9329.000000;1.676319
9328.000000;1.674248
9327.000000;1.677067
9326.000000;1.683657
9325.000000;1.690484
9324.000000;1.693711
9323.000000;1.691335
9322.000000;1.684468
9321.000000;1.677198
9320.000000;1.674451
9319.000000;1.678630
9318.000000;1.687362
9317.000000;1.694748
9316.000000;1.696162
9315.000000;1.692223
9314.000000;1.687363
9313.000000;1.685079
9312.000000;1.685160
9311.000000;1.685040
9310.000000;1.683367
9309.000000;1.681355
9308.000000;1.680559
9307.000000;1.680666
9306.000000;1.680040
9305.000000;1.678195
9304.000000;1.676803
9303.000000;1.677472
9302.000000;1.679463
9301.000000;1.680674
9300.000000;1.680262
9299.000000;1.679236
9298.000000;1.679067
9297.000000;1.680708
9296.000000;1.684594
9295.000000;1.689852
9294.000000;1.693267
9293.000000;1.691465
9292.000000;1.685356
9291.000000;1.680318
9290.000000;1.680617
9289.000000;1.684730
9288.000000;1.687066
9287.000000;1.684203
9286.000000;1.678281
9285.000000;1.673926
9284.000000;1.673500
9283.000000;1.675684
9282.000000;1.677352
9281.000000;1.676071
9280.000000;1.671352
9279.000000;1.665041
9278.000000;1.660783
9277.000000;1.661757
9276.000000;1.667990
9275.000000;1.675766
9274.000000;1.680356
9273.000000;1.679989
9272.000000;1.676683
9271.000000;1.673158
9270.000000;1.670119
9269.000000;1.666955
9268.000000;1.664028
9267.000000;1.663082
9266.000000;1.665442
9265.000000;1.670520
9264.000000;1.676063
9263.000000;1.679503
9262.000000;1.679495
9261.000000;1.677070
9260.000000;1.675354
9259.000000;1.677222
9258.000000;1.682601
9257.000000;1.688165
9256.000000;1.689898
9255.000000;1.686237
9254.000000;1.679255
9253.000000;1.673028
9252.000000;1.670480
9251.000000;1.671242
9250.000000;1.672305
9249.000000;1.671066
9248.000000;1.667905
9247.000000;1.665272
9246.000000;1.664669
9245.000000;1.665599
9244.000000;1.667218
9243.000000;1.669468
9242.000000;1.672046
9241.000000;1.673825
9240.000000;1.674437
9239.000000;1.675123
9238.000000;1.676669
9237.000000;1.677707
9236.000000;1.676677
9235.000000;1.674527
9234.000000;1.673670
9233.000000;1.674667
9232.000000;1.675555
9231.000000;1.674583
9230.000000;1.672185
9229.000000;1.669767
9228.000000;1.667902
9227.000000;1.666430
9226.000000;1.665283
9225.000000;1.664383
9224.000000;1.663446
9223.000000;1.662642
9222.000000;1.662806
9221.000000;1.664225
9220.000000;1.665719
9219.000000;1.665808
9218.000000;1.664772
9217.000000;1.664745
9216.000000;1.667499
9215.000000;1.672350
9214.000000;1.676376
9213.000000;1.676945
9212.000000;1.674220
9211.000000;1.670873
9210.000000;1.669170
9209.000000;1.668815
9208.000000;1.667954
9207.000000;1.665953
9206.000000;1.664223
9205.000000;1.664105
9204.000000;1.664962
9203.000000;1.665012
9202.000000;1.663820
9201.000000;1.663105
9200.000000;1.664609
9199.000000;1.667676
9198.000000;1.669410
9197.000000;1.667483
9196.000000;1.662634
9195.000000;1.657903
9194.000000;1.655544
9193.000000;1.655189
9192.000000;1.655098
9191.000000;1.654663
9190.000000;1.654784
9189.000000;1.655944
9188.000000;1.657279
9187.000000;1.658102
9186.000000;1.659203
9185.000000;1.661437
9184.000000;1.663639
9183.000000;1.663416
9182.000000;1.660249
9181.000000;1.656474
9180.000000;1.654512
9179.000000;1.654272
9178.000000;1.654197
9177.000000;1.653754
9176.000000;1.653413
9175.000000;1.652953
9174.000000;1.651526
9173.000000;1.649515
9172.000000;1.648764
9171.000000;1.650096
9170.000000;1.651670
9169.000000;1.651051
9168.000000;1.648480
9167.000000;1.646667
9166.000000;1.647444
9165.000000;1.649938
9164.000000;1.652260
9163.000000;1.653867
9162.000000;1.655465
9161.000000;1.657285
9160.000000;1.658448
9159.000000;1.658122
9158.000000;1.656768
9157.000000;1.655822
9156.000000;1.656206
9155.000000;1.657284
9154.000000;1.657456
9153.000000;1.656153
9152.000000;1.654905
9151.000000;1.655727
9150.000000;1.658623
9149.000000;1.661476
9148.000000;1.662371
9147.000000;1.661095
9146.000000;1.658239
9145.000000;1.654302
9144.000000;1.650436
9143.000000;1.648557
9142.000000;1.649287
9141.000000;1.650775
9140.000000;1.651069
9139.000000;1.650846
9138.000000;1.651992
9137.000000;1.654107
9136.000000;1.654539
9135.000000;1.652128
9134.000000;1.648982
9133.000000;1.647817
9132.000000;1.648951
9131.000000;1.650532
9130.000000;1.650976
9129.000000;1.650114
9128.000000;1.648451
9127.000000;1.646695
9126.000000;1.645498
9125.000000;1.644724
9124.000000;1.643646
9123.000000;1.642452
9122.000000;1.642638
9121.000000;1.645134
9120.000000;1.648876
9119.000000;1.652129
9118.000000;1.654431
9117.000000;1.656065
9116.000000;1.656452
9115.000000;1.654697
9114.000000;1.651379
9113.000000;1.648254
9112.000000;1.646370
9111.000000;1.645832
9110.000000;1.647035
9109.000000;1.650425
9108.000000;1.654624
9107.000000;1.656491
9106.000000;1.654276
9105.000000;1.649628
9104.000000;1.645502
9103.000000;1.643079
9102.000000;1.641672
9101.000000;1.640917
9100.000000;1.641425
9099.000000;1.643199
9098.000000;1.644902
9097.000000;1.645252
9096.000000;1.644388
9095.000000;1.643430
9094.000000;1.643163
9093.000000;1.643421
9092.000000;1.643393
9091.000000;1.642260
9090.000000;1.639774
9089.000000;1.636691
9088.000000;1.634749
9087.000000;1.635664
9086.000000;1.639451
9085.000000;1.643732
9084.000000;1.645339
9083.000000;1.643268
9082.000000;1.639813
9081.000000;1.638284
9080.000000;1.639829
9079.000000;1.642642
9078.000000;1.643948
9077.000000;1.642410
9076.000000;1.638722
9075.000000;1.634772
9074.000000;1.632645
9073.000000;1.633602
9072.000000;1.637081
9071.000000;1.640840
9070.000000;1.642665
9069.000000;1.642036
9068.000000;1.639956
9067.000000;1.637693
9066.000000;1.636191
9065.000000;1.636106
9064.000000;1.637492
9063.000000;1.639551
9062.000000;1.641363
9061.000000;1.642725
9060.000000;1.643595
9059.000000;1.643150
9058.000000;1.640709
9057.000000;1.637511
9056.000000;1.636134
9055.000000;1.637684
9054.000000;1.640588
9053.000000;1.642794
