Criado como novo conjunto de dados;"e0108.spp","-4289925.0 Secs"
cm-1;Abs
10000.000000;0.456369
9999.000000;0.456155
9998.000000;0.455722
9997.000000;0.455145
9996.000000;0.454511
9995.000000;0.453868
9994.000000;0.453274
9993.000000;0.452726
9992.000000;0.452244
9991.000000;0.451916
9990.000000;0.451792
9989.000000;0.451724
9988.000000;0.451487
9987.000000;0.451058
9986.000000;0.450662
9985.000000;0.450481
9984.000000;0.450386
9983.000000;0.450042
9982.000000;0.449294
9981.000000;0.448429
9980.000000;0.448008
9979.000000;0.448345
9978.000000;0.449130
9977.000000;0.449664
9976.000000;0.449559
9975.000000;0.449101
9974.000000;0.448806
9973.000000;0.448744
9972.000000;0.448481
9971.000000;0.447655
9970.000000;0.446422
9969.000000;0.445311
9968.000000;0.444745
9967.000000;0.444739
9966.000000;0.444919
9965.000000;0.444789
9964.000000;0.444104
9963.000000;0.443098
9962.000000;0.442297
9961.000000;0.442041
9960.000000;0.442175
9959.000000;0.442220
9958.000000;0.441822
9957.000000;0.441007
9956.000000;0.440111
9955.000000;0.439497
9954.000000;0.439312
9953.000000;0.439430
9952.000000;0.439582
9951.000000;0.439546
9950.000000;0.439235
9949.000000;0.438676
9948.000000;0.437982
9947.000000;0.437314
9946.000000;0.436785
9945.000000;0.436392
9944.000000;0.436070
9943.000000;0.435803
9942.000000;0.435608
9941.000000;0.435416
9940.000000;0.435105
9939.000000;0.434710
9938.000000;0.434520
9937.000000;0.434844
9936.000000;0.435642
9935.000000;0.436421
9934.000000;0.436547
9933.000000;0.435738
9932.000000;0.434315
9931.000000;0.432969
9930.000000;0.432180
9929.000000;0.431863
9928.000000;0.431607
9927.000000;0.431211
9926.000000;0.430816
9925.000000;0.430516
9924.000000;0.430097
9923.000000;0.429336
9922.000000;0.428416
9921.000000;0.427792
9920.000000;0.427652
9919.000000;0.427752
9918.000000;0.427807
9917.000000;0.427852
9916.000000;0.428047
9915.000000;0.428315
9914.000000;0.428349
9913.000000;0.427944
9912.000000;0.427165
9911.000000;0.426267
9910.000000;0.425547
9909.000000;0.425243
9908.000000;0.425330
9907.000000;0.425402
9906.000000;0.424938
9905.000000;0.423827
9904.000000;0.422567
9903.000000;0.421823
9902.000000;0.421816
9901.000000;0.422194
9900.000000;0.422438
9899.000000;0.422306
9898.000000;0.421915
9897.000000;0.421518
9896.000000;0.421240
9895.000000;0.421013
9894.000000;0.420694
9893.000000;0.420223
9892.000000;0.419673
9891.000000;0.419176
9890.000000;0.418841
9889.000000;0.418723
9888.000000;0.418808
9887.000000;0.419009
9886.000000;0.419187
9885.000000;0.419167
9884.000000;0.418775
9883.000000;0.417964
9882.000000;0.416950
9881.000000;0.416132
9880.000000;0.415713
9879.000000;0.415470
9878.000000;0.415058
9877.000000;0.414502
9876.000000;0.414161
9875.000000;0.414204
9874.000000;0.414362
9873.000000;0.414310
9872.000000;0.414049
9871.000000;0.413728
9870.000000;0.413309
9869.000000;0.412642
9868.000000;0.411767
9867.000000;0.410900
9866.000000;0.410199
9865.000000;0.409741
9864.000000;0.409624
9863.000000;0.409849
9862.000000;0.410149
9861.000000;0.410202
9860.000000;0.409991
9859.000000;0.409737
9858.000000;0.409524
9857.000000;0.409262
9856.000000;0.409021
9855.000000;0.409055
9854.000000;0.409381
9853.000000;0.409634
9852.000000;0.409534
9851.000000;0.409268
9850.000000;0.409226
9849.000000;0.409471
9848.000000;0.409646
9847.000000;0.409292
9846.000000;0.408161
9845.000000;0.406389
9844.000000;0.404568
9843.000000;0.403458
9842.000000;0.403323
9841.000000;0.403572
9840.000000;0.403288
9839.000000;0.402173
9838.000000;0.400841
9837.000000;0.400182
9836.000000;0.400571
9835.000000;0.401640
9834.000000;0.402629
9833.000000;0.402882
9832.000000;0.402231
9831.000000;0.401091
9830.000000;0.400164
9829.000000;0.399865
9828.000000;0.399978
9827.000000;0.399926
9826.000000;0.399396
9825.000000;0.398659
9824.000000;0.398203
9823.000000;0.398124
9822.000000;0.398012
9821.000000;0.397500
9820.000000;0.396760
9819.000000;0.396279
9818.000000;0.396273
9817.000000;0.396530
9816.000000;0.396761
9815.000000;0.396822
9814.000000;0.396560
9813.000000;0.395773
9812.000000;0.394553
9811.000000;0.393427
9810.000000;0.392909
9809.000000;0.392991
9808.000000;0.393246
9807.000000;0.393332
9806.000000;0.393187
9805.000000;0.392823
9804.000000;0.392232
9803.000000;0.391516
9802.000000;0.390893
9801.000000;0.390490
9800.000000;0.390246
9799.000000;0.390028
9798.000000;0.389724
9797.000000;0.389228
9796.000000;0.388524
9795.000000;0.387845
9794.000000;0.387532
9793.000000;0.387651
9792.000000;0.387863
9791.000000;0.387809
9790.000000;0.387544
9789.000000;0.387437
9788.000000;0.387686
9787.000000;0.388031
9786.000000;0.387994
9785.000000;0.387349
9784.000000;0.386346
9783.000000;0.385485
9782.000000;0.385100
9781.000000;0.385138
9780.000000;0.385301
9779.000000;0.385325
9778.000000;0.385116
9777.000000;0.384726
9776.000000;0.384301
9775.000000;0.383979
9774.000000;0.383751
9773.000000;0.383459
9772.000000;0.383036
9771.000000;0.382672
9770.000000;0.382568
9769.000000;0.382566
9768.000000;0.382251
9767.000000;0.381490
9766.000000;0.380658
9765.000000;0.380203
9764.000000;0.380141
9763.000000;0.380133
9762.000000;0.379950
9761.000000;0.379639
9760.000000;0.379298
9759.000000;0.378927
9758.000000;0.378522
9757.000000;0.378145
9756.000000;0.377820
9755.000000;0.377485
9754.000000;0.377129
9753.000000;0.376858
9752.000000;0.376742
9751.000000;0.376653
9750.000000;0.376374
9749.000000;0.375847
9748.000000;0.375233
9747.000000;0.374734
9746.000000;0.374428
9745.000000;0.374267
9744.000000;0.374127
9743.000000;0.373869
9742.000000;0.373442
9741.000000;0.372970
9740.000000;0.372643
9739.000000;0.372462
9738.000000;0.372192
9737.000000;0.371659
9736.000000;0.371022
9735.000000;0.370640
9734.000000;0.370678
9733.000000;0.370958
9732.000000;0.371183
9731.000000;0.371165
9730.000000;0.370862
9729.000000;0.370380
9728.000000;0.369993
9727.000000;0.369939
9726.000000;0.370080
9725.000000;0.369947
9724.000000;0.369313
9723.000000;0.368550
9722.000000;0.368165
9721.000000;0.368084
9720.000000;0.367737
9719.000000;0.366863
9718.000000;0.365885
9717.000000;0.365337
9716.000000;0.365215
9715.000000;0.365109
9714.000000;0.364818
9713.000000;0.364557
9712.000000;0.364631
9711.000000;0.365114
9710.000000;0.365811
9709.000000;0.366373
9708.000000;0.366460
9707.000000;0.365970
9706.000000;0.365148
9705.000000;0.364347
9704.000000;0.363685
9703.000000;0.363032
9702.000000;0.362329
9701.000000;0.361752
9700.000000;0.361518
9699.000000;0.361607
9698.000000;0.361770
9697.000000;0.361749
9696.000000;0.361516
9695.000000;0.361329
9694.000000;0.361483
9693.000000;0.361909
9692.000000;0.362089
9691.000000;0.361542
9690.000000;0.360378
9689.000000;0.359169
9688.000000;0.358298
9687.000000;0.357668
9686.000000;0.357142
9685.000000;0.356925
9684.000000;0.357242
9683.000000;0.357847
9682.000000;0.358181
9681.000000;0.357975
9680.000000;0.357429
9679.000000;0.356827
9678.000000;0.356272
9677.000000;0.355854
9676.000000;0.355770
9675.000000;0.356064
9674.000000;0.356403
9673.000000;0.356315
9672.000000;0.355626
9671.000000;0.354572
9670.000000;0.353549
9669.000000;0.352834
9668.000000;0.352496
9667.000000;0.352434
9666.000000;0.352478
9665.000000;0.352510
9664.000000;0.352506
9663.000000;0.352469
9662.000000;0.352377
9661.000000;0.352189
9660.000000;0.351864
9659.000000;0.351313
9658.000000;0.350481
9657.000000;0.349539
9656.000000;0.348889
9655.000000;0.348798
9654.000000;0.349065
9653.000000;0.349214
9652.000000;0.349036
9651.000000;0.348757
9650.000000;0.348648
9649.000000;0.348640
9648.000000;0.348471
9647.000000;0.348078
9646.000000;0.347662
9645.000000;0.347384
9644.000000;0.347192
9643.000000;0.347002
9642.000000;0.346868
9641.000000;0.346855
9640.000000;0.346839
9639.000000;0.346587
9638.000000;0.346014
9637.000000;0.345276
9636.000000;0.344601
9635.000000;0.344129
9634.000000;0.343874
9633.000000;0.343714
9632.000000;0.343404
9631.000000;0.342762
9630.000000;0.341925
9629.000000;0.341311
9628.000000;0.341199
9627.000000;0.341438
9626.000000;0.341670
9625.000000;0.341729
9624.000000;0.341672
9623.000000;0.341508
9622.000000;0.341139
9621.000000;0.340618
9620.000000;0.340242
9619.000000;0.340242
9618.000000;0.340507
9617.000000;0.340718
9616.000000;0.340683
9615.000000;0.340417
9614.000000;0.339975
9613.000000;0.339367
9612.000000;0.338648
9611.000000;0.337974
9610.000000;0.337492
9609.000000;0.337227
9608.000000;0.337107
9607.000000;0.337090
9606.000000;0.337214
9605.000000;0.337484
9604.000000;0.337736
9603.000000;0.337680
9602.000000;0.337131
9601.000000;0.336189
9600.000000;0.335182
9599.000000;0.334438
9598.000000;0.334100
9597.000000;0.334054
9596.000000;0.333987
9595.000000;0.333616
9594.000000;0.333008
9593.000000;0.332598
9592.000000;0.332722
9591.000000;0.333157
9590.000000;0.333320
9589.000000;0.332922
9588.000000;0.332228
9587.000000;0.331611
9586.000000;0.331100
9585.000000;0.330534
9584.000000;0.329971
9583.000000;0.329672
9582.000000;0.329747
9581.000000;0.330007
9580.000000;0.330189
9579.000000;0.330171
9578.000000;0.329961
9577.000000;0.329594
9576.000000;0.329120
9575.000000;0.328593
9574.000000;0.328058
9573.000000;0.327573
9572.000000;0.327235
9571.000000;0.327113
9570.000000;0.327147
9569.000000;0.327161
9568.000000;0.326990
9567.000000;0.326579
9566.000000;0.326030
9565.000000;0.325582
9564.000000;0.325469
9563.000000;0.325712
9562.000000;0.326040
9561.000000;0.326096
9560.000000;0.325696
9559.000000;0.324880
9558.000000;0.323807
9557.000000;0.322735
9556.000000;0.322017
9555.000000;0.321907
9554.000000;0.322306
9553.000000;0.322803
9552.000000;0.323041
9551.000000;0.322982
9550.000000;0.322806
9549.000000;0.322671
9548.000000;0.322644
9547.000000;0.322753
9546.000000;0.322942
9545.000000;0.322966
9544.000000;0.322486
9543.000000;0.321411
9542.000000;0.320123
9541.000000;0.319227
9540.000000;0.319038
9539.000000;0.319344
9538.000000;0.319729
9537.000000;0.320034
9536.000000;0.320384
9535.000000;0.320824
9534.000000;0.321129
9533.000000;0.321011
9532.000000;0.320388
9531.000000;0.319396
9530.000000;0.318272
9529.000000;0.317296
9528.000000;0.316716
9527.000000;0.316571
9526.000000;0.316690
9525.000000;0.316946
9524.000000;0.317374
9523.000000;0.317861
9522.000000;0.317903
9521.000000;0.317018
9520.000000;0.315435
9519.000000;0.314091
9518.000000;0.313733
9517.000000;0.314198
9516.000000;0.314724
9515.000000;0.314849
9514.000000;0.314785
9513.000000;0.314905
9512.000000;0.315137
9511.000000;0.315039
9510.000000;0.314418
9509.000000;0.313643
9508.000000;0.313228
9507.000000;0.313211
9506.000000;0.313139
9505.000000;0.312669
9504.000000;0.312014
9503.000000;0.311693
9502.000000;0.311934
9501.000000;0.312439
9500.000000;0.312712
9499.000000;0.312480
9498.000000;0.311842
9497.000000;0.311109
9496.000000;0.310570
9495.000000;0.310312
9494.000000;0.310214
9493.000000;0.310070
9492.000000;0.309728
9491.000000;0.309178
9490.000000;0.308573
9489.000000;0.308163
9488.000000;0.308073
9487.000000;0.308123
9486.000000;0.307976
9485.000000;0.307534
9484.000000;0.307083
9483.000000;0.306932
9482.000000;0.307041
9481.000000;0.307116
9480.000000;0.306979
9479.000000;0.306688
9478.000000;0.306350
9477.000000;0.306042
9476.000000;0.305886
9475.000000;0.306020
9474.000000;0.306378
9473.000000;0.306619
9472.000000;0.306343
9471.000000;0.305400
9470.000000;0.304038
9469.000000;0.302814
9468.000000;0.302287
9467.000000;0.302631
9466.000000;0.303491
9465.000000;0.304294
9464.000000;0.304662
9463.000000;0.304519
9462.000000;0.303930
9461.000000;0.303048
9460.000000;0.302174
9459.000000;0.301640
9458.000000;0.301523
9457.000000;0.301599
9456.000000;0.301599
9455.000000;0.301444
9454.000000;0.301203
9453.000000;0.300984
9452.000000;0.300878
9451.000000;0.300906
9450.000000;0.300928
9449.000000;0.300724
9448.000000;0.300256
9447.000000;0.299779
9446.000000;0.299649
9445.000000;0.300026
9444.000000;0.300770
9443.000000;0.301502
9442.000000;0.301760
9441.000000;0.301251
9440.000000;0.300092
9439.000000;0.298798
9438.000000;0.297932
9437.000000;0.297706
9436.000000;0.297892
9435.000000;0.298065
9434.000000;0.297919
9433.000000;0.297414
9432.000000;0.296721
9431.000000;0.296078
9430.000000;0.295679
9429.000000;0.295647
9428.000000;0.295978
9427.000000;0.296474
9426.000000;0.296828
9425.000000;0.296850
9424.000000;0.296594
9423.000000;0.296225
9422.000000;0.295827
9421.000000;0.295403
9420.000000;0.294949
9419.000000;0.294446
9418.000000;0.293881
9417.000000;0.293395
9416.000000;0.293279
9415.000000;0.293628
9414.000000;0.294057
9413.000000;0.294019
9412.000000;0.293409
9411.000000;0.292634
9410.000000;0.292067
9409.000000;0.291666
9408.000000;0.291226
9407.000000;0.290801
9406.000000;0.290673
9405.000000;0.290974
9404.000000;0.291472
9403.000000;0.291744
9402.000000;0.291519
9401.000000;0.290893
9400.000000;0.290236
9399.000000;0.289857
9398.000000;0.289732
9397.000000;0.289604
9396.000000;0.289305
9395.000000;0.288915
9394.000000;0.288683
9393.000000;0.288856
9392.000000;0.289512
9391.000000;0.290384
9390.000000;0.290902
9389.000000;0.290646
9388.000000;0.289788
9387.000000;0.288921
9386.000000;0.288435
9385.000000;0.288243
9384.000000;0.288093
9383.000000;0.287905
9382.000000;0.287706
9381.000000;0.287486
9380.000000;0.287246
9379.000000;0.287029
9378.000000;0.286788
9377.000000;0.286407
9376.000000;0.285955
9375.000000;0.285715
9374.000000;0.285809
9373.000000;0.285996
9372.000000;0.285999
9371.000000;0.285874
9370.000000;0.285833
9369.000000;0.285871
9368.000000;0.285806
9367.000000;0.285588
9366.000000;0.285319
9365.000000;0.284994
9364.000000;0.284481
9363.000000;0.283777
9362.000000;0.283118
9361.000000;0.282784
9360.000000;0.282879
9359.000000;0.283281
9358.000000;0.283690
9357.000000;0.283768
9356.000000;0.283411
9355.000000;0.282905
9354.000000;0.282650
9353.000000;0.282715
9352.000000;0.282765
9351.000000;0.282452
9350.000000;0.281748
9349.000000;0.280864
9348.000000;0.280005
9347.000000;0.279282
9346.000000;0.278767
9345.000000;0.278520
9344.000000;0.278554
9343.000000;0.278818
9342.000000;0.279200
9341.000000;0.279559
9340.000000;0.279806
9339.000000;0.279962
9338.000000;0.280123
9337.000000;0.280344
9336.000000;0.280573
9335.000000;0.280671
9334.000000;0.280482
9333.000000;0.279931
9332.000000;0.279096
9331.000000;0.278181
9330.000000;0.277382
9329.000000;0.276816
9328.000000;0.276541
9327.000000;0.276555
9326.000000;0.276714
9325.000000;0.276749
9324.000000;0.276510
9323.000000;0.276147
9322.000000;0.275973
9321.000000;0.276137
9320.000000;0.276505
9319.000000;0.276855
9318.000000;0.277064
9317.000000;0.277104
9316.000000;0.276944
9315.000000;0.276550
9314.000000;0.275942
9313.000000;0.275217
9312.000000;0.274500
9311.000000;0.273902
9310.000000;0.273498
9309.000000;0.273335
9308.000000;0.273412
9307.000000;0.273641
9306.000000;0.273867
9305.000000;0.273964
9304.000000;0.273949
9303.000000;0.273922
9302.000000;0.273916
9301.000000;0.273850
9300.000000;0.273651
9299.000000;0.273351
9298.000000;0.273029
9297.000000;0.272736
9296.000000;0.272536
9295.000000;0.272532
9294.000000;0.272741
9293.000000;0.272962
9292.000000;0.272880
9291.000000;0.272365
9290.000000;0.271629
9289.000000;0.271025
9288.000000;0.270690
9287.000000;0.270463
9286.000000;0.270170
9285.000000;0.269905
9284.000000;0.269922
9283.000000;0.270260
9282.000000;0.270623
9281.000000;0.270709
9280.000000;0.270502
9279.000000;0.270169
9278.000000;0.269784
9277.000000;0.269351
9276.000000;0.268980
9275.000000;0.268798
9274.000000;0.268734
9273.000000;0.268596
9272.000000;0.268361
9271.000000;0.268149
9270.000000;0.267946
9269.000000;0.267635
9268.000000;0.267337
9267.000000;0.267392
9266.000000;0.267857
9265.000000;0.268291
9264.000000;0.268268
9263.000000;0.267877
9262.000000;0.267519
9261.000000;0.267399
9260.000000;0.267438
9259.000000;0.267509
9258.000000;0.267465
9257.000000;0.267076
9256.000000;0.266248
9255.000000;0.265293
9254.000000;0.264703
9253.000000;0.264661
9252.000000;0.264930
9251.000000;0.265189
9250.000000;0.265243
9249.000000;0.264981
9248.000000;0.264395
9247.000000;0.263693
9246.000000;0.263184
9245.000000;0.262984
9244.000000;0.262971
9243.000000;0.263029
9242.000000;0.263179
9241.000000;0.263450
9240.000000;0.263814
9239.000000;0.264281
9238.000000;0.264860
9237.000000;0.265381
9236.000000;0.265547
9235.000000;0.265249
9234.000000;0.264707
9233.000000;0.264213
9232.000000;0.263870
9231.000000;0.263632
9230.000000;0.263447
9229.000000;0.263263
9228.000000;0.262992
9227.000000;0.262588
9226.000000;0.262123
9225.000000;0.261727
9224.000000;0.261519
9223.000000;0.261584
9222.000000;0.261891
9221.000000;0.262203
9220.000000;0.262211
9219.000000;0.261834
9218.000000;0.261323
9217.000000;0.260991
9216.000000;0.260945
9215.000000;0.261111
9214.000000;0.261395
9213.000000;0.261712
9212.000000;0.261950
9211.000000;0.262003
9210.000000;0.261821
9209.000000;0.261405
9208.000000;0.260833
9207.000000;0.260333
9206.000000;0.260171
9205.000000;0.260342
9204.000000;0.260495
9203.000000;0.260301
9202.000000;0.259832
9201.000000;0.259431
9200.000000;0.259257
9199.000000;0.259146
9198.000000;0.258922
9197.000000;0.258664
9196.000000;0.258566
9195.000000;0.258659
9194.000000;0.258812
9193.000000;0.258934
9192.000000;0.259040
9191.000000;0.259121
9190.000000;0.259085
9189.000000;0.258912
9188.000000;0.258751
9187.000000;0.258710
9186.000000;0.258616
9185.000000;0.258146
9184.000000;0.257258
9183.000000;0.256340
9182.000000;0.255790
9181.000000;0.255564
9180.000000;0.255284
9179.000000;0.254765
9178.000000;0.254221
9177.000000;0.253936
9176.000000;0.253911
9175.000000;0.253953
9174.000000;0.253997
9173.000000;0.254182
9172.000000;0.254600
9171.000000;0.255071
9170.000000;0.255234
9169.000000;0.254878
9168.000000;0.254177
9167.000000;0.253579
9166.000000;0.253450
9165.000000;0.253799
9164.000000;0.254336
9163.000000;0.254740
9162.000000;0.254850
9161.000000;0.254676
9160.000000;0.254334
9159.000000;0.253988
9158.000000;0.253755
9157.000000;0.253633
9156.000000;0.253525
9155.000000;0.253339
9154.000000;0.253080
9153.000000;0.252873
9152.000000;0.252917
9151.000000;0.253309
9150.000000;0.253849
9149.000000;0.254102
9148.000000;0.253785
9147.000000;0.253061
9146.000000;0.252366
9145.000000;0.252003
9144.000000;0.252014
9143.000000;0.252311
9142.000000;0.252721
9141.000000;0.252931
9140.000000;0.252662
9139.000000;0.252025
9138.000000;0.251483
9137.000000;0.251342
9136.000000;0.251427
9135.000000;0.251416
9134.000000;0.251296
9133.000000;0.251316
9132.000000;0.251568
9131.000000;0.251837
9130.000000;0.251862
9129.000000;0.251570
9128.000000;0.251061
9127.000000;0.250508
9126.000000;0.250130
9125.000000;0.250106
9124.000000;0.250422
9123.000000;0.250818
9122.000000;0.250963
9121.000000;0.250723
9120.000000;0.250247
9119.000000;0.249824
9118.000000;0.249629
9117.000000;0.249614
9116.000000;0.249609
9115.000000;0.249519
9114.000000;0.249371
9113.000000;0.249211
9112.000000;0.249036
9111.000000;0.248848
9110.000000;0.248686
9109.000000;0.248547
9108.000000;0.248355
9107.000000;0.248071
9106.000000;0.247790
9105.000000;0.247639
9104.000000;0.247635
9103.000000;0.247724
9102.000000;0.247898
9101.000000;0.248163
9100.000000;0.248410
9099.000000;0.248440
9098.000000;0.248166
9097.000000;0.247697
9096.000000;0.247219
9095.000000;0.246875
9094.000000;0.246773
9093.000000;0.246954
9092.000000;0.247255
9091.000000;0.247310
9090.000000;0.246867
9089.000000;0.246118
9088.000000;0.245594
9087.000000;0.245695
9086.000000;0.246331
9085.000000;0.247041
9084.000000;0.247364
9083.000000;0.247108
9082.000000;0.246379
9081.000000;0.245485
9080.000000;0.244796
9079.000000;0.244557
9078.000000;0.244759
9077.000000;0.245181
9076.000000;0.245561
9075.000000;0.245758
9074.000000;0.245771
9073.000000;0.245671
9072.000000;0.245508
9071.000000;0.245283
9070.000000;0.245007
9069.000000;0.244782
9068.000000;0.244761
9067.000000;0.244941
9066.000000;0.245089
9065.000000;0.244969
9064.000000;0.244638
9063.000000;0.244389
9062.000000;0.244406
9061.000000;0.244586
9060.000000;0.244721
9059.000000;0.244729
9058.000000;0.244631
9057.000000;0.244452
9056.000000;0.244229
9055.000000;0.244030
9054.000000;0.243874
9053.000000;0.243708
