Criado como novo conjunto de dados;"e0108.spp","-4243302.9 Secs"
cm-1;Abs
10000.000000;1.000236
9999.000000;0.998567
9998.000000;0.996922
9997.000000;0.995253
9996.000000;0.993645
9995.000000;0.991930
9994.000000;0.990567
9993.000000;0.990688
9992.000000;0.992059
9991.000000;0.994242
9990.000000;0.996322
9989.000000;0.997602
9988.000000;0.997910
9987.000000;0.997479
9986.000000;0.996535
9985.000000;0.995311
9984.000000;0.994208
9983.000000;0.993530
9982.000000;0.993057
9981.000000;0.992327
9980.000000;0.991441
9979.000000;0.991139
9978.000000;0.991788
9977.000000;0.992715
9976.000000;0.992996
9975.000000;0.992671
9974.000000;0.992566
9973.000000;0.992941
9972.000000;0.992993
9971.000000;0.991995
9970.000000;0.990406
9969.000000;0.989309
9968.000000;0.989053
9967.000000;0.989047
9966.000000;0.988804
9965.000000;0.988514
9964.000000;0.988455
9963.000000;0.988458
9962.000000;0.988295
9961.000000;0.988191
9960.000000;0.988411
9959.000000;0.988593
9958.000000;0.988043
9957.000000;0.986638
9956.000000;0.984957
9955.000000;0.983467
9954.000000;0.982075
9953.000000;0.980637
9952.000000;0.979447
9951.000000;0.978913
9950.000000;0.979014
9949.000000;0.979403
9948.000000;0.979910
9947.000000;0.980620
9946.000000;0.981495
9945.000000;0.982177
9944.000000;0.982293
9943.000000;0.981823
9942.000000;0.981019
9941.000000;0.980030
9940.000000;0.978785
9939.000000;0.977299
9938.000000;0.975984
9937.000000;0.975391
9936.000000;0.975566
9935.000000;0.975877
9934.000000;0.975725
9933.000000;0.975283
9932.000000;0.975303
9931.000000;0.976233
9930.000000;0.977766
9929.000000;0.979168
9928.000000;0.979727
9927.000000;0.978988
9926.000000;0.977048
9925.000000;0.974783
9924.000000;0.973343
9923.000000;0.973077
9922.000000;0.973140
9921.000000;0.972453
9920.000000;0.970921
9919.000000;0.969460
9918.000000;0.968980
9917.000000;0.969607
9916.000000;0.970767
9915.000000;0.971718
9914.000000;0.972018
9913.000000;0.971661
9912.000000;0.970901
9911.000000;0.969994
9910.000000;0.969180
9909.000000;0.968782
9908.000000;0.969027
9907.000000;0.969616
9906.000000;0.969787
9905.000000;0.969065
9904.000000;0.967828
9903.000000;0.966856
9902.000000;0.966426
9901.000000;0.966082
9900.000000;0.965247
9899.000000;0.963846
9898.000000;0.962351
9897.000000;0.961377
9896.000000;0.961207
9895.000000;0.961532
9894.000000;0.961695
9893.000000;0.961310
9892.000000;0.960661
9891.000000;0.960389
9890.000000;0.960828
9889.000000;0.961681
9888.000000;0.962324
9887.000000;0.962393
9886.000000;0.962082
9885.000000;0.961836
9884.000000;0.961731
9883.000000;0.961351
9882.000000;0.960476
9881.000000;0.959671
9880.000000;0.959725
9879.000000;0.960460
9878.000000;0.960666
9877.000000;0.959520
9876.000000;0.957634
9875.000000;0.956250
9874.000000;0.955825
9873.000000;0.955959
9872.000000;0.956422
9871.000000;0.957523
9870.000000;0.959308
9869.000000;0.960901
9868.000000;0.961053
9867.000000;0.959347
9866.000000;0.956748
9865.000000;0.954863
9864.000000;0.954549
9863.000000;0.955232
9862.000000;0.955700
9861.000000;0.955511
9860.000000;0.955244
9859.000000;0.955327
9858.000000;0.955235
9857.000000;0.954287
9856.000000;0.952805
9855.000000;0.951841
9854.000000;0.951931
9853.000000;0.952660
9852.000000;0.953363
9851.000000;0.953707
9850.000000;0.953618
9849.000000;0.953114
9848.000000;0.952291
9847.000000;0.951222
9846.000000;0.949918
9845.000000;0.948586
9844.000000;0.947720
9843.000000;0.947563
9842.000000;0.947661
9841.000000;0.947401
9840.000000;0.946837
9839.000000;0.946462
9838.000000;0.946342
9837.000000;0.946137
9836.000000;0.945895
9835.000000;0.946013
9834.000000;0.946267
9833.000000;0.945745
9832.000000;0.944113
9831.000000;0.942291
9830.000000;0.941417
9829.000000;0.941616
9828.000000;0.942199
9827.000000;0.942626
9826.000000;0.942779
9825.000000;0.942644
9824.000000;0.942237
9823.000000;0.941657
9822.000000;0.940853
9821.000000;0.939589
9820.000000;0.938012
9819.000000;0.936957
9818.000000;0.937153
9817.000000;0.938271
9816.000000;0.939175
9815.000000;0.939162
9814.000000;0.938646
9813.000000;0.938511
9812.000000;0.939069
9811.000000;0.939800
9810.000000;0.939988
9809.000000;0.939524
9808.000000;0.938976
9807.000000;0.938859
9806.000000;0.939022
9805.000000;0.938939
9804.000000;0.938444
9803.000000;0.937750
9802.000000;0.936861
9801.000000;0.935541
9800.000000;0.934010
9799.000000;0.933034
9798.000000;0.932956
9797.000000;0.933120
9796.000000;0.932667
9795.000000;0.931567
9794.000000;0.930450
9793.000000;0.929756
9792.000000;0.929555
9791.000000;0.929864
9790.000000;0.930544
9789.000000;0.931028
9788.000000;0.930741
9787.000000;0.929795
9786.000000;0.928855
9785.000000;0.928396
9784.000000;0.928422
9783.000000;0.928715
9782.000000;0.928922
9781.000000;0.928562
9780.000000;0.927466
9779.000000;0.926164
9778.000000;0.925362
9777.000000;0.925068
9776.000000;0.924705
9775.000000;0.924033
9774.000000;0.923459
9773.000000;0.923375
9772.000000;0.923765
9771.000000;0.924532
9770.000000;0.925672
9769.000000;0.926902
9768.000000;0.927606
9767.000000;0.927452
9766.000000;0.926724
9765.000000;0.925831
9764.000000;0.924860
9763.000000;0.923808
9762.000000;0.922830
9761.000000;0.921956
9760.000000;0.920985
9759.000000;0.919936
9758.000000;0.919266
9757.000000;0.919245
9756.000000;0.919433
9755.000000;0.919222
9754.000000;0.918664
9753.000000;0.918265
9752.000000;0.918130
9751.000000;0.917866
9750.000000;0.917300
9749.000000;0.916779
9748.000000;0.916653
9747.000000;0.916889
9746.000000;0.917318
9745.000000;0.917833
9744.000000;0.918114
9743.000000;0.917629
9742.000000;0.916320
9741.000000;0.915032
9740.000000;0.914730
9739.000000;0.915306
9738.000000;0.915596
9737.000000;0.914741
9736.000000;0.913203
9735.000000;0.912163
9734.000000;0.912133
9733.000000;0.912562
9732.000000;0.912783
9731.000000;0.912920
9730.000000;0.913574
9729.000000;0.914845
9728.000000;0.915995
9727.000000;0.916141
9726.000000;0.915080
9725.000000;0.913371
9724.000000;0.911764
9723.000000;0.910630
9722.000000;0.909834
9721.000000;0.909005
9720.000000;0.907969
9719.000000;0.906958
9718.000000;0.906401
9717.000000;0.906545
9716.000000;0.907291
9715.000000;0.908345
9714.000000;0.909428
9713.000000;0.910343
9712.000000;0.910959
9711.000000;0.911216
9710.000000;0.911056
9709.000000;0.910364
9708.000000;0.909169
9707.000000;0.907928
9706.000000;0.907298
9705.000000;0.907418
9704.000000;0.907614
9703.000000;0.907113
9702.000000;0.905999
9701.000000;0.905119
9700.000000;0.905021
9699.000000;0.905306
9698.000000;0.905201
9697.000000;0.904545
9696.000000;0.903893
9695.000000;0.903754
9694.000000;0.904046
9693.000000;0.904387
9692.000000;0.904596
9691.000000;0.904681
9690.000000;0.904444
9689.000000;0.903463
9688.000000;0.901587
9687.000000;0.899303
9686.000000;0.897449
9685.000000;0.896590
9684.000000;0.896694
9683.000000;0.897308
9682.000000;0.897937
9681.000000;0.898295
9680.000000;0.898316
9679.000000;0.898052
9678.000000;0.897600
9677.000000;0.897148
9676.000000;0.896975
9675.000000;0.897205
9674.000000;0.897528
9673.000000;0.897339
9672.000000;0.896334
9671.000000;0.894926
9670.000000;0.893906
9669.000000;0.893717
9668.000000;0.894104
9667.000000;0.894437
9666.000000;0.894299
9665.000000;0.893822
9664.000000;0.893528
9663.000000;0.893812
9662.000000;0.894516
9661.000000;0.895021
9660.000000;0.894832
9659.000000;0.894012
9658.000000;0.892994
9657.000000;0.892096
9656.000000;0.891382
9655.000000;0.890833
9654.000000;0.890448
9653.000000;0.890203
9652.000000;0.890119
9651.000000;0.890246
9650.000000;0.890422
9649.000000;0.890184
9648.000000;0.889250
9647.000000;0.888015
9646.000000;0.887214
9645.000000;0.887093
9644.000000;0.887316
9643.000000;0.887692
9642.000000;0.888479
9641.000000;0.889728
9640.000000;0.890750
9639.000000;0.890674
9638.000000;0.889348
9637.000000;0.887408
9636.000000;0.885640
9635.000000;0.884551
9634.000000;0.884298
9633.000000;0.884613
9632.000000;0.884905
9631.000000;0.884830
9630.000000;0.884681
9629.000000;0.884903
9628.000000;0.885313
9627.000000;0.885257
9626.000000;0.884528
9625.000000;0.883668
9624.000000;0.883209
9623.000000;0.883025
9622.000000;0.882646
9621.000000;0.881918
9620.000000;0.881085
9619.000000;0.880377
9618.000000;0.879833
9617.000000;0.879443
9616.000000;0.879268
9615.000000;0.879346
9614.000000;0.879556
9613.000000;0.879581
9612.000000;0.879067
9611.000000;0.878002
9610.000000;0.876978
9609.000000;0.876847
9608.000000;0.877910
9607.000000;0.879511
9606.000000;0.880578
9605.000000;0.880538
9604.000000;0.879577
9603.000000;0.878148
9602.000000;0.876537
9601.000000;0.874938
9600.000000;0.873692
9599.000000;0.873211
9598.000000;0.873639
9597.000000;0.874631
9596.000000;0.875461
9595.000000;0.875427
9594.000000;0.874327
9593.000000;0.872661
9592.000000;0.871334
9591.000000;0.871015
9590.000000;0.871680
9589.000000;0.872749
9588.000000;0.873582
9587.000000;0.873810
9586.000000;0.873336
9585.000000;0.872261
9584.000000;0.870935
9583.000000;0.869896
9582.000000;0.869521
9581.000000;0.869710
9580.000000;0.870043
9579.000000;0.870226
9578.000000;0.870236
9577.000000;0.870070
9576.000000;0.869644
9575.000000;0.869010
9574.000000;0.868427
9573.000000;0.868077
9572.000000;0.867911
9571.000000;0.867910
9570.000000;0.868172
9569.000000;0.868517
9568.000000;0.868319
9567.000000;0.867162
9566.000000;0.865534
9565.000000;0.864391
9564.000000;0.864094
9563.000000;0.864230
9562.000000;0.864443
9561.000000;0.864905
9560.000000;0.865752
9559.000000;0.866534
9558.000000;0.866616
9557.000000;0.865913
9556.000000;0.864891
9555.000000;0.864009
9554.000000;0.863438
9553.000000;0.863207
9552.000000;0.863294
9551.000000;0.863532
9550.000000;0.863654
9549.000000;0.863482
9548.000000;0.863012
9547.000000;0.862315
9546.000000;0.861466
9545.000000;0.860501
9544.000000;0.859372
9543.000000;0.858101
9542.000000;0.857087
9541.000000;0.857076
9540.000000;0.858541
9539.000000;0.861101
9538.000000;0.863711
9537.000000;0.865431
9536.000000;0.865921
9535.000000;0.865324
9534.000000;0.863925
9533.000000;0.861993
9532.000000;0.859776
9531.000000;0.857551
9530.000000;0.855705
9529.000000;0.854668
9528.000000;0.854597
9527.000000;0.855158
9526.000000;0.855791
9525.000000;0.856180
9524.000000;0.856307
9523.000000;0.856126
9522.000000;0.855510
9521.000000;0.854550
9520.000000;0.853624
9519.000000;0.853005
9518.000000;0.852598
9517.000000;0.852237
9516.000000;0.852042
9515.000000;0.852245
9514.000000;0.852760
9513.000000;0.853172
9512.000000;0.853167
9511.000000;0.852824
9510.000000;0.852488
9509.000000;0.852483
9508.000000;0.852913
9507.000000;0.853589
9506.000000;0.854098
9505.000000;0.854094
9504.000000;0.853631
9503.000000;0.853104
9502.000000;0.852766
9501.000000;0.852422
9500.000000;0.851742
9499.000000;0.850812
9498.000000;0.850135
9497.000000;0.850017
9496.000000;0.850170
9495.000000;0.850078
9494.000000;0.849618
9493.000000;0.849100
9492.000000;0.848820
9491.000000;0.848843
9490.000000;0.849173
9489.000000;0.849748
9488.000000;0.850155
9487.000000;0.849726
9486.000000;0.848297
9485.000000;0.846666
9484.000000;0.845945
9483.000000;0.846420
9482.000000;0.847315
9481.000000;0.847670
9480.000000;0.847259
9479.000000;0.846539
9478.000000;0.845945
9477.000000;0.845446
9476.000000;0.844782
9475.000000;0.843955
9474.000000;0.843378
9473.000000;0.843475
9472.000000;0.844141
9471.000000;0.844686
9470.000000;0.844430
9469.000000;0.843362
9468.000000;0.842170
9467.000000;0.841656
9466.000000;0.842127
9465.000000;0.843192
9464.000000;0.844008
9463.000000;0.843872
9462.000000;0.842867
9461.000000;0.841895
9460.000000;0.841830
9459.000000;0.842602
9458.000000;0.843307
9457.000000;0.843256
9456.000000;0.842644
9455.000000;0.842093
9454.000000;0.841857
9453.000000;0.841714
9452.000000;0.841451
9451.000000;0.841120
9450.000000;0.840838
9449.000000;0.840604
9448.000000;0.840413
9447.000000;0.840349
9446.000000;0.840453
9445.000000;0.840571
9444.000000;0.840486
9443.000000;0.840155
9442.000000;0.839734
9441.000000;0.839311
9440.000000;0.838735
9439.000000;0.837786
9438.000000;0.836528
9437.000000;0.835385
9436.000000;0.834786
9435.000000;0.834787
9434.000000;0.835061
9433.000000;0.835201
9432.000000;0.834965
9431.000000;0.834358
9430.000000;0.833645
9429.000000;0.833246
9428.000000;0.833401
9427.000000;0.833875
9426.000000;0.834085
9425.000000;0.833649
9424.000000;0.832762
9423.000000;0.831985
9422.000000;0.831713
9421.000000;0.831904
9420.000000;0.832219
9419.000000;0.832376
9418.000000;0.832390
9417.000000;0.832547
9416.000000;0.833081
9415.000000;0.833860
9414.000000;0.834422
9413.000000;0.834386
9412.000000;0.833799
9411.000000;0.833108
9410.000000;0.832802
9409.000000;0.833020
9408.000000;0.833387
9407.000000;0.833269
9406.000000;0.832361
9405.000000;0.831064
9404.000000;0.830117
9403.000000;0.829788
9402.000000;0.829624
9401.000000;0.829101
9400.000000;0.828323
9399.000000;0.827879
9398.000000;0.828052
9397.000000;0.828439
9396.000000;0.828435
9395.000000;0.827943
9394.000000;0.827480
9393.000000;0.827589
9392.000000;0.828245
9391.000000;0.828880
9390.000000;0.828993
9389.000000;0.828646
9388.000000;0.828264
9387.000000;0.828024
9386.000000;0.827687
9385.000000;0.827075
9384.000000;0.826422
9383.000000;0.826043
9382.000000;0.825851
9381.000000;0.825504
9380.000000;0.824940
9379.000000;0.824407
9378.000000;0.824002
9377.000000;0.823556
9376.000000;0.823096
9375.000000;0.823044
9374.000000;0.823669
9373.000000;0.824568
9372.000000;0.825026
9371.000000;0.824818
9370.000000;0.824338
9369.000000;0.823963
9368.000000;0.823612
9367.000000;0.823021
9366.000000;0.822208
9365.000000;0.821477
9364.000000;0.821061
9363.000000;0.820879
9362.000000;0.820635
9361.000000;0.820149
9360.000000;0.819675
9359.000000;0.819788
9358.000000;0.820693
9357.000000;0.821661
9356.000000;0.821529
9355.000000;0.820013
9354.000000;0.818212
9353.000000;0.817444
9352.000000;0.817785
9351.000000;0.818160
9350.000000;0.817764
9349.000000;0.816881
9348.000000;0.816209
9347.000000;0.815958
9346.000000;0.815970
9345.000000;0.816294
9344.000000;0.817065
9343.000000;0.817916
9342.000000;0.818096
9341.000000;0.817345
9340.000000;0.816314
9339.000000;0.815891
9338.000000;0.816289
9337.000000;0.816987
9336.000000;0.817446
9335.000000;0.817657
9334.000000;0.817920
9333.000000;0.818261
9332.000000;0.818222
9331.000000;0.817337
9330.000000;0.815769
9329.000000;0.814312
9328.000000;0.813713
9327.000000;0.814011
9326.000000;0.814577
9325.000000;0.814743
9324.000000;0.814370
9323.000000;0.813873
9322.000000;0.813759
9321.000000;0.814129
9320.000000;0.814581
9319.000000;0.814654
9318.000000;0.814356
9317.000000;0.814105
9316.000000;0.814102
9315.000000;0.814037
9314.000000;0.813570
9313.000000;0.812874
9312.000000;0.812362
9311.000000;0.812036
9310.000000;0.811512
9309.000000;0.810698
9308.000000;0.810009
9307.000000;0.809772
9306.000000;0.809753
9305.000000;0.809554
9304.000000;0.809232
9303.000000;0.809215
9302.000000;0.809681
9301.000000;0.810267
9300.000000;0.810423
9299.000000;0.809901
9298.000000;0.808908
9297.000000;0.807883
9296.000000;0.807176
9295.000000;0.806871
9294.000000;0.806846
9293.000000;0.806944
9292.000000;0.807041
9291.000000;0.807019
9290.000000;0.806879
9289.000000;0.806884
9288.000000;0.807363
9287.000000;0.808277
9286.000000;0.809148
9285.000000;0.809556
9284.000000;0.809534
9283.000000;0.809331
9282.000000;0.808957
9281.000000;0.808252
9280.000000;0.807311
9279.000000;0.806525
9278.000000;0.806120
9277.000000;0.805879
9276.000000;0.805451
9275.000000;0.804799
9274.000000;0.804252
9273.000000;0.804156
9272.000000;0.804540
9271.000000;0.805070
9270.000000;0.805312
9269.000000;0.805092
9268.000000;0.804622
9267.000000;0.804260
9266.000000;0.804129
9265.000000;0.804041
9264.000000;0.803788
9263.000000;0.803425
9262.000000;0.803260
9261.000000;0.803581
9260.000000;0.804379
9259.000000;0.805254
9258.000000;0.805601
9257.000000;0.805030
9256.000000;0.803727
9255.000000;0.802333
9254.000000;0.801423
9253.000000;0.801094
9252.000000;0.801076
9251.000000;0.801084
9250.000000;0.800959
9249.000000;0.800586
9248.000000;0.799962
9247.000000;0.799386
9246.000000;0.799336
9245.000000;0.799963
9244.000000;0.800810
9243.000000;0.801257
9242.000000;0.801182
9241.000000;0.800983
9240.000000;0.800982
9239.000000;0.801108
9238.000000;0.801179
9237.000000;0.801205
9236.000000;0.801219
9235.000000;0.801047
9234.000000;0.800526
9233.000000;0.799807
9232.000000;0.799175
9231.000000;0.798650
9230.000000;0.798037
9229.000000;0.797339
9228.000000;0.796830
9227.000000;0.796679
9226.000000;0.796751
9225.000000;0.796860
9224.000000;0.797015
9223.000000;0.797301
9222.000000;0.797675
9221.000000;0.798000
9220.000000;0.798148
9219.000000;0.798025
9218.000000;0.797647
9217.000000;0.797235
9216.000000;0.797065
9215.000000;0.797138
9214.000000;0.797191
9213.000000;0.797096
9212.000000;0.797051
9211.000000;0.797233
9210.000000;0.797501
9209.000000;0.797607
9208.000000;0.797546
9207.000000;0.797454
9206.000000;0.797293
9205.000000;0.796893
9204.000000;0.796254
9203.000000;0.795596
9202.000000;0.795123
9201.000000;0.794868
9200.000000;0.794676
9199.000000;0.794254
9198.000000;0.793385
9197.000000;0.792293
9196.000000;0.791635
9195.000000;0.791884
9194.000000;0.792769
9193.000000;0.793598
9192.000000;0.794027
9191.000000;0.794222
9190.000000;0.794339
9189.000000;0.794272
9188.000000;0.794015
9187.000000;0.793808
9186.000000;0.793701
9185.000000;0.793305
9184.000000;0.792310
9183.000000;0.791017
9182.000000;0.790006
9181.000000;0.789416
9180.000000;0.788970
9179.000000;0.788619
9178.000000;0.788725
9177.000000;0.789455
9176.000000;0.790362
9175.000000;0.790862
9174.000000;0.790934
9173.000000;0.791049
9172.000000;0.791440
9171.000000;0.791750
9170.000000;0.791506
9169.000000;0.790733
9168.000000;0.789913
9167.000000;0.789432
9166.000000;0.789216
9165.000000;0.788923
9164.000000;0.788402
9163.000000;0.787907
9162.000000;0.787892
9161.000000;0.788578
9160.000000;0.789675
9159.000000;0.790534
9158.000000;0.790664
9157.000000;0.790140
9156.000000;0.789468
9155.000000;0.789077
9154.000000;0.789000
9153.000000;0.789013
9152.000000;0.788893
9151.000000;0.788480
9150.000000;0.787677
9149.000000;0.786591
9148.000000;0.785616
9147.000000;0.785166
9146.000000;0.785290
9145.000000;0.785658
9144.000000;0.785962
9143.000000;0.786171
9142.000000;0.786363
9141.000000;0.786486
9140.000000;0.786431
9139.000000;0.786218
9138.000000;0.785966
9137.000000;0.785699
9136.000000;0.785382
9135.000000;0.785143
9134.000000;0.785272
9133.000000;0.785864
9132.000000;0.786558
9131.000000;0.786803
9130.000000;0.786398
9129.000000;0.785650
9128.000000;0.784990
9127.000000;0.784579
9126.000000;0.784337
9125.000000;0.784210
9124.000000;0.784210
9123.000000;0.784258
9122.000000;0.784188
9121.000000;0.784005
9120.000000;0.783948
9119.000000;0.784184
9118.000000;0.784534
9117.000000;0.784639
9116.000000;0.784387
9115.000000;0.784033
9114.000000;0.783886
9113.000000;0.783942
9112.000000;0.783864
9111.000000;0.783301
9110.000000;0.782266
9109.000000;0.781201
9108.000000;0.780628
9107.000000;0.780670
9106.000000;0.780984
9105.000000;0.781185
9104.000000;0.781228
9103.000000;0.781277
9102.000000;0.781349
9101.000000;0.781333
9100.000000;0.781306
9099.000000;0.781520
9098.000000;0.781965
9097.000000;0.782224
9096.000000;0.781953
9095.000000;0.781353
9094.000000;0.780900
9093.000000;0.780714
9092.000000;0.780472
9091.000000;0.779972
9090.000000;0.779460
9089.000000;0.779261
9088.000000;0.779292
9087.000000;0.779225
9086.000000;0.779017
9085.000000;0.778996
9084.000000;0.779374
9083.000000;0.779900
9082.000000;0.780135
9081.000000;0.779926
9080.000000;0.779473
9079.000000;0.779055
9078.000000;0.778862
9077.000000;0.778992
9076.000000;0.779387
9075.000000;0.779743
9074.000000;0.779706
9073.000000;0.779242
9072.000000;0.778677
9071.000000;0.778318
9070.000000;0.778198
9069.000000;0.778254
9068.000000;0.778539
9067.000000;0.779078
9066.000000;0.779649
9065.000000;0.779966
9064.000000;0.779991
9063.000000;0.779877
9062.000000;0.779626
9061.000000;0.779069
9060.000000;0.778228
9059.000000;0.777445
9058.000000;0.777023
9057.000000;0.776884
9056.000000;0.776717
9055.000000;0.776346
9054.000000;0.775847
9053.000000;0.775419
