Criado como novo conjunto de dados;"e0108.spp","-4247623.1 Secs"
cm-1;Abs
10000.000000;0.998414
9999.000000;0.998400
9998.000000;0.998637
9997.000000;0.999124
9996.000000;0.999245
9995.000000;0.998516
9994.000000;0.997165
9993.000000;0.995818
9992.000000;0.994907
9991.000000;0.994540
9990.000000;0.994732
9989.000000;0.995411
9988.000000;0.996209
9987.000000;0.996561
9986.000000;0.996191
9985.000000;0.995301
9984.000000;0.994084
9983.000000;0.992302
9982.000000;0.989797
9981.000000;0.987331
9980.000000;0.986302
9979.000000;0.987321
9978.000000;0.989372
9977.000000;0.990768
9976.000000;0.990892
9975.000000;0.990638
9974.000000;0.991069
9973.000000;0.991982
9972.000000;0.991990
9971.000000;0.989942
9970.000000;0.986253
9969.000000;0.982813
9968.000000;0.981465
9967.000000;0.982462
9966.000000;0.984369
9965.000000;0.985497
9964.000000;0.985364
9963.000000;0.984685
9962.000000;0.984238
9961.000000;0.984141
9960.000000;0.984126
9959.000000;0.984016
9958.000000;0.983718
9957.000000;0.983129
9956.000000;0.982370
9955.000000;0.981940
9954.000000;0.982252
9953.000000;0.982984
9952.000000;0.983248
9951.000000;0.982533
9950.000000;0.981244
9949.000000;0.980083
9948.000000;0.979118
9947.000000;0.977823
9946.000000;0.976068
9945.000000;0.974657
9944.000000;0.974577
9943.000000;0.975902
9942.000000;0.977637
9941.000000;0.978564
9940.000000;0.978108
9939.000000;0.976581
9938.000000;0.974927
9937.000000;0.974202
9936.000000;0.974908
9935.000000;0.976579
9934.000000;0.978130
9933.000000;0.978721
9932.000000;0.978236
9931.000000;0.977006
9930.000000;0.975426
9929.000000;0.973975
9928.000000;0.973185
9927.000000;0.973229
9926.000000;0.973680
9925.000000;0.973929
9924.000000;0.973777
9923.000000;0.973409
9922.000000;0.972911
9921.000000;0.972144
9920.000000;0.971112
9919.000000;0.970192
9918.000000;0.969869
9917.000000;0.970309
9916.000000;0.971245
9915.000000;0.972189
9914.000000;0.972697
9913.000000;0.972492
9912.000000;0.971490
9911.000000;0.969898
9910.000000;0.968343
9909.000000;0.967631
9908.000000;0.968030
9907.000000;0.968763
9906.000000;0.968581
9905.000000;0.967044
9904.000000;0.964936
9903.000000;0.963273
9902.000000;0.962278
9901.000000;0.961607
9900.000000;0.961203
9899.000000;0.961377
9898.000000;0.962150
9897.000000;0.963014
9896.000000;0.963446
9895.000000;0.963305
9894.000000;0.962666
9893.000000;0.961688
9892.000000;0.960790
9891.000000;0.960563
9890.000000;0.961203
9889.000000;0.962166
9888.000000;0.962660
9887.000000;0.962400
9886.000000;0.961677
9885.000000;0.960813
9884.000000;0.959852
9883.000000;0.958824
9882.000000;0.958018
9881.000000;0.957756
9880.000000;0.957928
9879.000000;0.957984
9878.000000;0.957493
9877.000000;0.956594
9876.000000;0.955762
9875.000000;0.955249
9874.000000;0.954968
9873.000000;0.954876
9872.000000;0.955126
9871.000000;0.955659
9870.000000;0.955904
9869.000000;0.955250
9868.000000;0.953807
9867.000000;0.952405
9866.000000;0.951770
9865.000000;0.951808
9864.000000;0.951793
9863.000000;0.951208
9862.000000;0.950333
9861.000000;0.949973
9860.000000;0.950620
9859.000000;0.951908
9858.000000;0.952922
9857.000000;0.953036
9856.000000;0.952327
9855.000000;0.951197
9854.000000;0.949890
9853.000000;0.948539
9852.000000;0.947447
9851.000000;0.946926
9850.000000;0.946846
9849.000000;0.946678
9848.000000;0.946068
9847.000000;0.945195
9846.000000;0.944453
9845.000000;0.943962
9844.000000;0.943575
9843.000000;0.943269
9842.000000;0.943295
9841.000000;0.943824
9840.000000;0.944535
9839.000000;0.944722
9838.000000;0.943954
9837.000000;0.942574
9836.000000;0.941384
9835.000000;0.940835
9834.000000;0.940719
9833.000000;0.940604
9832.000000;0.940309
9831.000000;0.939862
9830.000000;0.939301
9829.000000;0.938757
9828.000000;0.938470
9827.000000;0.938470
9826.000000;0.938416
9825.000000;0.938064
9824.000000;0.937716
9823.000000;0.937830
9822.000000;0.938280
9821.000000;0.938448
9820.000000;0.938051
9819.000000;0.937419
9818.000000;0.936826
9817.000000;0.936015
9816.000000;0.934711
9815.000000;0.933308
9814.000000;0.932583
9813.000000;0.932798
9812.000000;0.933388
9811.000000;0.933571
9810.000000;0.933126
9809.000000;0.932558
9808.000000;0.932541
9807.000000;0.933286
9806.000000;0.934425
9805.000000;0.935388
9804.000000;0.935775
9803.000000;0.935391
9802.000000;0.934228
9801.000000;0.932627
9800.000000;0.931289
9799.000000;0.930709
9798.000000;0.930594
9797.000000;0.930170
9796.000000;0.929200
9795.000000;0.928356
9794.000000;0.928331
9793.000000;0.928845
9792.000000;0.928902
9791.000000;0.927955
9790.000000;0.926493
9789.000000;0.925455
9788.000000;0.925365
9787.000000;0.926064
9786.000000;0.927005
9785.000000;0.927585
9784.000000;0.927359
9783.000000;0.926243
9782.000000;0.924658
9781.000000;0.923379
9780.000000;0.922983
9779.000000;0.923338
9778.000000;0.923687
9777.000000;0.923413
9776.000000;0.922712
9775.000000;0.922406
9774.000000;0.923059
9773.000000;0.924377
9772.000000;0.925482
9771.000000;0.925669
9770.000000;0.924893
9769.000000;0.923692
9768.000000;0.922695
9767.000000;0.922067
9766.000000;0.921357
9765.000000;0.920051
9764.000000;0.918424
9763.000000;0.917568
9762.000000;0.918289
9761.000000;0.920072
9760.000000;0.921467
9759.000000;0.921549
9758.000000;0.920689
9757.000000;0.919812
9756.000000;0.919266
9755.000000;0.918690
9754.000000;0.917728
9753.000000;0.916497
9752.000000;0.915356
9751.000000;0.914523
9750.000000;0.914032
9749.000000;0.913890
9748.000000;0.914138
9747.000000;0.914757
9746.000000;0.915552
9745.000000;0.916122
9744.000000;0.916077
9743.000000;0.915434
9742.000000;0.914741
9741.000000;0.914605
9740.000000;0.915027
9739.000000;0.915358
9738.000000;0.915003
9737.000000;0.914000
9736.000000;0.912777
9735.000000;0.911578
9734.000000;0.910397
9733.000000;0.909404
9732.000000;0.909055
9731.000000;0.909644
9730.000000;0.910909
9729.000000;0.912203
9728.000000;0.912945
9727.000000;0.912851
9726.000000;0.911921
9725.000000;0.910445
9724.000000;0.909000
9723.000000;0.908144
9722.000000;0.907961
9721.000000;0.907955
9720.000000;0.907529
9719.000000;0.906546
9718.000000;0.905411
9717.000000;0.904653
9716.000000;0.904488
9715.000000;0.904750
9714.000000;0.905117
9713.000000;0.905378
9712.000000;0.905615
9711.000000;0.906166
9710.000000;0.907249
9709.000000;0.908468
9708.000000;0.908847
9707.000000;0.907676
9706.000000;0.905377
9705.000000;0.903236
9704.000000;0.902197
9703.000000;0.902103
9702.000000;0.902163
9701.000000;0.901790
9700.000000;0.900822
9699.000000;0.899356
9698.000000;0.897856
9697.000000;0.897170
9696.000000;0.897879
9695.000000;0.899577
9694.000000;0.901213
9693.000000;0.902196
9692.000000;0.902709
9691.000000;0.902932
9690.000000;0.902603
9689.000000;0.901630
9688.000000;0.900554
9687.000000;0.899923
9686.000000;0.899550
9685.000000;0.898832
9684.000000;0.897631
9683.000000;0.896420
9682.000000;0.895691
9681.000000;0.895623
9680.000000;0.896160
9679.000000;0.896919
9678.000000;0.897163
9677.000000;0.896439
9676.000000;0.895270
9675.000000;0.894739
9674.000000;0.895239
9673.000000;0.896024
9672.000000;0.896176
9671.000000;0.895701
9670.000000;0.895345
9669.000000;0.895487
9668.000000;0.895556
9667.000000;0.894633
9666.000000;0.892540
9665.000000;0.890233
9664.000000;0.889026
9663.000000;0.889431
9662.000000;0.890774
9661.000000;0.891889
9660.000000;0.892104
9659.000000;0.891483
9658.000000;0.890406
9657.000000;0.889270
9656.000000;0.888486
9655.000000;0.888350
9654.000000;0.888795
9653.000000;0.889496
9652.000000;0.890273
9651.000000;0.891173
9650.000000;0.892096
9649.000000;0.892623
9648.000000;0.892373
9647.000000;0.891370
9646.000000;0.889985
9645.000000;0.888660
9644.000000;0.887735
9643.000000;0.887307
9642.000000;0.887092
9641.000000;0.886626
9640.000000;0.885814
9639.000000;0.885142
9638.000000;0.885168
9637.000000;0.885893
9636.000000;0.886771
9635.000000;0.887228
9634.000000;0.887048
9633.000000;0.886368
9632.000000;0.885502
9631.000000;0.884779
9630.000000;0.884370
9629.000000;0.884221
9628.000000;0.884162
9627.000000;0.884023
9626.000000;0.883600
9625.000000;0.882677
9624.000000;0.881278
9623.000000;0.879862
9622.000000;0.879047
9621.000000;0.879111
9620.000000;0.879837
9619.000000;0.880810
9618.000000;0.881690
9617.000000;0.882177
9616.000000;0.881959
9615.000000;0.880920
9614.000000;0.879379
9613.000000;0.877954
9612.000000;0.877120
9611.000000;0.876902
9610.000000;0.876981
9609.000000;0.876988
9608.000000;0.876727
9607.000000;0.876250
9606.000000;0.875822
9605.000000;0.875728
9604.000000;0.875967
9603.000000;0.876139
9602.000000;0.875774
9601.000000;0.874812
9600.000000;0.873686
9599.000000;0.872917
9598.000000;0.872720
9597.000000;0.872946
9596.000000;0.873208
9595.000000;0.873060
9594.000000;0.872307
9593.000000;0.871297
9592.000000;0.870707
9591.000000;0.870838
9590.000000;0.871243
9589.000000;0.871250
9588.000000;0.870740
9587.000000;0.870150
9586.000000;0.869823
9585.000000;0.869668
9584.000000;0.869498
9583.000000;0.869404
9582.000000;0.869624
9581.000000;0.870202
9580.000000;0.870907
9579.000000;0.871398
9578.000000;0.871427
9577.000000;0.870994
9576.000000;0.870326
9575.000000;0.869599
9574.000000;0.868707
9573.000000;0.867468
9572.000000;0.866076
9571.000000;0.865087
9570.000000;0.864841
9569.000000;0.865061
9568.000000;0.865139
9567.000000;0.864700
9566.000000;0.863864
9565.000000;0.863074
9564.000000;0.862778
9563.000000;0.863115
9562.000000;0.863688
9561.000000;0.863775
9560.000000;0.862981
9559.000000;0.861654
9558.000000;0.860549
9557.000000;0.860159
9556.000000;0.860487
9555.000000;0.861289
9554.000000;0.862278
9553.000000;0.863088
9552.000000;0.863310
9551.000000;0.862730
9550.000000;0.861501
9549.000000;0.860089
9548.000000;0.859037
9547.000000;0.858663
9546.000000;0.858822
9545.000000;0.858962
9544.000000;0.858595
9543.000000;0.857743
9542.000000;0.856844
9541.000000;0.856301
9540.000000;0.856226
9539.000000;0.856598
9538.000000;0.857436
9537.000000;0.858621
9536.000000;0.859671
9535.000000;0.859972
9534.000000;0.859291
9533.000000;0.857978
9532.000000;0.856649
9531.000000;0.855751
9530.000000;0.855386
9529.000000;0.855406
9528.000000;0.855590
9527.000000;0.855798
9526.000000;0.856027
9525.000000;0.856334
9524.000000;0.856660
9523.000000;0.856741
9522.000000;0.856262
9521.000000;0.855133
9520.000000;0.853607
9519.000000;0.852119
9518.000000;0.851047
9517.000000;0.850591
9516.000000;0.850801
9515.000000;0.851602
9514.000000;0.852739
9513.000000;0.853755
9512.000000;0.854143
9511.000000;0.853665
9510.000000;0.852576
9509.000000;0.851471
9508.000000;0.850790
9507.000000;0.850458
9506.000000;0.850086
9505.000000;0.849524
9504.000000;0.849061
9503.000000;0.848972
9502.000000;0.849026
9501.000000;0.848677
9500.000000;0.847726
9499.000000;0.846585
9498.000000;0.845833
9497.000000;0.845698
9496.000000;0.846064
9495.000000;0.846759
9494.000000;0.847556
9493.000000;0.847976
9492.000000;0.847488
9491.000000;0.846168
9490.000000;0.844935
9489.000000;0.844799
9488.000000;0.845781
9487.000000;0.846787
9486.000000;0.846722
9485.000000;0.845635
9484.000000;0.844579
9483.000000;0.844436
9482.000000;0.845092
9481.000000;0.845767
9480.000000;0.845880
9479.000000;0.845426
9478.000000;0.844713
9477.000000;0.844055
9476.000000;0.843744
9475.000000;0.844038
9474.000000;0.844936
9473.000000;0.846017
9472.000000;0.846626
9471.000000;0.846351
9470.000000;0.845309
9469.000000;0.844022
9468.000000;0.843039
9467.000000;0.842613
9466.000000;0.842591
9465.000000;0.842540
9464.000000;0.842078
9463.000000;0.841210
9462.000000;0.840344
9461.000000;0.839925
9460.000000;0.840016
9459.000000;0.840325
9458.000000;0.840627
9457.000000;0.841000
9456.000000;0.841551
9455.000000;0.842099
9454.000000;0.842319
9453.000000;0.842126
9452.000000;0.841742
9451.000000;0.841361
9450.000000;0.840923
9449.000000;0.840308
9448.000000;0.839629
9447.000000;0.839232
9446.000000;0.839397
9445.000000;0.840002
9444.000000;0.840499
9443.000000;0.840328
9442.000000;0.839434
9441.000000;0.838271
9440.000000;0.837212
9439.000000;0.836150
9438.000000;0.834921
9437.000000;0.833919
9436.000000;0.833860
9435.000000;0.834881
9434.000000;0.836236
9433.000000;0.837028
9432.000000;0.836987
9431.000000;0.836394
9430.000000;0.835545
9429.000000;0.834567
9428.000000;0.833553
9427.000000;0.832598
9426.000000;0.831799
9425.000000;0.831339
9424.000000;0.831396
9423.000000;0.831777
9422.000000;0.831900
9421.000000;0.831421
9420.000000;0.830687
9419.000000;0.830269
9418.000000;0.830224
9417.000000;0.830178
9416.000000;0.830020
9415.000000;0.830084
9414.000000;0.830620
9413.000000;0.831465
9412.000000;0.832277
9411.000000;0.832748
9410.000000;0.832540
9409.000000;0.831426
9408.000000;0.829717
9407.000000;0.828251
9406.000000;0.827695
9405.000000;0.827953
9404.000000;0.828369
9403.000000;0.828397
9402.000000;0.827953
9401.000000;0.827298
9400.000000;0.826805
9399.000000;0.826731
9398.000000;0.827013
9397.000000;0.827270
9396.000000;0.827097
9395.000000;0.826419
9394.000000;0.825544
9393.000000;0.824932
9392.000000;0.824896
9391.000000;0.825376
9390.000000;0.825940
9389.000000;0.826068
9388.000000;0.825531
9387.000000;0.824561
9386.000000;0.823702
9385.000000;0.823504
9384.000000;0.824149
9383.000000;0.825221
9382.000000;0.825932
9381.000000;0.825791
9380.000000;0.825016
9379.000000;0.824078
9378.000000;0.823022
9377.000000;0.821614
9376.000000;0.820109
9375.000000;0.819351
9374.000000;0.819845
9373.000000;0.821079
9372.000000;0.822081
9371.000000;0.822438
9370.000000;0.822464
9369.000000;0.822568
9368.000000;0.822835
9367.000000;0.823179
9366.000000;0.823486
9365.000000;0.823570
9364.000000;0.823244
9363.000000;0.822590
9362.000000;0.821961
9361.000000;0.821635
9360.000000;0.821608
9359.000000;0.821749
9358.000000;0.821947
9357.000000;0.822020
9356.000000;0.821712
9355.000000;0.821000
9354.000000;0.820309
9353.000000;0.820174
9352.000000;0.820663
9351.000000;0.821228
9350.000000;0.821133
9349.000000;0.819982
9348.000000;0.817943
9347.000000;0.815685
9346.000000;0.814081
9345.000000;0.813720
9344.000000;0.814487
9343.000000;0.815684
9342.000000;0.816675
9341.000000;0.817318
9340.000000;0.817709
9339.000000;0.817747
9338.000000;0.817278
9337.000000;0.816556
9336.000000;0.816137
9335.000000;0.816190
9334.000000;0.816237
9333.000000;0.815766
9332.000000;0.814877
9331.000000;0.814070
9330.000000;0.813605
9329.000000;0.813381
9328.000000;0.813319
9327.000000;0.813492
9326.000000;0.813821
9325.000000;0.813963
9324.000000;0.813665
9323.000000;0.813076
9322.000000;0.812586
9321.000000;0.812422
9320.000000;0.812464
9319.000000;0.812450
9318.000000;0.812326
9317.000000;0.812362
9316.000000;0.812823
9315.000000;0.813511
9314.000000;0.813813
9313.000000;0.813319
9312.000000;0.812270
9311.000000;0.811230
9310.000000;0.810494
9309.000000;0.810030
9308.000000;0.809788
9307.000000;0.809728
9306.000000;0.809656
9305.000000;0.809404
9304.000000;0.809171
9303.000000;0.809296
9302.000000;0.809628
9301.000000;0.809507
9300.000000;0.808558
9299.000000;0.807236
9298.000000;0.806363
9297.000000;0.806346
9296.000000;0.807008
9295.000000;0.807946
9294.000000;0.808787
9293.000000;0.809203
9292.000000;0.808996
9291.000000;0.808274
9290.000000;0.807440
9289.000000;0.806932
9288.000000;0.806869
9287.000000;0.806914
9286.000000;0.806575
9285.000000;0.805778
9284.000000;0.805060
9283.000000;0.805009
9282.000000;0.805536
9281.000000;0.805952
9280.000000;0.805737
9279.000000;0.804981
9278.000000;0.804112
9277.000000;0.803518
9276.000000;0.803494
9275.000000;0.804103
9274.000000;0.804902
9273.000000;0.805190
9272.000000;0.804786
9271.000000;0.804257
9270.000000;0.804154
9269.000000;0.804349
9268.000000;0.804374
9267.000000;0.804119
9266.000000;0.803788
9265.000000;0.803422
9264.000000;0.802925
9263.000000;0.802461
9262.000000;0.802383
9261.000000;0.802787
9260.000000;0.803435
9259.000000;0.804056
9258.000000;0.804406
9257.000000;0.804131
9256.000000;0.802996
9255.000000;0.801320
9254.000000;0.799858
9253.000000;0.799136
9252.000000;0.799082
9251.000000;0.799282
9250.000000;0.799358
9249.000000;0.799137
9248.000000;0.798732
9247.000000;0.798480
9246.000000;0.798595
9245.000000;0.798878
9244.000000;0.799016
9243.000000;0.799089
9242.000000;0.799443
9241.000000;0.800056
9240.000000;0.800473
9239.000000;0.800471
9238.000000;0.800386
9237.000000;0.800576
9236.000000;0.800879
9235.000000;0.800886
9234.000000;0.800519
9233.000000;0.800045
9232.000000;0.799658
9231.000000;0.799317
9230.000000;0.798939
9229.000000;0.798514
9228.000000;0.798076
9227.000000;0.797688
9226.000000;0.797419
9225.000000;0.797244
9224.000000;0.797044
9223.000000;0.796775
9222.000000;0.796528
9221.000000;0.796319
9220.000000;0.795969
9219.000000;0.795339
9218.000000;0.794581
9217.000000;0.793988
9216.000000;0.793686
9215.000000;0.793621
9214.000000;0.793780
9213.000000;0.794212
9212.000000;0.794845
9211.000000;0.795447
9210.000000;0.795801
9209.000000;0.795846
9208.000000;0.795677
9207.000000;0.795476
9206.000000;0.795394
9205.000000;0.795389
9204.000000;0.795237
9203.000000;0.794826
9202.000000;0.794329
9201.000000;0.793961
9200.000000;0.793648
9199.000000;0.793178
9198.000000;0.792615
9197.000000;0.792286
9196.000000;0.792302
9195.000000;0.792338
9194.000000;0.792072
9193.000000;0.791636
9192.000000;0.791434
9191.000000;0.791613
9190.000000;0.791938
9189.000000;0.792137
9188.000000;0.792168
9187.000000;0.792095
9186.000000;0.791875
9185.000000;0.791383
9184.000000;0.790631
9183.000000;0.789910
9182.000000;0.789681
9181.000000;0.790210
9180.000000;0.791193
9179.000000;0.791839
9178.000000;0.791508
9177.000000;0.790351
9176.000000;0.789148
9175.000000;0.788504
9174.000000;0.788361
9173.000000;0.788365
9172.000000;0.788417
9171.000000;0.788627
9170.000000;0.788882
9169.000000;0.788840
9168.000000;0.788414
9167.000000;0.787961
9166.000000;0.787824
9165.000000;0.787928
9164.000000;0.787993
9163.000000;0.787969
9162.000000;0.787986
9161.000000;0.788024
9160.000000;0.787901
9159.000000;0.787629
9158.000000;0.787487
9157.000000;0.787639
9156.000000;0.787833
9155.000000;0.787645
9154.000000;0.786950
9153.000000;0.786075
9152.000000;0.785511
9151.000000;0.785529
9150.000000;0.786006
9149.000000;0.786560
9148.000000;0.786847
9147.000000;0.786772
9146.000000;0.786470
9145.000000;0.786120
9144.000000;0.785829
9143.000000;0.785621
9142.000000;0.785436
9141.000000;0.785173
9140.000000;0.784840
9139.000000;0.784663
9138.000000;0.784913
9137.000000;0.785587
9136.000000;0.786355
9135.000000;0.786877
9134.000000;0.787072
9133.000000;0.787005
9132.000000;0.786644
9131.000000;0.785899
9130.000000;0.784874
9129.000000;0.783911
9128.000000;0.783343
9127.000000;0.783252
9126.000000;0.783486
9125.000000;0.783852
9124.000000;0.784225
9123.000000;0.784522
9122.000000;0.784667
9121.000000;0.784658
9120.000000;0.784626
9119.000000;0.784684
9118.000000;0.784678
9117.000000;0.784220
9116.000000;0.783132
9115.000000;0.781834
9114.000000;0.781088
9113.000000;0.781298
9112.000000;0.782136
9111.000000;0.782893
9110.000000;0.783078
9109.000000;0.782646
9108.000000;0.781825
9107.000000;0.780924
9106.000000;0.780249
9105.000000;0.779993
9104.000000;0.780140
9103.000000;0.780543
9102.000000;0.781074
9101.000000;0.781604
9100.000000;0.781898
9099.000000;0.781743
9098.000000;0.781223
9097.000000;0.780719
9096.000000;0.780549
9095.000000;0.780683
9094.000000;0.780867
9093.000000;0.780923
9092.000000;0.780812
9091.000000;0.780491
9090.000000;0.779916
9089.000000;0.779246
9088.000000;0.778881
9087.000000;0.779157
9086.000000;0.779935
9085.000000;0.780606
9084.000000;0.780589
9083.000000;0.779870
9082.000000;0.778986
9081.000000;0.778480
9080.000000;0.778444
9079.000000;0.778663
9078.000000;0.779022
9077.000000;0.779567
9076.000000;0.780177
9075.000000;0.780466
9074.000000;0.780175
9073.000000;0.779495
9072.000000;0.778817
9071.000000;0.778267
9070.000000;0.777721
9069.000000;0.777184
9068.000000;0.776861
9067.000000;0.776808
9066.000000;0.776757
9065.000000;0.776421
9064.000000;0.775817
9063.000000;0.775176
9062.000000;0.774699
9061.000000;0.774537
9060.000000;0.774839
9059.000000;0.775574
9058.000000;0.776382
9057.000000;0.776843
9056.000000;0.776905
9055.000000;0.776824
9054.000000;0.776703
9053.000000;0.776352
