Criado como novo conjunto de dados;"e0108.spp","-4289385.0 Secs"
cm-1;Abs
10000.000000;0.584739
9999.000000;0.584463
9998.000000;0.583919
9997.000000;0.583174
9996.000000;0.582654
9995.000000;0.582717
9994.000000;0.583298
9993.000000;0.583971
9992.000000;0.584351
9991.000000;0.584295
9990.000000;0.583845
9989.000000;0.583094
9988.000000;0.582077
9987.000000;0.580760
9986.000000;0.579228
9985.000000;0.577925
9984.000000;0.577502
9983.000000;0.578210
9982.000000;0.579519
9981.000000;0.580484
9980.000000;0.580533
9979.000000;0.579819
9978.000000;0.578881
9977.000000;0.578164
9976.000000;0.577802
9975.000000;0.577671
9974.000000;0.577535
9973.000000;0.577224
9972.000000;0.576731
9971.000000;0.576135
9970.000000;0.575478
9969.000000;0.574819
9968.000000;0.574336
9967.000000;0.574190
9966.000000;0.574234
9965.000000;0.574045
9964.000000;0.573382
9963.000000;0.572570
9962.000000;0.572245
9961.000000;0.572661
9960.000000;0.573316
9959.000000;0.573369
9958.000000;0.572408
9957.000000;0.570801
9956.000000;0.569304
9955.000000;0.568388
9954.000000;0.567962
9953.000000;0.567645
9952.000000;0.567176
9951.000000;0.566578
9950.000000;0.566023
9949.000000;0.565671
9948.000000;0.565597
9947.000000;0.565774
9946.000000;0.566060
9945.000000;0.566233
9944.000000;0.566148
9943.000000;0.565832
9942.000000;0.565375
9941.000000;0.564710
9940.000000;0.563666
9939.000000;0.562337
9938.000000;0.561337
9937.000000;0.561424
9936.000000;0.562743
9935.000000;0.564492
9934.000000;0.565454
9933.000000;0.564900
9932.000000;0.563116
9931.000000;0.561155
9930.000000;0.560051
9929.000000;0.560060
9928.000000;0.560561
9927.000000;0.560764
9926.000000;0.560480
9925.000000;0.560043
9924.000000;0.559550
9923.000000;0.558611
9922.000000;0.557023
9921.000000;0.555317
9920.000000;0.554259
9919.000000;0.554035
9918.000000;0.554301
9917.000000;0.554886
9916.000000;0.555907
9915.000000;0.557188
9914.000000;0.558055
9913.000000;0.557946
9912.000000;0.556950
9911.000000;0.555587
9910.000000;0.554331
9909.000000;0.553445
9908.000000;0.552982
9907.000000;0.552688
9906.000000;0.552159
9905.000000;0.551349
9904.000000;0.550746
9903.000000;0.550782
9902.000000;0.551224
9901.000000;0.551452
9900.000000;0.551249
9899.000000;0.550955
9898.000000;0.550856
9897.000000;0.550754
9896.000000;0.550320
9895.000000;0.549630
9894.000000;0.549092
9893.000000;0.548938
9892.000000;0.549006
9891.000000;0.549016
9890.000000;0.548885
9889.000000;0.548667
9888.000000;0.548334
9887.000000;0.547810
9886.000000;0.547164
9885.000000;0.546561
9884.000000;0.546015
9883.000000;0.545382
9882.000000;0.544705
9881.000000;0.544316
9880.000000;0.544431
9879.000000;0.544821
9878.000000;0.545086
9877.000000;0.545107
9876.000000;0.544995
9875.000000;0.544766
9874.000000;0.544386
9873.000000;0.544053
9872.000000;0.544035
9871.000000;0.544203
9870.000000;0.544076
9869.000000;0.543406
9868.000000;0.542433
9867.000000;0.541485
9866.000000;0.540655
9865.000000;0.539976
9864.000000;0.539572
9863.000000;0.539451
9862.000000;0.539386
9861.000000;0.539195
9860.000000;0.538930
9859.000000;0.538670
9858.000000;0.538400
9857.000000;0.538225
9856.000000;0.538414
9855.000000;0.538954
9854.000000;0.539367
9853.000000;0.539242
9852.000000;0.538760
9851.000000;0.538379
9850.000000;0.538187
9849.000000;0.537870
9848.000000;0.537191
9847.000000;0.536218
9846.000000;0.535153
9845.000000;0.534212
9844.000000;0.533612
9843.000000;0.533430
9842.000000;0.533506
9841.000000;0.533620
9840.000000;0.533663
9839.000000;0.533510
9838.000000;0.532956
9837.000000;0.532027
9836.000000;0.531189
9835.000000;0.530877
9834.000000;0.530922
9833.000000;0.530734
9832.000000;0.530015
9831.000000;0.529029
9830.000000;0.528228
9829.000000;0.527874
9828.000000;0.527967
9827.000000;0.528276
9826.000000;0.528437
9825.000000;0.528277
9824.000000;0.527991
9823.000000;0.527772
9822.000000;0.527396
9821.000000;0.526538
9820.000000;0.525410
9819.000000;0.524625
9818.000000;0.524408
9817.000000;0.524358
9816.000000;0.524095
9815.000000;0.523748
9814.000000;0.523592
9813.000000;0.523571
9812.000000;0.523447
9811.000000;0.523177
9810.000000;0.522900
9809.000000;0.522721
9808.000000;0.522670
9807.000000;0.522717
9806.000000;0.522669
9805.000000;0.522279
9804.000000;0.521613
9803.000000;0.521088
9802.000000;0.520970
9801.000000;0.521002
9800.000000;0.520775
9799.000000;0.520249
9798.000000;0.519694
9797.000000;0.519252
9796.000000;0.518908
9795.000000;0.518767
9794.000000;0.519026
9793.000000;0.519597
9792.000000;0.520035
9791.000000;0.519945
9790.000000;0.519341
9789.000000;0.518570
9788.000000;0.517985
9787.000000;0.517702
9786.000000;0.517539
9785.000000;0.517154
9784.000000;0.516361
9783.000000;0.515378
9782.000000;0.514672
9781.000000;0.514518
9780.000000;0.514718
9779.000000;0.514781
9778.000000;0.514388
9777.000000;0.513678
9776.000000;0.513106
9775.000000;0.512992
9774.000000;0.513221
9773.000000;0.513398
9772.000000;0.513274
9771.000000;0.512889
9770.000000;0.512312
9769.000000;0.511462
9768.000000;0.510338
9767.000000;0.509292
9766.000000;0.508801
9765.000000;0.508930
9764.000000;0.509211
9763.000000;0.509156
9762.000000;0.508773
9761.000000;0.508457
9760.000000;0.508449
9759.000000;0.508560
9758.000000;0.508447
9757.000000;0.508049
9756.000000;0.507662
9755.000000;0.507590
9754.000000;0.507788
9753.000000;0.507893
9752.000000;0.507568
9751.000000;0.506802
9750.000000;0.505900
9749.000000;0.505214
9748.000000;0.504894
9747.000000;0.504822
9746.000000;0.504748
9745.000000;0.504492
9744.000000;0.504053
9743.000000;0.503586
9742.000000;0.503315
9741.000000;0.503412
9740.000000;0.503801
9739.000000;0.504062
9738.000000;0.503688
9737.000000;0.502594
9736.000000;0.501286
9735.000000;0.500422
9734.000000;0.500234
9733.000000;0.500475
9732.000000;0.500805
9731.000000;0.501063
9730.000000;0.501191
9729.000000;0.501160
9728.000000;0.501012
9727.000000;0.500808
9726.000000;0.500481
9725.000000;0.499899
9724.000000;0.499111
9723.000000;0.498351
9722.000000;0.497738
9721.000000;0.497173
9720.000000;0.496642
9719.000000;0.496414
9718.000000;0.496711
9717.000000;0.497292
9716.000000;0.497575
9715.000000;0.497169
9714.000000;0.496174
9713.000000;0.495030
9712.000000;0.494224
9711.000000;0.494051
9710.000000;0.494478
9709.000000;0.495158
9708.000000;0.495666
9707.000000;0.495736
9706.000000;0.495320
9705.000000;0.494568
9704.000000;0.493811
9703.000000;0.493387
9702.000000;0.493302
9701.000000;0.493151
9700.000000;0.492563
9699.000000;0.491660
9698.000000;0.490893
9697.000000;0.490510
9696.000000;0.490421
9695.000000;0.490547
9694.000000;0.490930
9693.000000;0.491424
9692.000000;0.491587
9691.000000;0.491130
9690.000000;0.490277
9689.000000;0.489467
9688.000000;0.488797
9687.000000;0.488030
9686.000000;0.487125
9685.000000;0.486473
9684.000000;0.486475
9683.000000;0.487056
9682.000000;0.487741
9681.000000;0.488123
9680.000000;0.488121
9679.000000;0.487815
9678.000000;0.487256
9677.000000;0.486542
9676.000000;0.485959
9675.000000;0.485816
9674.000000;0.486066
9673.000000;0.486246
9672.000000;0.485905
9671.000000;0.485047
9670.000000;0.484080
9669.000000;0.483374
9668.000000;0.482978
9667.000000;0.482755
9666.000000;0.482639
9665.000000;0.482697
9664.000000;0.482992
9663.000000;0.483431
9662.000000;0.483720
9661.000000;0.483551
9660.000000;0.482876
9659.000000;0.481970
9658.000000;0.481112
9657.000000;0.480314
9656.000000;0.479510
9655.000000;0.478919
9654.000000;0.478945
9653.000000;0.479632
9652.000000;0.480441
9651.000000;0.480708
9650.000000;0.480213
9649.000000;0.479196
9648.000000;0.478022
9647.000000;0.476984
9646.000000;0.476292
9645.000000;0.475987
9644.000000;0.475926
9643.000000;0.475992
9642.000000;0.476238
9641.000000;0.476644
9640.000000;0.476847
9639.000000;0.476407
9638.000000;0.475381
9637.000000;0.474362
9636.000000;0.473861
9635.000000;0.473808
9634.000000;0.473747
9633.000000;0.473375
9632.000000;0.472763
9631.000000;0.472171
9630.000000;0.471812
9629.000000;0.471724
9628.000000;0.471784
9627.000000;0.471810
9626.000000;0.471683
9625.000000;0.471349
9624.000000;0.470772
9623.000000;0.470025
9622.000000;0.469403
9621.000000;0.469254
9620.000000;0.469610
9619.000000;0.470103
9618.000000;0.470319
9617.000000;0.470131
9616.000000;0.469653
9615.000000;0.469040
9614.000000;0.468491
9613.000000;0.468280
9612.000000;0.468563
9611.000000;0.469140
9610.000000;0.469551
9609.000000;0.469446
9608.000000;0.468828
9607.000000;0.468000
9606.000000;0.467337
9605.000000;0.467023
9604.000000;0.466915
9603.000000;0.466677
9602.000000;0.466113
9601.000000;0.465316
9600.000000;0.464476
9599.000000;0.463723
9598.000000;0.463234
9597.000000;0.463286
9596.000000;0.463916
9595.000000;0.464626
9594.000000;0.464729
9593.000000;0.464016
9592.000000;0.462913
9591.000000;0.461961
9590.000000;0.461385
9589.000000;0.461167
9588.000000;0.461262
9587.000000;0.461566
9586.000000;0.461843
9585.000000;0.461845
9584.000000;0.461497
9583.000000;0.460900
9582.000000;0.460250
9581.000000;0.459764
9580.000000;0.459530
9579.000000;0.459399
9578.000000;0.459137
9577.000000;0.458747
9576.000000;0.458481
9575.000000;0.458460
9574.000000;0.458484
9573.000000;0.458333
9572.000000;0.458079
9571.000000;0.457906
9570.000000;0.457772
9569.000000;0.457458
9568.000000;0.456900
9567.000000;0.456242
9566.000000;0.455630
9565.000000;0.455151
9564.000000;0.454975
9563.000000;0.455296
9562.000000;0.456031
9561.000000;0.456725
9560.000000;0.456879
9559.000000;0.456318
9558.000000;0.455259
9557.000000;0.454132
9556.000000;0.453373
9555.000000;0.453214
9554.000000;0.453507
9553.000000;0.453788
9552.000000;0.453641
9551.000000;0.453000
9550.000000;0.452121
9549.000000;0.451342
9548.000000;0.450916
9547.000000;0.450944
9546.000000;0.451286
9545.000000;0.451558
9544.000000;0.451377
9543.000000;0.450701
9542.000000;0.449873
9541.000000;0.449296
9540.000000;0.449129
9539.000000;0.449319
9538.000000;0.449771
9537.000000;0.450363
9536.000000;0.450858
9535.000000;0.450988
9534.000000;0.450679
9533.000000;0.450089
9532.000000;0.449418
9531.000000;0.448766
9530.000000;0.448199
9529.000000;0.447803
9528.000000;0.447568
9527.000000;0.447328
9526.000000;0.446973
9525.000000;0.446661
9524.000000;0.446649
9523.000000;0.446887
9522.000000;0.446956
9521.000000;0.446481
9520.000000;0.445567
9519.000000;0.444723
9518.000000;0.444393
9517.000000;0.444575
9516.000000;0.444889
9515.000000;0.444982
9514.000000;0.444815
9513.000000;0.444580
9512.000000;0.444366
9511.000000;0.444044
9510.000000;0.443549
9509.000000;0.443144
9508.000000;0.443193
9507.000000;0.443631
9506.000000;0.443881
9505.000000;0.443457
9504.000000;0.442547
9503.000000;0.441832
9502.000000;0.441752
9501.000000;0.442127
9500.000000;0.442505
9499.000000;0.442683
9498.000000;0.442727
9497.000000;0.442617
9496.000000;0.442156
9495.000000;0.441310
9494.000000;0.440437
9493.000000;0.439979
9492.000000;0.439987
9491.000000;0.440129
9490.000000;0.440144
9489.000000;0.440038
9488.000000;0.439809
9487.000000;0.439249
9486.000000;0.438233
9485.000000;0.437060
9484.000000;0.436259
9483.000000;0.436082
9482.000000;0.436343
9481.000000;0.436690
9480.000000;0.436855
9479.000000;0.436673
9478.000000;0.436105
9477.000000;0.435329
9476.000000;0.434693
9475.000000;0.434489
9474.000000;0.434770
9473.000000;0.435360
9472.000000;0.435922
9471.000000;0.436103
9470.000000;0.435814
9469.000000;0.435370
9468.000000;0.435189
9467.000000;0.435321
9466.000000;0.435425
9465.000000;0.435215
9464.000000;0.434703
9463.000000;0.433972
9462.000000;0.433005
9461.000000;0.431916
9460.000000;0.431128
9459.000000;0.431060
9458.000000;0.431670
9457.000000;0.432457
9456.000000;0.432868
9455.000000;0.432651
9454.000000;0.431934
9453.000000;0.431115
9452.000000;0.430600
9451.000000;0.430498
9450.000000;0.430572
9449.000000;0.430541
9448.000000;0.430369
9447.000000;0.430198
9446.000000;0.430115
9445.000000;0.430130
9444.000000;0.430271
9443.000000;0.430531
9442.000000;0.430727
9441.000000;0.430591
9440.000000;0.430014
9439.000000;0.429132
9438.000000;0.428201
9437.000000;0.427447
9436.000000;0.427000
9435.000000;0.426850
9434.000000;0.426877
9433.000000;0.426979
9432.000000;0.427150
9431.000000;0.427355
9430.000000;0.427404
9429.000000;0.427090
9428.000000;0.426476
9427.000000;0.425921
9426.000000;0.425799
9425.000000;0.426177
9424.000000;0.426747
9423.000000;0.427045
9422.000000;0.426791
9421.000000;0.426091
9420.000000;0.425297
9419.000000;0.424663
9418.000000;0.424208
9417.000000;0.423892
9416.000000;0.423772
9415.000000;0.423869
9414.000000;0.424024
9413.000000;0.424046
9412.000000;0.423944
9411.000000;0.423834
9410.000000;0.423685
9409.000000;0.423310
9408.000000;0.422637
9407.000000;0.421850
9406.000000;0.421264
9405.000000;0.421071
9404.000000;0.421181
9403.000000;0.421235
9402.000000;0.420883
9401.000000;0.420135
9400.000000;0.419375
9399.000000;0.418933
9398.000000;0.418759
9397.000000;0.418626
9396.000000;0.418478
9395.000000;0.418380
9394.000000;0.418280
9393.000000;0.418138
9392.000000;0.418202
9391.000000;0.418790
9390.000000;0.419738
9389.000000;0.420399
9388.000000;0.420327
9387.000000;0.419725
9386.000000;0.419101
9385.000000;0.418698
9384.000000;0.418430
9383.000000;0.418154
9382.000000;0.417809
9381.000000;0.417403
9380.000000;0.417052
9379.000000;0.416902
9378.000000;0.416911
9377.000000;0.416859
9376.000000;0.416690
9375.000000;0.416671
9374.000000;0.416993
9373.000000;0.417383
9372.000000;0.417394
9371.000000;0.416987
9370.000000;0.416553
9369.000000;0.416362
9368.000000;0.416257
9367.000000;0.415962
9366.000000;0.415443
9365.000000;0.414840
9364.000000;0.414215
9363.000000;0.413557
9362.000000;0.412971
9361.000000;0.412694
9360.000000;0.412904
9359.000000;0.413534
9358.000000;0.414260
9357.000000;0.414678
9356.000000;0.414574
9355.000000;0.414077
9354.000000;0.413524
9353.000000;0.413126
9352.000000;0.412810
9351.000000;0.412419
9350.000000;0.411972
9349.000000;0.411630
9348.000000;0.411449
9347.000000;0.411278
9346.000000;0.410972
9345.000000;0.410605
9344.000000;0.410405
9343.000000;0.410463
9342.000000;0.410615
9341.000000;0.410611
9340.000000;0.410383
9339.000000;0.410091
9338.000000;0.409920
9337.000000;0.409905
9336.000000;0.409926
9335.000000;0.409846
9334.000000;0.409605
9333.000000;0.409244
9332.000000;0.408870
9331.000000;0.408579
9330.000000;0.408386
9329.000000;0.408225
9328.000000;0.408023
9327.000000;0.407765
9326.000000;0.407487
9325.000000;0.407233
9324.000000;0.407048
9323.000000;0.406974
9322.000000;0.407025
9321.000000;0.407169
9320.000000;0.407359
9319.000000;0.407535
9318.000000;0.407584
9317.000000;0.407358
9316.000000;0.406823
9315.000000;0.406155
9314.000000;0.405619
9313.000000;0.405320
9312.000000;0.405111
9311.000000;0.404763
9310.000000;0.404190
9309.000000;0.403484
9308.000000;0.402841
9307.000000;0.402463
9306.000000;0.402479
9305.000000;0.402845
9304.000000;0.403329
9303.000000;0.403689
9302.000000;0.403870
9301.000000;0.403987
9300.000000;0.404108
9299.000000;0.404152
9298.000000;0.404056
9297.000000;0.403933
9296.000000;0.403967
9295.000000;0.404189
9294.000000;0.404419
9293.000000;0.404441
9292.000000;0.404138
9291.000000;0.403493
9290.000000;0.402587
9289.000000;0.401662
9288.000000;0.401057
9287.000000;0.400981
9286.000000;0.401323
9285.000000;0.401754
9284.000000;0.401989
9283.000000;0.401945
9282.000000;0.401703
9281.000000;0.401381
9280.000000;0.401053
9279.000000;0.400729
9278.000000;0.400408
9277.000000;0.400146
9276.000000;0.400047
9275.000000;0.400134
9274.000000;0.400281
9273.000000;0.400316
9272.000000;0.400163
9271.000000;0.399837
9270.000000;0.399377
9269.000000;0.398892
9268.000000;0.398630
9267.000000;0.398793
9266.000000;0.399229
9265.000000;0.399443
9264.000000;0.399047
9263.000000;0.398168
9262.000000;0.397343
9261.000000;0.397051
9260.000000;0.397369
9259.000000;0.397989
9258.000000;0.398425
9257.000000;0.398253
9256.000000;0.397365
9255.000000;0.396102
9254.000000;0.395078
9253.000000;0.394753
9252.000000;0.395139
9251.000000;0.395868
9250.000000;0.396494
9249.000000;0.396735
9248.000000;0.396541
9247.000000;0.396025
9246.000000;0.395389
9245.000000;0.394864
9244.000000;0.394666
9243.000000;0.394920
9242.000000;0.395556
9241.000000;0.396275
9240.000000;0.396694
9239.000000;0.396617
9238.000000;0.396174
9237.000000;0.395686
9236.000000;0.395395
9235.000000;0.395336
9234.000000;0.395382
9233.000000;0.395354
9232.000000;0.395099
9231.000000;0.394597
9230.000000;0.394033
9229.000000;0.393670
9228.000000;0.393574
9227.000000;0.393499
9226.000000;0.393147
9225.000000;0.392525
9224.000000;0.391991
9223.000000;0.391897
9222.000000;0.392229
9221.000000;0.392623
9220.000000;0.392724
9219.000000;0.392508
9218.000000;0.392267
9217.000000;0.392292
9216.000000;0.392585
9215.000000;0.392896
9214.000000;0.393031
9213.000000;0.393033
9212.000000;0.393028
9211.000000;0.392953
9210.000000;0.392558
9209.000000;0.391730
9208.000000;0.390727
9207.000000;0.390016
9206.000000;0.389895
9205.000000;0.390257
9204.000000;0.390711
9203.000000;0.390887
9202.000000;0.390668
9201.000000;0.390193
9200.000000;0.389682
9199.000000;0.389275
9198.000000;0.389016
9197.000000;0.388912
9196.000000;0.388945
9195.000000;0.389064
9194.000000;0.389242
9193.000000;0.389506
9192.000000;0.389829
9191.000000;0.390009
9190.000000;0.389818
9189.000000;0.389294
9188.000000;0.388756
9187.000000;0.388430
9186.000000;0.388188
9185.000000;0.387771
9184.000000;0.387194
9183.000000;0.386745
9182.000000;0.386614
9181.000000;0.386667
9180.000000;0.386631
9179.000000;0.386388
9178.000000;0.386048
9177.000000;0.385814
9176.000000;0.385821
9175.000000;0.386066
9174.000000;0.386434
9173.000000;0.386808
9172.000000;0.387113
9171.000000;0.387231
9170.000000;0.386966
9169.000000;0.386239
9168.000000;0.385327
9167.000000;0.384733
9166.000000;0.384736
9165.000000;0.385137
9164.000000;0.385510
9163.000000;0.385631
9162.000000;0.385565
9161.000000;0.385443
9160.000000;0.385300
9159.000000;0.385139
9158.000000;0.384993
9157.000000;0.384868
9156.000000;0.384676
9155.000000;0.384334
9154.000000;0.383926
9153.000000;0.383714
9152.000000;0.383903
9151.000000;0.384397
9150.000000;0.384832
9149.000000;0.384902
9148.000000;0.384628
9147.000000;0.384270
9146.000000;0.384035
9145.000000;0.383932
9144.000000;0.383886
9143.000000;0.383858
9142.000000;0.383808
9141.000000;0.383651
9140.000000;0.383354
9139.000000;0.383005
9138.000000;0.382711
9137.000000;0.382440
9136.000000;0.382090
9135.000000;0.381697
9134.000000;0.381473
9133.000000;0.381601
9132.000000;0.382020
9131.000000;0.382461
9130.000000;0.382664
9129.000000;0.382579
9128.000000;0.382389
9127.000000;0.382345
9126.000000;0.382531
9125.000000;0.382775
9124.000000;0.382805
9123.000000;0.382499
9122.000000;0.381963
9121.000000;0.381400
9120.000000;0.380963
9119.000000;0.380726
9118.000000;0.380685
9117.000000;0.380745
9116.000000;0.380758
9115.000000;0.380635
9114.000000;0.380407
9113.000000;0.380156
9112.000000;0.379928
9111.000000;0.379737
9110.000000;0.379599
9109.000000;0.379494
9108.000000;0.379355
9107.000000;0.379156
9106.000000;0.378987
9105.000000;0.378943
9104.000000;0.378981
9103.000000;0.378982
9102.000000;0.378983
9101.000000;0.379180
9100.000000;0.379633
9099.000000;0.380048
9098.000000;0.380021
9097.000000;0.379488
9096.000000;0.378808
9095.000000;0.378381
9094.000000;0.378259
9093.000000;0.378191
9092.000000;0.377961
9091.000000;0.377595
9090.000000;0.377261
9089.000000;0.377061
9088.000000;0.376966
9087.000000;0.376933
9086.000000;0.377017
9085.000000;0.377284
9084.000000;0.377625
9083.000000;0.377732
9082.000000;0.377365
9081.000000;0.376649
9080.000000;0.376020
9079.000000;0.375842
9078.000000;0.376115
9077.000000;0.376566
9076.000000;0.376944
9075.000000;0.377156
9074.000000;0.377211
9073.000000;0.377150
9072.000000;0.377023
9071.000000;0.376859
9070.000000;0.376660
9069.000000;0.376449
9068.000000;0.376302
9067.000000;0.376259
9066.000000;0.376241
9065.000000;0.376148
9064.000000;0.376025
9063.000000;0.376029
9062.000000;0.376210
9061.000000;0.376415
9060.000000;0.376449
9059.000000;0.376273
9058.000000;0.376002
9057.000000;0.375780
9056.000000;0.375681
9055.000000;0.375648
9054.000000;0.375496
9053.000000;0.375088
