Criado como novo conjunto de dados;"e0108.spp","-4265083.9 Secs"
cm-1;Abs
10000.000000;1.051128
9999.000000;1.051713
9998.000000;1.052298
9997.000000;1.052883
9996.000000;1.053473
9995.000000;1.054055
9994.000000;1.054653
9993.000000;1.055225
9992.000000;1.055844
9991.000000;1.056378
9990.000000;1.057098
9989.000000;1.056885
9988.000000;1.054724
9987.000000;1.051539
9986.000000;1.048690
9985.000000;1.047142
9984.000000;1.046857
9983.000000;1.047529
9982.000000;1.048851
9981.000000;1.050191
9980.000000;1.050623
9979.000000;1.049787
9978.000000;1.048409
9977.000000;1.047605
9976.000000;1.047826
9975.000000;1.048652
9974.000000;1.049427
9973.000000;1.049794
9972.000000;1.049695
9971.000000;1.049139
9970.000000;1.048184
9969.000000;1.047074
9968.000000;1.046236
9967.000000;1.045971
9966.000000;1.046106
9965.000000;1.045969
9964.000000;1.044914
9963.000000;1.043023
9962.000000;1.041253
9961.000000;1.040645
9960.000000;1.041311
9959.000000;1.042288
9958.000000;1.042514
9957.000000;1.041829
9956.000000;1.040975
9955.000000;1.040725
9954.000000;1.041162
9953.000000;1.041713
9952.000000;1.041625
9951.000000;1.040402
9950.000000;1.038112
9949.000000;1.035534
9948.000000;1.033868
9947.000000;1.033916
9946.000000;1.035320
9945.000000;1.036816
9944.000000;1.037438
9943.000000;1.037357
9942.000000;1.037418
9941.000000;1.038006
9940.000000;1.038624
9939.000000;1.038557
9938.000000;1.037753
9937.000000;1.036845
9936.000000;1.036381
9935.000000;1.036204
9934.000000;1.035725
9933.000000;1.034709
9932.000000;1.033606
9931.000000;1.033045
9930.000000;1.033143
9929.000000;1.033445
9928.000000;1.033473
9927.000000;1.033162
9926.000000;1.032719
9925.000000;1.032256
9924.000000;1.031704
9923.000000;1.031012
9922.000000;1.030272
9921.000000;1.029634
9920.000000;1.029134
9919.000000;1.028668
9918.000000;1.028157
9917.000000;1.027749
9916.000000;1.027749
9915.000000;1.028252
9914.000000;1.028886
9913.000000;1.029083
9912.000000;1.028675
9911.000000;1.028099
9910.000000;1.027923
9909.000000;1.028253
9908.000000;1.028716
9907.000000;1.028890
9906.000000;1.028597
9905.000000;1.027880
9904.000000;1.027007
9903.000000;1.026537
9902.000000;1.027033
9901.000000;1.028429
9900.000000;1.029785
9899.000000;1.030004
9898.000000;1.028852
9897.000000;1.027100
9896.000000;1.025622
9895.000000;1.024563
9894.000000;1.023475
9893.000000;1.022055
9892.000000;1.020561
9891.000000;1.019568
9890.000000;1.019430
9889.000000;1.019994
9888.000000;1.020741
9887.000000;1.021166
9886.000000;1.021048
9885.000000;1.020398
9884.000000;1.019306
9883.000000;1.018036
9882.000000;1.017164
9881.000000;1.017241
9880.000000;1.018133
9879.000000;1.018903
9878.000000;1.018609
9877.000000;1.017163
9876.000000;1.015224
9875.000000;1.013438
9874.000000;1.012138
9873.000000;1.011637
9872.000000;1.012214
9871.000000;1.013537
9870.000000;1.014520
9869.000000;1.014192
9868.000000;1.012654
9867.000000;1.010906
9866.000000;1.009830
9865.000000;1.009645
9864.000000;1.010176
9863.000000;1.011214
9862.000000;1.012433
9861.000000;1.013260
9860.000000;1.013187
9859.000000;1.012242
9858.000000;1.011024
9857.000000;1.010177
9856.000000;1.009824
9855.000000;1.009503
9854.000000;1.008664
9853.000000;1.007274
9852.000000;1.005965
9851.000000;1.005530
9850.000000;1.006165
9849.000000;1.007159
9848.000000;1.007392
9847.000000;1.006278
9846.000000;1.004259
9845.000000;1.002454
9844.000000;1.001773
9843.000000;1.002272
9842.000000;1.003251
9841.000000;1.003851
9840.000000;1.003600
9839.000000;1.002588
9838.000000;1.001386
9837.000000;1.000764
9836.000000;1.001137
9835.000000;1.002153
9834.000000;1.002910
9833.000000;1.002726
9832.000000;1.001695
9831.000000;1.000536
9830.000000;0.999994
9829.000000;1.000378
9828.000000;1.001387
9827.000000;1.002174
9826.000000;1.001769
9825.000000;0.999863
9824.000000;0.997253
9823.000000;0.995317
9822.000000;0.994871
9821.000000;0.995591
9820.000000;0.996508
9819.000000;0.996917
9818.000000;0.996718
9817.000000;0.996084
9816.000000;0.995156
9815.000000;0.994120
9814.000000;0.993269
9813.000000;0.992768
9812.000000;0.992471
9811.000000;0.992194
9810.000000;0.992067
9809.000000;0.992325
9808.000000;0.992759
9807.000000;0.992717
9806.000000;0.991863
9805.000000;0.990725
9804.000000;0.990149
9803.000000;0.990315
9802.000000;0.990609
9801.000000;0.990474
9800.000000;0.990046
9799.000000;0.989734
9798.000000;0.989459
9797.000000;0.988704
9796.000000;0.987365
9795.000000;0.986256
9794.000000;0.986474
9793.000000;0.988200
9792.000000;0.990268
9791.000000;0.991080
9790.000000;0.990103
9789.000000;0.988367
9788.000000;0.987332
9787.000000;0.987365
9786.000000;0.987551
9785.000000;0.986980
9784.000000;0.985847
9783.000000;0.985059
9782.000000;0.984996
9781.000000;0.985070
9780.000000;0.984561
9779.000000;0.983545
9778.000000;0.982797
9777.000000;0.982934
9776.000000;0.983873
9775.000000;0.984993
9774.000000;0.985594
9773.000000;0.985251
9772.000000;0.984009
9771.000000;0.982451
9770.000000;0.981434
9769.000000;0.981502
9768.000000;0.982447
9767.000000;0.983418
9766.000000;0.983493
9765.000000;0.982280
9764.000000;0.980206
9763.000000;0.978335
9762.000000;0.977669
9761.000000;0.978307
9760.000000;0.979249
9759.000000;0.979316
9758.000000;0.978399
9757.000000;0.977488
9756.000000;0.977359
9755.000000;0.977594
9754.000000;0.977230
9753.000000;0.976121
9752.000000;0.975093
9751.000000;0.974704
9750.000000;0.974403
9749.000000;0.973237
9748.000000;0.971161
9747.000000;0.969287
9746.000000;0.968793
9745.000000;0.969794
9744.000000;0.971319
9743.000000;0.972275
9742.000000;0.972342
9741.000000;0.971983
9740.000000;0.971793
9739.000000;0.972021
9738.000000;0.972601
9737.000000;0.973242
9736.000000;0.973416
9735.000000;0.972700
9734.000000;0.971414
9733.000000;0.970604
9732.000000;0.970962
9731.000000;0.971873
9730.000000;0.971935
9729.000000;0.970459
9728.000000;0.968200
9727.000000;0.966534
9726.000000;0.966250
9725.000000;0.967096
9724.000000;0.968126
9723.000000;0.968358
9722.000000;0.967483
9721.000000;0.966096
9720.000000;0.965111
9719.000000;0.964935
9718.000000;0.965312
9717.000000;0.965813
9716.000000;0.966181
9715.000000;0.966217
9714.000000;0.965774
9713.000000;0.965107
9712.000000;0.964837
9711.000000;0.965233
9710.000000;0.965729
9709.000000;0.965453
9708.000000;0.964172
9707.000000;0.962520
9706.000000;0.961428
9705.000000;0.961403
9704.000000;0.962136
9703.000000;0.962639
9702.000000;0.962013
9701.000000;0.960332
9700.000000;0.958612
9699.000000;0.957741
9698.000000;0.957666
9697.000000;0.957787
9696.000000;0.957902
9695.000000;0.958364
9694.000000;0.959395
9693.000000;0.960601
9692.000000;0.961283
9691.000000;0.961080
9690.000000;0.960252
9689.000000;0.959379
9688.000000;0.958779
9687.000000;0.958207
9686.000000;0.957267
9685.000000;0.956056
9684.000000;0.955092
9683.000000;0.954556
9682.000000;0.954040
9681.000000;0.953301
9680.000000;0.952829
9679.000000;0.953222
9678.000000;0.954229
9677.000000;0.954941
9676.000000;0.954868
9675.000000;0.954334
9674.000000;0.953804
9673.000000;0.953367
9672.000000;0.953012
9671.000000;0.952904
9670.000000;0.953105
9669.000000;0.953309
9668.000000;0.953142
9667.000000;0.952560
9666.000000;0.951757
9665.000000;0.950905
9664.000000;0.950233
9663.000000;0.950121
9662.000000;0.950766
9661.000000;0.951754
9660.000000;0.952239
9659.000000;0.951708
9658.000000;0.950501
9657.000000;0.949457
9656.000000;0.949092
9655.000000;0.949192
9654.000000;0.949156
9653.000000;0.948614
9652.000000;0.947670
9651.000000;0.946709
9650.000000;0.946173
9649.000000;0.946395
9648.000000;0.947276
9647.000000;0.947994
9646.000000;0.947416
9645.000000;0.945231
9644.000000;0.942583
9643.000000;0.941214
9642.000000;0.941910
9641.000000;0.943835
9640.000000;0.945301
9639.000000;0.945184
9638.000000;0.943755
9637.000000;0.942306
9636.000000;0.941946
9635.000000;0.942628
9634.000000;0.943340
9633.000000;0.943280
9632.000000;0.942650
9631.000000;0.942184
9630.000000;0.942200
9629.000000;0.942464
9628.000000;0.942717
9627.000000;0.942844
9626.000000;0.942592
9625.000000;0.941689
9624.000000;0.940403
9623.000000;0.939533
9622.000000;0.939630
9621.000000;0.940485
9620.000000;0.941456
9619.000000;0.941971
9618.000000;0.941625
9617.000000;0.940297
9616.000000;0.938491
9615.000000;0.937183
9614.000000;0.936889
9613.000000;0.937091
9612.000000;0.936957
9611.000000;0.936405
9610.000000;0.935981
9609.000000;0.935862
9608.000000;0.935605
9607.000000;0.934988
9606.000000;0.934537
9605.000000;0.934842
9604.000000;0.935691
9603.000000;0.936263
9602.000000;0.936017
9601.000000;0.935058
9600.000000;0.933782
9599.000000;0.932617
9598.000000;0.932106
9597.000000;0.932701
9596.000000;0.934108
9595.000000;0.935114
9594.000000;0.934613
9593.000000;0.932861
9592.000000;0.931345
9591.000000;0.931253
9590.000000;0.932305
9589.000000;0.933145
9588.000000;0.932690
9587.000000;0.930939
9586.000000;0.928741
9585.000000;0.927094
9584.000000;0.926553
9583.000000;0.926927
9582.000000;0.927446
9581.000000;0.927470
9580.000000;0.927118
9579.000000;0.927007
9578.000000;0.927396
9577.000000;0.927873
9576.000000;0.927936
9575.000000;0.927576
9574.000000;0.927154
9573.000000;0.926920
9572.000000;0.926881
9571.000000;0.926980
9570.000000;0.927120
9569.000000;0.927067
9568.000000;0.926531
9567.000000;0.925418
9566.000000;0.923942
9565.000000;0.922511
9564.000000;0.921580
9563.000000;0.921459
9562.000000;0.922088
9561.000000;0.923040
9560.000000;0.923873
9559.000000;0.924422
9558.000000;0.924640
9557.000000;0.924339
9556.000000;0.923417
9555.000000;0.922274
9554.000000;0.921611
9553.000000;0.921665
9552.000000;0.921916
9551.000000;0.921758
9550.000000;0.921228
9549.000000;0.920802
9548.000000;0.920618
9547.000000;0.920268
9546.000000;0.919395
9545.000000;0.918196
9544.000000;0.917157
9543.000000;0.916488
9542.000000;0.916034
9541.000000;0.915614
9540.000000;0.915257
9539.000000;0.915115
9538.000000;0.915301
9537.000000;0.915784
9536.000000;0.916347
9535.000000;0.916642
9534.000000;0.916439
9533.000000;0.915910
9532.000000;0.915539
9531.000000;0.915642
9530.000000;0.916051
9529.000000;0.916331
9528.000000;0.916260
9527.000000;0.916046
9526.000000;0.916045
9525.000000;0.916297
9524.000000;0.916398
9523.000000;0.915875
9522.000000;0.914713
9521.000000;0.913422
9520.000000;0.912503
9519.000000;0.911944
9518.000000;0.911393
9517.000000;0.910785
9516.000000;0.910533
9515.000000;0.910929
9514.000000;0.911612
9513.000000;0.911881
9512.000000;0.911458
9511.000000;0.910706
9510.000000;0.910102
9509.000000;0.909730
9508.000000;0.909352
9507.000000;0.908781
9506.000000;0.908105
9505.000000;0.907664
9504.000000;0.907849
9503.000000;0.908766
9502.000000;0.909977
9501.000000;0.910716
9500.000000;0.910601
9499.000000;0.910009
9498.000000;0.909557
9497.000000;0.909273
9496.000000;0.908607
9495.000000;0.907352
9494.000000;0.906214
9493.000000;0.906111
9492.000000;0.906976
9491.000000;0.907647
9490.000000;0.907064
9489.000000;0.905361
9488.000000;0.903575
9487.000000;0.902517
9486.000000;0.902259
9485.000000;0.902578
9484.000000;0.903426
9483.000000;0.904738
9482.000000;0.906059
9481.000000;0.906712
9480.000000;0.906389
9479.000000;0.905444
9478.000000;0.904525
9477.000000;0.904007
9476.000000;0.903766
9475.000000;0.903406
9474.000000;0.902692
9473.000000;0.901779
9472.000000;0.900986
9471.000000;0.900394
9470.000000;0.899803
9469.000000;0.899139
9468.000000;0.898728
9467.000000;0.898940
9466.000000;0.899644
9465.000000;0.900269
9464.000000;0.900434
9463.000000;0.900275
9462.000000;0.900070
9461.000000;0.899826
9460.000000;0.899465
9459.000000;0.899150
9458.000000;0.899122
9457.000000;0.899260
9456.000000;0.899101
9455.000000;0.898404
9454.000000;0.897504
9453.000000;0.897062
9452.000000;0.897547
9451.000000;0.898922
9450.000000;0.900554
9449.000000;0.901377
9448.000000;0.900543
9447.000000;0.898295
9446.000000;0.896051
9445.000000;0.895246
9444.000000;0.896028
9443.000000;0.897200
9442.000000;0.897443
9441.000000;0.896461
9440.000000;0.895007
9439.000000;0.894097
9438.000000;0.894243
9437.000000;0.895063
9436.000000;0.895475
9435.000000;0.894572
9434.000000;0.892561
9433.000000;0.890682
9432.000000;0.889972
9431.000000;0.890276
9430.000000;0.890670
9429.000000;0.890643
9428.000000;0.890456
9427.000000;0.890452
9426.000000;0.890553
9425.000000;0.890564
9424.000000;0.890545
9423.000000;0.890606
9422.000000;0.890589
9421.000000;0.890263
9420.000000;0.889705
9419.000000;0.889253
9418.000000;0.889075
9417.000000;0.888996
9416.000000;0.888793
9415.000000;0.888475
9414.000000;0.888223
9413.000000;0.888165
9412.000000;0.888262
9411.000000;0.888412
9410.000000;0.888555
9409.000000;0.888644
9408.000000;0.888558
9407.000000;0.888204
9406.000000;0.887719
9405.000000;0.887402
9404.000000;0.887324
9403.000000;0.887153
9402.000000;0.886585
9401.000000;0.885863
9400.000000;0.885535
9399.000000;0.885711
9398.000000;0.885879
9397.000000;0.885560
9396.000000;0.884865
9395.000000;0.884250
9394.000000;0.883987
9393.000000;0.884061
9392.000000;0.884365
9391.000000;0.884702
9390.000000;0.884767
9389.000000;0.884413
9388.000000;0.883895
9387.000000;0.883593
9386.000000;0.883552
9385.000000;0.883468
9384.000000;0.883094
9383.000000;0.882432
9382.000000;0.881619
9381.000000;0.880910
9380.000000;0.880746
9379.000000;0.881458
9378.000000;0.882742
9377.000000;0.883701
9376.000000;0.883673
9375.000000;0.882915
9374.000000;0.882252
9373.000000;0.882117
9372.000000;0.882202
9371.000000;0.882073
9370.000000;0.881851
9369.000000;0.882049
9368.000000;0.882780
9367.000000;0.883378
9366.000000;0.882970
9365.000000;0.881398
9364.000000;0.879427
9363.000000;0.878023
9362.000000;0.877538
9361.000000;0.877638
9360.000000;0.877833
9359.000000;0.877929
9358.000000;0.877989
9357.000000;0.878054
9356.000000;0.878029
9355.000000;0.877808
9354.000000;0.877426
9353.000000;0.877085
9352.000000;0.877008
9351.000000;0.877217
9350.000000;0.877412
9349.000000;0.877138
9348.000000;0.876207
9347.000000;0.874973
9346.000000;0.874084
9345.000000;0.873865
9344.000000;0.874004
9343.000000;0.873962
9342.000000;0.873626
9341.000000;0.873384
9340.000000;0.873565
9339.000000;0.874056
9338.000000;0.874588
9337.000000;0.875094
9336.000000;0.875493
9335.000000;0.875383
9334.000000;0.874417
9333.000000;0.872998
9332.000000;0.872152
9331.000000;0.872538
9330.000000;0.873833
9329.000000;0.875195
9328.000000;0.876029
9327.000000;0.876132
9326.000000;0.875458
9325.000000;0.874145
9324.000000;0.872631
9323.000000;0.871383
9322.000000;0.870547
9321.000000;0.870043
9320.000000;0.869874
9319.000000;0.870054
9318.000000;0.870320
9317.000000;0.870259
9316.000000;0.869783
9315.000000;0.869215
9314.000000;0.868840
9313.000000;0.868615
9312.000000;0.868409
9311.000000;0.868242
9310.000000;0.868163
9309.000000;0.868074
9308.000000;0.867891
9307.000000;0.867746
9306.000000;0.867868
9305.000000;0.868312
9304.000000;0.868924
9303.000000;0.869513
9302.000000;0.869904
9301.000000;0.869878
9300.000000;0.869294
9299.000000;0.868336
9298.000000;0.867538
9297.000000;0.867398
9296.000000;0.867919
9295.000000;0.868554
9294.000000;0.868663
9293.000000;0.868039
9292.000000;0.867046
9291.000000;0.866280
9290.000000;0.866114
9289.000000;0.866476
9288.000000;0.866950
9287.000000;0.867072
9286.000000;0.866634
9285.000000;0.865834
9284.000000;0.865089
9283.000000;0.864661
9282.000000;0.864466
9281.000000;0.864244
9280.000000;0.863835
9279.000000;0.863270
9278.000000;0.862734
9277.000000;0.862524
9276.000000;0.862915
9275.000000;0.863854
9274.000000;0.864806
9273.000000;0.865105
9272.000000;0.864563
9271.000000;0.863639
9270.000000;0.862946
9269.000000;0.862677
9268.000000;0.862547
9267.000000;0.862223
9266.000000;0.861663
9265.000000;0.861077
9264.000000;0.860686
9263.000000;0.860599
9262.000000;0.860880
9261.000000;0.861595
9260.000000;0.862691
9259.000000;0.863825
9258.000000;0.864439
9257.000000;0.864127
9256.000000;0.862990
9255.000000;0.861575
9254.000000;0.860474
9253.000000;0.859938
9252.000000;0.859840
9251.000000;0.859900
9250.000000;0.859917
9249.000000;0.859792
9248.000000;0.859445
9247.000000;0.858818
9246.000000;0.858009
9245.000000;0.857356
9244.000000;0.857247
9243.000000;0.857787
9242.000000;0.858678
9241.000000;0.859454
9240.000000;0.859840
9239.000000;0.859895
9238.000000;0.859839
9237.000000;0.859771
9236.000000;0.859542
9235.000000;0.858941
9234.000000;0.858015
9233.000000;0.857122
9232.000000;0.856612
9231.000000;0.856503
9230.000000;0.856534
9229.000000;0.856489
9228.000000;0.856344
9227.000000;0.856170
9226.000000;0.856054
9225.000000;0.856091
9224.000000;0.856277
9223.000000;0.856379
9222.000000;0.856108
9221.000000;0.855492
9220.000000;0.854858
9219.000000;0.854394
9218.000000;0.853924
9217.000000;0.853269
9216.000000;0.852649
9215.000000;0.852479
9214.000000;0.852864
9213.000000;0.853483
9212.000000;0.853934
9211.000000;0.854041
9210.000000;0.853845
9209.000000;0.853501
9208.000000;0.853227
9207.000000;0.853197
9206.000000;0.853353
9205.000000;0.853407
9204.000000;0.853108
9203.000000;0.852527
9202.000000;0.852040
9201.000000;0.851972
9200.000000;0.852234
9199.000000;0.852350
9198.000000;0.851960
9197.000000;0.851267
9196.000000;0.850825
9195.000000;0.850900
9194.000000;0.851232
9193.000000;0.851462
9192.000000;0.851542
9191.000000;0.851587
9190.000000;0.851585
9189.000000;0.851482
9188.000000;0.851390
9187.000000;0.851397
9186.000000;0.851275
9185.000000;0.850686
9184.000000;0.849720
9183.000000;0.848945
9182.000000;0.848822
9181.000000;0.849221
9180.000000;0.849579
9179.000000;0.849426
9178.000000;0.848721
9177.000000;0.847840
9176.000000;0.847288
9175.000000;0.847320
9174.000000;0.847760
9173.000000;0.848200
9172.000000;0.848350
9171.000000;0.848139
9170.000000;0.847627
9169.000000;0.847000
9168.000000;0.846602
9167.000000;0.846705
9166.000000;0.847223
9165.000000;0.847831
9164.000000;0.848415
9163.000000;0.849162
9162.000000;0.850114
9161.000000;0.850855
9160.000000;0.850846
9159.000000;0.849979
9158.000000;0.848631
9157.000000;0.847248
9156.000000;0.846037
9155.000000;0.845048
9154.000000;0.844421
9153.000000;0.844436
9152.000000;0.845299
9151.000000;0.846850
9150.000000;0.848501
9149.000000;0.849548
9148.000000;0.849581
9147.000000;0.848650
9146.000000;0.847160
9145.000000;0.845711
9144.000000;0.844924
9143.000000;0.845102
9142.000000;0.845952
9141.000000;0.846781
9140.000000;0.847120
9139.000000;0.847037
9138.000000;0.846766
9137.000000;0.846241
9136.000000;0.845234
9135.000000;0.843918
9134.000000;0.842953
9133.000000;0.842858
9132.000000;0.843426
9131.000000;0.843930
9130.000000;0.843884
9129.000000;0.843427
9128.000000;0.842970
9127.000000;0.842709
9126.000000;0.842627
9125.000000;0.842775
9124.000000;0.843222
9123.000000;0.843747
9122.000000;0.843892
9121.000000;0.843507
9120.000000;0.843018
9119.000000;0.842918
9118.000000;0.843130
9117.000000;0.843129
9116.000000;0.842657
9115.000000;0.842013
9114.000000;0.841583
9113.000000;0.841344
9112.000000;0.841006
9111.000000;0.840522
9110.000000;0.840260
9109.000000;0.840599
9108.000000;0.841438
9107.000000;0.842151
9106.000000;0.842093
9105.000000;0.841167
9104.000000;0.839884
9103.000000;0.838875
9102.000000;0.838413
9101.000000;0.838409
9100.000000;0.838674
9099.000000;0.839037
9098.000000;0.839299
9097.000000;0.839290
9096.000000;0.839028
9095.000000;0.838722
9094.000000;0.838597
9093.000000;0.838760
9092.000000;0.839136
9091.000000;0.839483
9090.000000;0.839534
9089.000000;0.839275
9088.000000;0.838993
9087.000000;0.838939
9086.000000;0.839073
9085.000000;0.839287
9084.000000;0.839664
9083.000000;0.840198
9082.000000;0.840400
9081.000000;0.839641
9080.000000;0.837991
9079.000000;0.836393
9078.000000;0.835805
9077.000000;0.836371
9076.000000;0.837496
9075.000000;0.838431
9074.000000;0.838696
9073.000000;0.838195
9072.000000;0.837210
9071.000000;0.836189
9070.000000;0.835438
9069.000000;0.835060
9068.000000;0.835133
9067.000000;0.835685
9066.000000;0.836441
9065.000000;0.836943
9064.000000;0.837048
9063.000000;0.837057
9062.000000;0.837171
9061.000000;0.837137
9060.000000;0.836672
9059.000000;0.835963
9058.000000;0.835420
9057.000000;0.835125
9056.000000;0.834893
9055.000000;0.834715
9054.000000;0.834759
9053.000000;0.835008
