Criado como novo conjunto de dados;"e0108.spp","-4229622.2 Secs"
cm-1;Abs
10000.000000;1.895062
9999.000000;1.882741
9998.000000;1.868048
9997.000000;1.856356
9996.000000;1.853359
9995.000000;1.858701
9994.000000;1.867408
9993.000000;1.873279
9992.000000;1.873496
9991.000000;1.868562
9990.000000;1.861210
9989.000000;1.854984
9988.000000;1.853115
9987.000000;1.856754
9986.000000;1.864097
9985.000000;1.871769
9984.000000;1.877398
9983.000000;1.880562
9982.000000;1.881757
9981.000000;1.881579
9980.000000;1.880492
9979.000000;1.878450
9978.000000;1.875140
9977.000000;1.871341
9976.000000;1.869750
9975.000000;1.872860
9974.000000;1.878799
9973.000000;1.881333
9972.000000;1.876874
9971.000000;1.869406
9970.000000;1.865117
9969.000000;1.864510
9968.000000;1.862836
9967.000000;1.857527
9966.000000;1.851597
9965.000000;1.848637
9964.000000;1.848253
9963.000000;1.848202
9962.000000;1.848669
9961.000000;1.851490
9960.000000;1.855640
9959.000000;1.856956
9958.000000;1.853188
9957.000000;1.847033
9956.000000;1.843088
9955.000000;1.843290
9954.000000;1.845973
9953.000000;1.847933
9952.000000;1.846733
9951.000000;1.842671
9950.000000;1.839168
9949.000000;1.839591
9948.000000;1.843669
9947.000000;1.848472
9946.000000;1.852364
9945.000000;1.856131
9944.000000;1.860391
9943.000000;1.864056
9942.000000;1.865944
9941.000000;1.866209
9940.000000;1.864829
9939.000000;1.860150
9938.000000;1.851230
9937.000000;1.840547
9936.000000;1.832325
9935.000000;1.829061
9934.000000;1.830693
9933.000000;1.835741
9932.000000;1.841716
9931.000000;1.845216
9930.000000;1.844171
9929.000000;1.840606
9928.000000;1.839029
9927.000000;1.841458
9926.000000;1.845394
9925.000000;1.846805
9924.000000;1.844555
9923.000000;1.841649
9922.000000;1.841799
9921.000000;1.845129
9920.000000;1.847799
9919.000000;1.846058
9918.000000;1.840242
9917.000000;1.834133
9916.000000;1.831213
9915.000000;1.832260
9914.000000;1.835495
9913.000000;1.837847
9912.000000;1.836746
9911.000000;1.832243
9910.000000;1.827896
9909.000000;1.828225
9908.000000;1.834016
9907.000000;1.841553
9906.000000;1.847578
9905.000000;1.852871
9904.000000;1.858877
9903.000000;1.863163
9902.000000;1.861670
9901.000000;1.854717
9900.000000;1.847037
9899.000000;1.842336
9898.000000;1.841135
9897.000000;1.842855
9896.000000;1.846484
9895.000000;1.848984
9894.000000;1.846518
9893.000000;1.839326
9892.000000;1.832846
9891.000000;1.832133
9890.000000;1.837074
9889.000000;1.843183
9888.000000;1.845257
9887.000000;1.840459
9886.000000;1.830077
9885.000000;1.819579
9884.000000;1.815529
9883.000000;1.819837
9882.000000;1.827380
9881.000000;1.831544
9880.000000;1.831049
9879.000000;1.828889
9878.000000;1.827137
9877.000000;1.825782
9876.000000;1.824873
9875.000000;1.824893
9874.000000;1.825250
9873.000000;1.824686
9872.000000;1.823597
9871.000000;1.824165
9870.000000;1.827778
9869.000000;1.833398
9868.000000;1.837979
9867.000000;1.837875
9866.000000;1.831344
9865.000000;1.821093
9864.000000;1.813365
9863.000000;1.812980
9862.000000;1.818858
9861.000000;1.824517
9860.000000;1.823886
9859.000000;1.816960
9858.000000;1.808946
9857.000000;1.804853
9856.000000;1.805917
9855.000000;1.809884
9854.000000;1.813656
9853.000000;1.815912
9852.000000;1.817085
9851.000000;1.817052
9850.000000;1.814467
9849.000000;1.809343
9848.000000;1.804652
9847.000000;1.803341
9846.000000;1.804565
9845.000000;1.805069
9844.000000;1.804357
9843.000000;1.805687
9842.000000;1.810963
9841.000000;1.817216
9840.000000;1.819400
9839.000000;1.815654
9838.000000;1.808698
9837.000000;1.802348
9836.000000;1.798307
9835.000000;1.796758
9834.000000;1.798207
9833.000000;1.803084
9832.000000;1.809931
9831.000000;1.815532
9830.000000;1.817827
9829.000000;1.817937
9828.000000;1.818122
9827.000000;1.818652
9826.000000;1.817906
9825.000000;1.814937
9824.000000;1.810891
9823.000000;1.807686
9822.000000;1.806347
9821.000000;1.807187
9820.000000;1.810101
9819.000000;1.813981
9818.000000;1.817343
9817.000000;1.820048
9816.000000;1.822928
9815.000000;1.825366
9814.000000;1.825378
9813.000000;1.822795
9812.000000;1.820061
9811.000000;1.818790
9810.000000;1.817517
9809.000000;1.814640
9808.000000;1.811883
9807.000000;1.812127
9806.000000;1.815036
9805.000000;1.817592
9804.000000;1.818359
9803.000000;1.818305
9802.000000;1.817647
9801.000000;1.815271
9800.000000;1.811776
9799.000000;1.810140
9798.000000;1.812007
9797.000000;1.815092
9796.000000;1.815891
9795.000000;1.813653
9794.000000;1.809980
9793.000000;1.806223
9792.000000;1.802673
9791.000000;1.798850
9790.000000;1.793997
9789.000000;1.788426
9788.000000;1.784772
9787.000000;1.786484
9786.000000;1.794108
9785.000000;1.803721
9784.000000;1.809761
9783.000000;1.809470
9782.000000;1.804483
9781.000000;1.798570
9780.000000;1.794497
9779.000000;1.792387
9778.000000;1.790370
9777.000000;1.787627
9776.000000;1.786764
9775.000000;1.791252
9774.000000;1.800199
9773.000000;1.807707
9772.000000;1.809063
9771.000000;1.805780
9770.000000;1.802502
9769.000000;1.801396
9768.000000;1.801405
9767.000000;1.801100
9766.000000;1.800068
9765.000000;1.798039
9764.000000;1.794691
9763.000000;1.790341
9762.000000;1.785832
9761.000000;1.782273
9760.000000;1.781544
9759.000000;1.785776
9758.000000;1.794440
9757.000000;1.802418
9756.000000;1.803644
9755.000000;1.797275
9754.000000;1.787828
9753.000000;1.779573
9752.000000;1.773619
9751.000000;1.769813
9750.000000;1.768742
9749.000000;1.771058
9748.000000;1.776109
9747.000000;1.782019
9746.000000;1.786692
9745.000000;1.788743
9744.000000;1.788175
9743.000000;1.786197
9742.000000;1.783906
9741.000000;1.781549
9740.000000;1.779614
9739.000000;1.779510
9738.000000;1.781626
9737.000000;1.783404
9736.000000;1.781504
9735.000000;1.776203
9734.000000;1.771450
9733.000000;1.769929
9732.000000;1.770096
9731.000000;1.768789
9730.000000;1.765228
9729.000000;1.761246
9728.000000;1.758735
9727.000000;1.758451
9726.000000;1.760628
9725.000000;1.765244
9724.000000;1.771320
9723.000000;1.776546
9722.000000;1.778315
9721.000000;1.775446
9720.000000;1.768974
9719.000000;1.761579
9718.000000;1.756210
9717.000000;1.754621
9716.000000;1.756738
9715.000000;1.761064
9714.000000;1.765592
9713.000000;1.769030
9712.000000;1.771683
9711.000000;1.774548
9710.000000;1.777009
9709.000000;1.776425
9708.000000;1.771673
9707.000000;1.766154
9706.000000;1.765052
9705.000000;1.769961
9704.000000;1.776717
9703.000000;1.778987
9702.000000;1.774554
9701.000000;1.765836
9700.000000;1.756521
9699.000000;1.750270
9698.000000;1.749387
9697.000000;1.753810
9696.000000;1.760901
9695.000000;1.766608
9694.000000;1.768854
9693.000000;1.768421
9692.000000;1.766146
9691.000000;1.761690
9690.000000;1.755477
9689.000000;1.749861
9688.000000;1.747189
9687.000000;1.747626
9686.000000;1.749703
9685.000000;1.752414
9684.000000;1.756042
9683.000000;1.760994
9682.000000;1.766842
9681.000000;1.772883
9680.000000;1.778481
9679.000000;1.782526
9678.000000;1.783461
9677.000000;1.780323
9676.000000;1.773533
9675.000000;1.764734
9674.000000;1.756071
9673.000000;1.749308
9672.000000;1.744953
9671.000000;1.742138
9670.000000;1.739771
9669.000000;1.738084
9668.000000;1.738602
9667.000000;1.742037
9666.000000;1.746745
9665.000000;1.750049
9664.000000;1.750928
9663.000000;1.750658
9662.000000;1.750799
9661.000000;1.751496
9660.000000;1.752164
9659.000000;1.752736
9658.000000;1.753435
9657.000000;1.754093
9656.000000;1.754537
9655.000000;1.755446
9654.000000;1.757753
9653.000000;1.760620
9652.000000;1.761249
9651.000000;1.757869
9650.000000;1.752426
9649.000000;1.749363
9648.000000;1.751292
9647.000000;1.755917
9646.000000;1.757801
9645.000000;1.753989
9644.000000;1.747151
9643.000000;1.742205
9642.000000;1.741143
9641.000000;1.742203
9640.000000;1.743073
9639.000000;1.743202
9638.000000;1.742772
9637.000000;1.741441
9636.000000;1.739641
9635.000000;1.739609
9634.000000;1.742807
9633.000000;1.747180
9632.000000;1.749007
9631.000000;1.747025
9630.000000;1.742972
9629.000000;1.738406
9628.000000;1.733269
9627.000000;1.727952
9626.000000;1.724688
9625.000000;1.725725
9624.000000;1.730923
9623.000000;1.737578
9622.000000;1.742144
9621.000000;1.742200
9620.000000;1.737912
9619.000000;1.732242
9618.000000;1.728946
9617.000000;1.729216
9616.000000;1.730220
9615.000000;1.728257
9614.000000;1.723798
9613.000000;1.721769
9612.000000;1.726222
9611.000000;1.735544
9610.000000;1.743192
9609.000000;1.743709
9608.000000;1.738054
9607.000000;1.731866
9606.000000;1.729583
9605.000000;1.731524
9604.000000;1.734988
9603.000000;1.736860
9602.000000;1.735704
9601.000000;1.732360
9600.000000;1.729051
9599.000000;1.727656
9598.000000;1.728293
9597.000000;1.729597
9596.000000;1.730577
9595.000000;1.731723
9594.000000;1.733668
9593.000000;1.735465
9592.000000;1.735331
9591.000000;1.732823
9590.000000;1.729094
9589.000000;1.725174
9588.000000;1.721244
9587.000000;1.717650
9586.000000;1.715528
9585.000000;1.715826
9584.000000;1.718168
9583.000000;1.721172
9582.000000;1.723690
9581.000000;1.725616
9580.000000;1.727760
9579.000000;1.731013
9578.000000;1.735367
9577.000000;1.739661
9576.000000;1.742375
9575.000000;1.742494
9574.000000;1.739522
9573.000000;1.733431
9572.000000;1.725656
9571.000000;1.719399
9570.000000;1.717345
9569.000000;1.719044
9568.000000;1.721535
9567.000000;1.722798
9566.000000;1.723458
9565.000000;1.724499
9564.000000;1.724916
9563.000000;1.723089
9562.000000;1.719566
9561.000000;1.716715
9560.000000;1.716024
9559.000000;1.717019
9558.000000;1.718531
9557.000000;1.719937
9556.000000;1.721123
9555.000000;1.721959
9554.000000;1.721965
9553.000000;1.720259
9552.000000;1.716138
9551.000000;1.710324
9550.000000;1.705608
9549.000000;1.705350
9548.000000;1.710843
9547.000000;1.719910
9546.000000;1.727961
9545.000000;1.730978
9544.000000;1.728234
9543.000000;1.722327
9542.000000;1.716628
9541.000000;1.712788
9540.000000;1.710650
9539.000000;1.709946
9538.000000;1.711030
9537.000000;1.713498
9536.000000;1.714994
9535.000000;1.712710
9534.000000;1.706457
9533.000000;1.699451
9532.000000;1.695707
9531.000000;1.697048
9530.000000;1.702108
9529.000000;1.707265
9528.000000;1.708983
9527.000000;1.706670
9526.000000;1.703353
9525.000000;1.702524
9524.000000;1.704247
9523.000000;1.705186
9522.000000;1.703160
9521.000000;1.700537
9520.000000;1.701238
9519.000000;1.705522
9518.000000;1.709720
9517.000000;1.710961
9516.000000;1.710285
9515.000000;1.710044
9514.000000;1.710356
9513.000000;1.709823
9512.000000;1.708425
9511.000000;1.707615
9510.000000;1.707836
9509.000000;1.708021
9508.000000;1.707974
9507.000000;1.709294
9506.000000;1.712779
9505.000000;1.716257
9504.000000;1.716312
9503.000000;1.711644
9502.000000;1.703927
9501.000000;1.696038
9500.000000;1.690554
9499.000000;1.689607
9498.000000;1.693838
9497.000000;1.700683
9496.000000;1.705511
9495.000000;1.705732
9494.000000;1.703073
9493.000000;1.700749
9492.000000;1.699274
9491.000000;1.696607
9490.000000;1.692122
9489.000000;1.688560
9488.000000;1.688935
9487.000000;1.692591
9486.000000;1.695543
9485.000000;1.694977
9484.000000;1.692533
9483.000000;1.692315
9482.000000;1.696736
9481.000000;1.704772
9480.000000;1.712607
9479.000000;1.715783
9478.000000;1.712170
9477.000000;1.703678
9476.000000;1.695754
9475.000000;1.693922
9474.000000;1.698934
9473.000000;1.705481
9472.000000;1.706763
9471.000000;1.701240
9470.000000;1.693976
9469.000000;1.691130
9468.000000;1.694651
9467.000000;1.701704
9466.000000;1.707643
9465.000000;1.709451
9464.000000;1.707206
9463.000000;1.703099
9462.000000;1.699508
9461.000000;1.697861
9460.000000;1.698557
9459.000000;1.700856
9458.000000;1.702441
9457.000000;1.700338
9456.000000;1.693922
9455.000000;1.686661
9454.000000;1.683366
9453.000000;1.685629
9452.000000;1.690523
9451.000000;1.693632
9450.000000;1.692807
9449.000000;1.688807
9448.000000;1.683712
9447.000000;1.679978
9446.000000;1.679828
9445.000000;1.683800
9444.000000;1.689761
9443.000000;1.694168
9442.000000;1.694884
9441.000000;1.692772
9440.000000;1.690504
9439.000000;1.690206
9438.000000;1.692116
9437.000000;1.694872
9436.000000;1.696917
9435.000000;1.697513
9434.000000;1.696137
9433.000000;1.691785
9432.000000;1.684390
9431.000000;1.676736
9430.000000;1.673053
9429.000000;1.674673
9428.000000;1.678157
9427.000000;1.678933
9426.000000;1.676419
9425.000000;1.674070
9424.000000;1.674857
9423.000000;1.678509
9422.000000;1.682834
9421.000000;1.686308
9420.000000;1.688922
9419.000000;1.691201
9418.000000;1.693362
9417.000000;1.695187
9416.000000;1.696140
9415.000000;1.695853
9414.000000;1.694742
9413.000000;1.693727
9412.000000;1.693070
9411.000000;1.691897
9410.000000;1.689103
9409.000000;1.684459
9408.000000;1.679008
9407.000000;1.674963
9406.000000;1.674667
9405.000000;1.678457
9404.000000;1.683682
9403.000000;1.686897
9402.000000;1.686981
9401.000000;1.685087
9400.000000;1.681998
9399.000000;1.677314
9398.000000;1.671826
9397.000000;1.668972
9396.000000;1.672049
9395.000000;1.680246
9394.000000;1.688454
9393.000000;1.691579
9392.000000;1.688959
9391.000000;1.683929
9390.000000;1.679723
9389.000000;1.677037
9388.000000;1.674951
9387.000000;1.672813
9386.000000;1.670949
9385.000000;1.670165
9384.000000;1.670957
9383.000000;1.673274
9382.000000;1.676612
9381.000000;1.679662
9380.000000;1.680183
9379.000000;1.676409
9378.000000;1.669122
9377.000000;1.661658
9376.000000;1.657324
9375.000000;1.656924
9374.000000;1.658719
9373.000000;1.660541
9372.000000;1.661698
9371.000000;1.662721
9370.000000;1.663864
9369.000000;1.664545
9368.000000;1.664221
9367.000000;1.663323
9366.000000;1.662992
9365.000000;1.664138
9364.000000;1.666874
9363.000000;1.670470
9362.000000;1.673582
9361.000000;1.674767
9360.000000;1.673501
9359.000000;1.671003
9358.000000;1.669425
9357.000000;1.669813
9356.000000;1.671318
9355.000000;1.672651
9354.000000;1.673613
9353.000000;1.674467
9352.000000;1.674491
9351.000000;1.672518
9350.000000;1.668895
9349.000000;1.665609
9348.000000;1.664126
9347.000000;1.664118
9346.000000;1.664680
9345.000000;1.665660
9344.000000;1.666903
9343.000000;1.667156
9342.000000;1.665340
9341.000000;1.662824
9340.000000;1.662940
9339.000000;1.667461
9338.000000;1.674060
9337.000000;1.677894
9336.000000;1.676049
9335.000000;1.669989
9334.000000;1.663428
9333.000000;1.658752
9332.000000;1.656409
9331.000000;1.656616
9330.000000;1.659440
9329.000000;1.663064
9328.000000;1.663965
9327.000000;1.660522
9326.000000;1.655688
9325.000000;1.654012
9324.000000;1.656496
9323.000000;1.660157
9322.000000;1.662494
9321.000000;1.664147
9320.000000;1.666082
9319.000000;1.666866
9318.000000;1.664968
9317.000000;1.662114
9316.000000;1.661480
9315.000000;1.663042
9314.000000;1.663553
9313.000000;1.661126
9312.000000;1.657296
9311.000000;1.654579
9310.000000;1.654204
9309.000000;1.656435
9308.000000;1.660991
9307.000000;1.666074
9306.000000;1.668646
9305.000000;1.667173
9304.000000;1.663216
9303.000000;1.659272
9302.000000;1.656154
9301.000000;1.653562
9300.000000;1.651816
9299.000000;1.651500
9298.000000;1.651891
9297.000000;1.651309
9296.000000;1.649614
9295.000000;1.648930
9294.000000;1.651105
9293.000000;1.655616
9292.000000;1.660339
9291.000000;1.663673
9290.000000;1.665481
9289.000000;1.666134
9288.000000;1.665169
9287.000000;1.661577
9286.000000;1.655621
9285.000000;1.649654
9284.000000;1.646336
9283.000000;1.646251
9282.000000;1.647759
9281.000000;1.649092
9280.000000;1.649831
9279.000000;1.650040
9278.000000;1.649279
9277.000000;1.647542
9276.000000;1.646310
9275.000000;1.647314
9274.000000;1.650461
9273.000000;1.653911
9272.000000;1.656097
9271.000000;1.656883
9270.000000;1.656805
9269.000000;1.656124
9268.000000;1.654957
9267.000000;1.653760
9266.000000;1.653248
9265.000000;1.653939
9264.000000;1.655583
9263.000000;1.656781
9262.000000;1.655783
9261.000000;1.652278
9260.000000;1.647948
9259.000000;1.644661
9258.000000;1.642756
9257.000000;1.641735
9256.000000;1.641876
9255.000000;1.643959
9254.000000;1.647597
9253.000000;1.650997
9252.000000;1.652650
9251.000000;1.652437
9250.000000;1.650919
9249.000000;1.648687
9248.000000;1.646677
9247.000000;1.645895
9246.000000;1.646168
9245.000000;1.645892
9244.000000;1.643651
9243.000000;1.639726
9242.000000;1.635708
9241.000000;1.633140
9240.000000;1.632761
9239.000000;1.634364
9238.000000;1.637016
9237.000000;1.639816
9236.000000;1.642515
9235.000000;1.644912
9234.000000;1.645983
9233.000000;1.644687
9232.000000;1.641754
9231.000000;1.639577
9230.000000;1.639976
9229.000000;1.642816
9228.000000;1.646743
9227.000000;1.650194
9226.000000;1.651633
9225.000000;1.650307
9224.000000;1.647501
9223.000000;1.645850
9222.000000;1.646605
9221.000000;1.648399
9220.000000;1.649290
9219.000000;1.649023
9218.000000;1.648448
9217.000000;1.647890
9216.000000;1.647091
9215.000000;1.645908
9214.000000;1.644288
9213.000000;1.642146
9212.000000;1.640148
9211.000000;1.639904
9210.000000;1.642134
9209.000000;1.645183
9208.000000;1.646605
9207.000000;1.645920
9206.000000;1.644558
9205.000000;1.643541
9204.000000;1.642772
9203.000000;1.642222
9202.000000;1.642113
9201.000000;1.641901
9200.000000;1.640686
9199.000000;1.638985
9198.000000;1.638645
9197.000000;1.640448
9196.000000;1.642892
9195.000000;1.643751
9194.000000;1.642105
9193.000000;1.638579
9192.000000;1.634603
9191.000000;1.631993
9190.000000;1.632273
9189.000000;1.635349
9188.000000;1.639329
9187.000000;1.642416
9186.000000;1.644633
9185.000000;1.647065
9184.000000;1.649807
9183.000000;1.651450
9182.000000;1.650426
9181.000000;1.646445
9180.000000;1.640896
9179.000000;1.635965
9178.000000;1.633111
9177.000000;1.632142
9176.000000;1.631700
9175.000000;1.630962
9174.000000;1.630602
9173.000000;1.631591
9172.000000;1.633583
9171.000000;1.635115
9170.000000;1.635143
9169.000000;1.633938
9168.000000;1.632514
9167.000000;1.631603
9166.000000;1.631330
9165.000000;1.631518
9164.000000;1.631938
9163.000000;1.632248
9162.000000;1.631978
9161.000000;1.630776
9160.000000;1.628710
9159.000000;1.626284
9158.000000;1.624039
9157.000000;1.622081
9156.000000;1.620074
9155.000000;1.617783
9154.000000;1.615640
9153.000000;1.614647
9152.000000;1.615607
9151.000000;1.618397
9150.000000;1.622135
9149.000000;1.625976
9148.000000;1.629368
9147.000000;1.631561
9146.000000;1.631620
9145.000000;1.629560
9144.000000;1.626954
9143.000000;1.625566
9142.000000;1.625605
9141.000000;1.626090
9140.000000;1.626669
9139.000000;1.627840
9138.000000;1.629153
9137.000000;1.628695
9136.000000;1.625513
9135.000000;1.621379
9134.000000;1.618859
9133.000000;1.618624
9132.000000;1.619739
9131.000000;1.621724
9130.000000;1.624823
9129.000000;1.628541
9128.000000;1.631494
9127.000000;1.632995
9126.000000;1.633651
9125.000000;1.634098
9124.000000;1.634169
9123.000000;1.633608
9122.000000;1.632498
9121.000000;1.630622
9120.000000;1.627708
9119.000000;1.624874
9118.000000;1.624484
9117.000000;1.627416
9116.000000;1.631189
9115.000000;1.632019
9114.000000;1.628912
9113.000000;1.624699
9112.000000;1.622820
9111.000000;1.624054
9110.000000;1.626342
9109.000000;1.627258
9108.000000;1.626495
9107.000000;1.625804
9106.000000;1.626666
9105.000000;1.628589
9104.000000;1.630008
9103.000000;1.630488
9102.000000;1.631078
9101.000000;1.632317
9100.000000;1.633142
9099.000000;1.632414
9098.000000;1.630738
9097.000000;1.629901
9096.000000;1.630676
9095.000000;1.631872
9094.000000;1.631660
9093.000000;1.629461
9092.000000;1.626208
9091.000000;1.622958
9090.000000;1.619803
9089.000000;1.616485
9088.000000;1.613696
9087.000000;1.612893
9086.000000;1.614479
9085.000000;1.616722
9084.000000;1.617240
9083.000000;1.615776
9082.000000;1.614648
9081.000000;1.616025
9080.000000;1.619440
9079.000000;1.622375
9078.000000;1.623059
9077.000000;1.622354
9076.000000;1.622780
9075.000000;1.625738
9074.000000;1.629629
9073.000000;1.630946
9072.000000;1.627875
9071.000000;1.622510
9070.000000;1.618665
9069.000000;1.617941
9068.000000;1.618846
9067.000000;1.619475
9066.000000;1.619850
9065.000000;1.620973
9064.000000;1.622548
9063.000000;1.622827
9062.000000;1.620633
9061.000000;1.616633
9060.000000;1.612454
9059.000000;1.609371
9058.000000;1.608112
9057.000000;1.609112
9056.000000;1.612274
9055.000000;1.616503
9054.000000;1.619949
9053.000000;1.621353
