Criado como novo conjunto de dados;"e0108.spp","-4212341.2 Secs"
cm-1;Abs
10000.000000;1.092135
9999.000000;1.089647
9998.000000;1.087735
9997.000000;1.086523
9996.000000;1.085708
9995.000000;1.085325
9994.000000;1.085843
9993.000000;1.087502
9992.000000;1.089797
9991.000000;1.091722
9990.000000;1.092404
9989.000000;1.091547
9988.000000;1.089546
9987.000000;1.087303
9986.000000;1.085743
9985.000000;1.085193
9984.000000;1.085191
9983.000000;1.085022
9982.000000;1.084394
9981.000000;1.083563
9980.000000;1.082945
9979.000000;1.082826
9978.000000;1.083303
9977.000000;1.084263
9976.000000;1.085377
9975.000000;1.086252
9974.000000;1.086580
9973.000000;1.086083
9972.000000;1.084510
9971.000000;1.082020
9970.000000;1.079485
9969.000000;1.077924
9968.000000;1.077518
9967.000000;1.077537
9966.000000;1.077395
9965.000000;1.077334
9964.000000;1.077830
9963.000000;1.078794
9962.000000;1.079857
9961.000000;1.081077
9960.000000;1.082656
9959.000000;1.083980
9958.000000;1.083648
9957.000000;1.080841
9956.000000;1.076381
9955.000000;1.072122
9954.000000;1.069474
9953.000000;1.068603
9952.000000;1.068631
9951.000000;1.068293
9950.000000;1.066796
9949.000000;1.064543
9948.000000;1.062928
9947.000000;1.062990
9946.000000;1.064328
9945.000000;1.065744
9944.000000;1.066930
9943.000000;1.068770
9942.000000;1.071593
9941.000000;1.073761
9940.000000;1.073014
9939.000000;1.069253
9938.000000;1.064996
9937.000000;1.062823
9936.000000;1.063176
9935.000000;1.064845
9934.000000;1.066651
9933.000000;1.067959
9932.000000;1.068191
9931.000000;1.067033
9930.000000;1.065165
9929.000000;1.063907
9928.000000;1.063787
9927.000000;1.063977
9926.000000;1.063382
9925.000000;1.061802
9924.000000;1.059791
9923.000000;1.057842
9922.000000;1.056180
9921.000000;1.055067
9920.000000;1.054826
9919.000000;1.055559
9918.000000;1.057046
9917.000000;1.058865
9916.000000;1.060510
9915.000000;1.061536
9914.000000;1.061704
9913.000000;1.060932
9912.000000;1.059244
9911.000000;1.057024
9910.000000;1.055251
9909.000000;1.054923
9908.000000;1.055934
9907.000000;1.056882
9906.000000;1.056407
9905.000000;1.054558
9904.000000;1.052498
9903.000000;1.051112
9902.000000;1.050347
9901.000000;1.049787
9900.000000;1.049301
9899.000000;1.048956
9898.000000;1.048659
9897.000000;1.048242
9896.000000;1.047740
9895.000000;1.047362
9894.000000;1.047220
9893.000000;1.047251
9892.000000;1.047358
9891.000000;1.047453
9890.000000;1.047409
9889.000000;1.047157
9888.000000;1.046918
9887.000000;1.047155
9886.000000;1.048046
9885.000000;1.049014
9884.000000;1.049058
9883.000000;1.047815
9882.000000;1.046143
9881.000000;1.045346
9880.000000;1.045794
9879.000000;1.046441
9878.000000;1.045816
9877.000000;1.043456
9876.000000;1.040374
9875.000000;1.038161
9874.000000;1.037657
9873.000000;1.038446
9872.000000;1.039558
9871.000000;1.040539
9870.000000;1.041564
9869.000000;1.042505
9868.000000;1.042437
9867.000000;1.040607
9866.000000;1.037669
9865.000000;1.035323
9864.000000;1.034673
9863.000000;1.035285
9862.000000;1.035846
9861.000000;1.035395
9860.000000;1.033914
9859.000000;1.032199
9858.000000;1.031323
9857.000000;1.031785
9856.000000;1.032876
9855.000000;1.033178
9854.000000;1.032034
9853.000000;1.030319
9852.000000;1.029450
9851.000000;1.029935
9850.000000;1.031180
9849.000000;1.032381
9848.000000;1.033211
9847.000000;1.033706
9846.000000;1.033856
9845.000000;1.033491
9844.000000;1.032507
9843.000000;1.031135
9842.000000;1.029926
9841.000000;1.029311
9840.000000;1.029122
9839.000000;1.028732
9838.000000;1.027785
9837.000000;1.026589
9836.000000;1.025650
9835.000000;1.025044
9834.000000;1.024486
9833.000000;1.023841
9832.000000;1.023280
9831.000000;1.023057
9830.000000;1.023295
9829.000000;1.023887
9828.000000;1.024379
9827.000000;1.024114
9826.000000;1.022838
9825.000000;1.021142
9824.000000;1.020021
9823.000000;1.019900
9822.000000;1.020268
9821.000000;1.020263
9820.000000;1.019535
9819.000000;1.018531
9818.000000;1.018067
9817.000000;1.018596
9816.000000;1.019793
9815.000000;1.020811
9814.000000;1.020998
9813.000000;1.020415
9812.000000;1.019658
9811.000000;1.019294
9810.000000;1.019456
9809.000000;1.019777
9808.000000;1.019625
9807.000000;1.018636
9806.000000;1.017171
9805.000000;1.016064
9804.000000;1.015762
9803.000000;1.015851
9802.000000;1.015682
9801.000000;1.015328
9800.000000;1.015601
9799.000000;1.016997
9798.000000;1.018837
9797.000000;1.019709
9796.000000;1.018836
9795.000000;1.016896
9794.000000;1.015371
9793.000000;1.015102
9792.000000;1.015561
9791.000000;1.015521
9790.000000;1.014266
9789.000000;1.012084
9788.000000;1.009772
9787.000000;1.007905
9786.000000;1.006572
9785.000000;1.005550
9784.000000;1.004683
9783.000000;1.004199
9782.000000;1.004623
9781.000000;1.006052
9780.000000;1.007601
9779.000000;1.008039
9778.000000;1.006983
9777.000000;1.005077
9776.000000;1.003069
9775.000000;1.001321
9774.000000;1.000295
9773.000000;1.000687
9772.000000;1.002496
9771.000000;1.004414
9770.000000;1.004795
9769.000000;1.003248
9768.000000;1.000841
9767.000000;0.998905
9766.000000;0.998105
9765.000000;0.998416
9764.000000;0.999429
9763.000000;1.000641
9762.000000;1.001672
9761.000000;1.002262
9760.000000;1.002056
9759.000000;1.000746
9758.000000;0.998660
9757.000000;0.996802
9756.000000;0.995915
9755.000000;0.995763
9754.000000;0.995705
9753.000000;0.995555
9752.000000;0.995329
9751.000000;0.994568
9750.000000;0.992810
9749.000000;0.990718
9748.000000;0.989785
9747.000000;0.990677
9746.000000;0.992489
9745.000000;0.993893
9744.000000;0.994437
9743.000000;0.994361
9742.000000;0.993762
9741.000000;0.992628
9740.000000;0.991377
9739.000000;0.990626
9738.000000;0.990398
9737.000000;0.990021
9736.000000;0.988923
9735.000000;0.987322
9734.000000;0.986026
9733.000000;0.985697
9732.000000;0.986359
9731.000000;0.987434
9730.000000;0.988183
9729.000000;0.988237
9728.000000;0.987707
9727.000000;0.986837
9726.000000;0.985708
9725.000000;0.984405
9724.000000;0.983294
9723.000000;0.982844
9722.000000;0.983111
9721.000000;0.983605
9720.000000;0.983779
9719.000000;0.983555
9718.000000;0.983222
9717.000000;0.982885
9716.000000;0.982215
9715.000000;0.980881
9714.000000;0.979135
9713.000000;0.977842
9712.000000;0.977875
9711.000000;0.979488
9710.000000;0.982110
9709.000000;0.984578
9708.000000;0.985710
9707.000000;0.985070
9706.000000;0.983370
9705.000000;0.981920
9704.000000;0.981495
9703.000000;0.981754
9702.000000;0.981787
9701.000000;0.981056
9700.000000;0.979681
9699.000000;0.978048
9698.000000;0.976470
9697.000000;0.975165
9696.000000;0.974312
9695.000000;0.974062
9694.000000;0.974557
9693.000000;0.975775
9692.000000;0.977233
9691.000000;0.978017
9690.000000;0.977414
9689.000000;0.975530
9688.000000;0.973161
9687.000000;0.971183
9686.000000;0.970188
9685.000000;0.970368
9684.000000;0.971318
9683.000000;0.972066
9682.000000;0.971834
9681.000000;0.970821
9680.000000;0.969905
9679.000000;0.969543
9678.000000;0.969382
9677.000000;0.968996
9676.000000;0.968543
9675.000000;0.968377
9674.000000;0.968336
9673.000000;0.967907
9672.000000;0.966983
9671.000000;0.966093
9670.000000;0.965804
9669.000000;0.966079
9668.000000;0.966276
9667.000000;0.965756
9666.000000;0.964545
9665.000000;0.963416
9664.000000;0.963185
9663.000000;0.963892
9662.000000;0.964722
9661.000000;0.964747
9660.000000;0.963677
9659.000000;0.961909
9658.000000;0.960098
9657.000000;0.958848
9656.000000;0.958535
9655.000000;0.959073
9654.000000;0.959853
9653.000000;0.960229
9652.000000;0.960222
9651.000000;0.960539
9650.000000;0.961673
9649.000000;0.963094
9648.000000;0.963571
9647.000000;0.962435
9646.000000;0.960376
9645.000000;0.958799
9644.000000;0.958451
9643.000000;0.958830
9642.000000;0.958921
9641.000000;0.958238
9640.000000;0.956999
9639.000000;0.955526
9638.000000;0.953863
9637.000000;0.952088
9636.000000;0.950694
9635.000000;0.950343
9634.000000;0.951134
9633.000000;0.952284
9632.000000;0.952749
9631.000000;0.952306
9630.000000;0.951872
9629.000000;0.952508
9628.000000;0.954134
9627.000000;0.955451
9626.000000;0.955183
9625.000000;0.953180
9624.000000;0.950289
9623.000000;0.947574
9622.000000;0.945915
9621.000000;0.945888
9620.000000;0.947407
9619.000000;0.949520
9618.000000;0.951038
9617.000000;0.951507
9616.000000;0.951271
9615.000000;0.950652
9614.000000;0.949576
9613.000000;0.948136
9612.000000;0.946942
9611.000000;0.946480
9610.000000;0.946395
9609.000000;0.945900
9608.000000;0.944882
9607.000000;0.944192
9606.000000;0.944616
9605.000000;0.945833
9604.000000;0.946625
9603.000000;0.946120
9602.000000;0.944580
9601.000000;0.942885
9600.000000;0.941535
9599.000000;0.940398
9598.000000;0.939333
9597.000000;0.938659
9596.000000;0.938784
9595.000000;0.939611
9594.000000;0.940574
9593.000000;0.941183
9592.000000;0.941335
9591.000000;0.941164
9590.000000;0.940813
9589.000000;0.940327
9588.000000;0.939606
9587.000000;0.938509
9586.000000;0.937153
9585.000000;0.936076
9584.000000;0.935840
9583.000000;0.936434
9582.000000;0.937233
9581.000000;0.937593
9580.000000;0.937317
9579.000000;0.936547
9578.000000;0.935471
9577.000000;0.934263
9576.000000;0.933103
9575.000000;0.932091
9574.000000;0.931258
9573.000000;0.930741
9572.000000;0.930779
9571.000000;0.931406
9570.000000;0.932190
9569.000000;0.932473
9568.000000;0.931929
9567.000000;0.930901
9566.000000;0.930107
9565.000000;0.929961
9564.000000;0.930161
9563.000000;0.930041
9562.000000;0.929398
9561.000000;0.928838
9560.000000;0.929076
9559.000000;0.930054
9558.000000;0.930975
9557.000000;0.931138
9556.000000;0.930532
9555.000000;0.929667
9554.000000;0.929080
9553.000000;0.928945
9552.000000;0.928921
9551.000000;0.928404
9550.000000;0.927202
9549.000000;0.925943
9548.000000;0.925503
9547.000000;0.925984
9546.000000;0.926547
9545.000000;0.926322
9544.000000;0.925243
9543.000000;0.923938
9542.000000;0.923075
9541.000000;0.922924
9540.000000;0.923288
9539.000000;0.923735
9538.000000;0.924068
9537.000000;0.924546
9536.000000;0.925363
9535.000000;0.926050
9534.000000;0.925869
9533.000000;0.924877
9532.000000;0.924048
9531.000000;0.924077
9530.000000;0.924512
9529.000000;0.924441
9528.000000;0.923651
9527.000000;0.922698
9526.000000;0.922047
9525.000000;0.921681
9524.000000;0.921394
9523.000000;0.920999
9522.000000;0.920210
9521.000000;0.918803
9520.000000;0.916985
9519.000000;0.915349
9518.000000;0.914349
9517.000000;0.913982
9516.000000;0.913994
9515.000000;0.914161
9514.000000;0.914304
9513.000000;0.914223
9512.000000;0.913798
9511.000000;0.913162
9510.000000;0.912726
9509.000000;0.912926
9508.000000;0.913766
9507.000000;0.914574
9506.000000;0.914508
9505.000000;0.913486
9504.000000;0.912379
9503.000000;0.912049
9502.000000;0.912413
9501.000000;0.912713
9500.000000;0.912511
9499.000000;0.912033
9498.000000;0.911646
9497.000000;0.911478
9496.000000;0.911576
9495.000000;0.912013
9494.000000;0.912663
9493.000000;0.913117
9492.000000;0.912998
9491.000000;0.912195
9490.000000;0.910737
9489.000000;0.908723
9488.000000;0.906549
9487.000000;0.904929
9486.000000;0.904379
9485.000000;0.904701
9484.000000;0.905157
9483.000000;0.905210
9482.000000;0.905004
9481.000000;0.905071
9480.000000;0.905610
9479.000000;0.906183
9478.000000;0.906140
9477.000000;0.905300
9476.000000;0.904133
9475.000000;0.903296
9474.000000;0.903125
9473.000000;0.903538
9472.000000;0.904106
9471.000000;0.904131
9470.000000;0.903063
9469.000000;0.901195
9468.000000;0.899698
9467.000000;0.899529
9466.000000;0.900403
9465.000000;0.901231
9464.000000;0.901415
9463.000000;0.901229
9462.000000;0.901006
9461.000000;0.900624
9460.000000;0.899977
9459.000000;0.899366
9458.000000;0.899038
9457.000000;0.898734
9456.000000;0.898122
9455.000000;0.897382
9454.000000;0.896942
9453.000000;0.896882
9452.000000;0.896988
9451.000000;0.897174
9450.000000;0.897368
9449.000000;0.897166
9448.000000;0.896196
9447.000000;0.894880
9446.000000;0.894221
9445.000000;0.894621
9444.000000;0.895336
9443.000000;0.895413
9442.000000;0.894839
9441.000000;0.894379
9440.000000;0.894484
9439.000000;0.894780
9438.000000;0.894653
9437.000000;0.894031
9436.000000;0.893434
9435.000000;0.893339
9434.000000;0.893648
9433.000000;0.893781
9432.000000;0.893257
9431.000000;0.892167
9430.000000;0.891055
9429.000000;0.890385
9428.000000;0.890207
9427.000000;0.890307
9426.000000;0.890515
9425.000000;0.890748
9424.000000;0.890855
9423.000000;0.890638
9422.000000;0.890116
9421.000000;0.889665
9420.000000;0.889731
9419.000000;0.890323
9418.000000;0.890911
9417.000000;0.890939
9416.000000;0.890416
9415.000000;0.889817
9414.000000;0.889349
9413.000000;0.888568
9412.000000;0.886923
9411.000000;0.884558
9410.000000;0.882372
9409.000000;0.881261
9408.000000;0.881461
9407.000000;0.882510
9406.000000;0.883562
9405.000000;0.883819
9404.000000;0.883030
9403.000000;0.881736
9402.000000;0.880789
9401.000000;0.880506
9400.000000;0.880441
9399.000000;0.880131
9398.000000;0.879809
9397.000000;0.880094
9396.000000;0.881093
9395.000000;0.882124
9394.000000;0.882378
9393.000000;0.881683
9392.000000;0.880585
9391.000000;0.879846
9390.000000;0.879837
9389.000000;0.880253
9388.000000;0.880400
9387.000000;0.879906
9386.000000;0.879155
9385.000000;0.878852
9384.000000;0.879176
9383.000000;0.879582
9382.000000;0.879463
9381.000000;0.878789
9380.000000;0.877982
9379.000000;0.877364
9378.000000;0.876888
9377.000000;0.876307
9376.000000;0.875425
9375.000000;0.874246
9374.000000;0.873047
9373.000000;0.872289
9372.000000;0.872321
9371.000000;0.873050
9370.000000;0.873943
9369.000000;0.874405
9368.000000;0.874252
9367.000000;0.873824
9366.000000;0.873618
9365.000000;0.873774
9364.000000;0.873952
9363.000000;0.873741
9362.000000;0.873153
9361.000000;0.872555
9360.000000;0.872130
9359.000000;0.871609
9358.000000;0.870699
9357.000000;0.869653
9356.000000;0.869148
9355.000000;0.869544
9354.000000;0.870381
9353.000000;0.870797
9352.000000;0.870464
9351.000000;0.869942
9350.000000;0.869958
9349.000000;0.870465
9348.000000;0.870701
9347.000000;0.870220
9346.000000;0.869544
9345.000000;0.869494
9344.000000;0.870108
9343.000000;0.870609
9342.000000;0.870355
9341.000000;0.869466
9340.000000;0.868447
9339.000000;0.867602
9338.000000;0.866969
9337.000000;0.866523
9336.000000;0.866147
9335.000000;0.865618
9334.000000;0.864900
9333.000000;0.864331
9332.000000;0.864298
9331.000000;0.864753
9330.000000;0.865241
9329.000000;0.865358
9328.000000;0.865037
9327.000000;0.864484
9326.000000;0.863998
9325.000000;0.863811
9324.000000;0.863907
9323.000000;0.864022
9322.000000;0.863918
9321.000000;0.863613
9320.000000;0.863223
9319.000000;0.862704
9318.000000;0.862001
9317.000000;0.861322
9316.000000;0.860994
9315.000000;0.861003
9314.000000;0.860909
9313.000000;0.860321
9312.000000;0.859321
9311.000000;0.858365
9310.000000;0.857873
9309.000000;0.857949
9308.000000;0.858329
9307.000000;0.858580
9306.000000;0.858508
9305.000000;0.858431
9304.000000;0.858851
9303.000000;0.859765
9302.000000;0.860460
9301.000000;0.860178
9300.000000;0.858913
9299.000000;0.857426
9298.000000;0.856548
9297.000000;0.856555
9296.000000;0.857122
9295.000000;0.857699
9294.000000;0.857879
9293.000000;0.857520
9292.000000;0.856713
9291.000000;0.855734
9290.000000;0.854968
9289.000000;0.854696
9288.000000;0.854887
9287.000000;0.855256
9286.000000;0.855569
9285.000000;0.855800
9284.000000;0.855947
9283.000000;0.855885
9282.000000;0.855557
9281.000000;0.855145
9280.000000;0.854808
9279.000000;0.854360
9278.000000;0.853530
9277.000000;0.852503
9276.000000;0.851859
9275.000000;0.851884
9274.000000;0.852247
9273.000000;0.852470
9272.000000;0.852405
9271.000000;0.852076
9270.000000;0.851417
9269.000000;0.850478
9268.000000;0.849668
9267.000000;0.849392
9266.000000;0.849537
9265.000000;0.849648
9264.000000;0.849593
9263.000000;0.849675
9262.000000;0.850030
9261.000000;0.850294
9260.000000;0.850104
9259.000000;0.849652
9258.000000;0.849370
9257.000000;0.849216
9256.000000;0.848665
9255.000000;0.847509
9254.000000;0.846332
9253.000000;0.845896
9252.000000;0.846229
9251.000000;0.846646
9250.000000;0.846640
9249.000000;0.846422
9248.000000;0.846440
9247.000000;0.846678
9246.000000;0.846752
9245.000000;0.846531
9244.000000;0.846288
9243.000000;0.846203
9242.000000;0.846052
9241.000000;0.845552
9240.000000;0.844819
9239.000000;0.844293
9238.000000;0.844262
9237.000000;0.844544
9236.000000;0.844593
9235.000000;0.843949
9234.000000;0.842757
9233.000000;0.841797
9232.000000;0.841777
9231.000000;0.842560
9230.000000;0.843331
9229.000000;0.843578
9228.000000;0.843596
9227.000000;0.843827
9226.000000;0.844029
9225.000000;0.843529
9224.000000;0.842186
9223.000000;0.840710
9222.000000;0.839943
9221.000000;0.840059
9220.000000;0.840512
9219.000000;0.840595
9218.000000;0.840024
9217.000000;0.839147
9216.000000;0.838588
9215.000000;0.838624
9214.000000;0.838950
9213.000000;0.839146
9212.000000;0.839220
9211.000000;0.839431
9210.000000;0.839674
9209.000000;0.839470
9208.000000;0.838689
9207.000000;0.837955
9206.000000;0.838029
9205.000000;0.838916
9204.000000;0.839789
9203.000000;0.839774
9202.000000;0.838692
9201.000000;0.837095
9200.000000;0.835734
9199.000000;0.835008
9198.000000;0.834858
9197.000000;0.835058
9196.000000;0.835500
9195.000000;0.836154
9194.000000;0.836890
9193.000000;0.837523
9192.000000;0.837962
9191.000000;0.838142
9190.000000;0.837848
9189.000000;0.836891
9188.000000;0.835543
9187.000000;0.834502
9186.000000;0.834250
9185.000000;0.834590
9184.000000;0.834959
9183.000000;0.835008
9182.000000;0.834682
9181.000000;0.833963
9180.000000;0.832919
9179.000000;0.831950
9178.000000;0.831582
9177.000000;0.831849
9176.000000;0.832148
9175.000000;0.831901
9174.000000;0.831176
9173.000000;0.830474
9172.000000;0.830049
9171.000000;0.829730
9170.000000;0.829359
9169.000000;0.829078
9168.000000;0.829056
9167.000000;0.829137
9166.000000;0.828998
9165.000000;0.828614
9164.000000;0.828303
9163.000000;0.828268
9162.000000;0.828303
9161.000000;0.828109
9160.000000;0.827763
9159.000000;0.827659
9158.000000;0.828026
9157.000000;0.828648
9156.000000;0.829065
9155.000000;0.828916
9154.000000;0.828123
9153.000000;0.826991
9152.000000;0.826149
9151.000000;0.826156
9150.000000;0.826948
9149.000000;0.827765
9148.000000;0.827759
9147.000000;0.826700
9146.000000;0.825056
9145.000000;0.823539
9144.000000;0.822634
9143.000000;0.822413
9142.000000;0.822554
9141.000000;0.822607
9140.000000;0.822380
9139.000000;0.822088
9138.000000;0.822005
9137.000000;0.822084
9136.000000;0.822064
9135.000000;0.821895
9134.000000;0.821810
9133.000000;0.821983
9132.000000;0.822297
9131.000000;0.822515
9130.000000;0.822514
9129.000000;0.822307
9128.000000;0.821993
9127.000000;0.821767
9126.000000;0.821799
9125.000000;0.822009
9124.000000;0.822076
9123.000000;0.821770
9122.000000;0.821210
9121.000000;0.820722
9120.000000;0.820554
9119.000000;0.820768
9118.000000;0.821246
9117.000000;0.821647
9116.000000;0.821519
9115.000000;0.820690
9114.000000;0.819569
9113.000000;0.818865
9112.000000;0.818976
9111.000000;0.819704
9110.000000;0.820538
9109.000000;0.821071
9108.000000;0.821162
9107.000000;0.820854
9106.000000;0.820294
9105.000000;0.819645
9104.000000;0.818992
9103.000000;0.818358
9102.000000;0.817876
9101.000000;0.817840
9100.000000;0.818418
9099.000000;0.819319
9098.000000;0.819913
9097.000000;0.819803
9096.000000;0.819235
9095.000000;0.818873
9094.000000;0.819175
9093.000000;0.819973
9092.000000;0.820564
9091.000000;0.820184
9090.000000;0.818597
9089.000000;0.816409
9088.000000;0.814760
9087.000000;0.814457
9086.000000;0.815326
9085.000000;0.816452
9084.000000;0.817027
9083.000000;0.816852
9082.000000;0.816113
9081.000000;0.815053
9080.000000;0.814018
9079.000000;0.813470
9078.000000;0.813621
9077.000000;0.814149
9076.000000;0.814556
9075.000000;0.814725
9074.000000;0.814918
9073.000000;0.815262
9072.000000;0.815510
9071.000000;0.815365
9070.000000;0.814812
9069.000000;0.814109
9068.000000;0.813594
9067.000000;0.813505
9066.000000;0.813764
9065.000000;0.813938
9064.000000;0.813631
9063.000000;0.812981
9062.000000;0.812514
9061.000000;0.812462
9060.000000;0.812475
9059.000000;0.812157
9058.000000;0.811613
9057.000000;0.811225
9056.000000;0.811075
9055.000000;0.810884
9054.000000;0.810489
9053.000000;0.810124
