Criado como novo conjunto de dados;"e0108.spp","-4227101.4 Secs"
cm-1;Abs
10000.000000;1.909147
9999.000000;1.910859
9998.000000;1.912187
9997.000000;1.914361
9996.000000;1.912130
9995.000000;1.904908
9994.000000;1.901275
9993.000000;1.905785
9992.000000;1.914233
9991.000000;1.915813
9990.000000;1.905719
9989.000000;1.891328
9988.000000;1.883258
9987.000000;1.884067
9986.000000;1.887379
9985.000000;1.885894
9984.000000;1.879444
9983.000000;1.873512
9982.000000;1.871591
9981.000000;1.872618
9980.000000;1.874583
9979.000000;1.877425
9978.000000;1.881771
9977.000000;1.886769
9976.000000;1.890480
9975.000000;1.891359
9974.000000;1.888988
9973.000000;1.884821
9972.000000;1.881715
9971.000000;1.881554
9970.000000;1.883783
9969.000000;1.886407
9968.000000;1.888312
9967.000000;1.889790
9966.000000;1.890217
9965.000000;1.887464
9964.000000;1.881121
9963.000000;1.874023
9962.000000;1.869505
9961.000000;1.868863
9960.000000;1.871666
9959.000000;1.876455
9958.000000;1.880150
9957.000000;1.879094
9956.000000;1.873153
9955.000000;1.867145
9954.000000;1.865808
9953.000000;1.868698
9952.000000;1.871538
9951.000000;1.871843
9950.000000;1.871129
9949.000000;1.871547
9948.000000;1.873715
9947.000000;1.878279
9946.000000;1.885994
9945.000000;1.894385
9944.000000;1.897414
9943.000000;1.892144
9942.000000;1.883181
9941.000000;1.877116
9940.000000;1.875580
9939.000000;1.875590
9938.000000;1.874504
9937.000000;1.872710
9936.000000;1.871594
9935.000000;1.871084
9934.000000;1.870338
9933.000000;1.869200
9932.000000;1.867805
9931.000000;1.865959
9930.000000;1.863596
9929.000000;1.860767
9928.000000;1.857221
9927.000000;1.853199
9926.000000;1.850363
9925.000000;1.850730
9924.000000;1.854361
9923.000000;1.858703
9922.000000;1.860879
9921.000000;1.860639
9920.000000;1.860276
9919.000000;1.861305
9918.000000;1.862531
9917.000000;1.862589
9916.000000;1.863104
9915.000000;1.867198
9914.000000;1.874675
9913.000000;1.880537
9912.000000;1.880459
9911.000000;1.877009
9910.000000;1.876958
9909.000000;1.882695
9908.000000;1.888964
9907.000000;1.888796
9906.000000;1.881253
9905.000000;1.870887
9904.000000;1.861585
9903.000000;1.854481
9902.000000;1.850062
9901.000000;1.848668
9900.000000;1.848882
9899.000000;1.848119
9898.000000;1.845961
9897.000000;1.845218
9896.000000;1.848618
9895.000000;1.855671
9894.000000;1.863020
9893.000000;1.866957
9892.000000;1.865782
9891.000000;1.860924
9890.000000;1.856157
9889.000000;1.854358
9888.000000;1.854825
9887.000000;1.854913
9886.000000;1.853412
9885.000000;1.850861
9884.000000;1.847733
9883.000000;1.844941
9882.000000;1.845310
9881.000000;1.850728
9880.000000;1.857995
9879.000000;1.860743
9878.000000;1.856514
9877.000000;1.849745
9876.000000;1.846241
9875.000000;1.847208
9874.000000;1.849872
9873.000000;1.851538
9872.000000;1.851112
9871.000000;1.848411
9870.000000;1.844758
9869.000000;1.843228
9868.000000;1.845757
9867.000000;1.850299
9866.000000;1.852740
9865.000000;1.851665
9864.000000;1.849287
9863.000000;1.848104
9862.000000;1.849135
9861.000000;1.852718
9860.000000;1.857951
9859.000000;1.861062
9858.000000;1.857660
9857.000000;1.848559
9856.000000;1.840415
9855.000000;1.839001
9854.000000;1.844235
9853.000000;1.851753
9852.000000;1.857518
9851.000000;1.860226
9850.000000;1.860429
9849.000000;1.858983
9848.000000;1.855894
9847.000000;1.849889
9846.000000;1.840245
9845.000000;1.829646
9844.000000;1.823569
9843.000000;1.825650
9842.000000;1.834415
9841.000000;1.844898
9840.000000;1.852637
9839.000000;1.855667
9838.000000;1.853900
9837.000000;1.848540
9836.000000;1.841747
9835.000000;1.835165
9834.000000;1.829148
9833.000000;1.824422
9832.000000;1.823154
9831.000000;1.826369
9830.000000;1.830896
9829.000000;1.831823
9828.000000;1.829072
9827.000000;1.828095
9826.000000;1.832465
9825.000000;1.838577
9824.000000;1.839627
9823.000000;1.833989
9822.000000;1.826785
9821.000000;1.823687
9820.000000;1.825718
9819.000000;1.829512
9818.000000;1.831120
9817.000000;1.829179
9816.000000;1.825361
9815.000000;1.822905
9814.000000;1.824260
9813.000000;1.829130
9812.000000;1.834764
9811.000000;1.838476
9810.000000;1.839716
9809.000000;1.839454
9808.000000;1.838166
9807.000000;1.835671
9806.000000;1.832702
9805.000000;1.830916
9804.000000;1.830881
9803.000000;1.831109
9802.000000;1.829793
9801.000000;1.827023
9800.000000;1.824408
9799.000000;1.822936
9798.000000;1.822199
9797.000000;1.821471
9796.000000;1.820645
9795.000000;1.819882
9794.000000;1.819026
9793.000000;1.817960
9792.000000;1.817127
9791.000000;1.817329
9790.000000;1.819570
9789.000000;1.825021
9788.000000;1.834149
9787.000000;1.844843
9786.000000;1.851325
9785.000000;1.847501
9784.000000;1.833755
9783.000000;1.818251
9782.000000;1.809686
9781.000000;1.810146
9780.000000;1.815128
9779.000000;1.819782
9778.000000;1.824038
9777.000000;1.830284
9776.000000;1.837770
9775.000000;1.842276
9774.000000;1.841396
9773.000000;1.837522
9772.000000;1.834667
9771.000000;1.834642
9770.000000;1.836973
9769.000000;1.840292
9768.000000;1.842065
9767.000000;1.838908
9766.000000;1.830253
9765.000000;1.820174
9764.000000;1.813412
9763.000000;1.810825
9762.000000;1.810074
9761.000000;1.810028
9760.000000;1.811636
9759.000000;1.814066
9758.000000;1.813430
9757.000000;1.807407
9756.000000;1.799234
9755.000000;1.794586
9754.000000;1.795630
9753.000000;1.799968
9752.000000;1.804441
9751.000000;1.808006
9750.000000;1.811022
9749.000000;1.813913
9748.000000;1.816750
9747.000000;1.818718
9746.000000;1.818680
9745.000000;1.816695
9744.000000;1.813868
9743.000000;1.810786
9742.000000;1.806710
9741.000000;1.800912
9740.000000;1.794559
9739.000000;1.790039
9738.000000;1.788407
9737.000000;1.788642
9736.000000;1.789606
9735.000000;1.791678
9734.000000;1.795638
9733.000000;1.800741
9732.000000;1.805084
9731.000000;1.807677
9730.000000;1.809153
9729.000000;1.810763
9728.000000;1.813545
9727.000000;1.817975
9726.000000;1.823385
9725.000000;1.827335
9724.000000;1.826280
9723.000000;1.818427
9722.000000;1.806369
9721.000000;1.795634
9720.000000;1.790157
9719.000000;1.789659
9718.000000;1.791301
9717.000000;1.793542
9716.000000;1.797385
9715.000000;1.803339
9714.000000;1.808612
9713.000000;1.809284
9712.000000;1.805568
9711.000000;1.802662
9710.000000;1.805059
9709.000000;1.811385
9708.000000;1.815783
9707.000000;1.814248
9706.000000;1.808469
9705.000000;1.802470
9704.000000;1.797531
9703.000000;1.792814
9702.000000;1.788586
9701.000000;1.785839
9700.000000;1.784202
9699.000000;1.782311
9698.000000;1.780467
9697.000000;1.781240
9696.000000;1.785829
9695.000000;1.791582
9694.000000;1.795067
9693.000000;1.796283
9692.000000;1.797599
9691.000000;1.799601
9690.000000;1.800598
9689.000000;1.800088
9688.000000;1.799858
9687.000000;1.800452
9686.000000;1.799020
9685.000000;1.792695
9684.000000;1.782693
9683.000000;1.773180
9682.000000;1.767443
9681.000000;1.766606
9680.000000;1.770441
9679.000000;1.777657
9678.000000;1.785746
9677.000000;1.791951
9676.000000;1.795068
9675.000000;1.795676
9674.000000;1.794537
9673.000000;1.791876
9672.000000;1.788276
9671.000000;1.784922
9670.000000;1.782168
9669.000000;1.778708
9668.000000;1.773366
9667.000000;1.767568
9666.000000;1.764813
9665.000000;1.767419
9664.000000;1.774072
9663.000000;1.780547
9662.000000;1.783416
9661.000000;1.782868
9660.000000;1.780956
9659.000000;1.778141
9658.000000;1.773490
9657.000000;1.768046
9656.000000;1.765652
9655.000000;1.768895
9654.000000;1.774850
9653.000000;1.776686
9652.000000;1.770982
9651.000000;1.761804
9650.000000;1.756038
9649.000000;1.757117
9648.000000;1.764002
9647.000000;1.773958
9646.000000;1.784202
9645.000000;1.791031
9644.000000;1.790794
9643.000000;1.784120
9642.000000;1.777149
9641.000000;1.776237
9640.000000;1.781878
9639.000000;1.788263
9638.000000;1.788831
9637.000000;1.782315
9636.000000;1.773099
9635.000000;1.766351
9634.000000;1.763675
9633.000000;1.763095
9632.000000;1.762091
9631.000000;1.760203
9630.000000;1.759050
9629.000000;1.759964
9628.000000;1.762030
9627.000000;1.763216
9626.000000;1.763464
9625.000000;1.765573
9624.000000;1.771763
9623.000000;1.779862
9622.000000;1.784597
9621.000000;1.783522
9620.000000;1.779994
9619.000000;1.778775
9618.000000;1.780469
9617.000000;1.781862
9616.000000;1.780764
9615.000000;1.778454
9614.000000;1.776862
9613.000000;1.775280
9612.000000;1.771140
9611.000000;1.763424
9610.000000;1.754432
9609.000000;1.748165
9608.000000;1.747301
9607.000000;1.751334
9606.000000;1.756962
9605.000000;1.760714
9604.000000;1.761761
9603.000000;1.761630
9602.000000;1.761146
9601.000000;1.759184
9600.000000;1.755077
9599.000000;1.750678
9598.000000;1.748573
9597.000000;1.749107
9596.000000;1.750574
9595.000000;1.751897
9594.000000;1.753297
9593.000000;1.754397
9592.000000;1.754111
9591.000000;1.753127
9590.000000;1.754360
9589.000000;1.759592
9588.000000;1.766862
9587.000000;1.772565
9586.000000;1.775511
9585.000000;1.776897
9584.000000;1.776788
9583.000000;1.773467
9582.000000;1.766765
9581.000000;1.759665
9580.000000;1.755240
9579.000000;1.753632
9578.000000;1.753220
9577.000000;1.753588
9576.000000;1.755931
9575.000000;1.760758
9574.000000;1.766300
9573.000000;1.769450
9572.000000;1.768018
9571.000000;1.762307
9570.000000;1.755031
9569.000000;1.749806
9568.000000;1.748830
9567.000000;1.751184
9566.000000;1.753545
9565.000000;1.753449
9564.000000;1.751877
9563.000000;1.751782
9562.000000;1.754205
9561.000000;1.757013
9560.000000;1.757810
9559.000000;1.756753
9558.000000;1.755767
9557.000000;1.755750
9556.000000;1.755413
9555.000000;1.753268
9554.000000;1.749651
9553.000000;1.745786
9552.000000;1.742320
9551.000000;1.740048
9550.000000;1.740609
9549.000000;1.744583
9548.000000;1.749192
9547.000000;1.749939
9546.000000;1.745631
9545.000000;1.740302
9544.000000;1.739197
9543.000000;1.743946
9542.000000;1.751493
9541.000000;1.756602
9540.000000;1.755641
9539.000000;1.749363
9538.000000;1.742407
9537.000000;1.739220
9536.000000;1.740196
9535.000000;1.741992
9534.000000;1.741486
9533.000000;1.739000
9532.000000;1.737543
9531.000000;1.739298
9530.000000;1.743254
9529.000000;1.746388
9528.000000;1.746722
9527.000000;1.744796
9526.000000;1.742370
9525.000000;1.740139
9524.000000;1.737172
9523.000000;1.732925
9522.000000;1.729255
9521.000000;1.729236
9520.000000;1.733878
9519.000000;1.740646
9518.000000;1.745433
9517.000000;1.745647
9516.000000;1.741497
9515.000000;1.735599
9514.000000;1.731444
9513.000000;1.730925
9512.000000;1.732661
9511.000000;1.733528
9510.000000;1.732747
9509.000000;1.733085
9508.000000;1.737041
9507.000000;1.743450
9506.000000;1.748581
9505.000000;1.749779
9504.000000;1.747172
9503.000000;1.742536
9502.000000;1.737817
9501.000000;1.733940
9500.000000;1.729967
9499.000000;1.724413
9498.000000;1.718301
9497.000000;1.715421
9496.000000;1.718067
9495.000000;1.723460
9494.000000;1.726039
9493.000000;1.723584
9492.000000;1.719294
9491.000000;1.717457
9490.000000;1.719379
9489.000000;1.723437
9488.000000;1.726866
9487.000000;1.727313
9486.000000;1.724587
9485.000000;1.721582
9484.000000;1.722039
9483.000000;1.726647
9482.000000;1.732027
9481.000000;1.734166
9480.000000;1.732216
9479.000000;1.728255
9478.000000;1.724767
9477.000000;1.723320
9476.000000;1.724378
9475.000000;1.727002
9474.000000;1.728832
9473.000000;1.727545
9472.000000;1.723008
9471.000000;1.717800
9470.000000;1.715612
9469.000000;1.718691
9468.000000;1.725740
9467.000000;1.732036
9466.000000;1.732945
9465.000000;1.728220
9464.000000;1.721930
9463.000000;1.718223
9462.000000;1.718339
9461.000000;1.721163
9460.000000;1.724847
9459.000000;1.727317
9458.000000;1.726859
9457.000000;1.723562
9456.000000;1.719284
9455.000000;1.715683
9454.000000;1.713088
9453.000000;1.711430
9452.000000;1.711311
9451.000000;1.713058
9450.000000;1.715428
9449.000000;1.716785
9448.000000;1.717415
9447.000000;1.719065
9446.000000;1.722267
9445.000000;1.725417
9444.000000;1.726664
9443.000000;1.725857
9442.000000;1.724308
9441.000000;1.723207
9440.000000;1.722613
9439.000000;1.721719
9438.000000;1.719990
9437.000000;1.718044
9436.000000;1.716992
9435.000000;1.716810
9434.000000;1.716059
9433.000000;1.713651
9432.000000;1.710420
9431.000000;1.708256
9430.000000;1.707946
9429.000000;1.708912
9428.000000;1.710894
9427.000000;1.714339
9426.000000;1.718661
9425.000000;1.721496
9424.000000;1.720650
9423.000000;1.716393
9422.000000;1.711356
9421.000000;1.708629
9420.000000;1.710089
9419.000000;1.715303
9418.000000;1.721199
9417.000000;1.723883
9416.000000;1.722330
9415.000000;1.719627
9414.000000;1.719167
9413.000000;1.720328
9412.000000;1.719226
9411.000000;1.713879
9410.000000;1.707022
9409.000000;1.702751
9408.000000;1.702225
9407.000000;1.703892
9406.000000;1.706593
9405.000000;1.710504
9404.000000;1.715126
9403.000000;1.718239
9402.000000;1.717773
9401.000000;1.713874
9400.000000;1.708459
9399.000000;1.703506
9398.000000;1.700224
9397.000000;1.698860
9396.000000;1.698585
9395.000000;1.698355
9394.000000;1.698377
9393.000000;1.699756
9392.000000;1.702228
9391.000000;1.703545
9390.000000;1.702214
9389.000000;1.699644
9388.000000;1.698062
9387.000000;1.697294
9386.000000;1.695330
9385.000000;1.691660
9384.000000;1.688110
9383.000000;1.686176
9382.000000;1.685370
9381.000000;1.684759
9380.000000;1.684679
9379.000000;1.686005
9378.000000;1.688635
9377.000000;1.691708
9376.000000;1.694782
9375.000000;1.697991
9374.000000;1.701220
9373.000000;1.703533
9372.000000;1.703640
9371.000000;1.701200
9370.000000;1.697899
9369.000000;1.696722
9368.000000;1.699201
9367.000000;1.703458
9366.000000;1.705759
9365.000000;1.704335
9364.000000;1.700671
9363.000000;1.696944
9362.000000;1.694008
9361.000000;1.691940
9360.000000;1.690997
9359.000000;1.691546
9358.000000;1.693733
9357.000000;1.697429
9356.000000;1.701908
9355.000000;1.705450
9354.000000;1.706368
9353.000000;1.704870
9352.000000;1.702792
9351.000000;1.701154
9350.000000;1.699252
9349.000000;1.696516
9348.000000;1.693864
9347.000000;1.692320
9346.000000;1.691546
9345.000000;1.691040
9344.000000;1.691326
9343.000000;1.692373
9342.000000;1.692401
9341.000000;1.689783
9340.000000;1.685834
9339.000000;1.684129
9338.000000;1.686404
9337.000000;1.690752
9336.000000;1.694103
9335.000000;1.695209
9334.000000;1.694958
9333.000000;1.694549
9332.000000;1.694467
9331.000000;1.694941
9330.000000;1.696235
9329.000000;1.698358
9328.000000;1.700656
9327.000000;1.701394
9326.000000;1.698444
9325.000000;1.691633
9324.000000;1.684012
9323.000000;1.679704
9322.000000;1.680515
9321.000000;1.684920
9320.000000;1.690013
9319.000000;1.693741
9318.000000;1.695142
9317.000000;1.693688
9316.000000;1.689651
9315.000000;1.684741
9314.000000;1.681056
9313.000000;1.679114
9312.000000;1.677962
9311.000000;1.677113
9310.000000;1.677277
9309.000000;1.679056
9308.000000;1.681552
9307.000000;1.682965
9306.000000;1.682666
9305.000000;1.681958
9304.000000;1.682445
9303.000000;1.684218
9302.000000;1.686025
9301.000000;1.686825
9300.000000;1.686599
9299.000000;1.685864
9298.000000;1.685161
9297.000000;1.685194
9296.000000;1.686464
9295.000000;1.688180
9294.000000;1.688418
9293.000000;1.686242
9292.000000;1.683096
9291.000000;1.681254
9290.000000;1.681333
9289.000000;1.682118
9288.000000;1.682665
9287.000000;1.683227
9286.000000;1.683687
9285.000000;1.682683
9284.000000;1.679515
9283.000000;1.675991
9282.000000;1.674828
9281.000000;1.676379
9280.000000;1.677998
9279.000000;1.677046
9278.000000;1.674047
9277.000000;1.671905
9276.000000;1.672323
9275.000000;1.674079
9274.000000;1.674989
9273.000000;1.674640
9272.000000;1.674276
9271.000000;1.674649
9270.000000;1.675279
9269.000000;1.675721
9268.000000;1.676254
9267.000000;1.676850
9266.000000;1.676538
9265.000000;1.674647
9264.000000;1.672068
9263.000000;1.670442
9262.000000;1.670497
9261.000000;1.671906
9260.000000;1.674271
9259.000000;1.677223
9258.000000;1.679617
9257.000000;1.679862
9256.000000;1.677427
9255.000000;1.673273
9254.000000;1.669087
9253.000000;1.666659
9252.000000;1.667414
9251.000000;1.671355
9250.000000;1.676213
9249.000000;1.678955
9248.000000;1.678691
9247.000000;1.677087
9246.000000;1.675933
9245.000000;1.675648
9244.000000;1.676119
9243.000000;1.677231
9242.000000;1.677874
9241.000000;1.676141
9240.000000;1.672089
9239.000000;1.668925
9238.000000;1.669358
9237.000000;1.671719
9236.000000;1.671845
9235.000000;1.668623
9234.000000;1.665291
9233.000000;1.664922
9232.000000;1.666934
9231.000000;1.668681
9230.000000;1.668700
9229.000000;1.667145
9228.000000;1.664458
9227.000000;1.661432
9226.000000;1.659708
9225.000000;1.660290
9224.000000;1.661887
9223.000000;1.662381
9222.000000;1.661591
9221.000000;1.661185
9220.000000;1.662185
9219.000000;1.663756
9218.000000;1.664583
9217.000000;1.664393
9216.000000;1.663448
9215.000000;1.661515
9214.000000;1.658561
9213.000000;1.656120
9212.000000;1.656696
9211.000000;1.661235
9210.000000;1.667372
9209.000000;1.670715
9208.000000;1.668709
9207.000000;1.663290
9206.000000;1.659080
9205.000000;1.659163
9204.000000;1.662902
9203.000000;1.667292
9202.000000;1.669735
9201.000000;1.669514
9200.000000;1.667470
9199.000000;1.665087
9198.000000;1.663589
9197.000000;1.663204
9196.000000;1.663510
9195.000000;1.664857
9194.000000;1.668504
9193.000000;1.674156
9192.000000;1.678156
9191.000000;1.676383
9190.000000;1.669398
9189.000000;1.662356
9188.000000;1.659348
9187.000000;1.659811
9186.000000;1.660753
9185.000000;1.660891
9184.000000;1.661316
9183.000000;1.662864
9182.000000;1.664551
9181.000000;1.664692
9180.000000;1.662580
9179.000000;1.659003
9178.000000;1.655786
9177.000000;1.654607
9176.000000;1.655550
9175.000000;1.656884
9174.000000;1.656855
9173.000000;1.655505
9172.000000;1.654206
9171.000000;1.653722
9170.000000;1.653498
9169.000000;1.652844
9168.000000;1.651878
9167.000000;1.651112
9166.000000;1.651006
9165.000000;1.651797
9164.000000;1.653191
9163.000000;1.654611
9162.000000;1.656224
9161.000000;1.659047
9160.000000;1.663128
9159.000000;1.666192
9158.000000;1.665519
9157.000000;1.661486
9156.000000;1.657792
9155.000000;1.657684
9154.000000;1.660860
9153.000000;1.664131
9152.000000;1.664365
9151.000000;1.660668
9150.000000;1.654611
9149.000000;1.649158
9148.000000;1.647055
9147.000000;1.649098
9146.000000;1.653513
9145.000000;1.657613
9144.000000;1.660287
9143.000000;1.662385
9142.000000;1.664709
9141.000000;1.666448
9140.000000;1.666135
9139.000000;1.663775
9138.000000;1.661104
9137.000000;1.659500
9136.000000;1.658506
9135.000000;1.656922
9134.000000;1.654739
9133.000000;1.653190
9132.000000;1.652963
9131.000000;1.653323
9130.000000;1.653266
9129.000000;1.652473
9128.000000;1.650874
9127.000000;1.648504
9126.000000;1.646601
9125.000000;1.647582
9124.000000;1.652416
9123.000000;1.658368
9122.000000;1.660662
9121.000000;1.657109
9120.000000;1.650264
9119.000000;1.644537
9118.000000;1.642312
9117.000000;1.642999
9116.000000;1.644790
9115.000000;1.646712
9114.000000;1.649038
9113.000000;1.652002
9112.000000;1.654672
9111.000000;1.655745
9110.000000;1.655472
9109.000000;1.655707
9108.000000;1.657370
9107.000000;1.658709
9106.000000;1.657010
9105.000000;1.651829
9104.000000;1.645714
9103.000000;1.641819
9102.000000;1.641456
9101.000000;1.643568
9100.000000;1.645662
9099.000000;1.645493
9098.000000;1.643040
9097.000000;1.640693
9096.000000;1.640545
9095.000000;1.642193
9094.000000;1.643895
9093.000000;1.644883
9092.000000;1.645531
9091.000000;1.645951
9090.000000;1.645805
9089.000000;1.645412
9088.000000;1.645749
9087.000000;1.647237
9086.000000;1.649533
9085.000000;1.652408
9084.000000;1.655580
9083.000000;1.657733
9082.000000;1.657185
9081.000000;1.654117
9080.000000;1.650956
9079.000000;1.649718
9078.000000;1.649821
9077.000000;1.649200
9076.000000;1.646780
9075.000000;1.643183
9074.000000;1.639794
9073.000000;1.637854
9072.000000;1.637929
9071.000000;1.639623
9070.000000;1.641989
9069.000000;1.644463
9068.000000;1.646866
9067.000000;1.648341
9066.000000;1.647269
9065.000000;1.643039
9064.000000;1.637273
9063.000000;1.632574
9062.000000;1.630404
9061.000000;1.630446
9060.000000;1.631455
9059.000000;1.632432
9058.000000;1.633256
9057.000000;1.634354
9056.000000;1.635705
9055.000000;1.636480
9054.000000;1.636131
9053.000000;1.635536
