Criado como novo conjunto de dados;"e0108.spp","-4294605.3 Secs"
cm-1;Abs
10000.000000;-0.230106
9999.000000;-0.230298
9998.000000;-0.230490
9997.000000;-0.230682
9996.000000;-0.230873
9995.000000;-0.231065
9994.000000;-0.231256
9993.000000;-0.231448
9992.000000;-0.231639
9991.000000;-0.231856
9990.000000;-0.232126
9989.000000;-0.232483
9988.000000;-0.233005
9987.000000;-0.233653
9986.000000;-0.234202
9985.000000;-0.234466
9984.000000;-0.234549
9983.000000;-0.234734
9982.000000;-0.235151
9981.000000;-0.235653
9980.000000;-0.236009
9979.000000;-0.236125
9978.000000;-0.236078
9977.000000;-0.236020
9976.000000;-0.236039
9975.000000;-0.236102
9974.000000;-0.236150
9973.000000;-0.236280
9972.000000;-0.236751
9971.000000;-0.237680
9970.000000;-0.238784
9969.000000;-0.239568
9968.000000;-0.239784
9967.000000;-0.239633
9966.000000;-0.239503
9965.000000;-0.239641
9964.000000;-0.240060
9963.000000;-0.240585
9962.000000;-0.240935
9961.000000;-0.240910
9960.000000;-0.240648
9959.000000;-0.240620
9958.000000;-0.241233
9957.000000;-0.242420
9956.000000;-0.243687
9955.000000;-0.244537
9954.000000;-0.244821
9953.000000;-0.244744
9952.000000;-0.244658
9951.000000;-0.244804
9950.000000;-0.245189
9949.000000;-0.245655
9948.000000;-0.246080
9947.000000;-0.246486
9946.000000;-0.246923
9945.000000;-0.247326
9944.000000;-0.247571
9943.000000;-0.247635
9942.000000;-0.247642
9941.000000;-0.247772
9940.000000;-0.248141
9939.000000;-0.248711
9938.000000;-0.249228
9937.000000;-0.249329
9936.000000;-0.248901
9935.000000;-0.248317
9934.000000;-0.248200
9933.000000;-0.248855
9932.000000;-0.249989
9931.000000;-0.250999
9930.000000;-0.251516
9929.000000;-0.251634
9928.000000;-0.251703
9927.000000;-0.251944
9926.000000;-0.252285
9925.000000;-0.252522
9924.000000;-0.252616
9923.000000;-0.252767
9922.000000;-0.253183
9921.000000;-0.253826
9920.000000;-0.254454
9919.000000;-0.254873
9918.000000;-0.255064
9917.000000;-0.255088
9916.000000;-0.254997
9915.000000;-0.254878
9914.000000;-0.254879
9913.000000;-0.255131
9912.000000;-0.255659
9911.000000;-0.256371
9910.000000;-0.257100
9909.000000;-0.257657
9908.000000;-0.257951
9907.000000;-0.258099
9906.000000;-0.258346
9905.000000;-0.258812
9904.000000;-0.259355
9903.000000;-0.259738
9902.000000;-0.259907
9901.000000;-0.260049
9900.000000;-0.260380
9899.000000;-0.260927
9898.000000;-0.261514
9897.000000;-0.261943
9896.000000;-0.262169
9895.000000;-0.262288
9894.000000;-0.262389
9893.000000;-0.262469
9892.000000;-0.262504
9891.000000;-0.262549
9890.000000;-0.262682
9889.000000;-0.262905
9888.000000;-0.263161
9887.000000;-0.263425
9886.000000;-0.263719
9885.000000;-0.264060
9884.000000;-0.264467
9883.000000;-0.264984
9882.000000;-0.265591
9881.000000;-0.266133
9880.000000;-0.266444
9879.000000;-0.266569
9878.000000;-0.266757
9877.000000;-0.267197
9876.000000;-0.267842
9875.000000;-0.268520
9874.000000;-0.269094
9873.000000;-0.269461
9872.000000;-0.269536
9871.000000;-0.269361
9870.000000;-0.269177
9869.000000;-0.269280
9868.000000;-0.269785
9867.000000;-0.270542
9866.000000;-0.271265
9865.000000;-0.271727
9864.000000;-0.271900
9863.000000;-0.271966
9862.000000;-0.272134
9861.000000;-0.272410
9860.000000;-0.272625
9859.000000;-0.272699
9858.000000;-0.272777
9857.000000;-0.273021
9856.000000;-0.273363
9855.000000;-0.273597
9854.000000;-0.273662
9853.000000;-0.273712
9852.000000;-0.273898
9851.000000;-0.274188
9850.000000;-0.274423
9849.000000;-0.274519
9848.000000;-0.274587
9847.000000;-0.274887
9846.000000;-0.275610
9845.000000;-0.276643
9844.000000;-0.277569
9843.000000;-0.277973
9842.000000;-0.277826
9841.000000;-0.277528
9840.000000;-0.277572
9839.000000;-0.278139
9838.000000;-0.278968
9837.000000;-0.279592
9836.000000;-0.279739
9835.000000;-0.279565
9834.000000;-0.279506
9833.000000;-0.279899
9832.000000;-0.280735
9831.000000;-0.281696
9830.000000;-0.282380
9829.000000;-0.282546
9828.000000;-0.282302
9827.000000;-0.282061
9826.000000;-0.282193
9825.000000;-0.282653
9824.000000;-0.283083
9823.000000;-0.283314
9822.000000;-0.283607
9821.000000;-0.284264
9820.000000;-0.285169
9819.000000;-0.285911
9818.000000;-0.286271
9817.000000;-0.286378
9816.000000;-0.286448
9815.000000;-0.286580
9814.000000;-0.286814
9813.000000;-0.287164
9812.000000;-0.287531
9811.000000;-0.287759
9810.000000;-0.287839
9809.000000;-0.287927
9808.000000;-0.288111
9807.000000;-0.288302
9806.000000;-0.288431
9805.000000;-0.288600
9804.000000;-0.288936
9803.000000;-0.289395
9802.000000;-0.289826
9801.000000;-0.290157
9800.000000;-0.290412
9799.000000;-0.290660
9798.000000;-0.291009
9797.000000;-0.291570
9796.000000;-0.292272
9795.000000;-0.292791
9794.000000;-0.292845
9793.000000;-0.292553
9792.000000;-0.292362
9791.000000;-0.292584
9790.000000;-0.293099
9789.000000;-0.293527
9788.000000;-0.293635
9787.000000;-0.293515
9786.000000;-0.293442
9785.000000;-0.293610
9784.000000;-0.294013
9783.000000;-0.294523
9782.000000;-0.295037
9781.000000;-0.295525
9780.000000;-0.295979
9779.000000;-0.296401
9778.000000;-0.296835
9777.000000;-0.297298
9776.000000;-0.297670
9775.000000;-0.297763
9774.000000;-0.297594
9773.000000;-0.297465
9772.000000;-0.297609
9771.000000;-0.297876
9770.000000;-0.297964
9769.000000;-0.297922
9768.000000;-0.298179
9767.000000;-0.298969
9766.000000;-0.299965
9765.000000;-0.300642
9764.000000;-0.300862
9763.000000;-0.300917
9762.000000;-0.301071
9761.000000;-0.301300
9760.000000;-0.301476
9759.000000;-0.301600
9758.000000;-0.301746
9757.000000;-0.301937
9756.000000;-0.302182
9755.000000;-0.302543
9754.000000;-0.303032
9753.000000;-0.303510
9752.000000;-0.303807
9751.000000;-0.303946
9750.000000;-0.304135
9749.000000;-0.304518
9748.000000;-0.305024
9747.000000;-0.305469
9746.000000;-0.305740
9745.000000;-0.305872
9744.000000;-0.306002
9743.000000;-0.306259
9742.000000;-0.306619
9741.000000;-0.306877
9740.000000;-0.306861
9739.000000;-0.306693
9738.000000;-0.306718
9737.000000;-0.307117
9736.000000;-0.307701
9735.000000;-0.308177
9734.000000;-0.308473
9733.000000;-0.308697
9732.000000;-0.308888
9731.000000;-0.309003
9730.000000;-0.309103
9729.000000;-0.309321
9728.000000;-0.309651
9727.000000;-0.309960
9726.000000;-0.310239
9725.000000;-0.310635
9724.000000;-0.311161
9723.000000;-0.311607
9722.000000;-0.311876
9721.000000;-0.312200
9720.000000;-0.312817
9719.000000;-0.313546
9718.000000;-0.313945
9717.000000;-0.313833
9716.000000;-0.313485
9715.000000;-0.313298
9714.000000;-0.313455
9713.000000;-0.313890
9712.000000;-0.314376
9711.000000;-0.314600
9710.000000;-0.314373
9709.000000;-0.313873
9708.000000;-0.313561
9707.000000;-0.313741
9706.000000;-0.314291
9705.000000;-0.314888
9704.000000;-0.315392
9703.000000;-0.315903
9702.000000;-0.316522
9701.000000;-0.317190
9700.000000;-0.317750
9699.000000;-0.318089
9698.000000;-0.318214
9697.000000;-0.318238
9696.000000;-0.318249
9695.000000;-0.318175
9694.000000;-0.317879
9693.000000;-0.317460
9692.000000;-0.317321
9691.000000;-0.317804
9690.000000;-0.318807
9689.000000;-0.319891
9688.000000;-0.320733
9687.000000;-0.321323
9686.000000;-0.321732
9685.000000;-0.321913
9684.000000;-0.321847
9683.000000;-0.321717
9682.000000;-0.321768
9681.000000;-0.322048
9680.000000;-0.322403
9679.000000;-0.322716
9678.000000;-0.323002
9677.000000;-0.323256
9676.000000;-0.323361
9675.000000;-0.323269
9674.000000;-0.323192
9673.000000;-0.323466
9672.000000;-0.324170
9671.000000;-0.324991
9670.000000;-0.325545
9669.000000;-0.325787
9668.000000;-0.326001
9667.000000;-0.326379
9666.000000;-0.326755
9665.000000;-0.326839
9664.000000;-0.326617
9663.000000;-0.326388
9662.000000;-0.326431
9661.000000;-0.326747
9660.000000;-0.327167
9659.000000;-0.327596
9658.000000;-0.328074
9657.000000;-0.328637
9656.000000;-0.329194
9655.000000;-0.329580
9654.000000;-0.329696
9653.000000;-0.329599
9652.000000;-0.329454
9651.000000;-0.329427
9650.000000;-0.329595
9649.000000;-0.329955
9648.000000;-0.330443
9647.000000;-0.330955
9646.000000;-0.331384
9645.000000;-0.331688
9644.000000;-0.331918
9643.000000;-0.332144
9642.000000;-0.332376
9641.000000;-0.332603
9640.000000;-0.332867
9639.000000;-0.333239
9638.000000;-0.333712
9637.000000;-0.334168
9636.000000;-0.334473
9635.000000;-0.334569
9634.000000;-0.334495
9633.000000;-0.334377
9632.000000;-0.334376
9631.000000;-0.334571
9630.000000;-0.334880
9629.000000;-0.335147
9628.000000;-0.335323
9627.000000;-0.335505
9626.000000;-0.335799
9625.000000;-0.336222
9624.000000;-0.336759
9623.000000;-0.337390
9622.000000;-0.338024
9621.000000;-0.338478
9620.000000;-0.338602
9619.000000;-0.338423
9618.000000;-0.338092
9617.000000;-0.337759
9616.000000;-0.337547
9615.000000;-0.337578
9614.000000;-0.337923
9613.000000;-0.338523
9612.000000;-0.339223
9611.000000;-0.339893
9610.000000;-0.340466
9609.000000;-0.340886
9608.000000;-0.341094
9607.000000;-0.341076
9606.000000;-0.340871
9605.000000;-0.340548
9604.000000;-0.340237
9603.000000;-0.340165
9602.000000;-0.340559
9601.000000;-0.341438
9600.000000;-0.342514
9599.000000;-0.343349
9598.000000;-0.343643
9597.000000;-0.343452
9596.000000;-0.343163
9595.000000;-0.343218
9594.000000;-0.343766
9593.000000;-0.344545
9592.000000;-0.345130
9591.000000;-0.345323
9590.000000;-0.345262
9589.000000;-0.345208
9588.000000;-0.345303
9587.000000;-0.345556
9586.000000;-0.345930
9585.000000;-0.346358
9584.000000;-0.346709
9583.000000;-0.346859
9582.000000;-0.346825
9581.000000;-0.346774
9580.000000;-0.346867
9579.000000;-0.347116
9578.000000;-0.347407
9577.000000;-0.347655
9576.000000;-0.347899
9575.000000;-0.348260
9574.000000;-0.348784
9573.000000;-0.349353
9572.000000;-0.349764
9571.000000;-0.349926
9570.000000;-0.349965
9569.000000;-0.350122
9568.000000;-0.350525
9567.000000;-0.351075
9566.000000;-0.351569
9565.000000;-0.351873
9564.000000;-0.351966
9563.000000;-0.351861
9562.000000;-0.351580
9561.000000;-0.351237
9560.000000;-0.351046
9559.000000;-0.351213
9558.000000;-0.351781
9557.000000;-0.352614
9556.000000;-0.353458
9555.000000;-0.354043
9554.000000;-0.354228
9553.000000;-0.354136
9552.000000;-0.354092
9551.000000;-0.354331
9550.000000;-0.354762
9549.000000;-0.355103
9548.000000;-0.355203
9547.000000;-0.355182
9546.000000;-0.355265
9545.000000;-0.355601
9544.000000;-0.356212
9543.000000;-0.356955
9542.000000;-0.357532
9541.000000;-0.357698
9540.000000;-0.357536
9539.000000;-0.357381
9538.000000;-0.357393
9537.000000;-0.357366
9536.000000;-0.357079
9535.000000;-0.356668
9534.000000;-0.356479
9533.000000;-0.356637
9532.000000;-0.356973
9531.000000;-0.357354
9530.000000;-0.357845
9529.000000;-0.358495
9528.000000;-0.359159
9527.000000;-0.359634
9526.000000;-0.359855
9525.000000;-0.359874
9524.000000;-0.359754
9523.000000;-0.359626
9522.000000;-0.359760
9521.000000;-0.360368
9520.000000;-0.361296
9519.000000;-0.362035
9518.000000;-0.362169
9517.000000;-0.361799
9516.000000;-0.361425
9515.000000;-0.361413
9514.000000;-0.361663
9513.000000;-0.361860
9512.000000;-0.361936
9511.000000;-0.362121
9510.000000;-0.362534
9509.000000;-0.362944
9508.000000;-0.363063
9507.000000;-0.362977
9506.000000;-0.363073
9505.000000;-0.363554
9504.000000;-0.364173
9503.000000;-0.364524
9502.000000;-0.364485
9501.000000;-0.364292
9500.000000;-0.364236
9499.000000;-0.364381
9498.000000;-0.364599
9497.000000;-0.364803
9496.000000;-0.365051
9495.000000;-0.365399
9494.000000;-0.365747
9493.000000;-0.365936
9492.000000;-0.365990
9491.000000;-0.366130
9490.000000;-0.366484
9489.000000;-0.366922
9488.000000;-0.367268
9487.000000;-0.367558
9486.000000;-0.367941
9485.000000;-0.368374
9484.000000;-0.368617
9483.000000;-0.368532
9482.000000;-0.368272
9481.000000;-0.368133
9480.000000;-0.368309
9479.000000;-0.368800
9478.000000;-0.369453
9477.000000;-0.370034
9476.000000;-0.370362
9475.000000;-0.370424
9474.000000;-0.370337
9473.000000;-0.370262
9472.000000;-0.370376
9471.000000;-0.370847
9470.000000;-0.371635
9469.000000;-0.372368
9468.000000;-0.372589
9467.000000;-0.372228
9466.000000;-0.371677
9465.000000;-0.371385
9464.000000;-0.371510
9463.000000;-0.371986
9462.000000;-0.372690
9461.000000;-0.373410
9460.000000;-0.373839
9459.000000;-0.373818
9458.000000;-0.373504
9457.000000;-0.373181
9456.000000;-0.372957
9455.000000;-0.372788
9454.000000;-0.372675
9453.000000;-0.372683
9452.000000;-0.372800
9451.000000;-0.372953
9450.000000;-0.373161
9449.000000;-0.373514
9448.000000;-0.373991
9447.000000;-0.374426
9446.000000;-0.374689
9445.000000;-0.374785
9444.000000;-0.374750
9443.000000;-0.374618
9442.000000;-0.374533
9441.000000;-0.374773
9440.000000;-0.375497
9439.000000;-0.376503
9438.000000;-0.377321
9437.000000;-0.377613
9436.000000;-0.377453
9435.000000;-0.377221
9434.000000;-0.377235
9433.000000;-0.377529
9432.000000;-0.377925
9431.000000;-0.378257
9430.000000;-0.378469
9429.000000;-0.378557
9428.000000;-0.378531
9427.000000;-0.378448
9426.000000;-0.378396
9425.000000;-0.378399
9424.000000;-0.378438
9423.000000;-0.378586
9422.000000;-0.379015
9421.000000;-0.379775
9420.000000;-0.380621
9419.000000;-0.381191
9418.000000;-0.381315
9417.000000;-0.381085
9416.000000;-0.380676
9415.000000;-0.380250
9414.000000;-0.380014
9413.000000;-0.380178
9412.000000;-0.380757
9411.000000;-0.381505
9410.000000;-0.382139
9409.000000;-0.382595
9408.000000;-0.382983
9407.000000;-0.383336
9406.000000;-0.383512
9405.000000;-0.383379
9404.000000;-0.383050
9403.000000;-0.382841
9402.000000;-0.382978
9401.000000;-0.383399
9400.000000;-0.383869
9399.000000;-0.384249
9398.000000;-0.384556
9397.000000;-0.384819
9396.000000;-0.385009
9395.000000;-0.385136
9394.000000;-0.385272
9393.000000;-0.385386
9392.000000;-0.385306
9391.000000;-0.384986
9390.000000;-0.384686
9389.000000;-0.384751
9388.000000;-0.385213
9387.000000;-0.385783
9386.000000;-0.386173
9385.000000;-0.386311
9384.000000;-0.386280
9383.000000;-0.386214
9382.000000;-0.386271
9381.000000;-0.386526
9380.000000;-0.386861
9379.000000;-0.387096
9378.000000;-0.387259
9377.000000;-0.387545
9376.000000;-0.387961
9375.000000;-0.388212
9374.000000;-0.388061
9373.000000;-0.387649
9372.000000;-0.387304
9371.000000;-0.387151
9370.000000;-0.387095
9369.000000;-0.387086
9368.000000;-0.387214
9367.000000;-0.387556
9366.000000;-0.388083
9365.000000;-0.388740
9364.000000;-0.389476
9363.000000;-0.390182
9362.000000;-0.390693
9361.000000;-0.390911
9360.000000;-0.390847
9359.000000;-0.390566
9358.000000;-0.390185
9357.000000;-0.389920
9356.000000;-0.389968
9355.000000;-0.390286
9354.000000;-0.390592
9353.000000;-0.390663
9352.000000;-0.390587
9351.000000;-0.390637
9350.000000;-0.390991
9349.000000;-0.391634
9348.000000;-0.392456
9347.000000;-0.393294
9346.000000;-0.393910
9345.000000;-0.394095
9344.000000;-0.393869
9343.000000;-0.393522
9342.000000;-0.393366
9341.000000;-0.393472
9340.000000;-0.393672
9339.000000;-0.393788
9338.000000;-0.393792
9337.000000;-0.393758
9336.000000;-0.393739
9335.000000;-0.393738
9334.000000;-0.393763
9333.000000;-0.393855
9332.000000;-0.394064
9331.000000;-0.394409
9330.000000;-0.394846
9329.000000;-0.395255
9328.000000;-0.395477
9327.000000;-0.395447
9326.000000;-0.395300
9325.000000;-0.395270
9324.000000;-0.395459
9323.000000;-0.395730
9322.000000;-0.395895
9321.000000;-0.395946
9320.000000;-0.396018
9319.000000;-0.396175
9318.000000;-0.396324
9317.000000;-0.396385
9316.000000;-0.396439
9315.000000;-0.396632
9314.000000;-0.396992
9313.000000;-0.397429
9312.000000;-0.397868
9311.000000;-0.398284
9310.000000;-0.398637
9309.000000;-0.398862
9308.000000;-0.398965
9307.000000;-0.399035
9306.000000;-0.399127
9305.000000;-0.399182
9304.000000;-0.399113
9303.000000;-0.398914
9302.000000;-0.398658
9301.000000;-0.398438
9300.000000;-0.398375
9299.000000;-0.398587
9298.000000;-0.399058
9297.000000;-0.399539
9296.000000;-0.399709
9295.000000;-0.399500
9294.000000;-0.399195
9293.000000;-0.399189
9292.000000;-0.399653
9291.000000;-0.400416
9290.000000;-0.401106
9289.000000;-0.401424
9288.000000;-0.401361
9287.000000;-0.401181
9286.000000;-0.401143
9285.000000;-0.401237
9284.000000;-0.401267
9283.000000;-0.401147
9282.000000;-0.401032
9281.000000;-0.401103
9280.000000;-0.401381
9279.000000;-0.401793
9278.000000;-0.402294
9277.000000;-0.402803
9276.000000;-0.403125
9275.000000;-0.403124
9274.000000;-0.402919
9273.000000;-0.402765
9272.000000;-0.402787
9271.000000;-0.402939
9270.000000;-0.403196
9269.000000;-0.403562
9268.000000;-0.403899
9267.000000;-0.403984
9266.000000;-0.403816
9265.000000;-0.403713
9264.000000;-0.403958
9263.000000;-0.404447
9262.000000;-0.404812
9261.000000;-0.404799
9260.000000;-0.404447
9259.000000;-0.403992
9258.000000;-0.403733
9257.000000;-0.403919
9256.000000;-0.404568
9255.000000;-0.405381
9254.000000;-0.405964
9253.000000;-0.406152
9252.000000;-0.406079
9251.000000;-0.405974
9250.000000;-0.405991
9249.000000;-0.406209
9248.000000;-0.406643
9247.000000;-0.407198
9246.000000;-0.407697
9245.000000;-0.407997
9244.000000;-0.408034
9243.000000;-0.407786
9242.000000;-0.407285
9241.000000;-0.406681
9240.000000;-0.406181
9239.000000;-0.405887
9238.000000;-0.405757
9237.000000;-0.405750
9236.000000;-0.405907
9235.000000;-0.406246
9234.000000;-0.406649
9233.000000;-0.406962
9232.000000;-0.407156
9231.000000;-0.407322
9230.000000;-0.407541
9229.000000;-0.407811
9228.000000;-0.408095
9227.000000;-0.408366
9226.000000;-0.408622
9225.000000;-0.408874
9224.000000;-0.409110
9223.000000;-0.409248
9222.000000;-0.409191
9221.000000;-0.408972
9220.000000;-0.408811
9219.000000;-0.408948
9218.000000;-0.409414
9217.000000;-0.409994
9216.000000;-0.410411
9215.000000;-0.410508
9214.000000;-0.410289
9213.000000;-0.409876
9212.000000;-0.409458
9211.000000;-0.409249
9210.000000;-0.409403
9209.000000;-0.409906
9208.000000;-0.410530
9207.000000;-0.410932
9206.000000;-0.410909
9205.000000;-0.410615
9204.000000;-0.410445
9203.000000;-0.410649
9202.000000;-0.411077
9201.000000;-0.411402
9200.000000;-0.411521
9199.000000;-0.411631
9198.000000;-0.411904
9197.000000;-0.412245
9196.000000;-0.412453
9195.000000;-0.412485
9194.000000;-0.412446
9193.000000;-0.412383
9192.000000;-0.412266
9191.000000;-0.412147
9190.000000;-0.412170
9189.000000;-0.412356
9188.000000;-0.412510
9187.000000;-0.412476
9186.000000;-0.412395
9185.000000;-0.412570
9184.000000;-0.413077
9183.000000;-0.413654
9182.000000;-0.414023
9181.000000;-0.414204
9180.000000;-0.414423
9179.000000;-0.414784
9178.000000;-0.415150
9177.000000;-0.415349
9176.000000;-0.415373
9175.000000;-0.415345
9174.000000;-0.415325
9173.000000;-0.415238
9172.000000;-0.414988
9171.000000;-0.414635
9170.000000;-0.414431
9169.000000;-0.414622
9168.000000;-0.415184
9167.000000;-0.415776
9166.000000;-0.416012
9165.000000;-0.415811
9164.000000;-0.415426
9163.000000;-0.415156
9162.000000;-0.415078
9161.000000;-0.415079
9160.000000;-0.415066
9159.000000;-0.415057
9158.000000;-0.415122
9157.000000;-0.415292
9156.000000;-0.415556
9155.000000;-0.415888
9154.000000;-0.416234
9153.000000;-0.416482
9152.000000;-0.416499
9151.000000;-0.416269
9150.000000;-0.415976
9149.000000;-0.415901
9148.000000;-0.416166
9147.000000;-0.416611
9146.000000;-0.416964
9145.000000;-0.417102
9144.000000;-0.417105
9143.000000;-0.417107
9142.000000;-0.417195
9141.000000;-0.417438
9140.000000;-0.417849
9139.000000;-0.418273
9138.000000;-0.418434
9137.000000;-0.418230
9136.000000;-0.417900
9135.000000;-0.417776
9134.000000;-0.417905
9133.000000;-0.418054
9132.000000;-0.418051
9131.000000;-0.418002
9130.000000;-0.418102
9129.000000;-0.418370
9128.000000;-0.418661
9127.000000;-0.418842
9126.000000;-0.418892
9125.000000;-0.418844
9124.000000;-0.418746
9123.000000;-0.418681
9122.000000;-0.418757
9121.000000;-0.418989
9120.000000;-0.419243
9119.000000;-0.419345
9118.000000;-0.419272
9117.000000;-0.419196
9116.000000;-0.419290
9115.000000;-0.419517
9114.000000;-0.419689
9113.000000;-0.419720
9112.000000;-0.419726
9111.000000;-0.419848
9110.000000;-0.420063
9109.000000;-0.420268
9108.000000;-0.420455
9107.000000;-0.420681
9106.000000;-0.420910
9105.000000;-0.421017
9104.000000;-0.420976
9103.000000;-0.420903
9102.000000;-0.420867
9101.000000;-0.420789
9100.000000;-0.420610
9099.000000;-0.420445
9098.000000;-0.420467
9097.000000;-0.420688
9096.000000;-0.420955
