Criado como novo conjunto de dados;"e0108.spp","-4214681.3 Secs"
cm-1;Abs
10000.000000;1.336774
9999.000000;1.337543
9998.000000;1.336470
9997.000000;1.334138
9996.000000;1.332176
9995.000000;1.331612
9994.000000;1.331704
9993.000000;1.330477
9992.000000;1.326956
9991.000000;1.322718
9990.000000;1.320529
9989.000000;1.321585
9988.000000;1.324804
9987.000000;1.328569
9986.000000;1.332092
9985.000000;1.334763
9984.000000;1.335533
9983.000000;1.334026
9982.000000;1.331340
9981.000000;1.328801
9980.000000;1.326755
9979.000000;1.325396
9978.000000;1.325716
9977.000000;1.328354
9976.000000;1.332085
9975.000000;1.334789
9974.000000;1.335596
9973.000000;1.334978
9972.000000;1.333300
9971.000000;1.330629
9970.000000;1.327789
9969.000000;1.326110
9968.000000;1.325804
9967.000000;1.325693
9966.000000;1.324810
9965.000000;1.323321
9964.000000;1.321771
9963.000000;1.320521
9962.000000;1.320080
9961.000000;1.320662
9960.000000;1.320910
9959.000000;1.318570
9958.000000;1.313654
9957.000000;1.309588
9956.000000;1.309713
9955.000000;1.313496
9954.000000;1.317265
9953.000000;1.318397
9952.000000;1.317472
9951.000000;1.316184
9950.000000;1.314999
9949.000000;1.313698
9948.000000;1.312799
9947.000000;1.313074
9946.000000;1.314068
9945.000000;1.314386
9944.000000;1.313626
9943.000000;1.312959
9942.000000;1.313321
9941.000000;1.313865
9940.000000;1.312985
9939.000000;1.310574
9938.000000;1.308448
9937.000000;1.308453
9936.000000;1.310589
9935.000000;1.313036
9934.000000;1.313682
9933.000000;1.311716
9932.000000;1.308204
9931.000000;1.305320
9930.000000;1.304662
9929.000000;1.306003
9928.000000;1.307735
9927.000000;1.308497
9926.000000;1.308052
9925.000000;1.306753
9924.000000;1.304907
9923.000000;1.302918
9922.000000;1.301594
9921.000000;1.301546
9920.000000;1.302271
9919.000000;1.302539
9918.000000;1.301882
9917.000000;1.301176
9916.000000;1.301490
9915.000000;1.302661
9914.000000;1.303316
9913.000000;1.302402
9912.000000;1.300566
9911.000000;1.299610
9910.000000;1.300490
9909.000000;1.302178
9908.000000;1.302848
9907.000000;1.301995
9906.000000;1.300761
9905.000000;1.300206
9904.000000;1.300117
9903.000000;1.299857
9902.000000;1.299507
9901.000000;1.299313
9900.000000;1.298715
9899.000000;1.297045
9898.000000;1.294925
9897.000000;1.293855
9896.000000;1.294354
9895.000000;1.295382
9894.000000;1.295808
9893.000000;1.295670
9892.000000;1.295581
9891.000000;1.295590
9890.000000;1.295249
9889.000000;1.294388
9888.000000;1.293291
9887.000000;1.292281
9886.000000;1.291471
9885.000000;1.290785
9884.000000;1.289960
9883.000000;1.288694
9882.000000;1.287104
9881.000000;1.285882
9880.000000;1.285711
9879.000000;1.286586
9878.000000;1.287761
9877.000000;1.288222
9876.000000;1.287291
9875.000000;1.285287
9874.000000;1.283686
9873.000000;1.283963
9872.000000;1.285824
9871.000000;1.287081
9870.000000;1.286034
9869.000000;1.283564
9868.000000;1.281959
9867.000000;1.282062
9866.000000;1.282659
9865.000000;1.282583
9864.000000;1.282206
9863.000000;1.282307
9862.000000;1.282439
9861.000000;1.281412
9860.000000;1.278973
9859.000000;1.276215
9858.000000;1.274522
9857.000000;1.274696
9856.000000;1.276722
9855.000000;1.279655
9854.000000;1.281853
9853.000000;1.282094
9852.000000;1.280665
9851.000000;1.279008
9850.000000;1.278415
9849.000000;1.279318
9848.000000;1.281369
9847.000000;1.283495
9846.000000;1.284053
9845.000000;1.281932
9844.000000;1.277864
9843.000000;1.274070
9842.000000;1.272306
9841.000000;1.272530
9840.000000;1.273382
9839.000000;1.273508
9838.000000;1.272497
9837.000000;1.271092
9836.000000;1.270594
9835.000000;1.271571
9834.000000;1.273022
9833.000000;1.273231
9832.000000;1.271654
9831.000000;1.269535
9830.000000;1.268395
9829.000000;1.268459
9828.000000;1.268861
9827.000000;1.268785
9826.000000;1.268072
9825.000000;1.267250
9824.000000;1.267267
9823.000000;1.268543
9822.000000;1.269908
9821.000000;1.269169
9820.000000;1.265417
9819.000000;1.260274
9818.000000;1.256285
9817.000000;1.254714
9816.000000;1.255345
9815.000000;1.257528
9814.000000;1.260481
9813.000000;1.262984
9812.000000;1.263951
9811.000000;1.263524
9810.000000;1.262960
9809.000000;1.263324
9808.000000;1.264626
9807.000000;1.266005
9806.000000;1.266316
9805.000000;1.264913
9804.000000;1.262507
9803.000000;1.260916
9802.000000;1.261242
9801.000000;1.262439
9800.000000;1.262431
9799.000000;1.260559
9798.000000;1.258061
9797.000000;1.256188
9796.000000;1.255041
9795.000000;1.254524
9794.000000;1.255172
9793.000000;1.257199
9792.000000;1.259419
9791.000000;1.260106
9790.000000;1.258866
9789.000000;1.256935
9788.000000;1.255568
9787.000000;1.254758
9786.000000;1.253637
9785.000000;1.251766
9784.000000;1.249790
9783.000000;1.248699
9782.000000;1.248613
9781.000000;1.248658
9780.000000;1.248111
9779.000000;1.247337
9778.000000;1.247274
9777.000000;1.248250
9776.000000;1.249670
9775.000000;1.250693
9774.000000;1.250914
9773.000000;1.250561
9772.000000;1.250254
9771.000000;1.250330
9770.000000;1.250205
9769.000000;1.248771
9768.000000;1.245884
9767.000000;1.242978
9766.000000;1.241621
9765.000000;1.241880
9764.000000;1.242772
9763.000000;1.243808
9762.000000;1.245044
9761.000000;1.245891
9760.000000;1.245286
9759.000000;1.243366
9758.000000;1.241705
9757.000000;1.241349
9756.000000;1.241530
9755.000000;1.240912
9754.000000;1.239321
9753.000000;1.237580
9752.000000;1.236263
9751.000000;1.235399
9750.000000;1.234981
9749.000000;1.235080
9748.000000;1.235658
9747.000000;1.236761
9746.000000;1.238622
9745.000000;1.241024
9744.000000;1.242754
9743.000000;1.242453
9742.000000;1.240149
9741.000000;1.237465
9740.000000;1.236133
9739.000000;1.236379
9738.000000;1.236796
9737.000000;1.235899
9736.000000;1.233798
9735.000000;1.232207
9734.000000;1.232719
9733.000000;1.235173
9732.000000;1.238047
9731.000000;1.240213
9730.000000;1.241638
9729.000000;1.242441
9728.000000;1.242217
9727.000000;1.240720
9726.000000;1.238602
9725.000000;1.236898
9724.000000;1.236088
9723.000000;1.235877
9722.000000;1.235527
9721.000000;1.234294
9720.000000;1.232016
9719.000000;1.229552
9718.000000;1.228179
9717.000000;1.228267
9716.000000;1.228768
9715.000000;1.228280
9714.000000;1.226430
9713.000000;1.224140
9712.000000;1.222892
9711.000000;1.223711
9710.000000;1.226264
9709.000000;1.228780
9708.000000;1.229516
9707.000000;1.228576
9706.000000;1.227654
9705.000000;1.227766
9704.000000;1.227991
9703.000000;1.226907
9702.000000;1.224542
9701.000000;1.222164
9700.000000;1.220684
9699.000000;1.220062
9698.000000;1.219940
9697.000000;1.220072
9696.000000;1.220253
9695.000000;1.220428
9694.000000;1.220785
9693.000000;1.221352
9692.000000;1.221728
9691.000000;1.221657
9690.000000;1.221588
9689.000000;1.222131
9688.000000;1.223079
9687.000000;1.223533
9686.000000;1.223010
9685.000000;1.221989
9684.000000;1.221365
9683.000000;1.221723
9682.000000;1.222979
9681.000000;1.224271
9680.000000;1.224288
9679.000000;1.222305
9678.000000;1.218976
9677.000000;1.215810
9676.000000;1.213915
9675.000000;1.213473
9674.000000;1.214160
9673.000000;1.215546
9672.000000;1.217072
9671.000000;1.218133
9670.000000;1.218425
9669.000000;1.218078
9668.000000;1.217399
9667.000000;1.216646
9666.000000;1.216005
9665.000000;1.215515
9664.000000;1.215016
9663.000000;1.214337
9662.000000;1.213544
9661.000000;1.212916
9660.000000;1.212756
9659.000000;1.213217
9658.000000;1.214046
9657.000000;1.214452
9656.000000;1.213592
9655.000000;1.211460
9654.000000;1.209043
9653.000000;1.207354
9652.000000;1.206479
9651.000000;1.205755
9650.000000;1.204653
9649.000000;1.203282
9648.000000;1.202262
9647.000000;1.202261
9646.000000;1.203364
9645.000000;1.204669
9644.000000;1.204861
9643.000000;1.203536
9642.000000;1.201656
9641.000000;1.200293
9640.000000;1.199516
9639.000000;1.199037
9638.000000;1.199203
9637.000000;1.200395
9636.000000;1.201786
9635.000000;1.201926
9634.000000;1.200769
9633.000000;1.199985
9632.000000;1.200814
9631.000000;1.202474
9630.000000;1.203233
9629.000000;1.202535
9628.000000;1.201302
9627.000000;1.200353
9626.000000;1.199404
9625.000000;1.197839
9624.000000;1.195918
9623.000000;1.194757
9622.000000;1.195125
9621.000000;1.196500
9620.000000;1.197471
9619.000000;1.197117
9618.000000;1.195858
9617.000000;1.194813
9616.000000;1.194592
9615.000000;1.195036
9614.000000;1.195861
9613.000000;1.196985
9612.000000;1.198029
9611.000000;1.198058
9610.000000;1.196386
9609.000000;1.193613
9608.000000;1.191409
9607.000000;1.191090
9606.000000;1.192498
9605.000000;1.194201
9604.000000;1.194723
9603.000000;1.193635
9602.000000;1.191604
9601.000000;1.189643
9600.000000;1.188422
9599.000000;1.188125
9598.000000;1.188778
9597.000000;1.190409
9596.000000;1.192716
9595.000000;1.194763
9594.000000;1.195397
9593.000000;1.194209
9592.000000;1.191976
9591.000000;1.189954
9590.000000;1.188711
9589.000000;1.187839
9588.000000;1.186807
9587.000000;1.185782
9586.000000;1.185268
9585.000000;1.185202
9584.000000;1.184905
9583.000000;1.183990
9582.000000;1.182945
9581.000000;1.182661
9580.000000;1.183617
9579.000000;1.185587
9578.000000;1.187851
9577.000000;1.189470
9576.000000;1.189631
9575.000000;1.188080
9574.000000;1.185316
9573.000000;1.182400
9572.000000;1.180521
9571.000000;1.180459
9570.000000;1.181925
9569.000000;1.183352
9568.000000;1.182922
9567.000000;1.180315
9566.000000;1.177266
9565.000000;1.176069
9564.000000;1.177635
9563.000000;1.180947
9562.000000;1.183977
9561.000000;1.185010
9560.000000;1.183519
9559.000000;1.180339
9558.000000;1.177107
9557.000000;1.175226
9556.000000;1.175037
9555.000000;1.175835
9554.000000;1.176643
9553.000000;1.176983
9552.000000;1.176966
9551.000000;1.176771
9550.000000;1.176252
9549.000000;1.175242
9548.000000;1.174153
9547.000000;1.173833
9546.000000;1.174588
9545.000000;1.175647
9544.000000;1.175897
9543.000000;1.174993
9542.000000;1.173459
9541.000000;1.171997
9540.000000;1.171180
9539.000000;1.171497
9538.000000;1.172947
9537.000000;1.174608
9536.000000;1.175372
9535.000000;1.175197
9534.000000;1.174983
9533.000000;1.175126
9532.000000;1.174971
9531.000000;1.173954
9530.000000;1.172609
9529.000000;1.171926
9528.000000;1.172224
9527.000000;1.173041
9526.000000;1.173611
9525.000000;1.173096
9524.000000;1.171031
9523.000000;1.168035
9522.000000;1.165541
9521.000000;1.164456
9520.000000;1.164583
9519.000000;1.165509
9518.000000;1.167204
9517.000000;1.169173
9516.000000;1.169965
9515.000000;1.168655
9514.000000;1.166347
9513.000000;1.165123
9512.000000;1.165713
9511.000000;1.167024
9510.000000;1.167764
9509.000000;1.167654
9508.000000;1.167026
9507.000000;1.166181
9506.000000;1.165455
9505.000000;1.165252
9504.000000;1.165607
9503.000000;1.166088
9502.000000;1.166315
9501.000000;1.166266
9500.000000;1.165971
9499.000000;1.165269
9498.000000;1.164023
9497.000000;1.162305
9496.000000;1.160438
9495.000000;1.159090
9494.000000;1.159007
9493.000000;1.160177
9492.000000;1.161511
9491.000000;1.161814
9490.000000;1.160955
9489.000000;1.159602
9488.000000;1.158047
9487.000000;1.156048
9486.000000;1.153767
9485.000000;1.152115
9484.000000;1.151906
9483.000000;1.153114
9482.000000;1.155132
9481.000000;1.157207
9480.000000;1.158466
9479.000000;1.158138
9478.000000;1.156201
9477.000000;1.153602
9476.000000;1.151612
9475.000000;1.151034
9474.000000;1.151851
9473.000000;1.153197
9472.000000;1.153752
9471.000000;1.152760
9470.000000;1.150842
9469.000000;1.149446
9468.000000;1.149474
9467.000000;1.150738
9466.000000;1.152547
9465.000000;1.154187
9464.000000;1.154836
9463.000000;1.153954
9462.000000;1.152184
9461.000000;1.151140
9460.000000;1.151708
9459.000000;1.152969
9458.000000;1.153271
9457.000000;1.152070
9456.000000;1.150159
9455.000000;1.148405
9454.000000;1.146974
9453.000000;1.145739
9452.000000;1.144810
9451.000000;1.144411
9450.000000;1.144557
9449.000000;1.145151
9448.000000;1.146261
9447.000000;1.148004
9446.000000;1.150110
9445.000000;1.151747
9444.000000;1.152090
9443.000000;1.151167
9442.000000;1.149851
9441.000000;1.148780
9440.000000;1.147571
9439.000000;1.145528
9438.000000;1.142939
9437.000000;1.141029
9436.000000;1.140600
9435.000000;1.141344
9434.000000;1.142593
9433.000000;1.144061
9432.000000;1.145518
9431.000000;1.146387
9430.000000;1.146321
9429.000000;1.145846
9428.000000;1.145771
9427.000000;1.146111
9426.000000;1.146111
9425.000000;1.145331
9424.000000;1.144221
9423.000000;1.143517
9422.000000;1.143379
9421.000000;1.143301
9420.000000;1.142716
9419.000000;1.141596
9418.000000;1.140492
9417.000000;1.139964
9416.000000;1.140003
9415.000000;1.140101
9414.000000;1.139861
9413.000000;1.139342
9412.000000;1.138812
9411.000000;1.138452
9410.000000;1.138430
9409.000000;1.138838
9408.000000;1.139306
9407.000000;1.139028
9406.000000;1.137633
9405.000000;1.135889
9404.000000;1.135107
9403.000000;1.135872
9402.000000;1.137597
9401.000000;1.139169
9400.000000;1.139682
9399.000000;1.138801
9398.000000;1.136928
9397.000000;1.135040
9396.000000;1.133996
9395.000000;1.133827
9394.000000;1.133894
9393.000000;1.133756
9392.000000;1.133620
9391.000000;1.133882
9390.000000;1.134550
9389.000000;1.135229
9388.000000;1.135456
9387.000000;1.134948
9386.000000;1.133775
9385.000000;1.132423
9384.000000;1.131512
9383.000000;1.131325
9382.000000;1.131721
9381.000000;1.132409
9380.000000;1.133039
9379.000000;1.133051
9378.000000;1.131927
9377.000000;1.129803
9376.000000;1.127539
9375.000000;1.125958
9374.000000;1.125233
9373.000000;1.125169
9372.000000;1.125742
9371.000000;1.127037
9370.000000;1.128828
9369.000000;1.130592
9368.000000;1.131869
9367.000000;1.132363
9366.000000;1.131865
9365.000000;1.130477
9364.000000;1.128834
9363.000000;1.127618
9362.000000;1.126800
9361.000000;1.125823
9360.000000;1.124605
9359.000000;1.123854
9358.000000;1.124093
9357.000000;1.124844
9356.000000;1.125276
9355.000000;1.125338
9354.000000;1.125662
9353.000000;1.126370
9352.000000;1.126636
9351.000000;1.125675
9350.000000;1.123732
9349.000000;1.121753
9348.000000;1.120356
9347.000000;1.119491
9346.000000;1.118947
9345.000000;1.118765
9344.000000;1.119025
9343.000000;1.119510
9342.000000;1.119828
9341.000000;1.119798
9340.000000;1.119654
9339.000000;1.119940
9338.000000;1.121120
9337.000000;1.123069
9336.000000;1.124825
9335.000000;1.125133
9334.000000;1.123569
9333.000000;1.121141
9332.000000;1.119468
9331.000000;1.119258
9330.000000;1.119738
9329.000000;1.119667
9328.000000;1.118702
9327.000000;1.117519
9326.000000;1.116718
9325.000000;1.116133
9324.000000;1.115416
9323.000000;1.114891
9322.000000;1.115312
9321.000000;1.116773
9320.000000;1.118267
9319.000000;1.118594
9318.000000;1.117612
9317.000000;1.116395
9316.000000;1.116104
9315.000000;1.116798
9314.000000;1.117393
9313.000000;1.116818
9312.000000;1.115188
9311.000000;1.113728
9310.000000;1.113498
9309.000000;1.114378
9308.000000;1.115390
9307.000000;1.115856
9306.000000;1.115927
9305.000000;1.115963
9304.000000;1.115783
9303.000000;1.114878
9302.000000;1.113291
9301.000000;1.111929
9300.000000;1.111762
9299.000000;1.112783
9298.000000;1.113948
9297.000000;1.114274
9296.000000;1.113894
9295.000000;1.113766
9294.000000;1.114398
9293.000000;1.115186
9292.000000;1.115113
9291.000000;1.113826
9290.000000;1.111854
9289.000000;1.110045
9288.000000;1.109077
9287.000000;1.109268
9286.000000;1.110404
9285.000000;1.111740
9284.000000;1.112543
9283.000000;1.112663
9282.000000;1.112335
9281.000000;1.111586
9280.000000;1.110314
9279.000000;1.108892
9278.000000;1.108119
9277.000000;1.108367
9276.000000;1.109193
9275.000000;1.109955
9274.000000;1.110411
9273.000000;1.110471
9272.000000;1.109813
9271.000000;1.108263
9270.000000;1.106331
9269.000000;1.104940
9268.000000;1.104667
9267.000000;1.105448
9266.000000;1.106818
9265.000000;1.108135
9264.000000;1.108751
9263.000000;1.108365
9262.000000;1.107256
9261.000000;1.105966
9260.000000;1.104832
9259.000000;1.104016
9258.000000;1.103745
9257.000000;1.104077
9256.000000;1.104521
9255.000000;1.104378
9254.000000;1.103539
9253.000000;1.102539
9252.000000;1.101753
9251.000000;1.101004
9250.000000;1.100134
9249.000000;1.099551
9248.000000;1.099731
9247.000000;1.100428
9246.000000;1.100872
9245.000000;1.100744
9244.000000;1.100538
9243.000000;1.100785
9242.000000;1.101307
9241.000000;1.101630
9240.000000;1.101887
9239.000000;1.102749
9238.000000;1.104270
9237.000000;1.105279
9236.000000;1.104409
9235.000000;1.101733
9234.000000;1.098889
9233.000000;1.097431
9232.000000;1.097376
9231.000000;1.097491
9230.000000;1.096811
9229.000000;1.095568
9228.000000;1.094726
9227.000000;1.094887
9226.000000;1.095791
9225.000000;1.096760
9224.000000;1.097428
9223.000000;1.097948
9222.000000;1.098506
9221.000000;1.098814
9220.000000;1.098302
9219.000000;1.096811
9218.000000;1.094922
9217.000000;1.093556
9216.000000;1.093345
9215.000000;1.094293
9214.000000;1.095864
9213.000000;1.097322
9212.000000;1.098119
9211.000000;1.098119
9210.000000;1.097456
9209.000000;1.096310
9208.000000;1.095054
9207.000000;1.094399
9206.000000;1.094797
9205.000000;1.095612
9204.000000;1.095462
9203.000000;1.093768
9202.000000;1.091570
9201.000000;1.090387
9200.000000;1.090581
9199.000000;1.091282
9198.000000;1.091717
9197.000000;1.092053
9196.000000;1.092814
9195.000000;1.093882
9194.000000;1.094406
9193.000000;1.093635
9192.000000;1.091735
9191.000000;1.089793
9190.000000;1.088915
9189.000000;1.089251
9188.000000;1.089923
9187.000000;1.089977
9186.000000;1.089290
9185.000000;1.088403
9184.000000;1.087705
9183.000000;1.087144
9182.000000;1.086613
9181.000000;1.086227
9180.000000;1.086119
9179.000000;1.086237
9178.000000;1.086508
9177.000000;1.087010
9176.000000;1.087780
9175.000000;1.088535
9174.000000;1.088789
9173.000000;1.088295
9172.000000;1.087335
9171.000000;1.086551
9170.000000;1.086416
9169.000000;1.086818
9168.000000;1.087153
9167.000000;1.086850
9166.000000;1.085877
9165.000000;1.084795
9164.000000;1.084337
9163.000000;1.084824
9162.000000;1.085834
9161.000000;1.086454
9160.000000;1.086125
9159.000000;1.085302
9158.000000;1.085044
9157.000000;1.085852
9156.000000;1.087127
9155.000000;1.087861
9154.000000;1.087702
9153.000000;1.087152
9152.000000;1.086880
9151.000000;1.087083
9150.000000;1.087440
9149.000000;1.087474
9148.000000;1.086917
9147.000000;1.085809
9146.000000;1.084275
9145.000000;1.082376
9144.000000;1.080416
9143.000000;1.079268
9142.000000;1.079874
9141.000000;1.082117
9140.000000;1.084485
9139.000000;1.085296
9138.000000;1.084210
9137.000000;1.082293
9136.000000;1.080810
9135.000000;1.080367
9134.000000;1.080959
9133.000000;1.082199
9132.000000;1.083404
9131.000000;1.083896
9130.000000;1.083541
9129.000000;1.082842
9128.000000;1.082365
9127.000000;1.082244
9126.000000;1.082333
9125.000000;1.082605
9124.000000;1.083168
9123.000000;1.083910
9122.000000;1.084341
9121.000000;1.083918
9120.000000;1.082621
9119.000000;1.081100
9118.000000;1.080115
9117.000000;1.079883
9116.000000;1.080050
9115.000000;1.080155
9114.000000;1.079904
9113.000000;1.079096
9112.000000;1.077755
9111.000000;1.076480
9110.000000;1.076219
9109.000000;1.077327
9108.000000;1.079077
9107.000000;1.080354
9106.000000;1.080635
9105.000000;1.080124
9104.000000;1.079251
9103.000000;1.078393
9102.000000;1.077869
9101.000000;1.077751
9100.000000;1.077737
9099.000000;1.077559
9098.000000;1.077400
9097.000000;1.077577
9096.000000;1.077931
9095.000000;1.077896
9094.000000;1.077113
9093.000000;1.075729
9092.000000;1.074221
9091.000000;1.073219
9090.000000;1.073220
9089.000000;1.074011
9088.000000;1.074581
9087.000000;1.074176
9086.000000;1.073273
9085.000000;1.072859
9084.000000;1.072929
9083.000000;1.072504
9082.000000;1.071212
9081.000000;1.069988
9080.000000;1.069855
9079.000000;1.070745
9078.000000;1.071921
9077.000000;1.072921
9076.000000;1.073522
9075.000000;1.073343
9074.000000;1.072238
9073.000000;1.070846
9072.000000;1.070085
9071.000000;1.070140
9070.000000;1.070417
9069.000000;1.070442
9068.000000;1.070342
9067.000000;1.070432
9066.000000;1.070715
9065.000000;1.070902
9064.000000;1.070690
9063.000000;1.069997
9062.000000;1.069119
9061.000000;1.068585
9060.000000;1.068658
9059.000000;1.069013
9058.000000;1.069158
9057.000000;1.069085
9056.000000;1.069183
9055.000000;1.069575
9054.000000;1.069924
9053.000000;1.069983
