Criado como novo conjunto de dados;"e0108.spp","-4265263.7 Secs"
cm-1;Abs
10000.000000;1.054585
9999.000000;1.054446
9998.000000;1.054306
9997.000000;1.054167
9996.000000;1.054027
9995.000000;1.053890
9994.000000;1.053748
9993.000000;1.053613
9992.000000;1.053465
9991.000000;1.053342
9990.000000;1.053170
9989.000000;1.053179
9988.000000;1.053163
9987.000000;1.052736
9986.000000;1.052451
9985.000000;1.053127
9984.000000;1.054859
9983.000000;1.056761
9982.000000;1.057740
9981.000000;1.057122
9980.000000;1.054882
9979.000000;1.051793
9978.000000;1.049203
9977.000000;1.048094
9976.000000;1.048341
9975.000000;1.049193
9974.000000;1.050154
9973.000000;1.050955
9972.000000;1.050977
9971.000000;1.049557
9970.000000;1.046947
9969.000000;1.044358
9968.000000;1.042910
9967.000000;1.042946
9966.000000;1.044248
9965.000000;1.046217
9964.000000;1.047853
9963.000000;1.048355
9962.000000;1.048044
9961.000000;1.048038
9960.000000;1.048783
9959.000000;1.049505
9958.000000;1.049303
9957.000000;1.048089
9956.000000;1.046171
9955.000000;1.043687
9954.000000;1.041054
9953.000000;1.039323
9952.000000;1.039311
9951.000000;1.040598
9950.000000;1.041930
9949.000000;1.042475
9948.000000;1.042305
9947.000000;1.041873
9946.000000;1.041499
9945.000000;1.041285
9944.000000;1.041121
9943.000000;1.040832
9942.000000;1.040470
9941.000000;1.040203
9940.000000;1.039799
9939.000000;1.038738
9938.000000;1.037186
9937.000000;1.036351
9936.000000;1.037258
9935.000000;1.039423
9934.000000;1.041247
9933.000000;1.041537
9932.000000;1.040237
9931.000000;1.037957
9930.000000;1.035469
9929.000000;1.033594
9928.000000;1.032830
9927.000000;1.032849
9926.000000;1.032772
9925.000000;1.032110
9924.000000;1.031238
9923.000000;1.030844
9922.000000;1.031156
9921.000000;1.031775
9920.000000;1.032094
9919.000000;1.031774
9918.000000;1.030988
9917.000000;1.030213
9916.000000;1.029733
9915.000000;1.029460
9914.000000;1.029262
9913.000000;1.029112
9912.000000;1.028734
9911.000000;1.027574
9910.000000;1.025644
9909.000000;1.024132
9908.000000;1.024522
9907.000000;1.027016
9906.000000;1.030171
9905.000000;1.032128
9904.000000;1.032009
9903.000000;1.030210
9902.000000;1.027797
9901.000000;1.025749
9900.000000;1.024414
9899.000000;1.023464
9898.000000;1.022453
9897.000000;1.021467
9896.000000;1.021058
9895.000000;1.021538
9894.000000;1.022540
9893.000000;1.023307
9892.000000;1.023278
9891.000000;1.022375
9890.000000;1.020950
9889.000000;1.019553
9888.000000;1.018584
9887.000000;1.018059
9886.000000;1.017776
9885.000000;1.017617
9884.000000;1.017579
9883.000000;1.017633
9882.000000;1.017738
9881.000000;1.017933
9880.000000;1.018270
9879.000000;1.018698
9878.000000;1.019107
9877.000000;1.019370
9876.000000;1.019304
9875.000000;1.018740
9874.000000;1.017799
9873.000000;1.016891
9872.000000;1.016248
9871.000000;1.015674
9870.000000;1.014936
9869.000000;1.014135
9868.000000;1.013453
9867.000000;1.012808
9866.000000;1.012171
9865.000000;1.011969
9864.000000;1.012665
9863.000000;1.013967
9862.000000;1.014902
9861.000000;1.014783
9860.000000;1.013810
9859.000000;1.012711
9858.000000;1.012101
9857.000000;1.012149
9856.000000;1.012515
9855.000000;1.012525
9854.000000;1.011721
9853.000000;1.010317
9852.000000;1.008952
9851.000000;1.008076
9850.000000;1.007795
9849.000000;1.008197
9848.000000;1.009336
9847.000000;1.010796
9846.000000;1.011649
9845.000000;1.011166
9844.000000;1.009579
9843.000000;1.008033
9842.000000;1.007706
9841.000000;1.008820
9840.000000;1.010322
9839.000000;1.010670
9838.000000;1.009197
9837.000000;1.006684
9836.000000;1.004462
9835.000000;1.003163
9834.000000;1.002485
9833.000000;1.001840
9832.000000;1.000915
9831.000000;0.999886
9830.000000;0.999414
9829.000000;1.000072
9828.000000;1.001417
9827.000000;1.001978
9826.000000;1.000859
9825.000000;0.999072
9824.000000;0.998474
9823.000000;0.999450
9822.000000;1.000457
9821.000000;0.999976
9820.000000;0.998140
9819.000000;0.996184
9818.000000;0.995071
9817.000000;0.995127
9816.000000;0.996301
9815.000000;0.998028
9814.000000;0.999184
9813.000000;0.998913
9812.000000;0.997468
9811.000000;0.995799
9810.000000;0.994493
9809.000000;0.993521
9808.000000;0.992799
9807.000000;0.992401
9806.000000;0.992199
9805.000000;0.991740
9804.000000;0.990687
9803.000000;0.989252
9802.000000;0.988111
9801.000000;0.987951
9800.000000;0.988952
9799.000000;0.990469
9798.000000;0.991317
9797.000000;0.990742
9796.000000;0.989249
9795.000000;0.988256
9794.000000;0.988761
9793.000000;0.990332
9792.000000;0.991493
9791.000000;0.991143
9790.000000;0.989596
9789.000000;0.988176
9788.000000;0.987902
9787.000000;0.988699
9786.000000;0.989786
9785.000000;0.990473
9784.000000;0.990430
9783.000000;0.989587
9782.000000;0.988214
9781.000000;0.986958
9780.000000;0.986289
9779.000000;0.985905
9778.000000;0.985149
9777.000000;0.984007
9776.000000;0.983215
9775.000000;0.983259
9774.000000;0.983771
9773.000000;0.984124
9772.000000;0.984218
9771.000000;0.984354
9770.000000;0.984712
9769.000000;0.985285
9768.000000;0.986021
9767.000000;0.986601
9766.000000;0.986324
9765.000000;0.984750
9764.000000;0.982419
9763.000000;0.980507
9762.000000;0.979706
9761.000000;0.979744
9760.000000;0.979958
9759.000000;0.980011
9758.000000;0.979965
9757.000000;0.979969
9756.000000;0.980097
9755.000000;0.980347
9754.000000;0.980569
9753.000000;0.980441
9752.000000;0.979665
9751.000000;0.978282
9750.000000;0.976726
9749.000000;0.975516
9748.000000;0.974930
9747.000000;0.974978
9746.000000;0.975558
9745.000000;0.976428
9744.000000;0.977067
9743.000000;0.976876
9742.000000;0.975755
9741.000000;0.974347
9740.000000;0.973418
9739.000000;0.973106
9738.000000;0.972994
9737.000000;0.972799
9736.000000;0.972609
9735.000000;0.972439
9734.000000;0.972019
9733.000000;0.971206
9732.000000;0.970361
9731.000000;0.970058
9730.000000;0.970567
9729.000000;0.971736
9728.000000;0.973117
9727.000000;0.974050
9726.000000;0.973868
9725.000000;0.972411
9724.000000;0.970331
9723.000000;0.968684
9722.000000;0.968053
9721.000000;0.968072
9720.000000;0.967865
9719.000000;0.966923
9718.000000;0.965650
9717.000000;0.964993
9716.000000;0.965439
9715.000000;0.966423
9714.000000;0.966885
9713.000000;0.966405
9712.000000;0.965570
9711.000000;0.965246
9710.000000;0.965757
9709.000000;0.966806
9708.000000;0.967823
9707.000000;0.968273
9706.000000;0.967935
9705.000000;0.967135
9704.000000;0.966468
9703.000000;0.966102
9702.000000;0.965556
9701.000000;0.964414
9700.000000;0.963006
9699.000000;0.962080
9698.000000;0.961953
9697.000000;0.962306
9696.000000;0.962734
9695.000000;0.963163
9694.000000;0.963681
9693.000000;0.964181
9692.000000;0.964311
9691.000000;0.963690
9690.000000;0.962146
9689.000000;0.959881
9688.000000;0.957476
9687.000000;0.955664
9686.000000;0.954963
9685.000000;0.955395
9684.000000;0.956466
9683.000000;0.957473
9682.000000;0.958024
9681.000000;0.958279
9680.000000;0.958619
9679.000000;0.959113
9678.000000;0.959489
9677.000000;0.959610
9676.000000;0.959656
9675.000000;0.959705
9674.000000;0.959402
9673.000000;0.958308
9672.000000;0.956457
9671.000000;0.954403
9670.000000;0.952818
9669.000000;0.952155
9668.000000;0.952497
9667.000000;0.953476
9666.000000;0.954388
9665.000000;0.954669
9664.000000;0.954315
9663.000000;0.953705
9662.000000;0.953104
9661.000000;0.952468
9660.000000;0.951652
9659.000000;0.950616
9658.000000;0.949483
9657.000000;0.948589
9656.000000;0.948434
9655.000000;0.949309
9654.000000;0.950895
9653.000000;0.952397
9652.000000;0.953215
9651.000000;0.953370
9650.000000;0.953197
9649.000000;0.952780
9648.000000;0.951857
9647.000000;0.950289
9646.000000;0.948437
9645.000000;0.946944
9644.000000;0.946170
9643.000000;0.945920
9642.000000;0.945720
9641.000000;0.945262
9640.000000;0.944557
9639.000000;0.943798
9638.000000;0.943263
9637.000000;0.943298
9636.000000;0.944131
9635.000000;0.945534
9634.000000;0.946765
9633.000000;0.947006
9632.000000;0.945967
9631.000000;0.944140
9630.000000;0.942450
9629.000000;0.941575
9628.000000;0.941444
9627.000000;0.941411
9626.000000;0.941024
9625.000000;0.940501
9624.000000;0.940347
9623.000000;0.940613
9622.000000;0.940771
9621.000000;0.940338
9620.000000;0.939421
9619.000000;0.938557
9618.000000;0.938231
9617.000000;0.938605
9616.000000;0.939462
9615.000000;0.940266
9614.000000;0.940486
9613.000000;0.940009
9612.000000;0.939155
9611.000000;0.938232
9610.000000;0.937285
9609.000000;0.936361
9608.000000;0.935727
9607.000000;0.935601
9606.000000;0.935904
9605.000000;0.936467
9604.000000;0.937213
9603.000000;0.937834
9602.000000;0.937535
9601.000000;0.935656
9600.000000;0.932618
9599.000000;0.929862
9598.000000;0.928679
9597.000000;0.929259
9596.000000;0.930886
9595.000000;0.932689
9594.000000;0.934058
9593.000000;0.934592
9592.000000;0.934078
9591.000000;0.932734
9590.000000;0.931299
9589.000000;0.930634
9588.000000;0.931027
9587.000000;0.931863
9586.000000;0.932128
9585.000000;0.931382
9584.000000;0.930146
9583.000000;0.929246
9582.000000;0.928930
9581.000000;0.928804
9580.000000;0.928488
9579.000000;0.928045
9578.000000;0.927743
9577.000000;0.927631
9576.000000;0.927451
9575.000000;0.926894
9574.000000;0.925907
9573.000000;0.924820
9572.000000;0.924101
9571.000000;0.923887
9570.000000;0.923815
9569.000000;0.923525
9568.000000;0.923237
9567.000000;0.923514
9566.000000;0.924378
9565.000000;0.925067
9564.000000;0.924961
9563.000000;0.924527
9562.000000;0.924867
9561.000000;0.926295
9560.000000;0.927746
9559.000000;0.927798
9558.000000;0.926211
9557.000000;0.924230
9556.000000;0.923372
9555.000000;0.923987
9554.000000;0.924983
9553.000000;0.924930
9552.000000;0.923464
9551.000000;0.921548
9550.000000;0.920379
9549.000000;0.920226
9548.000000;0.920431
9547.000000;0.920312
9546.000000;0.919749
9545.000000;0.918916
9544.000000;0.917970
9543.000000;0.917253
9542.000000;0.917358
9541.000000;0.918465
9540.000000;0.919764
9539.000000;0.920152
9538.000000;0.919586
9537.000000;0.919240
9536.000000;0.920066
9535.000000;0.921626
9534.000000;0.922620
9533.000000;0.922262
9532.000000;0.920827
9531.000000;0.919068
9530.000000;0.917543
9529.000000;0.916461
9528.000000;0.915843
9527.000000;0.915682
9526.000000;0.916045
9525.000000;0.916951
9524.000000;0.918049
9523.000000;0.918630
9522.000000;0.918238
9521.000000;0.917211
9520.000000;0.916378
9519.000000;0.916276
9518.000000;0.916802
9517.000000;0.917486
9516.000000;0.917812
9515.000000;0.917346
9514.000000;0.915947
9513.000000;0.913949
9512.000000;0.911933
9511.000000;0.910350
9510.000000;0.909539
9509.000000;0.909889
9508.000000;0.911477
9507.000000;0.913514
9506.000000;0.914630
9505.000000;0.914026
9504.000000;0.912174
9503.000000;0.910237
9502.000000;0.909085
9501.000000;0.908948
9500.000000;0.909609
9499.000000;0.910589
9498.000000;0.911280
9497.000000;0.911309
9496.000000;0.910831
9495.000000;0.910322
9494.000000;0.910102
9493.000000;0.910108
9492.000000;0.910015
9491.000000;0.909528
9490.000000;0.908665
9489.000000;0.907806
9488.000000;0.907322
9487.000000;0.907126
9486.000000;0.906770
9485.000000;0.906054
9484.000000;0.905348
9483.000000;0.905177
9482.000000;0.905637
9481.000000;0.906333
9480.000000;0.906731
9479.000000;0.906464
9478.000000;0.905498
9477.000000;0.904207
9476.000000;0.903198
9475.000000;0.902850
9474.000000;0.902965
9473.000000;0.902960
9472.000000;0.902412
9471.000000;0.901448
9470.000000;0.900680
9469.000000;0.900717
9468.000000;0.901568
9467.000000;0.902498
9466.000000;0.902696
9465.000000;0.902098
9464.000000;0.901277
9463.000000;0.900621
9462.000000;0.900043
9461.000000;0.899542
9460.000000;0.899542
9459.000000;0.900330
9458.000000;0.901490
9457.000000;0.902312
9456.000000;0.902568
9455.000000;0.902511
9454.000000;0.902299
9453.000000;0.901896
9452.000000;0.901475
9451.000000;0.901421
9450.000000;0.901778
9449.000000;0.901980
9448.000000;0.901397
9447.000000;0.900066
9446.000000;0.898743
9445.000000;0.898272
9444.000000;0.898853
9443.000000;0.899833
9442.000000;0.900224
9441.000000;0.899571
9440.000000;0.898326
9439.000000;0.897364
9438.000000;0.897189
9437.000000;0.897612
9436.000000;0.897990
9435.000000;0.897661
9434.000000;0.896368
9433.000000;0.894555
9432.000000;0.893196
9431.000000;0.893058
9430.000000;0.893992
9429.000000;0.895082
9428.000000;0.895480
9427.000000;0.895062
9426.000000;0.894337
9425.000000;0.893920
9424.000000;0.894060
9423.000000;0.894465
9422.000000;0.894541
9421.000000;0.893934
9420.000000;0.892878
9419.000000;0.891921
9418.000000;0.891350
9417.000000;0.890989
9416.000000;0.890563
9415.000000;0.890066
9414.000000;0.889720
9413.000000;0.889700
9412.000000;0.889957
9411.000000;0.890253
9410.000000;0.890359
9409.000000;0.890236
9408.000000;0.890013
9407.000000;0.889788
9406.000000;0.889546
9405.000000;0.889326
9404.000000;0.889327
9403.000000;0.889729
9402.000000;0.890468
9401.000000;0.891240
9400.000000;0.891644
9399.000000;0.891315
9398.000000;0.890144
9397.000000;0.888525
9396.000000;0.887190
9395.000000;0.886588
9394.000000;0.886526
9393.000000;0.886610
9392.000000;0.886852
9391.000000;0.887500
9390.000000;0.888396
9389.000000;0.888960
9388.000000;0.888853
9387.000000;0.888288
9386.000000;0.887618
9385.000000;0.886943
9384.000000;0.886253
9383.000000;0.885659
9382.000000;0.885243
9381.000000;0.884876
9380.000000;0.884387
9379.000000;0.883765
9378.000000;0.883116
9377.000000;0.882586
9376.000000;0.882436
9375.000000;0.882919
9374.000000;0.883894
9373.000000;0.884738
9372.000000;0.884931
9371.000000;0.884623
9370.000000;0.884351
9369.000000;0.884266
9368.000000;0.883937
9367.000000;0.882948
9366.000000;0.881448
9365.000000;0.880020
9364.000000;0.879165
9363.000000;0.879001
9362.000000;0.879360
9361.000000;0.880018
9360.000000;0.880861
9359.000000;0.881839
9358.000000;0.882774
9357.000000;0.883270
9356.000000;0.882937
9355.000000;0.881725
9354.000000;0.879998
9353.000000;0.878285
9352.000000;0.877037
9351.000000;0.876568
9350.000000;0.876978
9349.000000;0.877918
9348.000000;0.878602
9347.000000;0.878360
9346.000000;0.877320
9345.000000;0.876326
9344.000000;0.876077
9343.000000;0.876478
9342.000000;0.876953
9341.000000;0.877178
9340.000000;0.877247
9339.000000;0.877204
9338.000000;0.876807
9337.000000;0.875887
9336.000000;0.874698
9335.000000;0.873670
9334.000000;0.872968
9333.000000;0.872527
9332.000000;0.872372
9331.000000;0.872618
9330.000000;0.873176
9329.000000;0.873731
9328.000000;0.874075
9327.000000;0.874276
9326.000000;0.874460
9325.000000;0.874631
9324.000000;0.874816
9323.000000;0.875178
9322.000000;0.875803
9321.000000;0.876456
9320.000000;0.876747
9319.000000;0.876505
9318.000000;0.875835
9317.000000;0.874848
9316.000000;0.873569
9315.000000;0.872133
9314.000000;0.870872
9313.000000;0.870044
9312.000000;0.869556
9311.000000;0.869125
9310.000000;0.868723
9309.000000;0.868713
9308.000000;0.869444
9307.000000;0.870777
9306.000000;0.872085
9305.000000;0.872703
9304.000000;0.872420
9303.000000;0.871620
9302.000000;0.870988
9301.000000;0.870945
9300.000000;0.871257
9299.000000;0.871204
9298.000000;0.870302
9297.000000;0.868872
9296.000000;0.867761
9295.000000;0.867514
9294.000000;0.867924
9293.000000;0.868373
9292.000000;0.868449
9291.000000;0.868193
9290.000000;0.867930
9289.000000;0.867976
9288.000000;0.868350
9287.000000;0.868670
9286.000000;0.868481
9285.000000;0.867826
9284.000000;0.867315
9283.000000;0.867448
9282.000000;0.867983
9281.000000;0.868210
9280.000000;0.867757
9279.000000;0.866854
9278.000000;0.865880
9277.000000;0.864994
9276.000000;0.864302
9275.000000;0.864016
9274.000000;0.864222
9273.000000;0.864690
9272.000000;0.865094
9271.000000;0.865289
9270.000000;0.865257
9269.000000;0.864993
9268.000000;0.864637
9267.000000;0.864528
9266.000000;0.864827
9265.000000;0.865169
9264.000000;0.865003
9263.000000;0.864303
9262.000000;0.863703
9261.000000;0.863796
9260.000000;0.864501
9259.000000;0.865169
9258.000000;0.865188
9257.000000;0.864402
9256.000000;0.863135
9255.000000;0.861964
9254.000000;0.861334
9253.000000;0.861256
9252.000000;0.861356
9251.000000;0.861309
9250.000000;0.861147
9249.000000;0.861093
9248.000000;0.861188
9247.000000;0.861201
9246.000000;0.860852
9245.000000;0.860048
9244.000000;0.858988
9243.000000;0.858114
9242.000000;0.857856
9241.000000;0.858267
9240.000000;0.858970
9239.000000;0.859575
9238.000000;0.860048
9237.000000;0.860488
9236.000000;0.860723
9235.000000;0.860467
9234.000000;0.859875
9233.000000;0.859498
9232.000000;0.859552
9231.000000;0.859582
9230.000000;0.859112
9229.000000;0.858366
9228.000000;0.857985
9227.000000;0.858174
9226.000000;0.858478
9225.000000;0.858391
9224.000000;0.857898
9223.000000;0.857375
9222.000000;0.857165
9221.000000;0.857348
9220.000000;0.857752
9219.000000;0.858052
9218.000000;0.857973
9217.000000;0.857475
9216.000000;0.856713
9215.000000;0.855895
9214.000000;0.855294
9213.000000;0.855274
9212.000000;0.855995
9211.000000;0.857056
9210.000000;0.857693
9209.000000;0.857480
9208.000000;0.856721
9207.000000;0.856036
9206.000000;0.855705
9205.000000;0.855493
9204.000000;0.855012
9203.000000;0.854136
9202.000000;0.853174
9201.000000;0.852680
9200.000000;0.852977
9199.000000;0.853816
9198.000000;0.854587
9197.000000;0.854875
9196.000000;0.854742
9195.000000;0.854472
9194.000000;0.854269
9193.000000;0.854238
9192.000000;0.854364
9191.000000;0.854379
9190.000000;0.853893
9189.000000;0.852898
9188.000000;0.851944
9187.000000;0.851563
9186.000000;0.851640
9185.000000;0.851603
9184.000000;0.851197
9183.000000;0.850789
9182.000000;0.850885
9181.000000;0.851545
9180.000000;0.852298
9179.000000;0.852540
9178.000000;0.852015
9177.000000;0.851035
9176.000000;0.850158
9175.000000;0.849604
9174.000000;0.849154
9173.000000;0.848734
9172.000000;0.848809
9171.000000;0.849830
9170.000000;0.851375
9169.000000;0.852340
9168.000000;0.852150
9167.000000;0.851398
9166.000000;0.851046
9165.000000;0.851269
9164.000000;0.851410
9163.000000;0.850899
9162.000000;0.849888
9161.000000;0.848966
9160.000000;0.848554
9159.000000;0.848642
9158.000000;0.848930
9157.000000;0.849110
9156.000000;0.849087
9155.000000;0.848982
9154.000000;0.848950
9153.000000;0.849027
9152.000000;0.849230
9151.000000;0.849704
9150.000000;0.850582
9149.000000;0.851668
9148.000000;0.852410
9147.000000;0.852333
9146.000000;0.851499
9145.000000;0.850458
9144.000000;0.849757
9143.000000;0.849516
9142.000000;0.849453
9141.000000;0.849205
9140.000000;0.848633
9139.000000;0.847872
9138.000000;0.847137
9137.000000;0.846508
9136.000000;0.845940
9135.000000;0.845486
9134.000000;0.845403
9133.000000;0.845880
9132.000000;0.846675
9131.000000;0.847208
9130.000000;0.847126
9129.000000;0.846669
9128.000000;0.846350
9127.000000;0.846381
9126.000000;0.846578
9125.000000;0.846726
9124.000000;0.846770
9123.000000;0.846621
9122.000000;0.846075
9121.000000;0.845129
9120.000000;0.844213
9119.000000;0.843838
9118.000000;0.844070
9117.000000;0.844527
9116.000000;0.844853
9115.000000;0.845016
9114.000000;0.845130
9113.000000;0.845185
9112.000000;0.845036
9111.000000;0.844554
9110.000000;0.843728
9109.000000;0.842718
9108.000000;0.841883
9107.000000;0.841621
9106.000000;0.842025
9105.000000;0.842694
9104.000000;0.842991
9103.000000;0.842582
9102.000000;0.841709
9101.000000;0.840912
9100.000000;0.840500
9099.000000;0.840320
9098.000000;0.840032
9097.000000;0.839533
9096.000000;0.839072
9095.000000;0.838982
9094.000000;0.839389
9093.000000;0.840154
9092.000000;0.840963
9091.000000;0.841437
9090.000000;0.841321
9089.000000;0.840746
9088.000000;0.840245
9087.000000;0.840320
9086.000000;0.840911
9085.000000;0.841403
9084.000000;0.841207
9083.000000;0.840297
9082.000000;0.839164
9081.000000;0.838344
9080.000000;0.838039
9079.000000;0.838109
9078.000000;0.838269
9077.000000;0.838290
9076.000000;0.838137
9075.000000;0.838004
9074.000000;0.838178
9073.000000;0.838715
9072.000000;0.839269
9071.000000;0.839401
9070.000000;0.839141
9069.000000;0.839062
9068.000000;0.839619
9067.000000;0.840525
9066.000000;0.841047
9065.000000;0.840856
9064.000000;0.840261
9063.000000;0.839615
9062.000000;0.838908
9061.000000;0.838097
9060.000000;0.837508
9059.000000;0.837565
9058.000000;0.838270
9057.000000;0.839223
9056.000000;0.840056
9055.000000;0.840543
9054.000000;0.840424
9053.000000;0.839532
