Criado como novo conjunto de dados;"e0108.spp","-4275344.3 Secs"
cm-1;Abs
10000.000000;1.073352
9999.000000;1.071690
9998.000000;1.070035
9997.000000;1.068385
9996.000000;1.066745
9995.000000;1.065102
9994.000000;1.063482
9993.000000;1.061836
9992.000000;1.060254
9991.000000;1.058576
9990.000000;1.057112
9989.000000;1.054769
9988.000000;1.051497
9987.000000;1.048851
9986.000000;1.047545
9985.000000;1.047797
9984.000000;1.048891
9983.000000;1.049799
9982.000000;1.049808
9981.000000;1.049037
9980.000000;1.048076
9979.000000;1.047252
9978.000000;1.046474
9977.000000;1.045758
9976.000000;1.045555
9975.000000;1.046319
9974.000000;1.047872
9973.000000;1.049364
9972.000000;1.049889
9971.000000;1.049138
9970.000000;1.047607
9969.000000;1.046263
9968.000000;1.045844
9967.000000;1.046284
9966.000000;1.046773
9965.000000;1.046427
9964.000000;1.044935
9963.000000;1.042711
9962.000000;1.040615
9961.000000;1.039534
9960.000000;1.039892
9959.000000;1.041268
9958.000000;1.042539
9957.000000;1.042602
9956.000000;1.041109
9955.000000;1.038621
9954.000000;1.036234
9953.000000;1.034970
9952.000000;1.035176
9951.000000;1.036219
9950.000000;1.036932
9949.000000;1.036684
9948.000000;1.035957
9947.000000;1.035613
9946.000000;1.035741
9945.000000;1.035586
9944.000000;1.034616
9943.000000;1.033277
9942.000000;1.032485
9941.000000;1.032545
9940.000000;1.032729
9939.000000;1.031910
9938.000000;1.029690
9937.000000;1.027002
9936.000000;1.025421
9935.000000;1.025673
9934.000000;1.026842
9933.000000;1.027281
9932.000000;1.026357
9931.000000;1.025025
9930.000000;1.024661
9929.000000;1.025753
9928.000000;1.027873
9927.000000;1.030345
9926.000000;1.032429
9925.000000;1.033218
9924.000000;1.032180
9923.000000;1.029970
9922.000000;1.028137
9921.000000;1.027718
9920.000000;1.028340
9919.000000;1.028835
9918.000000;1.028554
9917.000000;1.027852
9916.000000;1.027380
9915.000000;1.027193
9914.000000;1.026743
9913.000000;1.025670
9912.000000;1.024425
9911.000000;1.023893
9910.000000;1.024291
9909.000000;1.024630
9908.000000;1.023618
9907.000000;1.021164
9906.000000;1.018651
9905.000000;1.017624
9904.000000;1.018429
9903.000000;1.020120
9902.000000;1.021455
9901.000000;1.021859
9900.000000;1.021626
9899.000000;1.021435
9898.000000;1.021612
9897.000000;1.021667
9896.000000;1.020755
9895.000000;1.018879
9894.000000;1.017408
9893.000000;1.017830
9892.000000;1.019939
9891.000000;1.021714
9890.000000;1.021334
9889.000000;1.019044
9888.000000;1.016627
9887.000000;1.015383
9886.000000;1.015155
9885.000000;1.015124
9884.000000;1.014948
9883.000000;1.014901
9882.000000;1.015282
9881.000000;1.016048
9880.000000;1.016918
9879.000000;1.017578
9878.000000;1.017761
9877.000000;1.017325
9876.000000;1.016374
9875.000000;1.015290
9874.000000;1.014516
9873.000000;1.014211
9872.000000;1.014071
9871.000000;1.013617
9870.000000;1.012754
9869.000000;1.011954
9868.000000;1.011722
9867.000000;1.011958
9866.000000;1.012091
9865.000000;1.011849
9864.000000;1.011562
9863.000000;1.011516
9862.000000;1.011343
9861.000000;1.010443
9860.000000;1.008889
9859.000000;1.007507
9858.000000;1.006991
9857.000000;1.007251
9856.000000;1.007724
9855.000000;1.008027
9854.000000;1.008096
9853.000000;1.007864
9852.000000;1.007164
9851.000000;1.005960
9850.000000;1.004506
9849.000000;1.003247
9848.000000;1.002659
9847.000000;1.002993
9846.000000;1.003894
9845.000000;1.004363
9844.000000;1.003577
9843.000000;1.001963
9842.000000;1.000999
9841.000000;1.001569
9840.000000;1.002799
9839.000000;1.002934
9838.000000;1.001363
9837.000000;0.999350
9836.000000;0.998632
9835.000000;0.999650
9834.000000;1.001282
9833.000000;1.001956
9832.000000;1.000882
9831.000000;0.998545
9830.000000;0.996325
9829.000000;0.995478
9828.000000;0.996169
9827.000000;0.997446
9826.000000;0.998261
9825.000000;0.998383
9824.000000;0.998168
9823.000000;0.997715
9822.000000;0.996762
9821.000000;0.995329
9820.000000;0.993971
9819.000000;0.993278
9818.000000;0.993361
9817.000000;0.993916
9816.000000;0.994509
9815.000000;0.994675
9814.000000;0.994073
9813.000000;0.992903
9812.000000;0.991962
9811.000000;0.991863
9810.000000;0.992283
9809.000000;0.992340
9808.000000;0.991711
9807.000000;0.991051
9806.000000;0.991183
9805.000000;0.992103
9804.000000;0.992954
9803.000000;0.992869
9802.000000;0.991762
9801.000000;0.990335
9800.000000;0.989402
9799.000000;0.989191
9798.000000;0.989195
9797.000000;0.988685
9796.000000;0.987428
9795.000000;0.985951
9794.000000;0.985107
9793.000000;0.985314
9792.000000;0.986133
9791.000000;0.986571
9790.000000;0.985922
9789.000000;0.984454
9788.000000;0.983159
9787.000000;0.982754
9786.000000;0.983042
9785.000000;0.983401
9784.000000;0.983670
9783.000000;0.984180
9782.000000;0.984948
9781.000000;0.985275
9780.000000;0.984459
9779.000000;0.982663
9778.000000;0.980755
9777.000000;0.979377
9776.000000;0.978512
9775.000000;0.977928
9774.000000;0.977656
9773.000000;0.977845
9772.000000;0.978396
9771.000000;0.978990
9770.000000;0.979368
9769.000000;0.979465
9768.000000;0.979333
9767.000000;0.979055
9766.000000;0.978666
9765.000000;0.978099
9764.000000;0.977309
9763.000000;0.976470
9762.000000;0.975866
9761.000000;0.975475
9760.000000;0.974928
9759.000000;0.974095
9758.000000;0.973454
9757.000000;0.973487
9756.000000;0.973857
9755.000000;0.973686
9754.000000;0.972727
9753.000000;0.971747
9752.000000;0.971550
9751.000000;0.972043
9750.000000;0.972559
9749.000000;0.972783
9748.000000;0.972948
9747.000000;0.973284
9746.000000;0.973641
9745.000000;0.973583
9744.000000;0.972624
9743.000000;0.970587
9742.000000;0.968059
9741.000000;0.966335
9740.000000;0.966369
9739.000000;0.967719
9738.000000;0.968885
9737.000000;0.968880
9736.000000;0.968174
9735.000000;0.967923
9734.000000;0.968613
9733.000000;0.969785
9732.000000;0.970792
9731.000000;0.971393
9730.000000;0.971638
9729.000000;0.971519
9728.000000;0.970897
9727.000000;0.969706
9726.000000;0.968189
9725.000000;0.966967
9724.000000;0.966672
9723.000000;0.967289
9722.000000;0.967922
9721.000000;0.967496
9720.000000;0.965842
9719.000000;0.963872
9718.000000;0.962581
9717.000000;0.962095
9716.000000;0.961839
9715.000000;0.961411
9714.000000;0.960936
9713.000000;0.960636
9712.000000;0.960493
9711.000000;0.960494
9710.000000;0.960870
9709.000000;0.961732
9708.000000;0.962614
9707.000000;0.962814
9706.000000;0.962166
9705.000000;0.961112
9704.000000;0.960047
9703.000000;0.959051
9702.000000;0.958348
9701.000000;0.958434
9700.000000;0.959356
9699.000000;0.960258
9698.000000;0.960146
9697.000000;0.958995
9696.000000;0.957735
9695.000000;0.957273
9694.000000;0.957855
9693.000000;0.959143
9692.000000;0.960439
9691.000000;0.960929
9690.000000;0.960239
9689.000000;0.958850
9688.000000;0.957582
9687.000000;0.956669
9686.000000;0.955772
9685.000000;0.954865
9684.000000;0.954492
9683.000000;0.954921
9682.000000;0.955562
9681.000000;0.955613
9680.000000;0.954994
9679.000000;0.954259
9678.000000;0.953798
9677.000000;0.953501
9676.000000;0.953065
9675.000000;0.952342
9674.000000;0.951397
9673.000000;0.950442
9672.000000;0.949688
9671.000000;0.949203
9670.000000;0.948997
9669.000000;0.949238
9668.000000;0.950081
9667.000000;0.951161
9666.000000;0.951626
9665.000000;0.951003
9664.000000;0.949804
9663.000000;0.948945
9662.000000;0.948722
9661.000000;0.948666
9660.000000;0.948239
9659.000000;0.947355
9658.000000;0.946334
9657.000000;0.945648
9656.000000;0.945640
9655.000000;0.946175
9654.000000;0.946639
9653.000000;0.946592
9652.000000;0.946314
9651.000000;0.946328
9650.000000;0.946525
9649.000000;0.946276
9648.000000;0.945431
9647.000000;0.944595
9646.000000;0.944206
9645.000000;0.943879
9644.000000;0.943090
9643.000000;0.942131
9642.000000;0.941804
9641.000000;0.942353
9640.000000;0.943166
9639.000000;0.943513
9638.000000;0.943178
9637.000000;0.942330
9636.000000;0.941201
9635.000000;0.940140
9634.000000;0.939597
9633.000000;0.939689
9632.000000;0.939892
9631.000000;0.939499
9630.000000;0.938455
9629.000000;0.937523
9628.000000;0.937467
9627.000000;0.938147
9626.000000;0.938564
9625.000000;0.937831
9624.000000;0.936065
9623.000000;0.934298
9622.000000;0.933528
9621.000000;0.933930
9620.000000;0.934938
9619.000000;0.935956
9618.000000;0.936849
9617.000000;0.937763
9616.000000;0.938664
9615.000000;0.939178
9614.000000;0.938833
9613.000000;0.937473
9612.000000;0.935551
9611.000000;0.934038
9610.000000;0.933775
9609.000000;0.934687
9608.000000;0.935729
9607.000000;0.935870
9606.000000;0.935046
9605.000000;0.933904
9604.000000;0.932801
9603.000000;0.931574
9602.000000;0.930274
9601.000000;0.929506
9600.000000;0.929732
9599.000000;0.930659
9598.000000;0.931671
9597.000000;0.932510
9596.000000;0.933089
9595.000000;0.933023
9594.000000;0.932015
9593.000000;0.930597
9592.000000;0.929791
9591.000000;0.929932
9590.000000;0.930346
9589.000000;0.930316
9588.000000;0.929777
9587.000000;0.928939
9586.000000;0.927875
9585.000000;0.926853
9584.000000;0.926573
9583.000000;0.927508
9582.000000;0.929125
9581.000000;0.930157
9580.000000;0.929704
9579.000000;0.927902
9578.000000;0.925658
9577.000000;0.923978
9576.000000;0.923341
9575.000000;0.923401
9574.000000;0.923377
9573.000000;0.922953
9572.000000;0.922624
9571.000000;0.922880
9570.000000;0.923356
9569.000000;0.923258
9568.000000;0.922499
9567.000000;0.921852
9566.000000;0.921904
9565.000000;0.922379
9564.000000;0.922721
9563.000000;0.922894
9562.000000;0.923239
9561.000000;0.923802
9560.000000;0.924212
9559.000000;0.924152
9558.000000;0.923642
9557.000000;0.922865
9556.000000;0.921949
9555.000000;0.921007
9554.000000;0.920175
9553.000000;0.919503
9552.000000;0.918860
9551.000000;0.918067
9550.000000;0.917135
9549.000000;0.916339
9548.000000;0.916033
9547.000000;0.916313
9546.000000;0.916836
9545.000000;0.917063
9544.000000;0.916779
9543.000000;0.916353
9542.000000;0.916393
9541.000000;0.917112
9540.000000;0.918052
9539.000000;0.918511
9538.000000;0.918238
9537.000000;0.917634
9536.000000;0.917212
9535.000000;0.916979
9534.000000;0.916512
9533.000000;0.915624
9532.000000;0.914724
9531.000000;0.914363
9530.000000;0.914584
9529.000000;0.914905
9528.000000;0.914887
9527.000000;0.914511
9526.000000;0.914026
9525.000000;0.913658
9524.000000;0.913553
9523.000000;0.913739
9522.000000;0.913981
9521.000000;0.913853
9520.000000;0.913208
9519.000000;0.912460
9518.000000;0.912136
9517.000000;0.912173
9516.000000;0.911938
9515.000000;0.911002
9514.000000;0.909604
9513.000000;0.908255
9512.000000;0.907184
9511.000000;0.906433
9510.000000;0.906167
9509.000000;0.906485
9508.000000;0.907017
9507.000000;0.907132
9506.000000;0.906647
9505.000000;0.906002
9504.000000;0.905637
9503.000000;0.905515
9502.000000;0.905338
9501.000000;0.904953
9500.000000;0.904390
9499.000000;0.903792
9498.000000;0.903489
9497.000000;0.903813
9496.000000;0.904600
9495.000000;0.905122
9494.000000;0.904811
9493.000000;0.903862
9492.000000;0.902850
9491.000000;0.902021
9490.000000;0.901352
9489.000000;0.901063
9488.000000;0.901499
9487.000000;0.902538
9486.000000;0.903572
9485.000000;0.904184
9484.000000;0.904445
9483.000000;0.904494
9482.000000;0.904211
9481.000000;0.903472
9480.000000;0.902397
9479.000000;0.901167
9478.000000;0.899860
9477.000000;0.898639
9476.000000;0.897863
9475.000000;0.897783
9474.000000;0.898247
9473.000000;0.898803
9472.000000;0.899012
9471.000000;0.898645
9470.000000;0.897797
9469.000000;0.896913
9468.000000;0.896516
9467.000000;0.896831
9466.000000;0.897755
9465.000000;0.899095
9464.000000;0.900509
9463.000000;0.901318
9462.000000;0.900917
9461.000000;0.899581
9460.000000;0.898431
9459.000000;0.898302
9458.000000;0.898871
9457.000000;0.899108
9456.000000;0.898382
9455.000000;0.896951
9454.000000;0.895601
9453.000000;0.895028
9452.000000;0.895384
9451.000000;0.896190
9450.000000;0.896756
9449.000000;0.896825
9448.000000;0.896630
9447.000000;0.896311
9446.000000;0.895707
9445.000000;0.894904
9444.000000;0.894450
9443.000000;0.894598
9442.000000;0.894673
9441.000000;0.893735
9440.000000;0.891762
9439.000000;0.889731
9438.000000;0.888575
9437.000000;0.888480
9436.000000;0.889085
9435.000000;0.889933
9434.000000;0.890637
9433.000000;0.890989
9432.000000;0.891078
9431.000000;0.891155
9430.000000;0.891295
9429.000000;0.891352
9428.000000;0.891214
9427.000000;0.890942
9426.000000;0.890645
9425.000000;0.890417
9424.000000;0.890372
9423.000000;0.890545
9422.000000;0.890766
9421.000000;0.890784
9420.000000;0.890481
9419.000000;0.889874
9418.000000;0.889086
9417.000000;0.888476
9416.000000;0.888578
9415.000000;0.889559
9414.000000;0.890785
9413.000000;0.891239
9412.000000;0.890475
9411.000000;0.888973
9410.000000;0.887560
9409.000000;0.886732
9408.000000;0.886530
9407.000000;0.886746
9406.000000;0.887080
9405.000000;0.887257
9404.000000;0.887159
9403.000000;0.886849
9402.000000;0.886516
9401.000000;0.886397
9400.000000;0.886619
9399.000000;0.886996
9398.000000;0.887094
9397.000000;0.886641
9396.000000;0.885770
9395.000000;0.884769
9394.000000;0.883816
9393.000000;0.883147
9392.000000;0.883157
9391.000000;0.883908
9390.000000;0.884728
9389.000000;0.884809
9388.000000;0.884187
9387.000000;0.883633
9386.000000;0.883599
9385.000000;0.883746
9384.000000;0.883631
9383.000000;0.883319
9382.000000;0.883045
9381.000000;0.882700
9380.000000;0.882020
9379.000000;0.881037
9378.000000;0.880038
9377.000000;0.879236
9376.000000;0.878705
9375.000000;0.878459
9374.000000;0.878376
9373.000000;0.878259
9372.000000;0.878234
9371.000000;0.878868
9370.000000;0.880488
9369.000000;0.882423
9368.000000;0.883326
9367.000000;0.882448
9366.000000;0.880416
9365.000000;0.878578
9364.000000;0.877715
9363.000000;0.877506
9362.000000;0.877198
9361.000000;0.876583
9360.000000;0.876154
9359.000000;0.876320
9358.000000;0.876781
9357.000000;0.876928
9356.000000;0.876706
9355.000000;0.876708
9354.000000;0.877328
9353.000000;0.878130
9352.000000;0.878258
9351.000000;0.877307
9350.000000;0.875597
9349.000000;0.873778
9348.000000;0.872396
9347.000000;0.871751
9346.000000;0.871855
9345.000000;0.872447
9344.000000;0.873172
9343.000000;0.873805
9342.000000;0.874272
9341.000000;0.874520
9340.000000;0.874506
9339.000000;0.874325
9338.000000;0.874218
9337.000000;0.874396
9336.000000;0.874825
9335.000000;0.875184
9334.000000;0.875086
9333.000000;0.874434
9332.000000;0.873571
9331.000000;0.872988
9330.000000;0.872848
9329.000000;0.872876
9328.000000;0.872765
9327.000000;0.872553
9326.000000;0.872481
9325.000000;0.872558
9324.000000;0.872456
9323.000000;0.871898
9322.000000;0.871033
9321.000000;0.870348
9320.000000;0.870218
9319.000000;0.870585
9318.000000;0.871053
9317.000000;0.871266
9316.000000;0.871167
9315.000000;0.870937
9314.000000;0.870762
9313.000000;0.870677
9312.000000;0.870556
9311.000000;0.870200
9310.000000;0.869491
9309.000000;0.868526
9308.000000;0.867600
9307.000000;0.867001
9306.000000;0.866856
9305.000000;0.867134
9304.000000;0.867696
9303.000000;0.868267
9302.000000;0.868533
9301.000000;0.868433
9300.000000;0.868288
9299.000000;0.868432
9298.000000;0.868730
9297.000000;0.868694
9296.000000;0.868130
9295.000000;0.867456
9294.000000;0.867190
9293.000000;0.867270
9292.000000;0.867071
9291.000000;0.866103
9290.000000;0.864586
9289.000000;0.863278
9288.000000;0.862771
9287.000000;0.862995
9286.000000;0.863379
9285.000000;0.863433
9284.000000;0.863159
9283.000000;0.862934
9282.000000;0.863102
9281.000000;0.863645
9280.000000;0.864136
9279.000000;0.864004
9278.000000;0.863029
9277.000000;0.861693
9276.000000;0.860902
9275.000000;0.861192
9274.000000;0.862266
9273.000000;0.863365
9272.000000;0.863935
9271.000000;0.863805
9270.000000;0.863000
9269.000000;0.861777
9268.000000;0.860754
9267.000000;0.860515
9266.000000;0.860942
9265.000000;0.861239
9264.000000;0.860818
9263.000000;0.859947
9262.000000;0.859368
9261.000000;0.859476
9260.000000;0.860029
9259.000000;0.860500
9258.000000;0.860509
9257.000000;0.860012
9256.000000;0.859252
9255.000000;0.858528
9254.000000;0.857953
9253.000000;0.857465
9252.000000;0.857101
9251.000000;0.857101
9250.000000;0.857678
9249.000000;0.858751
9248.000000;0.859938
9247.000000;0.860716
9246.000000;0.860625
9245.000000;0.859597
9244.000000;0.858213
9243.000000;0.857364
9242.000000;0.857464
9241.000000;0.858117
9240.000000;0.858658
9239.000000;0.858796
9238.000000;0.858581
9237.000000;0.858008
9236.000000;0.857067
9235.000000;0.856122
9234.000000;0.855821
9233.000000;0.856467
9232.000000;0.857683
9231.000000;0.858775
9230.000000;0.859284
9229.000000;0.859109
9228.000000;0.858314
9227.000000;0.857020
9226.000000;0.855485
9225.000000;0.854136
9224.000000;0.853458
9223.000000;0.853729
9222.000000;0.854768
9221.000000;0.855937
9220.000000;0.856544
9219.000000;0.856340
9218.000000;0.855594
9217.000000;0.854739
9216.000000;0.854035
9215.000000;0.853563
9214.000000;0.853380
9213.000000;0.853543
9212.000000;0.854009
9211.000000;0.854554
9210.000000;0.854831
9209.000000;0.854588
9208.000000;0.853937
9207.000000;0.853376
9206.000000;0.853388
9205.000000;0.853929
9204.000000;0.854414
9203.000000;0.854299
9202.000000;0.853601
9201.000000;0.852767
9200.000000;0.852165
9199.000000;0.851849
9198.000000;0.851729
9197.000000;0.851729
9196.000000;0.851713
9195.000000;0.851466
9194.000000;0.850922
9193.000000;0.850328
9192.000000;0.850064
9191.000000;0.850275
9190.000000;0.850764
9189.000000;0.851185
9188.000000;0.851261
9187.000000;0.850851
9186.000000;0.849968
9185.000000;0.848865
9184.000000;0.848003
9183.000000;0.847788
9182.000000;0.848252
9181.000000;0.849009
9180.000000;0.849561
9179.000000;0.849648
9178.000000;0.849358
9177.000000;0.848980
9176.000000;0.848750
9175.000000;0.848670
9174.000000;0.848545
9173.000000;0.848210
9172.000000;0.847759
9171.000000;0.847515
9170.000000;0.847674
9169.000000;0.847973
9168.000000;0.847823
9167.000000;0.846893
9166.000000;0.845568
9165.000000;0.844669
9164.000000;0.844676
9163.000000;0.845314
9162.000000;0.845926
9161.000000;0.846149
9160.000000;0.846116
9159.000000;0.846119
9158.000000;0.846289
9157.000000;0.846606
9156.000000;0.846984
9155.000000;0.847257
9154.000000;0.847235
9153.000000;0.846877
9152.000000;0.846341
9151.000000;0.845790
9150.000000;0.845254
9149.000000;0.844735
9148.000000;0.844297
9147.000000;0.843957
9146.000000;0.843663
9145.000000;0.843509
9144.000000;0.843796
9143.000000;0.844623
9142.000000;0.845499
9141.000000;0.845686
9140.000000;0.845004
9139.000000;0.844062
9138.000000;0.843602
9137.000000;0.843790
9136.000000;0.844222
9135.000000;0.844447
9134.000000;0.844328
9133.000000;0.844036
9132.000000;0.843888
9131.000000;0.844128
9130.000000;0.844663
9129.000000;0.844972
9128.000000;0.844481
9127.000000;0.843169
9126.000000;0.841711
9125.000000;0.840882
9124.000000;0.840846
9123.000000;0.841160
9122.000000;0.841433
9121.000000;0.841743
9120.000000;0.842255
9119.000000;0.842657
9118.000000;0.842348
9117.000000;0.841201
9116.000000;0.839839
9115.000000;0.839003
9114.000000;0.838905
9113.000000;0.839329
9112.000000;0.840089
9111.000000;0.841047
9110.000000;0.841811
9109.000000;0.841798
9108.000000;0.840804
9107.000000;0.839348
9106.000000;0.838309
9105.000000;0.838248
9104.000000;0.839051
9103.000000;0.840112
9102.000000;0.840827
9101.000000;0.840984
9100.000000;0.840732
9099.000000;0.840274
9098.000000;0.839719
9097.000000;0.839224
9096.000000;0.839029
9095.000000;0.839187
9094.000000;0.839399
9093.000000;0.839343
9092.000000;0.839052
9091.000000;0.838797
9090.000000;0.838653
9089.000000;0.838425
9088.000000;0.837966
9087.000000;0.837374
9086.000000;0.836868
9085.000000;0.836606
9084.000000;0.836568
9083.000000;0.836492
9082.000000;0.836046
9081.000000;0.835299
9080.000000;0.834856
9079.000000;0.835197
9078.000000;0.835966
9077.000000;0.836320
9076.000000;0.836021
9075.000000;0.835746
9074.000000;0.836179
9073.000000;0.837152
9072.000000;0.837888
9071.000000;0.837801
9070.000000;0.836910
9069.000000;0.835731
9068.000000;0.834993
9067.000000;0.835154
9066.000000;0.835930
9065.000000;0.836474
9064.000000;0.836282
9063.000000;0.835734
9062.000000;0.835487
9061.000000;0.835619
9060.000000;0.835702
9059.000000;0.835518
9058.000000;0.835294
9057.000000;0.835295
9056.000000;0.835550
9055.000000;0.835986
9054.000000;0.836483
9053.000000;0.836809
