Criado como novo conjunto de dados;"e0108.spp","-4237902.6 Secs"
cm-1;Abs
10000.000000;0.985357
9999.000000;0.985100
9998.000000;0.984843
9997.000000;0.984586
9996.000000;0.984331
9995.000000;0.984072
9994.000000;0.983820
9993.000000;0.983556
9992.000000;0.983326
9991.000000;0.982103
9990.000000;0.980055
9989.000000;0.977981
9988.000000;0.976475
9987.000000;0.975833
9986.000000;0.976271
9985.000000;0.977727
9984.000000;0.979475
9983.000000;0.980438
9982.000000;0.980054
9981.000000;0.978723
9980.000000;0.977341
9979.000000;0.976547
9978.000000;0.976322
9977.000000;0.976153
9976.000000;0.975590
9975.000000;0.974696
9974.000000;0.973926
9973.000000;0.973603
9972.000000;0.973658
9971.000000;0.973881
9970.000000;0.974174
9969.000000;0.974449
9968.000000;0.974558
9967.000000;0.974541
9966.000000;0.974736
9965.000000;0.975334
9964.000000;0.975948
9963.000000;0.975965
9962.000000;0.975263
9961.000000;0.974259
9960.000000;0.973316
9959.000000;0.972422
9958.000000;0.971455
9957.000000;0.970390
9956.000000;0.969236
9955.000000;0.968094
9954.000000;0.967329
9953.000000;0.967321
9952.000000;0.967899
9951.000000;0.968300
9950.000000;0.967919
9949.000000;0.966928
9948.000000;0.966010
9947.000000;0.965694
9946.000000;0.966065
9945.000000;0.966829
9944.000000;0.967465
9943.000000;0.967510
9942.000000;0.966920
9941.000000;0.966042
9940.000000;0.965143
9939.000000;0.964167
9938.000000;0.963059
9937.000000;0.962083
9936.000000;0.961592
9935.000000;0.961594
9934.000000;0.961781
9933.000000;0.961878
9932.000000;0.961789
9931.000000;0.961581
9930.000000;0.961492
9929.000000;0.961766
9928.000000;0.962207
9927.000000;0.962114
9926.000000;0.961073
9925.000000;0.959730
9924.000000;0.959343
9923.000000;0.960446
9922.000000;0.962171
9921.000000;0.963009
9920.000000;0.962141
9919.000000;0.960002
9918.000000;0.957698
9917.000000;0.955980
9916.000000;0.954728
9915.000000;0.953418
9914.000000;0.952036
9913.000000;0.951245
9912.000000;0.951483
9911.000000;0.952206
9910.000000;0.952479
9909.000000;0.952196
9908.000000;0.952089
9907.000000;0.952476
9906.000000;0.952677
9905.000000;0.952001
9904.000000;0.950749
9903.000000;0.949758
9902.000000;0.949313
9901.000000;0.949022
9900.000000;0.948555
9899.000000;0.947982
9898.000000;0.947494
9897.000000;0.947264
9896.000000;0.947550
9895.000000;0.948464
9894.000000;0.949569
9893.000000;0.950146
9892.000000;0.949952
9891.000000;0.949372
9890.000000;0.948750
9889.000000;0.948011
9888.000000;0.947062
9887.000000;0.946100
9886.000000;0.945229
9885.000000;0.944181
9884.000000;0.942812
9883.000000;0.941591
9882.000000;0.941149
9881.000000;0.941500
9880.000000;0.942101
9879.000000;0.942616
9878.000000;0.943179
9877.000000;0.943787
9876.000000;0.943931
9875.000000;0.943148
9874.000000;0.941735
9873.000000;0.940585
9872.000000;0.940358
9871.000000;0.940975
9870.000000;0.941833
9869.000000;0.942291
9868.000000;0.942012
9867.000000;0.941123
9866.000000;0.940195
9865.000000;0.939876
9864.000000;0.940337
9863.000000;0.941075
9862.000000;0.941361
9861.000000;0.940910
9860.000000;0.940025
9859.000000;0.939120
9858.000000;0.938268
9857.000000;0.937331
9856.000000;0.936381
9855.000000;0.935822
9854.000000;0.936037
9853.000000;0.937005
9852.000000;0.938302
9851.000000;0.939351
9850.000000;0.939632
9849.000000;0.938763
9848.000000;0.936663
9847.000000;0.933774
9846.000000;0.931023
9845.000000;0.929309
9844.000000;0.928948
9843.000000;0.929578
9842.000000;0.930540
9841.000000;0.931275
9840.000000;0.931452
9839.000000;0.931015
9838.000000;0.930270
9837.000000;0.929697
9836.000000;0.929419
9835.000000;0.928966
9834.000000;0.927846
9833.000000;0.926312
9832.000000;0.925252
9831.000000;0.925272
9830.000000;0.926126
9829.000000;0.927112
9828.000000;0.927769
9827.000000;0.928012
9826.000000;0.927823
9825.000000;0.927181
9824.000000;0.926256
9823.000000;0.925387
9822.000000;0.924777
9821.000000;0.924342
9820.000000;0.923857
9819.000000;0.923158
9818.000000;0.922273
9817.000000;0.921452
9816.000000;0.921022
9815.000000;0.921068
9814.000000;0.921277
9813.000000;0.921219
9812.000000;0.920771
9811.000000;0.920178
9810.000000;0.919755
9809.000000;0.919630
9808.000000;0.919689
9807.000000;0.919633
9806.000000;0.919180
9805.000000;0.918410
9804.000000;0.917850
9803.000000;0.917998
9802.000000;0.918788
9801.000000;0.919710
9800.000000;0.920380
9799.000000;0.920712
9798.000000;0.920548
9797.000000;0.919599
9796.000000;0.917978
9795.000000;0.916455
9794.000000;0.915808
9793.000000;0.916001
9792.000000;0.916304
9791.000000;0.916143
9790.000000;0.915595
9789.000000;0.915093
9788.000000;0.914874
9787.000000;0.914856
9786.000000;0.914891
9785.000000;0.914961
9784.000000;0.915117
9783.000000;0.915281
9782.000000;0.915205
9781.000000;0.914635
9780.000000;0.913530
9779.000000;0.912079
9778.000000;0.910587
9777.000000;0.909357
9776.000000;0.908610
9775.000000;0.908389
9774.000000;0.908533
9773.000000;0.908855
9772.000000;0.909382
9771.000000;0.910295
9770.000000;0.911568
9769.000000;0.912701
9768.000000;0.912923
9767.000000;0.911745
9766.000000;0.909458
9765.000000;0.907158
9764.000000;0.906101
9763.000000;0.906680
9762.000000;0.907977
9761.000000;0.908530
9760.000000;0.907715
9759.000000;0.906230
9758.000000;0.905161
9757.000000;0.904846
9756.000000;0.904830
9755.000000;0.904693
9754.000000;0.904568
9753.000000;0.904802
9752.000000;0.905358
9751.000000;0.905723
9750.000000;0.905386
9749.000000;0.904319
9748.000000;0.902961
9747.000000;0.901776
9746.000000;0.900895
9745.000000;0.900211
9744.000000;0.899743
9743.000000;0.899706
9742.000000;0.900165
9741.000000;0.900765
9740.000000;0.900955
9739.000000;0.900501
9738.000000;0.899687
9737.000000;0.899003
9736.000000;0.898699
9735.000000;0.898671
9734.000000;0.898706
9733.000000;0.898773
9732.000000;0.899004
9731.000000;0.899448
9730.000000;0.899968
9729.000000;0.900400
9728.000000;0.900703
9727.000000;0.900843
9726.000000;0.900653
9725.000000;0.900021
9724.000000;0.899109
9723.000000;0.898168
9722.000000;0.897157
9721.000000;0.895812
9720.000000;0.894166
9719.000000;0.892789
9718.000000;0.892369
9717.000000;0.893084
9716.000000;0.894383
9715.000000;0.895307
9714.000000;0.895155
9713.000000;0.894122
9712.000000;0.893272
9711.000000;0.893546
9710.000000;0.894691
9709.000000;0.895450
9708.000000;0.894933
9707.000000;0.893501
9706.000000;0.892141
9705.000000;0.891320
9704.000000;0.890817
9703.000000;0.890379
9702.000000;0.890078
9701.000000;0.890032
9700.000000;0.890090
9699.000000;0.889920
9698.000000;0.889265
9697.000000;0.888170
9696.000000;0.887128
9695.000000;0.886881
9694.000000;0.887751
9693.000000;0.889129
9692.000000;0.889892
9691.000000;0.889418
9690.000000;0.888048
9689.000000;0.886516
9688.000000;0.885162
9687.000000;0.883832
9686.000000;0.882390
9685.000000;0.881117
9684.000000;0.880523
9683.000000;0.880819
9682.000000;0.881673
9681.000000;0.882511
9680.000000;0.883014
9679.000000;0.883214
9678.000000;0.883199
9677.000000;0.883021
9676.000000;0.882918
9675.000000;0.883251
9674.000000;0.883985
9673.000000;0.884495
9672.000000;0.884224
9671.000000;0.883367
9670.000000;0.882548
9669.000000;0.881944
9668.000000;0.881156
9667.000000;0.879979
9666.000000;0.878910
9665.000000;0.878642
9664.000000;0.879271
9663.000000;0.880163
9662.000000;0.880546
9661.000000;0.880187
9660.000000;0.879500
9659.000000;0.878998
9658.000000;0.878613
9657.000000;0.877743
9656.000000;0.876097
9655.000000;0.874296
9654.000000;0.873318
9653.000000;0.873475
9652.000000;0.874221
9651.000000;0.874842
9650.000000;0.874972
9649.000000;0.874527
9648.000000;0.873660
9647.000000;0.872898
9646.000000;0.872860
9645.000000;0.873538
9644.000000;0.874171
9643.000000;0.874079
9642.000000;0.873389
9641.000000;0.872661
9640.000000;0.872101
9639.000000;0.871489
9638.000000;0.870728
9637.000000;0.870110
9636.000000;0.870013
9635.000000;0.870565
9634.000000;0.871515
9633.000000;0.872267
9632.000000;0.872148
9631.000000;0.870949
9630.000000;0.869225
9629.000000;0.867852
9628.000000;0.867281
9627.000000;0.867336
9626.000000;0.867609
9625.000000;0.867828
9624.000000;0.867847
9623.000000;0.867544
9622.000000;0.866899
9621.000000;0.866112
9620.000000;0.865538
9619.000000;0.865453
9618.000000;0.865875
9617.000000;0.866526
9616.000000;0.867008
9615.000000;0.867095
9614.000000;0.866857
9613.000000;0.866492
9612.000000;0.866099
9611.000000;0.865682
9610.000000;0.865262
9609.000000;0.864854
9608.000000;0.864393
9607.000000;0.863837
9606.000000;0.863329
9605.000000;0.863100
9604.000000;0.863166
9603.000000;0.863229
9602.000000;0.862921
9601.000000;0.862108
9600.000000;0.861002
9599.000000;0.860087
9598.000000;0.859884
9597.000000;0.860549
9596.000000;0.861580
9595.000000;0.862054
9594.000000;0.861402
9593.000000;0.859965
9592.000000;0.858658
9591.000000;0.858086
9590.000000;0.858077
9589.000000;0.858029
9588.000000;0.857594
9587.000000;0.856972
9586.000000;0.856613
9585.000000;0.856752
9584.000000;0.857211
9583.000000;0.857574
9582.000000;0.857597
9581.000000;0.857469
9580.000000;0.857604
9579.000000;0.858078
9578.000000;0.858377
9577.000000;0.857880
9576.000000;0.856610
9575.000000;0.855324
9574.000000;0.854743
9573.000000;0.854877
9572.000000;0.855165
9571.000000;0.855096
9570.000000;0.854551
9569.000000;0.853660
9568.000000;0.852631
9567.000000;0.851715
9566.000000;0.851103
9565.000000;0.850747
9564.000000;0.850425
9563.000000;0.850056
9562.000000;0.849827
9561.000000;0.849901
9560.000000;0.850117
9559.000000;0.850091
9558.000000;0.849641
9557.000000;0.849018
9556.000000;0.848690
9555.000000;0.848865
9554.000000;0.849250
9553.000000;0.849346
9552.000000;0.849027
9551.000000;0.848708
9550.000000;0.848854
9549.000000;0.849401
9548.000000;0.849817
9547.000000;0.849637
9546.000000;0.848800
9545.000000;0.847539
9544.000000;0.846217
9543.000000;0.845221
9542.000000;0.844711
9541.000000;0.844387
9540.000000;0.843796
9539.000000;0.842983
9538.000000;0.842572
9537.000000;0.843038
9536.000000;0.844148
9535.000000;0.845279
9534.000000;0.846030
9533.000000;0.846305
9532.000000;0.846044
9531.000000;0.845230
9530.000000;0.844078
9529.000000;0.842905
9528.000000;0.841873
9527.000000;0.841092
9526.000000;0.840850
9525.000000;0.841377
9524.000000;0.842321
9523.000000;0.842800
9522.000000;0.842167
9521.000000;0.840568
9520.000000;0.838704
9519.000000;0.837276
9518.000000;0.836717
9517.000000;0.837198
9516.000000;0.838592
9515.000000;0.840418
9514.000000;0.841952
9513.000000;0.842491
9512.000000;0.841712
9511.000000;0.839953
9510.000000;0.838124
9509.000000;0.837141
9508.000000;0.837267
9507.000000;0.837999
9506.000000;0.838603
9505.000000;0.838708
9504.000000;0.838404
9503.000000;0.837954
9502.000000;0.837564
9501.000000;0.837382
9500.000000;0.837527
9499.000000;0.837988
9498.000000;0.838465
9497.000000;0.838443
9496.000000;0.837633
9495.000000;0.836399
9494.000000;0.835533
9493.000000;0.835462
9492.000000;0.835807
9491.000000;0.835904
9490.000000;0.835575
9489.000000;0.835110
9488.000000;0.834660
9487.000000;0.834066
9486.000000;0.833327
9485.000000;0.832809
9484.000000;0.832759
9483.000000;0.832887
9482.000000;0.832656
9481.000000;0.831863
9480.000000;0.830781
9479.000000;0.829856
9478.000000;0.829405
9477.000000;0.829471
9476.000000;0.829837
9475.000000;0.830235
9474.000000;0.830553
9473.000000;0.830738
9472.000000;0.830580
9471.000000;0.829931
9470.000000;0.829137
9469.000000;0.828844
9468.000000;0.829232
9467.000000;0.829791
9466.000000;0.830073
9465.000000;0.830242
9464.000000;0.830551
9463.000000;0.830688
9462.000000;0.830139
9461.000000;0.828993
9460.000000;0.827884
9459.000000;0.827226
9458.000000;0.826950
9457.000000;0.826893
9456.000000;0.827005
9455.000000;0.827210
9454.000000;0.827493
9453.000000;0.828082
9452.000000;0.829105
9451.000000;0.830071
9450.000000;0.830231
9449.000000;0.829504
9448.000000;0.828516
9447.000000;0.827664
9446.000000;0.826712
9445.000000;0.825539
9444.000000;0.824627
9443.000000;0.824347
9442.000000;0.824233
9441.000000;0.823555
9440.000000;0.822408
9439.000000;0.821684
9438.000000;0.822006
9437.000000;0.823094
9436.000000;0.824140
9435.000000;0.824450
9434.000000;0.823738
9433.000000;0.822195
9432.000000;0.820440
9431.000000;0.819167
9430.000000;0.818666
9429.000000;0.818720
9428.000000;0.818928
9427.000000;0.819063
9426.000000;0.819165
9425.000000;0.819423
9424.000000;0.819921
9423.000000;0.820435
9422.000000;0.820608
9421.000000;0.820393
9420.000000;0.820113
9419.000000;0.819938
9418.000000;0.819598
9417.000000;0.818916
9416.000000;0.818348
9415.000000;0.818494
9414.000000;0.819189
9413.000000;0.819593
9412.000000;0.819254
9411.000000;0.818609
9410.000000;0.818206
9409.000000;0.817889
9408.000000;0.817153
9407.000000;0.816063
9406.000000;0.815337
9405.000000;0.815465
9404.000000;0.816082
9403.000000;0.816397
9402.000000;0.816079
9401.000000;0.815504
9400.000000;0.815169
9399.000000;0.815067
9398.000000;0.814777
9397.000000;0.814097
9396.000000;0.813335
9395.000000;0.812909
9394.000000;0.812911
9393.000000;0.813221
9392.000000;0.813825
9391.000000;0.814701
9390.000000;0.815489
9389.000000;0.815673
9388.000000;0.815170
9387.000000;0.814485
9386.000000;0.814151
9385.000000;0.814150
9384.000000;0.814005
9383.000000;0.813317
9382.000000;0.812194
9381.000000;0.811234
9380.000000;0.811067
9379.000000;0.811737
9378.000000;0.812527
9377.000000;0.812611
9376.000000;0.811903
9375.000000;0.811041
9374.000000;0.810535
9373.000000;0.810280
9372.000000;0.810011
9371.000000;0.809884
9370.000000;0.810228
9369.000000;0.810909
9368.000000;0.811301
9367.000000;0.810941
9366.000000;0.809973
9365.000000;0.808922
9364.000000;0.808182
9363.000000;0.807806
9362.000000;0.807632
9361.000000;0.807517
9360.000000;0.807457
9359.000000;0.807542
9358.000000;0.807821
9357.000000;0.808222
9356.000000;0.808605
9355.000000;0.808839
9354.000000;0.808819
9353.000000;0.808475
9352.000000;0.807803
9351.000000;0.806892
9350.000000;0.805896
9349.000000;0.804997
9348.000000;0.804353
9347.000000;0.803996
9346.000000;0.803799
9345.000000;0.803607
9344.000000;0.803401
9343.000000;0.803304
9342.000000;0.803442
9341.000000;0.803860
9340.000000;0.804491
9339.000000;0.805095
9338.000000;0.805285
9337.000000;0.804815
9336.000000;0.803851
9335.000000;0.802829
9334.000000;0.802026
9333.000000;0.801445
9332.000000;0.801058
9331.000000;0.800911
9330.000000;0.800934
9329.000000;0.800905
9328.000000;0.800733
9327.000000;0.800614
9326.000000;0.800725
9325.000000;0.800917
9324.000000;0.800873
9323.000000;0.800478
9322.000000;0.799912
9321.000000;0.799458
9320.000000;0.799331
9319.000000;0.799567
9318.000000;0.799928
9317.000000;0.800005
9316.000000;0.799580
9315.000000;0.798875
9314.000000;0.798311
9313.000000;0.798076
9312.000000;0.798045
9311.000000;0.798042
9310.000000;0.798021
9309.000000;0.797988
9308.000000;0.797906
9307.000000;0.797767
9306.000000;0.797675
9305.000000;0.797786
9304.000000;0.798110
9303.000000;0.798373
9302.000000;0.798159
9301.000000;0.797319
9300.000000;0.796239
9299.000000;0.795558
9298.000000;0.795575
9297.000000;0.796052
9296.000000;0.796624
9295.000000;0.797193
9294.000000;0.797744
9293.000000;0.797995
9292.000000;0.797550
9291.000000;0.796418
9290.000000;0.795162
9289.000000;0.794415
9288.000000;0.794348
9287.000000;0.794652
9286.000000;0.794948
9285.000000;0.795095
9284.000000;0.795130
9283.000000;0.795014
9282.000000;0.794568
9281.000000;0.793702
9280.000000;0.792636
9279.000000;0.791776
9278.000000;0.791371
9277.000000;0.791343
9276.000000;0.791403
9275.000000;0.791229
9274.000000;0.790633
9273.000000;0.789734
9272.000000;0.788978
9271.000000;0.788808
9270.000000;0.789218
9269.000000;0.789788
9268.000000;0.790192
9267.000000;0.790498
9266.000000;0.790910
9265.000000;0.791417
9264.000000;0.791805
9263.000000;0.791857
9262.000000;0.791478
9261.000000;0.790831
9260.000000;0.790401
9259.000000;0.790624
9258.000000;0.791282
9257.000000;0.791557
9256.000000;0.790946
9255.000000;0.789925
9254.000000;0.789378
9253.000000;0.789537
9252.000000;0.789872
9251.000000;0.789902
9250.000000;0.789697
9249.000000;0.789502
9248.000000;0.789234
9247.000000;0.788557
9246.000000;0.787335
9245.000000;0.785921
9244.000000;0.785035
9243.000000;0.785269
9242.000000;0.786511
9241.000000;0.787846
9240.000000;0.788258
9239.000000;0.787549
9238.000000;0.786485
9237.000000;0.785972
9236.000000;0.786222
9235.000000;0.786751
9234.000000;0.787031
9233.000000;0.787007
9232.000000;0.786972
9231.000000;0.787025
9230.000000;0.786833
9229.000000;0.786060
9228.000000;0.784944
9227.000000;0.784169
9226.000000;0.784101
9225.000000;0.784429
9224.000000;0.784701
9223.000000;0.784939
9222.000000;0.785408
9221.000000;0.786006
9220.000000;0.786295
9219.000000;0.786066
9218.000000;0.785522
9217.000000;0.784905
9216.000000;0.784272
9215.000000;0.783715
9214.000000;0.783432
9213.000000;0.783482
9212.000000;0.783675
9211.000000;0.783828
9210.000000;0.783914
9209.000000;0.783905
9208.000000;0.783704
9207.000000;0.783332
9206.000000;0.782981
9205.000000;0.782740
9204.000000;0.782435
9203.000000;0.781853
9202.000000;0.781017
9201.000000;0.780181
9200.000000;0.779697
9199.000000;0.779901
9198.000000;0.780891
9197.000000;0.782251
9196.000000;0.783193
9195.000000;0.783226
9194.000000;0.782617
9193.000000;0.782061
9192.000000;0.781962
9191.000000;0.782161
9190.000000;0.782259
9189.000000;0.782026
9188.000000;0.781471
9187.000000;0.780673
9186.000000;0.779703
9185.000000;0.778743
9184.000000;0.778155
9183.000000;0.778229
9182.000000;0.778769
9181.000000;0.779108
9180.000000;0.778766
9179.000000;0.777987
9178.000000;0.777409
9177.000000;0.777289
9176.000000;0.777348
9175.000000;0.777358
9174.000000;0.777494
9173.000000;0.777967
9172.000000;0.778638
9171.000000;0.779210
9170.000000;0.779563
9169.000000;0.779680
9168.000000;0.779430
9167.000000;0.778772
9166.000000;0.778031
9165.000000;0.777675
9164.000000;0.777766
9163.000000;0.777875
9162.000000;0.777593
9161.000000;0.776963
9160.000000;0.776373
9159.000000;0.776177
9158.000000;0.776486
9157.000000;0.777163
9156.000000;0.777880
9155.000000;0.778254
9154.000000;0.778097
9153.000000;0.777579
9152.000000;0.777058
9151.000000;0.776684
9150.000000;0.776238
9149.000000;0.775460
9148.000000;0.774509
9147.000000;0.773900
9146.000000;0.773956
9145.000000;0.774454
9144.000000;0.774899
9143.000000;0.775018
9142.000000;0.774830
9141.000000;0.774381
9140.000000;0.773702
9139.000000;0.772992
9138.000000;0.772540
9137.000000;0.772398
9136.000000;0.772317
9135.000000;0.772145
9134.000000;0.772087
9133.000000;0.772428
9132.000000;0.773102
9131.000000;0.773715
9130.000000;0.773949
9129.000000;0.773828
9128.000000;0.773568
9127.000000;0.773262
9126.000000;0.772818
9125.000000;0.772229
9124.000000;0.771825
9123.000000;0.772016
9122.000000;0.772714
9121.000000;0.773213
9120.000000;0.772904
9119.000000;0.771998
9118.000000;0.771224
9117.000000;0.770880
9116.000000;0.770585
9115.000000;0.770022
9114.000000;0.769490
9113.000000;0.769449
9112.000000;0.769852
9111.000000;0.770257
9110.000000;0.770432
9109.000000;0.770453
9108.000000;0.770297
9107.000000;0.769763
9106.000000;0.768897
9105.000000;0.768180
9104.000000;0.768094
9103.000000;0.768647
9102.000000;0.769465
9101.000000;0.770176
9100.000000;0.770571
9099.000000;0.770513
9098.000000;0.769985
9097.000000;0.769257
9096.000000;0.768765
9095.000000;0.768648
9094.000000;0.768532
9093.000000;0.767980
9092.000000;0.767089
9091.000000;0.766389
9090.000000;0.766177
9089.000000;0.766243
9088.000000;0.766345
9087.000000;0.766629
9086.000000;0.767303
9085.000000;0.768101
9084.000000;0.768454
9083.000000;0.768166
9082.000000;0.767598
9081.000000;0.767194
9080.000000;0.767103
9079.000000;0.767296
9078.000000;0.767712
9077.000000;0.768118
9076.000000;0.768137
9075.000000;0.767651
9074.000000;0.767000
9073.000000;0.766574
9072.000000;0.766350
9071.000000;0.766056
9070.000000;0.765676
9069.000000;0.765494
9068.000000;0.765639
9067.000000;0.765841
9066.000000;0.765768
9065.000000;0.765462
9064.000000;0.765297
9063.000000;0.765521
9062.000000;0.765913
9061.000000;0.765987
9060.000000;0.765517
9059.000000;0.764821
9058.000000;0.764449
9057.000000;0.764627
9056.000000;0.765077
9055.000000;0.765344
9054.000000;0.765219
9053.000000;0.764850
