Criado como novo conjunto de dados;"e0108.spp","-4278584.7 Secs"
cm-1;Abs
10000.000000;1.099358
9999.000000;1.097786
9998.000000;1.095426
9997.000000;1.092762
9996.000000;1.091073
9995.000000;1.091061
9994.000000;1.092295
9993.000000;1.093612
9992.000000;1.094432
9991.000000;1.095023
9990.000000;1.095693
9989.000000;1.096065
9988.000000;1.095535
9987.000000;1.094179
9986.000000;1.092797
9985.000000;1.092069
9984.000000;1.092041
9983.000000;1.092465
9982.000000;1.093197
9981.000000;1.094015
9980.000000;1.094399
9979.000000;1.093958
9978.000000;1.093087
9977.000000;1.092752
9976.000000;1.093393
9975.000000;1.094250
9974.000000;1.094105
9973.000000;1.092637
9972.000000;1.090692
9971.000000;1.089147
9970.000000;1.087992
9969.000000;1.086732
9968.000000;1.085357
9967.000000;1.084472
9966.000000;1.084530
9965.000000;1.085263
9964.000000;1.085920
9963.000000;1.085828
9962.000000;1.084758
9961.000000;1.083094
9960.000000;1.081756
9959.000000;1.081636
9958.000000;1.082792
9957.000000;1.084240
9956.000000;1.084744
9955.000000;1.083856
9954.000000;1.082132
9953.000000;1.080432
9952.000000;1.079192
9951.000000;1.078288
9950.000000;1.077377
9949.000000;1.076299
9948.000000;1.075225
9947.000000;1.074469
9946.000000;1.074243
9945.000000;1.074660
9944.000000;1.075887
9943.000000;1.077962
9942.000000;1.080334
9941.000000;1.081926
9940.000000;1.081964
9939.000000;1.080690
9938.000000;1.079010
9937.000000;1.077511
9936.000000;1.076144
9935.000000;1.074792
9934.000000;1.073707
9933.000000;1.073173
9932.000000;1.073020
9931.000000;1.072821
9930.000000;1.072485
9929.000000;1.072374
9928.000000;1.072745
9927.000000;1.073334
9926.000000;1.073646
9925.000000;1.073516
9924.000000;1.073158
9923.000000;1.072800
9922.000000;1.072515
9921.000000;1.072382
9920.000000;1.072482
9919.000000;1.072677
9918.000000;1.072610
9917.000000;1.072121
9916.000000;1.071459
9915.000000;1.070901
9914.000000;1.070367
9913.000000;1.069561
9912.000000;1.068367
9911.000000;1.066983
9910.000000;1.065779
9909.000000;1.065233
9908.000000;1.065739
9907.000000;1.067063
9906.000000;1.068181
9905.000000;1.068199
9904.000000;1.067401
9903.000000;1.066891
9902.000000;1.067092
9901.000000;1.067181
9900.000000;1.066269
9899.000000;1.064653
9898.000000;1.063441
9897.000000;1.063273
9896.000000;1.063865
9895.000000;1.064580
9894.000000;1.064903
9893.000000;1.064438
9892.000000;1.063037
9891.000000;1.061154
9890.000000;1.059681
9889.000000;1.059132
9888.000000;1.059212
9887.000000;1.059313
9886.000000;1.059225
9885.000000;1.059232
9884.000000;1.059701
9883.000000;1.060736
9882.000000;1.062064
9881.000000;1.063029
9880.000000;1.062820
9879.000000;1.061005
9878.000000;1.058000
9877.000000;1.054969
9876.000000;1.053165
9875.000000;1.053149
9874.000000;1.054339
9873.000000;1.055291
9872.000000;1.054794
9871.000000;1.052944
9870.000000;1.051001
9869.000000;1.050049
9868.000000;1.049946
9867.000000;1.049762
9866.000000;1.049079
9865.000000;1.048424
9864.000000;1.048365
9863.000000;1.048697
9862.000000;1.048856
9861.000000;1.048788
9860.000000;1.048948
9859.000000;1.049554
9858.000000;1.050301
9857.000000;1.050774
9856.000000;1.050801
9855.000000;1.050358
9854.000000;1.049480
9853.000000;1.048424
9852.000000;1.047607
9851.000000;1.047196
9850.000000;1.046965
9849.000000;1.046709
9848.000000;1.046494
9847.000000;1.046291
9846.000000;1.045690
9845.000000;1.044403
9844.000000;1.042890
9843.000000;1.042024
9842.000000;1.042119
9841.000000;1.042638
9840.000000;1.042845
9839.000000;1.042432
9838.000000;1.041490
9837.000000;1.040301
9836.000000;1.039325
9835.000000;1.039041
9834.000000;1.039482
9833.000000;1.040099
9832.000000;1.040272
9831.000000;1.039903
9830.000000;1.039385
9829.000000;1.039152
9828.000000;1.039336
9827.000000;1.039673
9826.000000;1.039657
9825.000000;1.038991
9824.000000;1.038045
9823.000000;1.037564
9822.000000;1.037770
9821.000000;1.038023
9820.000000;1.037689
9819.000000;1.037059
9818.000000;1.036907
9817.000000;1.037314
9816.000000;1.037457
9815.000000;1.036645
9814.000000;1.035179
9813.000000;1.033982
9812.000000;1.033689
9811.000000;1.034220
9810.000000;1.034988
9809.000000;1.035358
9808.000000;1.035173
9807.000000;1.034956
9806.000000;1.035370
9805.000000;1.036294
9804.000000;1.036672
9803.000000;1.035632
9802.000000;1.033619
9801.000000;1.032005
9800.000000;1.031560
9799.000000;1.031684
9798.000000;1.031235
9797.000000;1.029849
9796.000000;1.028252
9795.000000;1.027454
9794.000000;1.027859
9793.000000;1.028991
9792.000000;1.029842
9791.000000;1.029622
9790.000000;1.028409
9789.000000;1.027099
9788.000000;1.026562
9787.000000;1.026790
9786.000000;1.026981
9785.000000;1.026497
9784.000000;1.025589
9783.000000;1.025079
9782.000000;1.025451
9781.000000;1.026406
9780.000000;1.027190
9779.000000;1.027168
9778.000000;1.026149
9777.000000;1.024403
9776.000000;1.022497
9775.000000;1.020987
9774.000000;1.020148
9773.000000;1.020008
9772.000000;1.020576
9771.000000;1.021794
9770.000000;1.023148
9769.000000;1.023649
9768.000000;1.022550
9767.000000;1.020070
9766.000000;1.017174
9765.000000;1.014733
9764.000000;1.013139
9763.000000;1.012624
9762.000000;1.013421
9761.000000;1.015299
9760.000000;1.017332
9759.000000;1.018559
9758.000000;1.018827
9757.000000;1.018654
9756.000000;1.018402
9755.000000;1.017979
9754.000000;1.017318
9753.000000;1.016661
9752.000000;1.016191
9751.000000;1.015741
9750.000000;1.015111
9749.000000;1.014424
9748.000000;1.013892
9747.000000;1.013473
9746.000000;1.013025
9745.000000;1.012641
9744.000000;1.012484
9743.000000;1.012441
9742.000000;1.012269
9741.000000;1.012007
9740.000000;1.011913
9739.000000;1.011989
9738.000000;1.011866
9737.000000;1.011310
9736.000000;1.010609
9735.000000;1.010295
9734.000000;1.010561
9733.000000;1.011063
9732.000000;1.011196
9731.000000;1.010587
9730.000000;1.009471
9729.000000;1.008589
9728.000000;1.008514
9727.000000;1.009052
9726.000000;1.009472
9725.000000;1.009312
9724.000000;1.008720
9723.000000;1.007978
9722.000000;1.007110
9721.000000;1.006172
9720.000000;1.005524
9719.000000;1.005481
9718.000000;1.005865
9717.000000;1.006216
9716.000000;1.006326
9715.000000;1.006286
9714.000000;1.006147
9713.000000;1.005873
9712.000000;1.005553
9711.000000;1.005314
9710.000000;1.005089
9709.000000;1.004750
9708.000000;1.004438
9707.000000;1.004413
9706.000000;1.004575
9705.000000;1.004394
9704.000000;1.003376
9703.000000;1.001470
9702.000000;0.999132
9701.000000;0.997253
9700.000000;0.996835
9699.000000;0.998193
9698.000000;1.000352
9697.000000;1.001683
9696.000000;1.001453
9695.000000;1.000515
9694.000000;1.000250
9693.000000;1.001076
9692.000000;1.002216
9691.000000;1.002649
9690.000000;1.001976
9689.000000;1.000505
9688.000000;0.998907
9687.000000;0.997860
9686.000000;0.997728
9685.000000;0.998362
9684.000000;0.999179
9683.000000;0.999550
9682.000000;0.999223
9681.000000;0.998416
9680.000000;0.997518
9679.000000;0.996718
9678.000000;0.995972
9677.000000;0.995306
9676.000000;0.994927
9675.000000;0.994880
9674.000000;0.994798
9673.000000;0.994284
9672.000000;0.993456
9671.000000;0.992802
9670.000000;0.992528
9669.000000;0.992386
9668.000000;0.992153
9667.000000;0.991949
9666.000000;0.991954
9665.000000;0.992095
9664.000000;0.992139
9663.000000;0.991879
9662.000000;0.991153
9661.000000;0.989929
9660.000000;0.988534
9659.000000;0.987560
9658.000000;0.987364
9657.000000;0.987810
9656.000000;0.988550
9655.000000;0.989281
9654.000000;0.989667
9653.000000;0.989385
9652.000000;0.988530
9651.000000;0.987661
9650.000000;0.987186
9649.000000;0.986954
9648.000000;0.986671
9647.000000;0.986404
9646.000000;0.986299
9645.000000;0.986131
9644.000000;0.985669
9643.000000;0.985287
9642.000000;0.985619
9641.000000;0.986604
9640.000000;0.987377
9639.000000;0.987205
9638.000000;0.986130
9637.000000;0.984614
9636.000000;0.982984
9635.000000;0.981487
9634.000000;0.980500
9633.000000;0.980322
9632.000000;0.980895
9631.000000;0.981866
9630.000000;0.982820
9629.000000;0.983406
9628.000000;0.983433
9627.000000;0.983009
9626.000000;0.982483
9625.000000;0.982092
9624.000000;0.981736
9623.000000;0.981148
9622.000000;0.980186
9621.000000;0.978925
9620.000000;0.977621
9619.000000;0.976646
9618.000000;0.976272
9617.000000;0.976392
9616.000000;0.976598
9615.000000;0.976587
9614.000000;0.976396
9613.000000;0.976142
9612.000000;0.975752
9611.000000;0.975095
9610.000000;0.974303
9609.000000;0.973788
9608.000000;0.973932
9607.000000;0.974793
9606.000000;0.975999
9605.000000;0.976877
9604.000000;0.976841
9603.000000;0.975878
9602.000000;0.974641
9601.000000;0.973909
9600.000000;0.973943
9599.000000;0.974393
9598.000000;0.974783
9597.000000;0.975037
9596.000000;0.975438
9595.000000;0.976026
9594.000000;0.976213
9593.000000;0.975262
9592.000000;0.973248
9591.000000;0.971251
9590.000000;0.970327
9589.000000;0.970434
9588.000000;0.970639
9587.000000;0.970215
9586.000000;0.969213
9585.000000;0.968034
9584.000000;0.966997
9583.000000;0.966473
9582.000000;0.966893
9581.000000;0.968216
9580.000000;0.969602
9579.000000;0.970025
9578.000000;0.969197
9577.000000;0.967666
9576.000000;0.966143
9575.000000;0.964997
9574.000000;0.964254
9573.000000;0.963728
9572.000000;0.963128
9571.000000;0.962272
9570.000000;0.961281
9569.000000;0.960514
9568.000000;0.960342
9567.000000;0.960988
9566.000000;0.962314
9565.000000;0.963684
9564.000000;0.964389
9563.000000;0.964482
9562.000000;0.964844
9561.000000;0.966003
9560.000000;0.967190
9559.000000;0.967085
9558.000000;0.965433
9557.000000;0.963369
9556.000000;0.962121
9555.000000;0.961918
9554.000000;0.962183
9553.000000;0.962279
9552.000000;0.961867
9551.000000;0.961027
9550.000000;0.960320
9549.000000;0.960338
9548.000000;0.960913
9547.000000;0.961114
9546.000000;0.960287
9545.000000;0.958734
9544.000000;0.957138
9543.000000;0.955795
9542.000000;0.954825
9541.000000;0.954634
9540.000000;0.955514
9539.000000;0.956985
9538.000000;0.958212
9537.000000;0.959034
9536.000000;0.959956
9535.000000;0.961030
9534.000000;0.961409
9533.000000;0.960345
9532.000000;0.958236
9531.000000;0.956315
9530.000000;0.955557
9529.000000;0.956117
9528.000000;0.957443
9527.000000;0.958585
9526.000000;0.958639
9525.000000;0.957333
9524.000000;0.955236
9523.000000;0.953162
9522.000000;0.951442
9521.000000;0.949949
9520.000000;0.948699
9519.000000;0.948090
9518.000000;0.948470
9517.000000;0.949678
9516.000000;0.951133
9515.000000;0.952229
9514.000000;0.952592
9513.000000;0.952143
9512.000000;0.951147
9511.000000;0.950186
9510.000000;0.949869
9509.000000;0.950365
9508.000000;0.951150
9507.000000;0.951342
9506.000000;0.950541
9505.000000;0.949397
9504.000000;0.949115
9503.000000;0.950202
9502.000000;0.951755
9501.000000;0.952206
9500.000000;0.950922
9499.000000;0.948871
9498.000000;0.947543
9497.000000;0.947410
9496.000000;0.947683
9495.000000;0.947422
9494.000000;0.946536
9493.000000;0.945551
9492.000000;0.944778
9491.000000;0.944111
9490.000000;0.943554
9489.000000;0.943513
9488.000000;0.944329
9487.000000;0.945717
9486.000000;0.946873
9485.000000;0.947147
9484.000000;0.946541
9483.000000;0.945576
9482.000000;0.944757
9481.000000;0.944151
9480.000000;0.943471
9479.000000;0.942573
9478.000000;0.941728
9477.000000;0.941305
9476.000000;0.941258
9475.000000;0.941170
9474.000000;0.940792
9473.000000;0.940247
9472.000000;0.939610
9471.000000;0.938695
9470.000000;0.937571
9469.000000;0.936969
9468.000000;0.937642
9467.000000;0.939345
9466.000000;0.940883
9465.000000;0.941324
9464.000000;0.940843
9463.000000;0.940266
9462.000000;0.940138
9461.000000;0.940439
9460.000000;0.940925
9459.000000;0.941440
9458.000000;0.941948
9457.000000;0.942418
9456.000000;0.942632
9455.000000;0.942149
9454.000000;0.940707
9453.000000;0.938772
9452.000000;0.937352
9451.000000;0.937004
9450.000000;0.937256
9449.000000;0.937302
9448.000000;0.937026
9447.000000;0.936931
9446.000000;0.937206
9445.000000;0.937436
9444.000000;0.937336
9443.000000;0.937225
9442.000000;0.937407
9441.000000;0.937485
9440.000000;0.936766
9439.000000;0.935272
9438.000000;0.933905
9437.000000;0.933510
9436.000000;0.934032
9435.000000;0.934697
9434.000000;0.934769
9433.000000;0.933993
9432.000000;0.932549
9431.000000;0.930902
9430.000000;0.929667
9429.000000;0.929310
9428.000000;0.929812
9427.000000;0.930674
9426.000000;0.931323
9425.000000;0.931495
9424.000000;0.931232
9423.000000;0.930691
9422.000000;0.930077
9421.000000;0.929637
9420.000000;0.929518
9419.000000;0.929617
9418.000000;0.929721
9417.000000;0.929824
9416.000000;0.930142
9415.000000;0.930765
9414.000000;0.931424
9413.000000;0.931716
9412.000000;0.931463
9411.000000;0.930759
9410.000000;0.929763
9409.000000;0.928651
9408.000000;0.927740
9407.000000;0.927439
9406.000000;0.927925
9405.000000;0.928844
9404.000000;0.929480
9403.000000;0.929333
9402.000000;0.928531
9401.000000;0.927621
9400.000000;0.927000
9399.000000;0.926642
9398.000000;0.926354
9397.000000;0.926093
9396.000000;0.925891
9395.000000;0.925627
9394.000000;0.925126
9393.000000;0.924483
9392.000000;0.924018
9391.000000;0.923829
9390.000000;0.923651
9389.000000;0.923320
9388.000000;0.923175
9387.000000;0.923745
9386.000000;0.925068
9385.000000;0.926481
9384.000000;0.927095
9383.000000;0.926395
9382.000000;0.924507
9381.000000;0.922193
9380.000000;0.920533
9379.000000;0.920258
9378.000000;0.921093
9377.000000;0.921923
9376.000000;0.921857
9375.000000;0.921075
9374.000000;0.920458
9373.000000;0.920510
9372.000000;0.920932
9371.000000;0.921237
9370.000000;0.921380
9369.000000;0.921567
9368.000000;0.921731
9367.000000;0.921579
9366.000000;0.921075
9365.000000;0.920496
9364.000000;0.919959
9363.000000;0.919261
9362.000000;0.918372
9361.000000;0.917792
9360.000000;0.918040
9359.000000;0.918907
9358.000000;0.919559
9357.000000;0.919409
9356.000000;0.918654
9355.000000;0.917915
9354.000000;0.917561
9353.000000;0.917464
9352.000000;0.917227
9351.000000;0.916558
9350.000000;0.915542
9349.000000;0.914636
9348.000000;0.914318
9347.000000;0.914654
9346.000000;0.915265
9345.000000;0.915700
9344.000000;0.915742
9343.000000;0.915359
9342.000000;0.914634
9341.000000;0.913858
9340.000000;0.913485
9339.000000;0.913755
9338.000000;0.914446
9337.000000;0.915120
9336.000000;0.915556
9335.000000;0.915836
9334.000000;0.916121
9333.000000;0.916486
9332.000000;0.916867
9331.000000;0.916985
9330.000000;0.916438
9329.000000;0.915143
9328.000000;0.913695
9327.000000;0.913019
9326.000000;0.913517
9325.000000;0.914656
9324.000000;0.915426
9323.000000;0.915161
9322.000000;0.913920
9321.000000;0.912299
9320.000000;0.911043
9319.000000;0.910696
9318.000000;0.911336
9317.000000;0.912532
9316.000000;0.913602
9315.000000;0.914024
9314.000000;0.913643
9313.000000;0.912571
9312.000000;0.911019
9311.000000;0.909276
9310.000000;0.907701
9309.000000;0.906604
9308.000000;0.906069
9307.000000;0.905958
9306.000000;0.906085
9305.000000;0.906345
9304.000000;0.906690
9303.000000;0.907101
9302.000000;0.907610
9301.000000;0.908195
9300.000000;0.908605
9299.000000;0.908468
9298.000000;0.907759
9297.000000;0.907026
9296.000000;0.906949
9295.000000;0.907658
9294.000000;0.908646
9293.000000;0.909312
9292.000000;0.909449
9291.000000;0.909248
9290.000000;0.909034
9289.000000;0.909014
9288.000000;0.909116
9287.000000;0.909050
9286.000000;0.908670
9285.000000;0.908223
9284.000000;0.908025
9283.000000;0.907906
9282.000000;0.907313
9281.000000;0.906063
9280.000000;0.904680
9279.000000;0.903829
9278.000000;0.903659
9277.000000;0.903893
9276.000000;0.904264
9275.000000;0.904568
9274.000000;0.904522
9273.000000;0.903989
9272.000000;0.903278
9271.000000;0.902874
9270.000000;0.902823
9269.000000;0.902713
9268.000000;0.902339
9267.000000;0.902128
9266.000000;0.902676
9265.000000;0.903987
9264.000000;0.905305
9263.000000;0.905707
9262.000000;0.904879
9261.000000;0.903369
9260.000000;0.902060
9259.000000;0.901345
9258.000000;0.900865
9257.000000;0.900071
9256.000000;0.898945
9255.000000;0.898009
9254.000000;0.897737
9253.000000;0.898171
9252.000000;0.899016
9251.000000;0.899847
9250.000000;0.900188
9249.000000;0.899697
9248.000000;0.898542
9247.000000;0.897438
9246.000000;0.897072
9245.000000;0.897487
9244.000000;0.898150
9243.000000;0.898595
9242.000000;0.898824
9241.000000;0.899039
9240.000000;0.899197
9239.000000;0.899028
9238.000000;0.898429
9237.000000;0.897655
9236.000000;0.897071
9235.000000;0.896860
9234.000000;0.897024
9233.000000;0.897492
9232.000000;0.898075
9231.000000;0.898456
9230.000000;0.898447
9229.000000;0.898217
9228.000000;0.898027
9227.000000;0.897788
9226.000000;0.897178
9225.000000;0.896263
9224.000000;0.895687
9223.000000;0.896014
9222.000000;0.897055
9221.000000;0.898035
9220.000000;0.898321
9219.000000;0.897841
9218.000000;0.896899
9217.000000;0.895834
9216.000000;0.894842
9215.000000;0.893956
9214.000000;0.893167
9213.000000;0.892596
9212.000000;0.892453
9211.000000;0.892745
9210.000000;0.893147
9209.000000;0.893301
9208.000000;0.893183
9207.000000;0.893077
9206.000000;0.893258
9205.000000;0.893767
9204.000000;0.894363
9203.000000;0.894620
9202.000000;0.894254
9201.000000;0.893482
9200.000000;0.892894
9199.000000;0.892776
9198.000000;0.892757
9197.000000;0.892312
9196.000000;0.891429
9195.000000;0.890542
9194.000000;0.890014
9193.000000;0.889938
9192.000000;0.890273
9191.000000;0.890805
9190.000000;0.891105
9189.000000;0.890880
9188.000000;0.890317
9187.000000;0.889809
9186.000000;0.889457
9185.000000;0.889199
9184.000000;0.889240
9183.000000;0.889815
9182.000000;0.890533
9181.000000;0.890524
9180.000000;0.889458
9179.000000;0.888012
9178.000000;0.887111
9177.000000;0.887072
9176.000000;0.887638
9175.000000;0.888450
9174.000000;0.889205
9173.000000;0.889643
9172.000000;0.889674
9171.000000;0.889411
9170.000000;0.888962
9169.000000;0.888396
9168.000000;0.887950
9167.000000;0.887924
9166.000000;0.888207
9165.000000;0.888284
9164.000000;0.887970
9163.000000;0.887742
9162.000000;0.888019
9161.000000;0.888503
9160.000000;0.888649
9159.000000;0.888532
9158.000000;0.888674
9157.000000;0.889124
9156.000000;0.889290
9155.000000;0.888809
9154.000000;0.888109
9153.000000;0.887886
9152.000000;0.888309
9151.000000;0.888923
9150.000000;0.889158
9149.000000;0.888794
9148.000000;0.888052
9147.000000;0.887363
9146.000000;0.886986
9145.000000;0.886805
9144.000000;0.886561
9143.000000;0.886260
9142.000000;0.886171
9141.000000;0.886421
9140.000000;0.886756
9139.000000;0.886780
9138.000000;0.886375
9137.000000;0.885802
9136.000000;0.885435
9135.000000;0.885417
9134.000000;0.885561
9133.000000;0.885557
9132.000000;0.885252
9131.000000;0.884677
9130.000000;0.883865
9129.000000;0.882831
9128.000000;0.881823
9127.000000;0.881358
9126.000000;0.881758
9125.000000;0.882731
9124.000000;0.883634
9123.000000;0.884114
9122.000000;0.884288
9121.000000;0.884327
9120.000000;0.884166
9119.000000;0.883721
9118.000000;0.883148
9117.000000;0.882727
9116.000000;0.882580
9115.000000;0.882660
9114.000000;0.882898
9113.000000;0.883185
9112.000000;0.883244
9111.000000;0.882730
9110.000000;0.881586
9109.000000;0.880224
9108.000000;0.879233
9107.000000;0.878883
9106.000000;0.879013
9105.000000;0.879365
9104.000000;0.879880
9103.000000;0.880560
9102.000000;0.881191
9101.000000;0.881435
9100.000000;0.881202
9099.000000;0.880708
9098.000000;0.880138
9097.000000;0.879465
9096.000000;0.878714
9095.000000;0.878174
9094.000000;0.878128
9093.000000;0.878493
9092.000000;0.878924
9091.000000;0.879212
9090.000000;0.879366
9089.000000;0.879360
9088.000000;0.879071
9087.000000;0.878546
9086.000000;0.878124
9085.000000;0.878111
9084.000000;0.878392
9083.000000;0.878479
9082.000000;0.877986
9081.000000;0.877068
9080.000000;0.876357
9079.000000;0.876406
9078.000000;0.877140
9077.000000;0.877903
9076.000000;0.878081
9075.000000;0.877678
9074.000000;0.877245
9073.000000;0.877296
9072.000000;0.877845
9071.000000;0.878457
9070.000000;0.878686
9069.000000;0.878466
9068.000000;0.878105
9067.000000;0.877894
9066.000000;0.877783
9065.000000;0.877484
9064.000000;0.876881
9063.000000;0.876188
9062.000000;0.875723
9061.000000;0.875637
9060.000000;0.875877
9059.000000;0.876236
9058.000000;0.876406
9057.000000;0.876159
9056.000000;0.875587
9055.000000;0.875044
9054.000000;0.874799
9053.000000;0.874860
