Criado como novo conjunto de dados;"e0108.spp","-4261303.5 Secs"
cm-1;Abs
10000.000000;1.045110
9999.000000;1.044677
9998.000000;1.044244
9997.000000;1.043812
9996.000000;1.043381
9995.000000;1.042948
9994.000000;1.042519
9993.000000;1.042085
9992.000000;1.041667
9991.000000;1.040812
9990.000000;1.039888
9989.000000;1.039541
9988.000000;1.039551
9987.000000;1.039014
9986.000000;1.037535
9985.000000;1.035759
9984.000000;1.034730
9983.000000;1.035111
9982.000000;1.036837
9981.000000;1.039108
9980.000000;1.040794
9979.000000;1.041255
9978.000000;1.040737
9977.000000;1.039817
9976.000000;1.038733
9975.000000;1.037521
9974.000000;1.036420
9973.000000;1.035665
9972.000000;1.035054
9971.000000;1.034196
9970.000000;1.033128
9969.000000;1.032366
9968.000000;1.032309
9967.000000;1.032819
9966.000000;1.033349
9965.000000;1.033399
9964.000000;1.032993
9963.000000;1.032698
9962.000000;1.032927
9961.000000;1.033242
9960.000000;1.032852
9959.000000;1.031820
9958.000000;1.031029
9957.000000;1.030700
9956.000000;1.029841
9955.000000;1.027822
9954.000000;1.025708
9953.000000;1.025084
9952.000000;1.026088
9951.000000;1.027519
9950.000000;1.028478
9949.000000;1.028936
9948.000000;1.028919
9947.000000;1.028269
9946.000000;1.027310
9945.000000;1.026791
9944.000000;1.026981
9943.000000;1.027510
9942.000000;1.028138
9941.000000;1.028826
9940.000000;1.029003
9939.000000;1.027777
9938.000000;1.025222
9937.000000;1.022631
9936.000000;1.021077
9935.000000;1.020459
9934.000000;1.020248
9933.000000;1.020336
9932.000000;1.020673
9931.000000;1.020821
9930.000000;1.020546
9929.000000;1.020342
9928.000000;1.020718
9927.000000;1.021360
9926.000000;1.021573
9925.000000;1.021230
9924.000000;1.020731
9923.000000;1.020295
9922.000000;1.019840
9921.000000;1.019389
9920.000000;1.019111
9919.000000;1.019075
9918.000000;1.019357
9917.000000;1.020162
9916.000000;1.021407
9915.000000;1.022369
9914.000000;1.022228
9913.000000;1.020912
9912.000000;1.019071
9911.000000;1.017336
9910.000000;1.015880
9909.000000;1.014557
9908.000000;1.013174
9907.000000;1.011795
9906.000000;1.010957
9905.000000;1.011312
9904.000000;1.012738
9903.000000;1.014041
9902.000000;1.014041
9901.000000;1.012837
9900.000000;1.011590
9899.000000;1.011192
9898.000000;1.011547
9897.000000;1.011992
9896.000000;1.011954
9895.000000;1.011225
9894.000000;1.010051
9893.000000;1.009085
9892.000000;1.008919
9891.000000;1.009502
9890.000000;1.010160
9889.000000;1.010193
9888.000000;1.009366
9887.000000;1.007941
9886.000000;1.006463
9885.000000;1.005427
9884.000000;1.004919
9883.000000;1.004623
9882.000000;1.004268
9881.000000;1.003882
9880.000000;1.003450
9879.000000;1.002666
9878.000000;1.001442
9877.000000;1.000396
9876.000000;1.000330
9875.000000;1.001261
9874.000000;1.002361
9873.000000;1.002833
9872.000000;1.002485
9871.000000;1.001520
9870.000000;1.000183
9869.000000;0.998672
9868.000000;0.997083
9867.000000;0.995490
9866.000000;0.994328
9865.000000;0.994447
9864.000000;0.996227
9863.000000;0.998714
9862.000000;1.000220
9861.000000;0.999943
9860.000000;0.998557
9859.000000;0.997209
9858.000000;0.996523
9857.000000;0.996603
9856.000000;0.997260
9855.000000;0.997967
9854.000000;0.998168
9853.000000;0.997940
9852.000000;0.997927
9851.000000;0.998364
9850.000000;0.998626
9849.000000;0.998055
9848.000000;0.996779
9847.000000;0.995345
9846.000000;0.994020
9845.000000;0.992852
9844.000000;0.992029
9843.000000;0.991658
9842.000000;0.991443
9841.000000;0.990984
9840.000000;0.990256
9839.000000;0.989520
9838.000000;0.989034
9837.000000;0.989078
9836.000000;0.989874
9835.000000;0.991046
9834.000000;0.991465
9833.000000;0.990245
9832.000000;0.987798
9831.000000;0.985485
9830.000000;0.984338
9829.000000;0.984402
9828.000000;0.985046
9827.000000;0.985476
9826.000000;0.985215
9825.000000;0.984565
9824.000000;0.984452
9823.000000;0.985337
9822.000000;0.986436
9821.000000;0.986531
9820.000000;0.985381
9819.000000;0.983774
9818.000000;0.982382
9817.000000;0.981308
9816.000000;0.980686
9815.000000;0.980825
9814.000000;0.981491
9813.000000;0.981788
9812.000000;0.981190
9811.000000;0.980212
9810.000000;0.979704
9809.000000;0.979853
9808.000000;0.980222
9807.000000;0.980419
9806.000000;0.980385
9805.000000;0.980269
9804.000000;0.980302
9803.000000;0.980597
9802.000000;0.980851
9801.000000;0.980494
9800.000000;0.979311
9799.000000;0.977680
9798.000000;0.976090
9797.000000;0.974783
9796.000000;0.974013
9795.000000;0.974150
9794.000000;0.975171
9793.000000;0.976461
9792.000000;0.977483
9791.000000;0.978313
9790.000000;0.979143
9789.000000;0.979637
9788.000000;0.979262
9787.000000;0.978000
9786.000000;0.976279
9785.000000;0.974455
9784.000000;0.972859
9783.000000;0.972042
9782.000000;0.972287
9781.000000;0.972948
9780.000000;0.972902
9779.000000;0.971787
9778.000000;0.970347
9777.000000;0.969501
9776.000000;0.969493
9775.000000;0.969945
9774.000000;0.970249
9773.000000;0.969809
9772.000000;0.968491
9771.000000;0.967055
9770.000000;0.966613
9769.000000;0.967352
9768.000000;0.968180
9767.000000;0.967999
9766.000000;0.966967
9765.000000;0.966107
9764.000000;0.965958
9763.000000;0.966123
9762.000000;0.966021
9761.000000;0.965629
9760.000000;0.965414
9759.000000;0.965823
9758.000000;0.966826
9757.000000;0.967754
9756.000000;0.967676
9755.000000;0.966245
9754.000000;0.964155
9753.000000;0.962512
9752.000000;0.961788
9751.000000;0.961623
9750.000000;0.961545
9749.000000;0.961490
9748.000000;0.961577
9747.000000;0.961777
9746.000000;0.962016
9745.000000;0.962285
9744.000000;0.962401
9743.000000;0.961977
9742.000000;0.961007
9741.000000;0.960269
9740.000000;0.960642
9739.000000;0.961999
9738.000000;0.963167
9737.000000;0.963112
9736.000000;0.961841
9735.000000;0.960059
9734.000000;0.958367
9733.000000;0.957141
9732.000000;0.956721
9731.000000;0.957069
9730.000000;0.957357
9729.000000;0.956630
9728.000000;0.955075
9727.000000;0.954005
9726.000000;0.954246
9725.000000;0.955084
9724.000000;0.955317
9723.000000;0.954928
9722.000000;0.954911
9721.000000;0.955535
9720.000000;0.955770
9719.000000;0.954763
9718.000000;0.953126
9717.000000;0.952126
9716.000000;0.952069
9715.000000;0.952204
9714.000000;0.951996
9713.000000;0.951729
9712.000000;0.951803
9711.000000;0.952104
9710.000000;0.952358
9709.000000;0.952571
9708.000000;0.952740
9707.000000;0.952524
9706.000000;0.951626
9705.000000;0.950351
9704.000000;0.949356
9703.000000;0.948925
9702.000000;0.948793
9701.000000;0.948658
9700.000000;0.948541
9699.000000;0.948572
9698.000000;0.948721
9697.000000;0.948863
9696.000000;0.948950
9695.000000;0.948988
9694.000000;0.948923
9693.000000;0.948660
9692.000000;0.948164
9691.000000;0.947533
9690.000000;0.946989
9689.000000;0.946722
9688.000000;0.946603
9687.000000;0.946182
9686.000000;0.945197
9685.000000;0.944047
9684.000000;0.943468
9683.000000;0.943702
9682.000000;0.944246
9681.000000;0.944490
9680.000000;0.944360
9679.000000;0.944177
9678.000000;0.944110
9677.000000;0.943989
9676.000000;0.943482
9675.000000;0.942306
9674.000000;0.940456
9673.000000;0.938453
9672.000000;0.937156
9671.000000;0.937052
9670.000000;0.937797
9669.000000;0.938651
9668.000000;0.939252
9667.000000;0.939650
9666.000000;0.939809
9665.000000;0.939595
9664.000000;0.939261
9663.000000;0.939349
9662.000000;0.939874
9661.000000;0.939993
9660.000000;0.938838
9659.000000;0.936457
9658.000000;0.933742
9657.000000;0.931684
9656.000000;0.930918
9655.000000;0.931637
9654.000000;0.933485
9653.000000;0.935604
9652.000000;0.937081
9651.000000;0.937469
9650.000000;0.936830
9649.000000;0.935503
9648.000000;0.933985
9647.000000;0.932778
9646.000000;0.932017
9645.000000;0.931385
9644.000000;0.930681
9643.000000;0.930316
9642.000000;0.930793
9641.000000;0.931797
9640.000000;0.932298
9639.000000;0.931709
9638.000000;0.930549
9637.000000;0.929800
9636.000000;0.929939
9635.000000;0.930719
9634.000000;0.931494
9633.000000;0.931549
9632.000000;0.930512
9631.000000;0.928849
9630.000000;0.927702
9629.000000;0.927834
9628.000000;0.928811
9627.000000;0.929542
9626.000000;0.929533
9625.000000;0.929181
9624.000000;0.928902
9623.000000;0.928510
9622.000000;0.927665
9621.000000;0.926571
9620.000000;0.925895
9619.000000;0.926043
9618.000000;0.926725
9617.000000;0.927191
9616.000000;0.926857
9615.000000;0.925776
9614.000000;0.924619
9613.000000;0.924137
9612.000000;0.924542
9611.000000;0.925427
9610.000000;0.926219
9609.000000;0.926556
9608.000000;0.926279
9607.000000;0.925354
9606.000000;0.924036
9605.000000;0.922927
9604.000000;0.922616
9603.000000;0.923155
9602.000000;0.923906
9601.000000;0.923931
9600.000000;0.922670
9599.000000;0.920454
9598.000000;0.918356
9597.000000;0.917317
9596.000000;0.917402
9595.000000;0.918039
9594.000000;0.918906
9593.000000;0.920167
9592.000000;0.921707
9591.000000;0.922679
9590.000000;0.922345
9589.000000;0.921067
9588.000000;0.919853
9587.000000;0.919081
9586.000000;0.918261
9585.000000;0.917057
9584.000000;0.915910
9583.000000;0.915406
9582.000000;0.915562
9581.000000;0.916029
9580.000000;0.916574
9579.000000;0.917037
9578.000000;0.917145
9577.000000;0.916798
9576.000000;0.916341
9575.000000;0.916144
9574.000000;0.916040
9573.000000;0.915551
9572.000000;0.914552
9571.000000;0.913379
9570.000000;0.912402
9569.000000;0.911817
9568.000000;0.911762
9567.000000;0.912179
9566.000000;0.912575
9565.000000;0.912388
9564.000000;0.911682
9563.000000;0.911116
9562.000000;0.911103
9561.000000;0.911386
9560.000000;0.911590
9559.000000;0.911755
9558.000000;0.911975
9557.000000;0.911877
9556.000000;0.910973
9555.000000;0.909467
9554.000000;0.908213
9553.000000;0.907791
9552.000000;0.907977
9551.000000;0.908216
9550.000000;0.908248
9549.000000;0.908066
9548.000000;0.907549
9547.000000;0.906580
9546.000000;0.905505
9545.000000;0.905028
9544.000000;0.905446
9543.000000;0.906198
9542.000000;0.906439
9541.000000;0.905965
9540.000000;0.905300
9539.000000;0.904899
9538.000000;0.904637
9537.000000;0.904187
9536.000000;0.903554
9535.000000;0.903023
9534.000000;0.902787
9533.000000;0.902900
9532.000000;0.903389
9531.000000;0.904092
9530.000000;0.904500
9529.000000;0.904161
9528.000000;0.903242
9527.000000;0.902317
9526.000000;0.901582
9525.000000;0.900718
9524.000000;0.899658
9523.000000;0.899027
9522.000000;0.899424
9521.000000;0.900520
9520.000000;0.901283
9519.000000;0.901082
9518.000000;0.900222
9517.000000;0.899356
9516.000000;0.898724
9515.000000;0.898189
9514.000000;0.897752
9513.000000;0.897710
9512.000000;0.898306
9511.000000;0.899392
9510.000000;0.900524
9509.000000;0.901302
9508.000000;0.901565
9507.000000;0.901279
9506.000000;0.900433
9505.000000;0.899214
9504.000000;0.898145
9503.000000;0.897766
9502.000000;0.898023
9501.000000;0.898169
9500.000000;0.897496
9499.000000;0.896106
9498.000000;0.894776
9497.000000;0.894110
9496.000000;0.894048
9495.000000;0.894198
9494.000000;0.894374
9493.000000;0.894623
9492.000000;0.894872
9491.000000;0.894850
9490.000000;0.894387
9489.000000;0.893643
9488.000000;0.892956
9487.000000;0.892545
9486.000000;0.892390
9485.000000;0.892324
9484.000000;0.892170
9483.000000;0.891882
9482.000000;0.891614
9481.000000;0.891575
9480.000000;0.891739
9479.000000;0.891765
9478.000000;0.891337
9477.000000;0.890581
9476.000000;0.889978
9475.000000;0.889881
9474.000000;0.890230
9473.000000;0.890697
9472.000000;0.890903
9471.000000;0.890477
9470.000000;0.889234
9469.000000;0.887529
9468.000000;0.886239
9467.000000;0.886063
9466.000000;0.886839
9465.000000;0.887757
9464.000000;0.888176
9463.000000;0.888037
9462.000000;0.887569
9461.000000;0.886946
9460.000000;0.886301
9459.000000;0.885771
9458.000000;0.885351
9457.000000;0.884919
9456.000000;0.884567
9455.000000;0.884719
9454.000000;0.885653
9453.000000;0.887023
9452.000000;0.888096
9451.000000;0.888446
9450.000000;0.888239
9449.000000;0.887804
9448.000000;0.887152
9447.000000;0.886042
9446.000000;0.884463
9445.000000;0.882859
9444.000000;0.881816
9443.000000;0.881519
9442.000000;0.881554
9441.000000;0.881314
9440.000000;0.880615
9439.000000;0.879871
9438.000000;0.879673
9437.000000;0.880248
9436.000000;0.881301
9435.000000;0.882251
9434.000000;0.882568
9433.000000;0.882037
9432.000000;0.880916
9431.000000;0.879834
9430.000000;0.879393
9429.000000;0.879755
9428.000000;0.880529
9427.000000;0.881021
9426.000000;0.880741
9425.000000;0.879840
9424.000000;0.879062
9423.000000;0.879085
9422.000000;0.879860
9421.000000;0.880655
9420.000000;0.880778
9419.000000;0.880128
9418.000000;0.879057
9417.000000;0.877969
9416.000000;0.877179
9415.000000;0.876885
9414.000000;0.876934
9413.000000;0.876799
9412.000000;0.876118
9411.000000;0.875222
9410.000000;0.874817
9409.000000;0.875126
9408.000000;0.875677
9407.000000;0.876001
9406.000000;0.876187
9405.000000;0.876536
9404.000000;0.876944
9403.000000;0.876957
9402.000000;0.876328
9401.000000;0.875245
9400.000000;0.874041
9399.000000;0.872917
9398.000000;0.871962
9397.000000;0.871230
9396.000000;0.870750
9395.000000;0.870591
9394.000000;0.870903
9393.000000;0.871763
9392.000000;0.872919
9391.000000;0.873878
9390.000000;0.874290
9389.000000;0.874129
9388.000000;0.873484
9387.000000;0.872479
9386.000000;0.871511
9385.000000;0.871214
9384.000000;0.871788
9383.000000;0.872512
9382.000000;0.872379
9381.000000;0.871282
9380.000000;0.870204
9379.000000;0.870059
9378.000000;0.870673
9377.000000;0.871110
9376.000000;0.870768
9375.000000;0.869839
9374.000000;0.868880
9373.000000;0.868285
9372.000000;0.868170
9371.000000;0.868465
9370.000000;0.868976
9369.000000;0.869490
9368.000000;0.869874
9367.000000;0.869997
9366.000000;0.869646
9365.000000;0.868702
9364.000000;0.867384
9363.000000;0.866166
9362.000000;0.865442
9361.000000;0.865342
9360.000000;0.865767
9359.000000;0.866419
9358.000000;0.866919
9357.000000;0.867144
9356.000000;0.867394
9355.000000;0.867968
9354.000000;0.868624
9353.000000;0.868780
9352.000000;0.868257
9351.000000;0.867453
9350.000000;0.866719
9349.000000;0.865990
9348.000000;0.865192
9347.000000;0.864560
9346.000000;0.864249
9345.000000;0.863971
9344.000000;0.863435
9343.000000;0.862859
9342.000000;0.862633
9341.000000;0.862656
9340.000000;0.862476
9339.000000;0.862019
9338.000000;0.861718
9337.000000;0.861836
9336.000000;0.862074
9335.000000;0.862011
9334.000000;0.861625
9333.000000;0.861207
9332.000000;0.860970
9331.000000;0.860882
9330.000000;0.860746
9329.000000;0.860352
9328.000000;0.859706
9327.000000;0.859161
9326.000000;0.859143
9325.000000;0.859654
9324.000000;0.860221
9323.000000;0.860419
9322.000000;0.860259
9321.000000;0.860015
9320.000000;0.859865
9319.000000;0.859827
9318.000000;0.859826
9317.000000;0.859628
9316.000000;0.858902
9315.000000;0.857620
9314.000000;0.856280
9313.000000;0.855495
9312.000000;0.855409
9311.000000;0.855689
9310.000000;0.856013
9309.000000;0.856294
9308.000000;0.856474
9307.000000;0.856431
9306.000000;0.856226
9305.000000;0.856166
9304.000000;0.856419
9303.000000;0.856715
9302.000000;0.856626
9301.000000;0.856086
9300.000000;0.855413
9299.000000;0.854894
9298.000000;0.854565
9297.000000;0.854435
9296.000000;0.854655
9295.000000;0.855307
9294.000000;0.856095
9293.000000;0.856463
9292.000000;0.856079
9291.000000;0.855133
9290.000000;0.854169
9289.000000;0.853642
9288.000000;0.853623
9287.000000;0.853864
9286.000000;0.854103
9285.000000;0.854292
9284.000000;0.854550
9283.000000;0.854909
9282.000000;0.855156
9281.000000;0.854987
9280.000000;0.854334
9279.000000;0.853498
9278.000000;0.852955
9277.000000;0.853013
9276.000000;0.853582
9275.000000;0.854211
9274.000000;0.854395
9273.000000;0.853900
9272.000000;0.852821
9271.000000;0.851376
9270.000000;0.849806
9269.000000;0.848497
9268.000000;0.847980
9267.000000;0.848478
9266.000000;0.849470
9265.000000;0.849970
9264.000000;0.849420
9263.000000;0.848200
9262.000000;0.847213
9261.000000;0.847099
9260.000000;0.847882
9259.000000;0.849079
9258.000000;0.849958
9257.000000;0.849903
9256.000000;0.848886
9255.000000;0.847610
9254.000000;0.846892
9253.000000;0.846874
9252.000000;0.847012
9251.000000;0.846857
9250.000000;0.846591
9249.000000;0.846676
9248.000000;0.847218
9247.000000;0.847846
9246.000000;0.848116
9245.000000;0.847856
9244.000000;0.847192
9243.000000;0.846419
9242.000000;0.845852
9241.000000;0.845660
9240.000000;0.845774
9239.000000;0.845976
9238.000000;0.846088
9237.000000;0.846064
9236.000000;0.845942
9235.000000;0.845791
9234.000000;0.845691
9233.000000;0.845685
9232.000000;0.845706
9231.000000;0.845629
9230.000000;0.845415
9229.000000;0.845159
9228.000000;0.844960
9227.000000;0.844758
9226.000000;0.844397
9225.000000;0.843846
9224.000000;0.843303
9223.000000;0.843011
9222.000000;0.842974
9221.000000;0.842897
9220.000000;0.842476
9219.000000;0.841765
9218.000000;0.841224
9217.000000;0.841311
9216.000000;0.842021
9215.000000;0.842890
9214.000000;0.843518
9213.000000;0.843944
9212.000000;0.844359
9211.000000;0.844549
9210.000000;0.843984
9209.000000;0.842613
9208.000000;0.841260
9207.000000;0.840888
9206.000000;0.841549
9205.000000;0.842324
9204.000000;0.842339
9203.000000;0.841577
9202.000000;0.840625
9201.000000;0.839941
9200.000000;0.839576
9199.000000;0.839383
9198.000000;0.839274
9197.000000;0.839304
9196.000000;0.839617
9195.000000;0.840260
9194.000000;0.840991
9193.000000;0.841377
9192.000000;0.841174
9191.000000;0.840544
9190.000000;0.839856
9189.000000;0.839409
9188.000000;0.839403
9187.000000;0.839875
9186.000000;0.840432
9185.000000;0.840279
9184.000000;0.838965
9183.000000;0.837086
9182.000000;0.835836
9181.000000;0.835741
9180.000000;0.836136
9179.000000;0.836042
9178.000000;0.835296
9177.000000;0.834547
9176.000000;0.834331
9175.000000;0.834531
9174.000000;0.834788
9173.000000;0.835104
9172.000000;0.835740
9171.000000;0.836585
9170.000000;0.836943
9169.000000;0.836194
9168.000000;0.834619
9167.000000;0.833322
9166.000000;0.833232
9165.000000;0.834277
9164.000000;0.835610
9163.000000;0.836494
9162.000000;0.836785
9161.000000;0.836674
9160.000000;0.836320
9159.000000;0.835830
9158.000000;0.835340
9157.000000;0.834916
9156.000000;0.834465
9155.000000;0.833870
9154.000000;0.833192
9153.000000;0.832705
9152.000000;0.832752
9151.000000;0.833549
9150.000000;0.834959
9149.000000;0.836424
9148.000000;0.837275
9147.000000;0.837221
9146.000000;0.836505
9145.000000;0.835577
9144.000000;0.834750
9143.000000;0.834180
9142.000000;0.833928
9141.000000;0.833864
9140.000000;0.833719
9139.000000;0.833402
9138.000000;0.833139
9137.000000;0.833114
9136.000000;0.833135
9135.000000;0.832918
9134.000000;0.832574
9133.000000;0.832464
9132.000000;0.832577
9131.000000;0.832418
9130.000000;0.831678
9129.000000;0.830697
9128.000000;0.830039
9127.000000;0.829850
9126.000000;0.829898
9125.000000;0.830081
9124.000000;0.830510
9123.000000;0.831070
9122.000000;0.831274
9121.000000;0.830768
9120.000000;0.829807
9119.000000;0.829014
9118.000000;0.828748
9117.000000;0.828876
9116.000000;0.829099
9115.000000;0.829268
9114.000000;0.829328
9113.000000;0.829151
9112.000000;0.828634
9111.000000;0.827913
9110.000000;0.827339
9109.000000;0.827193
9108.000000;0.827470
9107.000000;0.827927
9106.000000;0.828267
9105.000000;0.828290
9104.000000;0.828002
9103.000000;0.827651
9102.000000;0.827604
9101.000000;0.828025
9100.000000;0.828683
9099.000000;0.829149
9098.000000;0.829211
9097.000000;0.829024
9096.000000;0.828835
9095.000000;0.828706
9094.000000;0.828568
9093.000000;0.828431
9092.000000;0.828361
9091.000000;0.828265
9090.000000;0.827906
9089.000000;0.827217
9088.000000;0.826474
9087.000000;0.826060
9086.000000;0.826105
9085.000000;0.826410
9084.000000;0.826644
9083.000000;0.826543
9082.000000;0.826053
9081.000000;0.825419
9080.000000;0.825056
9079.000000;0.825166
9078.000000;0.825494
9077.000000;0.825578
9076.000000;0.825225
9075.000000;0.824631
9074.000000;0.824099
9073.000000;0.823837
9072.000000;0.823975
9071.000000;0.824490
9070.000000;0.825022
9069.000000;0.825048
9068.000000;0.824438
9067.000000;0.823725
9066.000000;0.823612
9065.000000;0.824227
9064.000000;0.824993
9063.000000;0.825192
9062.000000;0.824631
9061.000000;0.823821
9060.000000;0.823526
9059.000000;0.824097
9058.000000;0.825160
9057.000000;0.825982
9056.000000;0.826148
9055.000000;0.825767
9054.000000;0.825072
9053.000000;0.824138
