Criado como novo conjunto de dados;"e0108.spp","-4281644.8 Secs"
cm-1;Abs
10000.000000;0.858013
9999.000000;0.858557
9998.000000;0.859101
9997.000000;0.859647
9996.000000;0.860193
9995.000000;0.860739
9994.000000;0.861289
9993.000000;0.861834
9992.000000;0.862388
9991.000000;0.862927
9990.000000;0.863503
9989.000000;0.863884
9988.000000;0.863764
9987.000000;0.863084
9986.000000;0.862017
9985.000000;0.861045
9984.000000;0.860542
9983.000000;0.860421
9982.000000;0.860239
9981.000000;0.859728
9980.000000;0.859075
9979.000000;0.858604
9978.000000;0.858421
9977.000000;0.858529
9976.000000;0.859049
9975.000000;0.859994
9974.000000;0.860908
9973.000000;0.861091
9972.000000;0.860252
9971.000000;0.858713
9970.000000;0.856986
9969.000000;0.855380
9968.000000;0.854039
9967.000000;0.853105
9966.000000;0.852733
9965.000000;0.853028
9964.000000;0.853948
9963.000000;0.855147
9962.000000;0.856053
9961.000000;0.856305
9960.000000;0.856018
9959.000000;0.855415
9958.000000;0.854355
9957.000000;0.852669
9956.000000;0.850906
9955.000000;0.850177
9954.000000;0.851004
9953.000000;0.852595
9952.000000;0.853488
9951.000000;0.852816
9950.000000;0.850887
9949.000000;0.848780
9948.000000;0.847542
9947.000000;0.847520
9946.000000;0.848193
9945.000000;0.848727
9944.000000;0.848808
9943.000000;0.848806
9942.000000;0.849060
9941.000000;0.849299
9940.000000;0.848980
9939.000000;0.847972
9938.000000;0.846718
9937.000000;0.845864
9936.000000;0.845852
9935.000000;0.846653
9934.000000;0.847664
9933.000000;0.848017
9932.000000;0.847267
9931.000000;0.845753
9930.000000;0.844196
9929.000000;0.843067
9928.000000;0.842473
9927.000000;0.842342
9926.000000;0.842389
9925.000000;0.842066
9924.000000;0.840953
9923.000000;0.839287
9922.000000;0.837866
9921.000000;0.837351
9920.000000;0.837754
9919.000000;0.838565
9918.000000;0.839223
9917.000000;0.839422
9916.000000;0.839186
9915.000000;0.838799
9914.000000;0.838609
9913.000000;0.838759
9912.000000;0.839070
9911.000000;0.839225
9910.000000;0.839112
9909.000000;0.838967
9908.000000;0.839053
9907.000000;0.839175
9906.000000;0.838747
9905.000000;0.837536
9904.000000;0.836182
9903.000000;0.835575
9902.000000;0.835726
9901.000000;0.835645
9900.000000;0.834550
9899.000000;0.832811
9898.000000;0.831405
9897.000000;0.830744
9896.000000;0.830484
9895.000000;0.830282
9894.000000;0.830228
9893.000000;0.830490
9892.000000;0.830963
9891.000000;0.831434
9890.000000;0.831784
9889.000000;0.831847
9888.000000;0.831377
9887.000000;0.830433
9886.000000;0.829586
9885.000000;0.829383
9884.000000;0.829648
9883.000000;0.829613
9882.000000;0.828802
9881.000000;0.827553
9880.000000;0.826540
9879.000000;0.826026
9878.000000;0.825803
9877.000000;0.825672
9876.000000;0.825649
9875.000000;0.825683
9874.000000;0.825508
9873.000000;0.824981
9872.000000;0.824361
9871.000000;0.824002
9870.000000;0.823896
9869.000000;0.823765
9868.000000;0.823519
9867.000000;0.823343
9866.000000;0.823339
9865.000000;0.823385
9864.000000;0.823370
9863.000000;0.823274
9862.000000;0.822935
9861.000000;0.822071
9860.000000;0.820746
9859.000000;0.819517
9858.000000;0.818883
9857.000000;0.818776
9856.000000;0.818817
9855.000000;0.818857
9854.000000;0.818957
9853.000000;0.819030
9852.000000;0.818949
9851.000000;0.818904
9850.000000;0.819212
9849.000000;0.819680
9848.000000;0.819587
9847.000000;0.818550
9846.000000;0.817089
9845.000000;0.816077
9844.000000;0.815804
9843.000000;0.815794
9842.000000;0.815395
9841.000000;0.814338
9840.000000;0.812843
9839.000000;0.811487
9838.000000;0.810942
9837.000000;0.811522
9836.000000;0.812825
9835.000000;0.813924
9834.000000;0.814061
9833.000000;0.813151
9832.000000;0.811719
9831.000000;0.810513
9830.000000;0.810109
9829.000000;0.810545
9828.000000;0.811205
9827.000000;0.811286
9826.000000;0.810602
9825.000000;0.809793
9824.000000;0.809589
9823.000000;0.809952
9822.000000;0.810160
9821.000000;0.809672
9820.000000;0.808639
9819.000000;0.807609
9818.000000;0.807010
9817.000000;0.806969
9816.000000;0.807324
9815.000000;0.807645
9814.000000;0.807494
9813.000000;0.806843
9812.000000;0.806101
9811.000000;0.805592
9810.000000;0.805235
9809.000000;0.804879
9808.000000;0.804652
9807.000000;0.804658
9806.000000;0.804535
9805.000000;0.803780
9804.000000;0.802470
9803.000000;0.801277
9802.000000;0.800699
9801.000000;0.800613
9800.000000;0.800671
9799.000000;0.800753
9798.000000;0.800844
9797.000000;0.800776
9796.000000;0.800392
9795.000000;0.799821
9794.000000;0.799299
9793.000000;0.798819
9792.000000;0.798208
9791.000000;0.797505
9790.000000;0.796984
9789.000000;0.796773
9788.000000;0.796641
9787.000000;0.796287
9786.000000;0.795746
9785.000000;0.795419
9784.000000;0.795730
9783.000000;0.796774
9782.000000;0.798195
9781.000000;0.799345
9780.000000;0.799632
9779.000000;0.798879
9778.000000;0.797459
9777.000000;0.796058
9776.000000;0.795201
9775.000000;0.794903
9774.000000;0.794773
9773.000000;0.794485
9772.000000;0.794089
9771.000000;0.793804
9770.000000;0.793620
9769.000000;0.793292
9768.000000;0.792703
9767.000000;0.792044
9766.000000;0.791542
9765.000000;0.791159
9764.000000;0.790672
9763.000000;0.790005
9762.000000;0.789353
9761.000000;0.788970
9760.000000;0.788888
9759.000000;0.788899
9758.000000;0.788808
9757.000000;0.788682
9756.000000;0.788748
9755.000000;0.788986
9754.000000;0.788975
9753.000000;0.788333
9752.000000;0.787274
9751.000000;0.786515
9750.000000;0.786566
9749.000000;0.787238
9748.000000;0.787924
9747.000000;0.788206
9746.000000;0.788090
9745.000000;0.787759
9744.000000;0.787305
9743.000000;0.786715
9742.000000;0.786037
9741.000000;0.785454
9740.000000;0.785110
9739.000000;0.784852
9738.000000;0.784282
9737.000000;0.783220
9736.000000;0.782033
9735.000000;0.781326
9734.000000;0.781290
9733.000000;0.781532
9732.000000;0.781558
9731.000000;0.781218
9730.000000;0.780624
9729.000000;0.779877
9728.000000;0.779077
9727.000000;0.778453
9726.000000;0.778282
9725.000000;0.778645
9724.000000;0.779346
9723.000000;0.780013
9722.000000;0.780267
9721.000000;0.779908
9720.000000;0.779045
9719.000000;0.778022
9718.000000;0.777184
9717.000000;0.776699
9716.000000;0.776525
9715.000000;0.776436
9714.000000;0.776144
9713.000000;0.775630
9712.000000;0.775339
9711.000000;0.775789
9710.000000;0.776867
9709.000000;0.777785
9708.000000;0.777920
9707.000000;0.777442
9706.000000;0.776916
9705.000000;0.776536
9704.000000;0.776022
9703.000000;0.775131
9702.000000;0.773932
9701.000000;0.772660
9700.000000;0.771590
9699.000000;0.771032
9698.000000;0.771143
9697.000000;0.771710
9696.000000;0.772321
9695.000000;0.772784
9694.000000;0.773178
9693.000000;0.773481
9692.000000;0.773440
9691.000000;0.772879
9690.000000;0.771935
9689.000000;0.770859
9688.000000;0.769752
9687.000000;0.768607
9686.000000;0.767467
9685.000000;0.766403
9684.000000;0.765421
9683.000000;0.764507
9682.000000;0.763733
9681.000000;0.763265
9680.000000;0.763295
9679.000000;0.763948
9678.000000;0.765146
9677.000000;0.766531
9676.000000;0.767609
9675.000000;0.768052
9674.000000;0.767809
9673.000000;0.766995
9672.000000;0.765857
9671.000000;0.764856
9670.000000;0.764498
9669.000000;0.764878
9668.000000;0.765510
9667.000000;0.765798
9666.000000;0.765622
9665.000000;0.765304
9664.000000;0.765096
9663.000000;0.764917
9662.000000;0.764561
9661.000000;0.763961
9660.000000;0.763156
9659.000000;0.762165
9658.000000;0.761034
9657.000000;0.759976
9656.000000;0.759325
9655.000000;0.759250
9654.000000;0.759531
9653.000000;0.759698
9652.000000;0.759466
9651.000000;0.758990
9650.000000;0.758647
9649.000000;0.758580
9648.000000;0.758563
9647.000000;0.758317
9646.000000;0.757863
9645.000000;0.757483
9644.000000;0.757425
9643.000000;0.757728
9642.000000;0.758236
9641.000000;0.758663
9640.000000;0.758656
9639.000000;0.757983
9638.000000;0.756740
9637.000000;0.755317
9636.000000;0.754144
9635.000000;0.753463
9634.000000;0.753283
9633.000000;0.753414
9632.000000;0.753524
9631.000000;0.753298
9630.000000;0.752678
9629.000000;0.751937
9628.000000;0.751474
9627.000000;0.751526
9626.000000;0.752024
9625.000000;0.752619
9624.000000;0.752817
9623.000000;0.752213
9622.000000;0.750783
9621.000000;0.748974
9620.000000;0.747446
9619.000000;0.746671
9618.000000;0.746771
9617.000000;0.747612
9616.000000;0.748908
9615.000000;0.750241
9614.000000;0.751172
9613.000000;0.751499
9612.000000;0.751379
9611.000000;0.751105
9610.000000;0.750777
9609.000000;0.750286
9608.000000;0.749603
9607.000000;0.748961
9606.000000;0.748678
9605.000000;0.748817
9604.000000;0.749066
9603.000000;0.748983
9602.000000;0.748350
9601.000000;0.747330
9600.000000;0.746316
9599.000000;0.745656
9598.000000;0.745454
9597.000000;0.745554
9596.000000;0.745641
9595.000000;0.745391
9594.000000;0.744683
9593.000000;0.743768
9592.000000;0.743190
9591.000000;0.743388
9590.000000;0.744250
9589.000000;0.745085
9588.000000;0.745144
9587.000000;0.744239
9586.000000;0.742871
9585.000000;0.741740
9584.000000;0.741198
9583.000000;0.741165
9582.000000;0.741424
9581.000000;0.741810
9580.000000;0.742080
9579.000000;0.741872
9578.000000;0.741028
9577.000000;0.739872
9576.000000;0.738917
9575.000000;0.738278
9574.000000;0.737617
9573.000000;0.736759
9572.000000;0.736065
9571.000000;0.735980
9570.000000;0.736381
9569.000000;0.736674
9568.000000;0.736462
9567.000000;0.735848
9566.000000;0.735128
9565.000000;0.734512
9564.000000;0.734230
9563.000000;0.734541
9562.000000;0.735413
9561.000000;0.736374
9560.000000;0.736918
9559.000000;0.736952
9558.000000;0.736632
9557.000000;0.735988
9556.000000;0.735022
9555.000000;0.734106
9554.000000;0.733812
9553.000000;0.734201
9552.000000;0.734624
9551.000000;0.734469
9550.000000;0.733933
9549.000000;0.733766
9548.000000;0.734325
9547.000000;0.735115
9546.000000;0.735286
9545.000000;0.734389
9544.000000;0.732689
9543.000000;0.730965
9542.000000;0.730038
9541.000000;0.730223
9540.000000;0.731033
9539.000000;0.731563
9538.000000;0.731338
9537.000000;0.730710
9536.000000;0.730322
9535.000000;0.730332
9534.000000;0.730358
9533.000000;0.730049
9532.000000;0.729429
9531.000000;0.728672
9530.000000;0.727833
9529.000000;0.726921
9528.000000;0.726085
9527.000000;0.725572
9526.000000;0.725596
9525.000000;0.726260
9524.000000;0.727439
9523.000000;0.728629
9522.000000;0.729107
9521.000000;0.728528
9520.000000;0.727353
9519.000000;0.726504
9518.000000;0.726521
9517.000000;0.727135
9516.000000;0.727639
9515.000000;0.727569
9514.000000;0.726963
9513.000000;0.726111
9512.000000;0.725210
9511.000000;0.724324
9510.000000;0.723604
9509.000000;0.723346
9508.000000;0.723675
9507.000000;0.724222
9506.000000;0.724339
9505.000000;0.723775
9504.000000;0.722984
9503.000000;0.722632
9502.000000;0.722858
9501.000000;0.723165
9500.000000;0.722989
9499.000000;0.722258
9498.000000;0.721396
9497.000000;0.720909
9496.000000;0.720976
9495.000000;0.721341
9494.000000;0.721579
9493.000000;0.721495
9492.000000;0.721280
9491.000000;0.721226
9490.000000;0.721363
9489.000000;0.721455
9488.000000;0.721264
9487.000000;0.720752
9486.000000;0.720075
9485.000000;0.719484
9484.000000;0.719200
9483.000000;0.719237
9482.000000;0.719345
9481.000000;0.719218
9480.000000;0.718766
9479.000000;0.718112
9478.000000;0.717391
9477.000000;0.716702
9476.000000;0.716209
9475.000000;0.716108
9474.000000;0.716383
9473.000000;0.716705
9472.000000;0.716668
9471.000000;0.716130
9470.000000;0.715307
9469.000000;0.714592
9468.000000;0.714307
9467.000000;0.714560
9466.000000;0.715275
9465.000000;0.716247
9464.000000;0.717108
9463.000000;0.717363
9462.000000;0.716715
9461.000000;0.715461
9460.000000;0.714348
9459.000000;0.713863
9458.000000;0.713813
9457.000000;0.713712
9456.000000;0.713377
9455.000000;0.712926
9454.000000;0.712428
9453.000000;0.711894
9452.000000;0.711524
9451.000000;0.711529
9450.000000;0.711712
9449.000000;0.711638
9448.000000;0.711261
9447.000000;0.711003
9446.000000;0.711062
9445.000000;0.711056
9444.000000;0.710592
9443.000000;0.709877
9442.000000;0.709416
9441.000000;0.709296
9440.000000;0.709112
9439.000000;0.708541
9438.000000;0.707739
9437.000000;0.707155
9436.000000;0.707080
9435.000000;0.707356
9434.000000;0.707468
9433.000000;0.706991
9432.000000;0.706050
9431.000000;0.705223
9430.000000;0.704941
9429.000000;0.705145
9428.000000;0.705573
9427.000000;0.706111
9426.000000;0.706669
9425.000000;0.706974
9424.000000;0.706786
9423.000000;0.706205
9422.000000;0.705503
9421.000000;0.704764
9420.000000;0.703951
9419.000000;0.703195
9418.000000;0.702735
9417.000000;0.702608
9416.000000;0.702688
9415.000000;0.702948
9414.000000;0.703395
9413.000000;0.703767
9412.000000;0.703673
9411.000000;0.703103
9410.000000;0.702484
9409.000000;0.702083
9408.000000;0.701675
9407.000000;0.700985
9406.000000;0.700187
9405.000000;0.699689
9404.000000;0.699568
9403.000000;0.699521
9402.000000;0.699327
9401.000000;0.699068
9400.000000;0.698881
9399.000000;0.698692
9398.000000;0.698335
9397.000000;0.697843
9396.000000;0.697497
9395.000000;0.697582
9394.000000;0.698168
9393.000000;0.699068
9392.000000;0.699904
9391.000000;0.700228
9390.000000;0.699744
9389.000000;0.698562
9388.000000;0.697213
9387.000000;0.696298
9386.000000;0.696104
9385.000000;0.696583
9384.000000;0.697570
9383.000000;0.698768
9382.000000;0.699561
9381.000000;0.699259
9380.000000;0.697781
9379.000000;0.695915
9378.000000;0.694628
9377.000000;0.694265
9376.000000;0.694553
9375.000000;0.695159
9374.000000;0.695888
9373.000000;0.696501
9372.000000;0.696741
9371.000000;0.696643
9370.000000;0.696497
9369.000000;0.696462
9368.000000;0.696423
9367.000000;0.696242
9366.000000;0.695871
9365.000000;0.695241
9364.000000;0.694357
9363.000000;0.693590
9362.000000;0.693470
9361.000000;0.694003
9360.000000;0.694520
9359.000000;0.694460
9358.000000;0.694020
9357.000000;0.693703
9356.000000;0.693518
9355.000000;0.693056
9354.000000;0.692220
9353.000000;0.691421
9352.000000;0.691006
9351.000000;0.690879
9350.000000;0.690770
9349.000000;0.690590
9348.000000;0.690335
9347.000000;0.689915
9346.000000;0.689320
9345.000000;0.688814
9344.000000;0.688711
9343.000000;0.688971
9342.000000;0.689211
9341.000000;0.689191
9340.000000;0.689136
9339.000000;0.689460
9338.000000;0.690179
9337.000000;0.690773
9336.000000;0.690708
9335.000000;0.690023
9334.000000;0.689240
9333.000000;0.688755
9332.000000;0.688488
9331.000000;0.688144
9330.000000;0.687620
9329.000000;0.687042
9328.000000;0.686570
9327.000000;0.686328
9326.000000;0.686397
9325.000000;0.686712
9324.000000;0.687001
9323.000000;0.687036
9322.000000;0.686883
9321.000000;0.686764
9320.000000;0.686695
9319.000000;0.686471
9318.000000;0.686030
9317.000000;0.685629
9316.000000;0.685576
9315.000000;0.685889
9314.000000;0.686272
9313.000000;0.686349
9312.000000;0.685927
9311.000000;0.685138
9310.000000;0.684345
9309.000000;0.683817
9308.000000;0.683485
9307.000000;0.683131
9306.000000;0.682775
9305.000000;0.682686
9304.000000;0.682985
9303.000000;0.683429
9302.000000;0.683698
9301.000000;0.683735
9300.000000;0.683667
9299.000000;0.683547
9298.000000;0.683331
9297.000000;0.683048
9296.000000;0.682848
9295.000000;0.682891
9294.000000;0.683206
9293.000000;0.683582
9292.000000;0.683577
9291.000000;0.682870
9290.000000;0.681757
9289.000000;0.681083
9288.000000;0.681409
9287.000000;0.682340
9286.000000;0.682921
9285.000000;0.682674
9284.000000;0.681951
9283.000000;0.681307
9282.000000;0.680894
9281.000000;0.680588
9280.000000;0.680348
9279.000000;0.680162
9278.000000;0.679880
9277.000000;0.679419
9276.000000;0.679010
9275.000000;0.678959
9274.000000;0.679217
9273.000000;0.679421
9272.000000;0.679354
9271.000000;0.679111
9270.000000;0.678844
9269.000000;0.678613
9268.000000;0.678541
9267.000000;0.678792
9266.000000;0.679235
9265.000000;0.679344
9264.000000;0.678705
9263.000000;0.677526
9262.000000;0.676472
9261.000000;0.676019
9260.000000;0.676135
9259.000000;0.676505
9258.000000;0.676855
9257.000000;0.677022
9256.000000;0.676886
9255.000000;0.676414
9254.000000;0.675769
9253.000000;0.675277
9252.000000;0.675170
9251.000000;0.675336
9250.000000;0.675379
9249.000000;0.675042
9248.000000;0.674534
9247.000000;0.674274
9246.000000;0.674312
9245.000000;0.674257
9244.000000;0.673885
9243.000000;0.673555
9242.000000;0.673739
9241.000000;0.674308
9240.000000;0.674627
9239.000000;0.674344
9238.000000;0.673773
9237.000000;0.673437
9236.000000;0.673516
9235.000000;0.673878
9234.000000;0.674386
9233.000000;0.674957
9232.000000;0.675455
9231.000000;0.675724
9230.000000;0.675681
9229.000000;0.675261
9228.000000;0.674457
9227.000000;0.673525
9226.000000;0.672955
9225.000000;0.672991
9224.000000;0.673272
9223.000000;0.673217
9222.000000;0.672747
9221.000000;0.672324
9220.000000;0.672269
9219.000000;0.672345
9218.000000;0.672148
9217.000000;0.671664
9216.000000;0.671241
9215.000000;0.671129
9214.000000;0.671269
9213.000000;0.671485
9212.000000;0.671675
9211.000000;0.671760
9210.000000;0.671606
9209.000000;0.671129
9208.000000;0.670483
9207.000000;0.670059
9206.000000;0.670215
9205.000000;0.670937
9204.000000;0.671770
9203.000000;0.672121
9202.000000;0.671663
9201.000000;0.670483
9200.000000;0.668941
9199.000000;0.667473
9198.000000;0.666496
9197.000000;0.666308
9196.000000;0.666911
9195.000000;0.667973
9194.000000;0.669033
9193.000000;0.669771
9192.000000;0.670030
9191.000000;0.669715
9190.000000;0.668821
9189.000000;0.667608
9188.000000;0.666600
9187.000000;0.666223
9186.000000;0.666425
9185.000000;0.666713
9184.000000;0.666642
9183.000000;0.666240
9182.000000;0.665873
9181.000000;0.665762
9180.000000;0.665757
9179.000000;0.665625
9178.000000;0.665377
9177.000000;0.665179
9176.000000;0.665066
9175.000000;0.664970
9174.000000;0.664982
9173.000000;0.665341
9172.000000;0.666041
9171.000000;0.666617
9170.000000;0.666503
9169.000000;0.665602
9168.000000;0.664432
9167.000000;0.663731
9166.000000;0.663924
9165.000000;0.664854
9164.000000;0.665928
9163.000000;0.666549
9162.000000;0.666486
9161.000000;0.665910
9160.000000;0.665132
9159.000000;0.664412
9158.000000;0.663949
9157.000000;0.663843
9156.000000;0.663985
9155.000000;0.664112
9154.000000;0.664089
9153.000000;0.664019
9152.000000;0.663991
9151.000000;0.663857
9150.000000;0.663464
9149.000000;0.662962
9148.000000;0.662628
9147.000000;0.662444
9146.000000;0.662134
9145.000000;0.661641
9144.000000;0.661299
9143.000000;0.661394
9142.000000;0.661741
9141.000000;0.661866
9140.000000;0.661542
9139.000000;0.661013
9138.000000;0.660737
9137.000000;0.660981
9136.000000;0.661625
9135.000000;0.662315
9134.000000;0.662824
9133.000000;0.663221
9132.000000;0.663618
9131.000000;0.663824
9130.000000;0.663475
9129.000000;0.662555
9128.000000;0.661538
9127.000000;0.660897
9126.000000;0.660660
9125.000000;0.660588
9124.000000;0.660554
9123.000000;0.660518
9122.000000;0.660313
9121.000000;0.659785
9120.000000;0.659096
9119.000000;0.658607
9118.000000;0.658456
9117.000000;0.658493
9116.000000;0.658628
9115.000000;0.658918
9114.000000;0.659253
9113.000000;0.659302
9112.000000;0.658957
9111.000000;0.658585
9110.000000;0.658553
9109.000000;0.658670
9108.000000;0.658377
9107.000000;0.657496
9106.000000;0.656523
9105.000000;0.656112
9104.000000;0.656439
9103.000000;0.657129
9102.000000;0.657677
9101.000000;0.657830
9100.000000;0.657632
9099.000000;0.657234
9098.000000;0.656767
9097.000000;0.656336
9096.000000;0.656039
9095.000000;0.655918
9094.000000;0.655939
9093.000000;0.656062
9092.000000;0.656266
9091.000000;0.656449
9090.000000;0.656390
9089.000000;0.655989
9088.000000;0.655520
9087.000000;0.655459
9086.000000;0.655969
9085.000000;0.656701
9084.000000;0.657161
9083.000000;0.657164
9082.000000;0.656857
9081.000000;0.656461
9080.000000;0.656157
9079.000000;0.656110
9078.000000;0.656388
9077.000000;0.656818
9076.000000;0.657070
9075.000000;0.656950
9074.000000;0.656562
9073.000000;0.656154
9072.000000;0.655840
9071.000000;0.655507
9070.000000;0.654996
9069.000000;0.654386
9068.000000;0.654010
9067.000000;0.654084
9066.000000;0.654373
9065.000000;0.654414
9064.000000;0.654078
9063.000000;0.653712
9062.000000;0.653659
9061.000000;0.653858
9060.000000;0.654062
9059.000000;0.654239
9058.000000;0.654520
9057.000000;0.654896
9056.000000;0.655169
9055.000000;0.655162
9054.000000;0.654808
9053.000000;0.654139
