Criado como novo conjunto de dados;"e0108.spp","-4227462.0 Secs"
cm-1;Abs
10000.000000;1.899522
9999.000000;1.901483
9998.000000;1.902846
9997.000000;1.902848
9996.000000;1.901479
9995.000000;1.898942
9994.000000;1.895917
9993.000000;1.892397
9992.000000;1.887611
9991.000000;1.883314
9990.000000;1.883757
9989.000000;1.890653
9988.000000;1.899478
9987.000000;1.902598
9986.000000;1.897674
9985.000000;1.890006
9984.000000;1.885269
9983.000000;1.884227
9982.000000;1.884069
9981.000000;1.882569
9980.000000;1.880018
9979.000000;1.877582
9978.000000;1.875987
9977.000000;1.875527
9976.000000;1.876179
9975.000000;1.877915
9974.000000;1.880854
9973.000000;1.884759
9972.000000;1.888659
9971.000000;1.891875
9970.000000;1.895257
9969.000000;1.900012
9968.000000;1.904999
9967.000000;1.906830
9966.000000;1.903814
9965.000000;1.898380
9964.000000;1.894168
9963.000000;1.892198
9962.000000;1.891374
9961.000000;1.891464
9960.000000;1.893032
9959.000000;1.894317
9958.000000;1.891084
9957.000000;1.881487
9956.000000;1.869367
9955.000000;1.860926
9954.000000;1.859281
9953.000000;1.862855
9952.000000;1.867925
9951.000000;1.872205
9950.000000;1.876174
9949.000000;1.881060
9948.000000;1.885823
9947.000000;1.886889
9946.000000;1.881929
9945.000000;1.873564
9944.000000;1.867243
9943.000000;1.865568
9942.000000;1.866503
9941.000000;1.867217
9940.000000;1.868282
9939.000000;1.872487
9938.000000;1.880027
9937.000000;1.886719
9936.000000;1.887603
9935.000000;1.881554
9934.000000;1.871533
9933.000000;1.861469
9932.000000;1.854108
9931.000000;1.850600
9930.000000;1.850670
9929.000000;1.853193
9928.000000;1.856526
9927.000000;1.858086
9926.000000;1.855012
9925.000000;1.847258
9924.000000;1.839188
9923.000000;1.836450
9922.000000;1.841507
9921.000000;1.852241
9920.000000;1.864561
9919.000000;1.875650
9918.000000;1.883739
9917.000000;1.886536
9916.000000;1.882775
9915.000000;1.875116
9914.000000;1.869196
9913.000000;1.869047
9912.000000;1.873919
9911.000000;1.879257
9910.000000;1.880002
9909.000000;1.873591
9908.000000;1.861616
9907.000000;1.849520
9906.000000;1.843815
9905.000000;1.848123
9904.000000;1.860583
9903.000000;1.874818
9902.000000;1.884560
9901.000000;1.887815
9900.000000;1.885925
9899.000000;1.879836
9898.000000;1.869512
9897.000000;1.856503
9896.000000;1.844989
9895.000000;1.839812
9894.000000;1.843281
9893.000000;1.852792
9892.000000;1.861558
9891.000000;1.863062
9890.000000;1.856241
9889.000000;1.846129
9888.000000;1.839081
9887.000000;1.837804
9886.000000;1.840463
9885.000000;1.843555
9884.000000;1.845653
9883.000000;1.848390
9882.000000;1.853471
9881.000000;1.859454
9880.000000;1.862514
9879.000000;1.860584
9878.000000;1.855838
9877.000000;1.852271
9876.000000;1.851445
9875.000000;1.851278
9874.000000;1.849119
9873.000000;1.845574
9872.000000;1.844002
9871.000000;1.846055
9870.000000;1.848856
9869.000000;1.847826
9868.000000;1.842451
9867.000000;1.837449
9866.000000;1.837506
9865.000000;1.842188
9864.000000;1.846633
9863.000000;1.846855
9862.000000;1.843089
9861.000000;1.838367
9860.000000;1.836359
9859.000000;1.840001
9858.000000;1.849464
9857.000000;1.860624
9856.000000;1.867291
9855.000000;1.866876
9854.000000;1.862374
9853.000000;1.856954
9852.000000;1.849664
9851.000000;1.839071
9850.000000;1.828326
9849.000000;1.823065
9848.000000;1.825596
9847.000000;1.832927
9846.000000;1.839734
9845.000000;1.842253
9844.000000;1.839936
9843.000000;1.835266
9842.000000;1.832211
9841.000000;1.832866
9840.000000;1.835008
9839.000000;1.834421
9838.000000;1.830261
9837.000000;1.826489
9836.000000;1.827072
9835.000000;1.831628
9834.000000;1.836746
9833.000000;1.839801
9832.000000;1.840032
9831.000000;1.837535
9830.000000;1.833300
9829.000000;1.829504
9828.000000;1.827691
9827.000000;1.826272
9826.000000;1.822187
9825.000000;1.816357
9824.000000;1.814721
9823.000000;1.822242
9822.000000;1.836972
9821.000000;1.850252
9820.000000;1.854298
9819.000000;1.850091
9818.000000;1.844882
9817.000000;1.843777
9816.000000;1.845794
9815.000000;1.846040
9814.000000;1.840998
9813.000000;1.831826
9812.000000;1.822976
9811.000000;1.818760
9810.000000;1.820911
9809.000000;1.827472
9808.000000;1.833450
9807.000000;1.834390
9806.000000;1.830373
9805.000000;1.825328
9804.000000;1.822395
9803.000000;1.821117
9802.000000;1.819661
9801.000000;1.818545
9800.000000;1.819745
9799.000000;1.822862
9798.000000;1.825110
9797.000000;1.825273
9796.000000;1.824874
9795.000000;1.824808
9794.000000;1.823655
9793.000000;1.820251
9792.000000;1.815806
9791.000000;1.812388
9790.000000;1.810896
9789.000000;1.811380
9788.000000;1.813803
9787.000000;1.817366
9786.000000;1.820363
9785.000000;1.822339
9784.000000;1.825145
9783.000000;1.830122
9782.000000;1.835345
9781.000000;1.837287
9780.000000;1.835077
9779.000000;1.831736
9778.000000;1.831035
9777.000000;1.833990
9776.000000;1.837942
9775.000000;1.838327
9774.000000;1.832651
9773.000000;1.823435
9772.000000;1.815883
9771.000000;1.812641
9770.000000;1.811758
9769.000000;1.809982
9768.000000;1.806920
9767.000000;1.804376
9766.000000;1.802847
9765.000000;1.801122
9764.000000;1.798943
9763.000000;1.797683
9762.000000;1.797961
9761.000000;1.798608
9760.000000;1.799044
9759.000000;1.801067
9758.000000;1.806691
9757.000000;1.814837
9756.000000;1.821667
9755.000000;1.824557
9754.000000;1.824223
9753.000000;1.822405
9752.000000;1.819274
9751.000000;1.814360
9750.000000;1.809239
9749.000000;1.806870
9748.000000;1.807631
9747.000000;1.808399
9746.000000;1.807242
9745.000000;1.807245
9744.000000;1.813022
9743.000000;1.824157
9742.000000;1.833860
9741.000000;1.835369
9740.000000;1.828861
9739.000000;1.819767
9738.000000;1.813007
9737.000000;1.811082
9736.000000;1.814042
9735.000000;1.818237
9734.000000;1.817513
9733.000000;1.809686
9732.000000;1.799860
9731.000000;1.794267
9730.000000;1.793650
9729.000000;1.794391
9728.000000;1.794252
9727.000000;1.794490
9726.000000;1.796509
9725.000000;1.799149
9724.000000;1.800648
9723.000000;1.801607
9722.000000;1.803964
9721.000000;1.808108
9720.000000;1.812437
9719.000000;1.815097
9718.000000;1.815358
9717.000000;1.813536
9716.000000;1.810361
9715.000000;1.806720
9714.000000;1.803379
9713.000000;1.800946
9712.000000;1.800424
9711.000000;1.802824
9710.000000;1.807853
9709.000000;1.813720
9708.000000;1.818098
9707.000000;1.818936
9706.000000;1.815308
9705.000000;1.808426
9704.000000;1.801244
9703.000000;1.796243
9702.000000;1.793936
9701.000000;1.793728
9700.000000;1.795301
9699.000000;1.798442
9698.000000;1.802216
9697.000000;1.805151
9696.000000;1.806082
9695.000000;1.804329
9694.000000;1.799738
9693.000000;1.794061
9692.000000;1.791260
9691.000000;1.794071
9690.000000;1.800147
9689.000000;1.803516
9688.000000;1.801092
9687.000000;1.795915
9686.000000;1.792735
9685.000000;1.792855
9684.000000;1.794194
9683.000000;1.794337
9682.000000;1.792319
9681.000000;1.788820
9680.000000;1.785979
9679.000000;1.785952
9678.000000;1.788421
9677.000000;1.790341
9676.000000;1.789526
9675.000000;1.787931
9674.000000;1.789468
9673.000000;1.794927
9672.000000;1.800729
9671.000000;1.802773
9670.000000;1.800521
9669.000000;1.796815
9668.000000;1.794720
9667.000000;1.795530
9666.000000;1.799039
9665.000000;1.804202
9664.000000;1.808787
9663.000000;1.809467
9662.000000;1.804136
9661.000000;1.794449
9660.000000;1.784772
9659.000000;1.778292
9658.000000;1.775335
9657.000000;1.775337
9656.000000;1.778209
9655.000000;1.782535
9654.000000;1.784254
9653.000000;1.779909
9652.000000;1.771103
9651.000000;1.763244
9650.000000;1.760008
9649.000000;1.761019
9648.000000;1.764455
9647.000000;1.769471
9646.000000;1.775090
9645.000000;1.778789
9644.000000;1.778523
9643.000000;1.775383
9642.000000;1.772340
9641.000000;1.770913
9640.000000;1.770327
9639.000000;1.769491
9638.000000;1.768674
9637.000000;1.769072
9636.000000;1.771354
9635.000000;1.774782
9634.000000;1.777510
9633.000000;1.777713
9632.000000;1.774554
9631.000000;1.768625
9630.000000;1.762175
9629.000000;1.758665
9628.000000;1.761027
9627.000000;1.768961
9626.000000;1.777636
9625.000000;1.780912
9624.000000;1.777110
9623.000000;1.770317
9622.000000;1.765995
9621.000000;1.767036
9620.000000;1.773170
9619.000000;1.781413
9618.000000;1.786713
9617.000000;1.784814
9616.000000;1.776096
9615.000000;1.765264
9614.000000;1.756853
9613.000000;1.752616
9612.000000;1.752902
9611.000000;1.757922
9610.000000;1.766464
9609.000000;1.775062
9608.000000;1.780371
9607.000000;1.781851
9606.000000;1.780963
9605.000000;1.778795
9604.000000;1.776119
9603.000000;1.774758
9602.000000;1.776383
9601.000000;1.779752
9600.000000;1.780777
9599.000000;1.776163
9598.000000;1.766604
9597.000000;1.756218
9596.000000;1.749475
9595.000000;1.748414
9594.000000;1.751482
9593.000000;1.755070
9592.000000;1.757106
9591.000000;1.758513
9590.000000;1.760298
9589.000000;1.761212
9588.000000;1.759675
9587.000000;1.756337
9586.000000;1.753624
9585.000000;1.753190
9584.000000;1.755000
9583.000000;1.758926
9582.000000;1.764689
9581.000000;1.770575
9580.000000;1.774254
9579.000000;1.774471
9578.000000;1.771569
9577.000000;1.766502
9576.000000;1.760355
9575.000000;1.755295
9574.000000;1.753979
9573.000000;1.756895
9572.000000;1.761230
9571.000000;1.763101
9570.000000;1.760945
9569.000000;1.756467
9568.000000;1.752426
9567.000000;1.750224
9566.000000;1.749404
9565.000000;1.748719
9564.000000;1.747480
9563.000000;1.745931
9562.000000;1.744489
9561.000000;1.743237
9560.000000;1.742413
9559.000000;1.742635
9558.000000;1.743904
9557.000000;1.744889
9556.000000;1.744186
9555.000000;1.742340
9554.000000;1.741983
9553.000000;1.745702
9552.000000;1.753801
9551.000000;1.763310
9550.000000;1.768543
9549.000000;1.764390
9548.000000;1.751284
9547.000000;1.736277
9546.000000;1.727868
9545.000000;1.729788
9544.000000;1.738884
9543.000000;1.747898
9542.000000;1.751041
9541.000000;1.747977
9540.000000;1.742951
9539.000000;1.740665
9538.000000;1.742683
9537.000000;1.746684
9536.000000;1.749059
9535.000000;1.748618
9534.000000;1.747147
9533.000000;1.746509
9532.000000;1.746448
9531.000000;1.745513
9530.000000;1.743323
9529.000000;1.741131
9528.000000;1.740239
9527.000000;1.740748
9526.000000;1.742344
9525.000000;1.745594
9524.000000;1.751076
9523.000000;1.756845
9522.000000;1.758124
9521.000000;1.751650
9520.000000;1.740369
9519.000000;1.731420
9518.000000;1.729343
9517.000000;1.732825
9516.000000;1.737670
9515.000000;1.741225
9514.000000;1.743005
9513.000000;1.742494
9512.000000;1.738814
9511.000000;1.733019
9510.000000;1.728577
9509.000000;1.728489
9508.000000;1.732676
9507.000000;1.738340
9506.000000;1.742486
9505.000000;1.744141
9504.000000;1.744686
9503.000000;1.746262
9502.000000;1.749105
9501.000000;1.750561
9500.000000;1.747894
9499.000000;1.742236
9498.000000;1.738163
9497.000000;1.738665
9496.000000;1.741557
9495.000000;1.741743
9494.000000;1.736989
9493.000000;1.730184
9492.000000;1.725728
9491.000000;1.725148
9490.000000;1.726631
9489.000000;1.728121
9488.000000;1.729855
9487.000000;1.733167
9486.000000;1.737368
9485.000000;1.739348
9484.000000;1.737173
9483.000000;1.733273
9482.000000;1.732262
9481.000000;1.735809
9480.000000;1.740868
9479.000000;1.742818
9478.000000;1.739841
9477.000000;1.733858
9476.000000;1.727711
9475.000000;1.722932
9474.000000;1.720465
9473.000000;1.721750
9472.000000;1.727141
9471.000000;1.733666
9470.000000;1.736675
9469.000000;1.734712
9468.000000;1.731209
9467.000000;1.730126
9466.000000;1.731156
9465.000000;1.730678
9464.000000;1.726872
9463.000000;1.721673
9462.000000;1.717288
9461.000000;1.713360
9460.000000;1.709040
9459.000000;1.706186
9458.000000;1.708173
9457.000000;1.715606
9456.000000;1.724739
9455.000000;1.731024
9454.000000;1.733587
9453.000000;1.735006
9452.000000;1.737149
9451.000000;1.738621
9450.000000;1.736561
9449.000000;1.730461
9448.000000;1.723186
9447.000000;1.718150
9446.000000;1.716748
9445.000000;1.718379
9444.000000;1.721553
9443.000000;1.724414
9442.000000;1.724931
9441.000000;1.722077
9440.000000;1.717424
9439.000000;1.714344
9438.000000;1.714459
9437.000000;1.715663
9436.000000;1.714868
9435.000000;1.712149
9434.000000;1.710657
9433.000000;1.712769
9432.000000;1.717477
9431.000000;1.721556
9430.000000;1.722852
9429.000000;1.721961
9428.000000;1.720745
9427.000000;1.719966
9426.000000;1.718689
9425.000000;1.715766
9424.000000;1.711572
9423.000000;1.708013
9422.000000;1.707156
9421.000000;1.710155
9420.000000;1.716516
9419.000000;1.723251
9418.000000;1.725610
9417.000000;1.721053
9416.000000;1.712759
9415.000000;1.706982
9414.000000;1.706831
9413.000000;1.709935
9412.000000;1.711879
9411.000000;1.710698
9410.000000;1.707407
9409.000000;1.703549
9408.000000;1.700410
9407.000000;1.699324
9406.000000;1.700104
9405.000000;1.700150
9404.000000;1.697700
9403.000000;1.695278
9402.000000;1.697348
9401.000000;1.704998
9400.000000;1.714700
9399.000000;1.722000
9398.000000;1.724985
9397.000000;1.724015
9396.000000;1.720095
9395.000000;1.714604
9394.000000;1.709170
9393.000000;1.704803
9392.000000;1.701738
9391.000000;1.700107
9390.000000;1.699898
9389.000000;1.700458
9388.000000;1.701147
9387.000000;1.702349
9386.000000;1.704419
9385.000000;1.705857
9384.000000;1.704580
9383.000000;1.701327
9382.000000;1.699494
9381.000000;1.700875
9380.000000;1.703327
9379.000000;1.703454
9378.000000;1.700577
9377.000000;1.696997
9376.000000;1.695281
9375.000000;1.696487
9374.000000;1.700078
9373.000000;1.704426
9372.000000;1.708045
9371.000000;1.710892
9370.000000;1.713590
9369.000000;1.715177
9368.000000;1.713125
9367.000000;1.706603
9366.000000;1.698488
9365.000000;1.692949
9364.000000;1.691843
9363.000000;1.693932
9362.000000;1.696604
9361.000000;1.698048
9360.000000;1.698553
9359.000000;1.699822
9358.000000;1.702437
9357.000000;1.704302
9356.000000;1.702797
9355.000000;1.698542
9354.000000;1.695149
9353.000000;1.694806
9352.000000;1.696224
9351.000000;1.697464
9350.000000;1.698458
9349.000000;1.699557
9348.000000;1.699749
9347.000000;1.698350
9346.000000;1.696897
9345.000000;1.696988
9344.000000;1.697275
9343.000000;1.695291
9342.000000;1.691880
9341.000000;1.690753
9340.000000;1.693700
9339.000000;1.698550
9338.000000;1.702025
9337.000000;1.703015
9336.000000;1.702319
9335.000000;1.700744
9334.000000;1.698653
9333.000000;1.696602
9332.000000;1.695522
9331.000000;1.696274
9330.000000;1.698944
9329.000000;1.701889
9328.000000;1.701817
9327.000000;1.696274
9326.000000;1.686477
9325.000000;1.676551
9324.000000;1.669970
9323.000000;1.667729
9322.000000;1.669415
9321.000000;1.674235
9320.000000;1.680493
9319.000000;1.685689
9318.000000;1.688569
9317.000000;1.690282
9316.000000;1.692255
9315.000000;1.693835
9314.000000;1.693412
9313.000000;1.691285
9312.000000;1.689822
9311.000000;1.690532
9310.000000;1.692228
9309.000000;1.692686
9308.000000;1.691205
9307.000000;1.688837
9306.000000;1.687029
9305.000000;1.686970
9304.000000;1.689404
9303.000000;1.693794
9302.000000;1.697771
9301.000000;1.698651
9300.000000;1.696149
9299.000000;1.692643
9298.000000;1.690337
9297.000000;1.689175
9296.000000;1.687867
9295.000000;1.686191
9294.000000;1.685290
9293.000000;1.685743
9292.000000;1.686227
9291.000000;1.684486
9290.000000;1.679551
9289.000000;1.672981
9288.000000;1.667942
9287.000000;1.666963
9286.000000;1.670300
9285.000000;1.676053
9284.000000;1.681651
9283.000000;1.685259
9282.000000;1.686145
9281.000000;1.684667
9280.000000;1.682531
9279.000000;1.682038
9278.000000;1.683811
9277.000000;1.685709
9276.000000;1.685310
9275.000000;1.683257
9274.000000;1.682514
9273.000000;1.684229
9272.000000;1.685868
9271.000000;1.684311
9270.000000;1.679860
9269.000000;1.675861
9268.000000;1.675058
9267.000000;1.677288
9266.000000;1.680201
9265.000000;1.681421
9264.000000;1.680145
9263.000000;1.677425
9262.000000;1.675076
9261.000000;1.673992
9260.000000;1.673670
9259.000000;1.673575
9258.000000;1.674279
9257.000000;1.676389
9256.000000;1.678736
9255.000000;1.678975
9254.000000;1.676563
9253.000000;1.673949
9252.000000;1.673875
9251.000000;1.676320
9250.000000;1.678870
9249.000000;1.679735
9248.000000;1.679536
9247.000000;1.679670
9246.000000;1.679762
9245.000000;1.677928
9244.000000;1.673656
9243.000000;1.669190
9242.000000;1.667311
9241.000000;1.668472
9240.000000;1.670704
9239.000000;1.672006
9238.000000;1.672121
9237.000000;1.672011
9236.000000;1.672441
9235.000000;1.673326
9234.000000;1.673875
9233.000000;1.673018
9232.000000;1.670556
9231.000000;1.668431
9230.000000;1.669444
9229.000000;1.673734
9228.000000;1.677573
9227.000000;1.677079
9226.000000;1.672751
9225.000000;1.668578
9224.000000;1.667262
9223.000000;1.668185
9222.000000;1.669580
9221.000000;1.670630
9220.000000;1.670714
9219.000000;1.668504
9218.000000;1.663713
9217.000000;1.658851
9216.000000;1.657273
9215.000000;1.659655
9214.000000;1.663536
9213.000000;1.666150
9212.000000;1.666827
9211.000000;1.666365
9210.000000;1.665323
9209.000000;1.664256
9208.000000;1.664564
9207.000000;1.667356
9206.000000;1.671773
9205.000000;1.675474
9204.000000;1.676861
9203.000000;1.676081
9202.000000;1.673928
9201.000000;1.671064
9200.000000;1.668487
9199.000000;1.667320
9198.000000;1.667459
9197.000000;1.667370
9196.000000;1.666040
9195.000000;1.664369
9194.000000;1.663776
9193.000000;1.664356
9192.000000;1.665507
9191.000000;1.667501
9190.000000;1.670817
9189.000000;1.674159
9188.000000;1.674855
9187.000000;1.671785
9186.000000;1.666659
9185.000000;1.661921
9184.000000;1.658693
9183.000000;1.657210
9182.000000;1.657900
9181.000000;1.660722
9180.000000;1.663948
9179.000000;1.665018
9178.000000;1.662839
9177.000000;1.658679
9176.000000;1.655114
9175.000000;1.654426
9174.000000;1.657298
9173.000000;1.662315
9172.000000;1.667086
9171.000000;1.670270
9170.000000;1.672029
9169.000000;1.672330
9168.000000;1.670168
9167.000000;1.665410
9166.000000;1.660218
9165.000000;1.657330
9164.000000;1.657493
9163.000000;1.659330
9162.000000;1.660947
9161.000000;1.660943
9160.000000;1.658891
9159.000000;1.656160
9158.000000;1.655682
9157.000000;1.659274
9156.000000;1.664780
9155.000000;1.667269
9154.000000;1.664135
9153.000000;1.657827
9152.000000;1.652764
9151.000000;1.651352
9150.000000;1.653480
9149.000000;1.657748
9148.000000;1.661743
9147.000000;1.662465
9146.000000;1.658660
9145.000000;1.652713
9144.000000;1.648830
9143.000000;1.649414
9142.000000;1.653755
9141.000000;1.659449
9140.000000;1.664057
9139.000000;1.665784
9138.000000;1.664092
9137.000000;1.660491
9136.000000;1.657891
9135.000000;1.658277
9134.000000;1.661023
9133.000000;1.663620
9132.000000;1.663815
9131.000000;1.660967
9130.000000;1.656214
9129.000000;1.652079
9128.000000;1.651383
9127.000000;1.655308
9126.000000;1.661935
9125.000000;1.667139
9124.000000;1.667694
9123.000000;1.663624
9122.000000;1.657451
9121.000000;1.651849
9120.000000;1.648313
9119.000000;1.647116
9118.000000;1.647523
9117.000000;1.648177
9116.000000;1.648074
9115.000000;1.647526
9114.000000;1.647712
9113.000000;1.649046
9112.000000;1.650493
9111.000000;1.650890
9110.000000;1.650576
9109.000000;1.651044
9108.000000;1.653063
9107.000000;1.655757
9106.000000;1.657737
9105.000000;1.658745
9104.000000;1.659723
9103.000000;1.661321
9102.000000;1.662835
9101.000000;1.662936
9100.000000;1.661268
9099.000000;1.658908
9098.000000;1.657076
9097.000000;1.655788
9096.000000;1.654046
9095.000000;1.651174
9094.000000;1.647677
9093.000000;1.644812
9092.000000;1.643664
9091.000000;1.644301
9090.000000;1.645430
9089.000000;1.645548
9088.000000;1.644776
9087.000000;1.644767
9086.000000;1.646524
9085.000000;1.649094
9084.000000;1.650988
9083.000000;1.652140
9082.000000;1.653283
9081.000000;1.654010
9080.000000;1.653046
9079.000000;1.650415
9078.000000;1.647968
9077.000000;1.647198
9076.000000;1.647716
9075.000000;1.648595
9074.000000;1.649950
9073.000000;1.652117
9072.000000;1.654251
9071.000000;1.655084
9070.000000;1.654615
9069.000000;1.653782
9068.000000;1.652746
9067.000000;1.650721
9066.000000;1.647478
9065.000000;1.643992
9064.000000;1.641522
9063.000000;1.640740
9062.000000;1.641504
9061.000000;1.642719
9060.000000;1.642774
9059.000000;1.641183
9058.000000;1.639620
9057.000000;1.640204
9056.000000;1.642853
9055.000000;1.645415
9054.000000;1.646337
9053.000000;1.645885
