Criado como novo conjunto de dados;"e0108.spp","-4266884.1 Secs"
cm-1;Abs
10000.000000;1.100394
9999.000000;1.098918
9998.000000;1.097816
9997.000000;1.097644
9996.000000;1.097953
9995.000000;1.097840
9994.000000;1.096710
9993.000000;1.094527
9992.000000;1.092052
9991.000000;1.090512
9990.000000;1.090447
9989.000000;1.090939
9988.000000;1.090682
9987.000000;1.089627
9986.000000;1.088712
9985.000000;1.088155
9984.000000;1.087200
9983.000000;1.085752
9982.000000;1.085054
9981.000000;1.086056
9980.000000;1.087909
9979.000000;1.088847
9978.000000;1.088210
9977.000000;1.086924
9976.000000;1.086233
9975.000000;1.086546
9974.000000;1.087411
9973.000000;1.088070
9972.000000;1.087996
9971.000000;1.087233
9970.000000;1.086289
9969.000000;1.085651
9968.000000;1.085525
9967.000000;1.085957
9966.000000;1.086829
9965.000000;1.087594
9964.000000;1.087483
9963.000000;1.086328
9962.000000;1.084986
9961.000000;1.084512
9960.000000;1.084937
9959.000000;1.085221
9958.000000;1.084443
9957.000000;1.082789
9956.000000;1.081269
9955.000000;1.080654
9954.000000;1.080828
9953.000000;1.081058
9952.000000;1.080672
9951.000000;1.079429
9950.000000;1.077494
9949.000000;1.075371
9948.000000;1.073845
9947.000000;1.073553
9946.000000;1.074352
9945.000000;1.075371
9944.000000;1.076009
9943.000000;1.076610
9942.000000;1.077734
9941.000000;1.078992
9940.000000;1.079238
9939.000000;1.077960
9938.000000;1.075950
9937.000000;1.074341
9936.000000;1.073415
9935.000000;1.072654
9934.000000;1.071639
9933.000000;1.070513
9932.000000;1.069693
9931.000000;1.069364
9930.000000;1.069241
9929.000000;1.068837
9928.000000;1.068048
9927.000000;1.067408
9926.000000;1.067601
9925.000000;1.068782
9924.000000;1.070480
9923.000000;1.072051
9922.000000;1.073013
9921.000000;1.073030
9920.000000;1.071981
9919.000000;1.070173
9918.000000;1.068231
9917.000000;1.066742
9916.000000;1.066119
9915.000000;1.066583
9914.000000;1.067833
9913.000000;1.068826
9912.000000;1.068474
9911.000000;1.066810
9910.000000;1.065079
9909.000000;1.064462
9908.000000;1.064994
9907.000000;1.065756
9906.000000;1.065782
9905.000000;1.064749
9904.000000;1.063256
9903.000000;1.062466
9902.000000;1.062913
9901.000000;1.063497
9900.000000;1.062397
9899.000000;1.059387
9898.000000;1.056526
9897.000000;1.055845
9896.000000;1.056975
9895.000000;1.057788
9894.000000;1.057063
9893.000000;1.055630
9892.000000;1.054890
9891.000000;1.055238
9890.000000;1.056206
9889.000000;1.057331
9888.000000;1.058300
9887.000000;1.058666
9886.000000;1.058015
9885.000000;1.056399
9884.000000;1.054351
9883.000000;1.052560
9882.000000;1.051686
9881.000000;1.052132
9880.000000;1.053540
9879.000000;1.054650
9878.000000;1.054228
9877.000000;1.052354
9876.000000;1.050494
9875.000000;1.050020
9874.000000;1.050781
9873.000000;1.051339
9872.000000;1.050664
9871.000000;1.049305
9870.000000;1.048629
9869.000000;1.049073
9868.000000;1.049560
9867.000000;1.048786
9866.000000;1.046809
9865.000000;1.045052
9864.000000;1.044803
9863.000000;1.045978
9862.000000;1.047304
9861.000000;1.047496
9860.000000;1.046300
9859.000000;1.044646
9858.000000;1.043884
9857.000000;1.044669
9856.000000;1.046371
9855.000000;1.047606
9854.000000;1.047541
9853.000000;1.046632
9852.000000;1.045993
9851.000000;1.046173
9850.000000;1.046700
9849.000000;1.046683
9848.000000;1.045691
9847.000000;1.044109
9846.000000;1.042822
9845.000000;1.042532
9844.000000;1.043130
9843.000000;1.043679
9842.000000;1.043211
9841.000000;1.041685
9840.000000;1.040020
9839.000000;1.039141
9838.000000;1.039197
9837.000000;1.039760
9836.000000;1.040462
9835.000000;1.041138
9834.000000;1.041476
9833.000000;1.040995
9832.000000;1.039527
9831.000000;1.037565
9830.000000;1.036003
9829.000000;1.035536
9828.000000;1.036181
9827.000000;1.037168
9826.000000;1.037392
9825.000000;1.036320
9824.000000;1.034552
9823.000000;1.033230
9822.000000;1.032855
9821.000000;1.033029
9820.000000;1.033343
9819.000000;1.033891
9818.000000;1.034631
9817.000000;1.034838
9816.000000;1.033842
9815.000000;1.032099
9814.000000;1.030831
9813.000000;1.030632
9812.000000;1.030965
9811.000000;1.031074
9810.000000;1.030877
9809.000000;1.030800
9808.000000;1.031084
9807.000000;1.031549
9806.000000;1.031834
9805.000000;1.031717
9804.000000;1.031369
9803.000000;1.031342
9802.000000;1.032021
9801.000000;1.032978
9800.000000;1.033131
9799.000000;1.031745
9798.000000;1.029165
9797.000000;1.026501
9796.000000;1.024872
9795.000000;1.024946
9794.000000;1.026596
9793.000000;1.028651
9792.000000;1.029453
9791.000000;1.028301
9790.000000;1.026234
9789.000000;1.024918
9788.000000;1.024853
9787.000000;1.025166
9786.000000;1.025080
9785.000000;1.024954
9784.000000;1.025545
9783.000000;1.026733
9782.000000;1.027522
9781.000000;1.027216
9780.000000;1.026135
9779.000000;1.025041
9778.000000;1.024216
9777.000000;1.023328
9776.000000;1.022057
9775.000000;1.020588
9774.000000;1.019506
9773.000000;1.019332
9772.000000;1.020187
9771.000000;1.021680
9770.000000;1.023001
9769.000000;1.023333
9768.000000;1.022505
9767.000000;1.021205
9766.000000;1.020314
9765.000000;1.019933
9764.000000;1.019328
9763.000000;1.017952
9762.000000;1.016267
9761.000000;1.015268
9760.000000;1.015392
9759.000000;1.016234
9758.000000;1.017232
9757.000000;1.018105
9756.000000;1.018506
9755.000000;1.017835
9754.000000;1.015917
9753.000000;1.013579
9752.000000;1.012001
9751.000000;1.011543
9750.000000;1.011643
9749.000000;1.011782
9748.000000;1.012022
9747.000000;1.012428
9746.000000;1.012571
9745.000000;1.012040
9744.000000;1.011108
9743.000000;1.010401
9742.000000;1.010140
9741.000000;1.010091
9740.000000;1.010082
9739.000000;1.010100
9738.000000;1.009992
9737.000000;1.009589
9736.000000;1.009159
9735.000000;1.009215
9734.000000;1.009716
9733.000000;1.009924
9732.000000;1.009310
9731.000000;1.008250
9730.000000;1.007533
9729.000000;1.007510
9728.000000;1.008017
9727.000000;1.008764
9726.000000;1.009384
9725.000000;1.009358
9724.000000;1.008436
9723.000000;1.007111
9722.000000;1.006252
9721.000000;1.006176
9720.000000;1.006360
9719.000000;1.006099
9718.000000;1.005184
9717.000000;1.003958
9716.000000;1.002936
9715.000000;1.002416
9714.000000;1.002243
9713.000000;1.001906
9712.000000;1.001043
9711.000000;0.999899
9710.000000;0.999103
9709.000000;0.999038
9708.000000;0.999590
9707.000000;1.000454
9706.000000;1.001395
9705.000000;1.002160
9704.000000;1.002425
9703.000000;1.002005
9702.000000;1.000965
9701.000000;0.999464
9700.000000;0.997668
9699.000000;0.995864
9698.000000;0.994440
9697.000000;0.993611
9696.000000;0.993355
9695.000000;0.993726
9694.000000;0.994996
9693.000000;0.997265
9692.000000;0.999970
9691.000000;1.001989
9690.000000;1.002352
9689.000000;1.000907
9688.000000;0.998395
9687.000000;0.995880
9686.000000;0.994037
9685.000000;0.992893
9684.000000;0.992187
9683.000000;0.991894
9682.000000;0.992252
9681.000000;0.993287
9680.000000;0.994531
9679.000000;0.995327
9678.000000;0.995341
9677.000000;0.994733
9676.000000;0.993903
9675.000000;0.993131
9674.000000;0.992393
9673.000000;0.991529
9672.000000;0.990569
9671.000000;0.989788
9670.000000;0.989339
9669.000000;0.988946
9668.000000;0.988225
9667.000000;0.987317
9666.000000;0.986912
9665.000000;0.987493
9664.000000;0.988769
9663.000000;0.989968
9662.000000;0.990518
9661.000000;0.990279
9660.000000;0.989320
9659.000000;0.987820
9658.000000;0.986169
9657.000000;0.984900
9656.000000;0.984324
9655.000000;0.984305
9654.000000;0.984465
9653.000000;0.984612
9652.000000;0.984926
9651.000000;0.985650
9650.000000;0.986624
9649.000000;0.987198
9648.000000;0.986755
9647.000000;0.985346
9646.000000;0.983730
9645.000000;0.982742
9644.000000;0.982640
9643.000000;0.982924
9642.000000;0.982715
9641.000000;0.981458
9640.000000;0.979507
9639.000000;0.977959
9638.000000;0.977694
9637.000000;0.978563
9636.000000;0.979683
9635.000000;0.980472
9634.000000;0.981083
9633.000000;0.981766
9632.000000;0.982252
9631.000000;0.982036
9630.000000;0.980986
9629.000000;0.979424
9628.000000;0.977862
9627.000000;0.976866
9626.000000;0.976887
9625.000000;0.977849
9624.000000;0.979015
9623.000000;0.979597
9622.000000;0.979437
9621.000000;0.978928
9620.000000;0.978418
9619.000000;0.978001
9618.000000;0.977705
9617.000000;0.977461
9616.000000;0.976986
9615.000000;0.976104
9614.000000;0.975127
9613.000000;0.974546
9612.000000;0.974397
9611.000000;0.974334
9610.000000;0.974320
9609.000000;0.974715
9608.000000;0.975530
9607.000000;0.976121
9606.000000;0.975922
9605.000000;0.975095
9604.000000;0.974140
9603.000000;0.973222
9602.000000;0.972244
9601.000000;0.971273
9600.000000;0.970456
9599.000000;0.969707
9598.000000;0.968923
9597.000000;0.968370
9596.000000;0.968380
9595.000000;0.968732
9594.000000;0.968788
9593.000000;0.968315
9592.000000;0.967753
9591.000000;0.967582
9590.000000;0.967787
9589.000000;0.968089
9588.000000;0.968319
9587.000000;0.968329
9586.000000;0.967861
9585.000000;0.966867
9584.000000;0.965836
9583.000000;0.965429
9582.000000;0.965764
9581.000000;0.966230
9580.000000;0.966053
9579.000000;0.964989
9578.000000;0.963558
9577.000000;0.962669
9576.000000;0.962883
9575.000000;0.963891
9574.000000;0.964769
9573.000000;0.964890
9572.000000;0.964510
9571.000000;0.964305
9570.000000;0.964479
9569.000000;0.964550
9568.000000;0.963941
9567.000000;0.962615
9566.000000;0.961174
9565.000000;0.960509
9564.000000;0.961244
9563.000000;0.963158
9562.000000;0.965082
9561.000000;0.965689
9560.000000;0.964615
9559.000000;0.962690
9558.000000;0.961033
9557.000000;0.960142
9556.000000;0.959863
9555.000000;0.959869
9554.000000;0.959876
9553.000000;0.959648
9552.000000;0.959135
9551.000000;0.958536
9550.000000;0.958015
9549.000000;0.957440
9548.000000;0.956658
9547.000000;0.955935
9546.000000;0.955776
9545.000000;0.956229
9544.000000;0.956716
9543.000000;0.956719
9542.000000;0.956367
9541.000000;0.956093
9540.000000;0.955955
9539.000000;0.955674
9538.000000;0.955260
9537.000000;0.955102
9536.000000;0.955333
9535.000000;0.955487
9534.000000;0.955062
9533.000000;0.954190
9532.000000;0.953406
9531.000000;0.952871
9530.000000;0.952258
9529.000000;0.951438
9528.000000;0.950830
9527.000000;0.950823
9526.000000;0.951180
9525.000000;0.951343
9524.000000;0.951120
9523.000000;0.950672
9522.000000;0.949957
9521.000000;0.948721
9520.000000;0.947139
9519.000000;0.946018
9518.000000;0.946047
9517.000000;0.947096
9516.000000;0.948484
9515.000000;0.949672
9514.000000;0.950427
9513.000000;0.950539
9512.000000;0.949871
9511.000000;0.948728
9510.000000;0.947815
9509.000000;0.947679
9508.000000;0.948263
9507.000000;0.948978
9506.000000;0.949118
9505.000000;0.948306
9504.000000;0.946772
9503.000000;0.945249
9502.000000;0.944403
9501.000000;0.944336
9500.000000;0.944727
9499.000000;0.945357
9498.000000;0.946232
9497.000000;0.947244
9496.000000;0.948044
9495.000000;0.948392
9494.000000;0.948380
9493.000000;0.948194
9492.000000;0.947840
9491.000000;0.947260
9490.000000;0.946514
9489.000000;0.945676
9488.000000;0.944678
9487.000000;0.943465
9486.000000;0.942246
9485.000000;0.941415
9484.000000;0.941222
9483.000000;0.941620
9482.000000;0.942373
9481.000000;0.943160
9480.000000;0.943612
9479.000000;0.943410
9478.000000;0.942472
9477.000000;0.941062
9476.000000;0.939733
9475.000000;0.939100
9474.000000;0.939471
9473.000000;0.940540
9472.000000;0.941504
9471.000000;0.941621
9470.000000;0.940712
9469.000000;0.939176
9468.000000;0.937615
9467.000000;0.936491
9466.000000;0.935950
9465.000000;0.935767
9464.000000;0.935515
9463.000000;0.935019
9462.000000;0.934634
9461.000000;0.934920
9460.000000;0.935988
9459.000000;0.937352
9458.000000;0.938436
9457.000000;0.939062
9456.000000;0.939344
9455.000000;0.939328
9454.000000;0.938923
9453.000000;0.938098
9452.000000;0.937011
9451.000000;0.935951
9450.000000;0.935201
9449.000000;0.934876
9448.000000;0.934808
9447.000000;0.934642
9446.000000;0.934181
9445.000000;0.933604
9444.000000;0.933251
9443.000000;0.933254
9442.000000;0.933466
9441.000000;0.933653
9440.000000;0.933613
9439.000000;0.933185
9438.000000;0.932415
9437.000000;0.931739
9436.000000;0.931724
9435.000000;0.932453
9434.000000;0.933297
9433.000000;0.933490
9432.000000;0.932914
9431.000000;0.932174
9430.000000;0.931907
9429.000000;0.932175
9428.000000;0.932525
9427.000000;0.932471
9426.000000;0.931869
9425.000000;0.930954
9424.000000;0.930180
9423.000000;0.930008
9422.000000;0.930684
9421.000000;0.932049
9420.000000;0.933436
9419.000000;0.933924
9418.000000;0.933039
9417.000000;0.931326
9416.000000;0.929983
9415.000000;0.929717
9414.000000;0.930044
9413.000000;0.929881
9412.000000;0.928761
9411.000000;0.927200
9410.000000;0.925917
9409.000000;0.925118
9408.000000;0.924689
9407.000000;0.924698
9406.000000;0.925290
9405.000000;0.926207
9404.000000;0.926779
9403.000000;0.926489
9402.000000;0.925377
9401.000000;0.923894
9400.000000;0.922550
9399.000000;0.921715
9398.000000;0.921524
9397.000000;0.921803
9396.000000;0.922152
9395.000000;0.922220
9394.000000;0.921972
9393.000000;0.921692
9392.000000;0.921740
9391.000000;0.922210
9390.000000;0.922807
9389.000000;0.923121
9388.000000;0.923059
9387.000000;0.922898
9386.000000;0.922868
9385.000000;0.922836
9384.000000;0.922538
9383.000000;0.921964
9382.000000;0.921316
9381.000000;0.920683
9380.000000;0.920012
9379.000000;0.919368
9378.000000;0.918957
9377.000000;0.918862
9376.000000;0.918972
9375.000000;0.919185
9374.000000;0.919442
9373.000000;0.919523
9372.000000;0.919123
9371.000000;0.918309
9370.000000;0.917613
9369.000000;0.917413
9368.000000;0.917441
9367.000000;0.917171
9366.000000;0.916583
9365.000000;0.916214
9364.000000;0.916453
9363.000000;0.917099
9362.000000;0.917648
9361.000000;0.917803
9360.000000;0.917598
9359.000000;0.917203
9358.000000;0.916794
9357.000000;0.916508
9356.000000;0.916357
9355.000000;0.916192
9354.000000;0.915841
9353.000000;0.915321
9352.000000;0.914860
9351.000000;0.914668
9350.000000;0.914688
9349.000000;0.914598
9348.000000;0.914135
9347.000000;0.913442
9346.000000;0.912983
9345.000000;0.913011
9344.000000;0.913215
9343.000000;0.913093
9342.000000;0.912656
9341.000000;0.912505
9340.000000;0.913088
9339.000000;0.914063
9338.000000;0.914601
9337.000000;0.914259
9336.000000;0.913324
9335.000000;0.912297
9334.000000;0.911360
9333.000000;0.910485
9332.000000;0.909820
9331.000000;0.909645
9330.000000;0.909954
9329.000000;0.910325
9328.000000;0.910306
9327.000000;0.909841
9326.000000;0.909236
9325.000000;0.908815
9324.000000;0.908685
9323.000000;0.908752
9322.000000;0.908874
9321.000000;0.909034
9320.000000;0.909390
9319.000000;0.910067
9318.000000;0.910859
9317.000000;0.911265
9316.000000;0.910946
9315.000000;0.910089
9314.000000;0.909189
9313.000000;0.908522
9312.000000;0.907975
9311.000000;0.907347
9310.000000;0.906627
9309.000000;0.905938
9308.000000;0.905375
9307.000000;0.904967
9306.000000;0.904726
9305.000000;0.904660
9304.000000;0.904744
9303.000000;0.904912
9302.000000;0.905078
9301.000000;0.905169
9300.000000;0.905164
9299.000000;0.905108
9298.000000;0.905064
9297.000000;0.905104
9296.000000;0.905323
9295.000000;0.905726
9294.000000;0.906056
9293.000000;0.905931
9292.000000;0.905335
9291.000000;0.904831
9290.000000;0.905028
9289.000000;0.905856
9288.000000;0.906612
9287.000000;0.906729
9286.000000;0.906269
9285.000000;0.905605
9284.000000;0.904894
9283.000000;0.904008
9282.000000;0.902846
9281.000000;0.901552
9280.000000;0.900493
9279.000000;0.900036
9278.000000;0.900253
9277.000000;0.900811
9276.000000;0.901292
9275.000000;0.901626
9274.000000;0.902022
9273.000000;0.902480
9272.000000;0.902652
9271.000000;0.902297
9270.000000;0.901669
9269.000000;0.901291
9268.000000;0.901449
9267.000000;0.901985
9266.000000;0.902393
9265.000000;0.902106
9264.000000;0.900951
9263.000000;0.899465
9262.000000;0.898531
9261.000000;0.898522
9260.000000;0.899000
9259.000000;0.899370
9258.000000;0.899483
9257.000000;0.899369
9256.000000;0.898800
9255.000000;0.897618
9254.000000;0.896303
9253.000000;0.895622
9252.000000;0.895697
9251.000000;0.895885
9250.000000;0.895690
9249.000000;0.895371
9248.000000;0.895422
9247.000000;0.895816
9246.000000;0.896077
9245.000000;0.895940
9244.000000;0.895656
9243.000000;0.895655
9242.000000;0.896097
9241.000000;0.896765
9240.000000;0.897315
9239.000000;0.897549
9238.000000;0.897441
9237.000000;0.896945
9236.000000;0.896008
9235.000000;0.894911
9234.000000;0.894354
9233.000000;0.894836
9232.000000;0.895942
9231.000000;0.896603
9230.000000;0.896192
9229.000000;0.895111
9228.000000;0.894167
9227.000000;0.893686
9226.000000;0.893434
9225.000000;0.893161
9224.000000;0.892919
9223.000000;0.892923
9222.000000;0.893351
9221.000000;0.894201
9220.000000;0.895116
9219.000000;0.895369
9218.000000;0.894357
9217.000000;0.892317
9216.000000;0.890375
9215.000000;0.889625
9214.000000;0.890158
9213.000000;0.891096
9212.000000;0.891578
9211.000000;0.891602
9210.000000;0.891747
9209.000000;0.892247
9208.000000;0.892653
9207.000000;0.892494
9206.000000;0.891932
9205.000000;0.891499
9204.000000;0.891338
9203.000000;0.891078
9202.000000;0.890417
9201.000000;0.889521
9200.000000;0.888754
9199.000000;0.888264
9198.000000;0.887971
9197.000000;0.887754
9196.000000;0.887508
9195.000000;0.887155
9194.000000;0.886774
9193.000000;0.886626
9192.000000;0.886935
9191.000000;0.887681
9190.000000;0.888634
9189.000000;0.889519
9188.000000;0.890117
9187.000000;0.890330
9186.000000;0.890225
9185.000000;0.889974
9184.000000;0.889694
9183.000000;0.889441
9182.000000;0.889290
9181.000000;0.889248
9180.000000;0.889080
9179.000000;0.888477
9178.000000;0.887514
9177.000000;0.886700
9176.000000;0.886387
9175.000000;0.886304
9174.000000;0.885939
9173.000000;0.885254
9172.000000;0.884773
9171.000000;0.884960
9170.000000;0.885716
9169.000000;0.886526
9168.000000;0.886952
9167.000000;0.886971
9166.000000;0.886905
9165.000000;0.887047
9164.000000;0.887316
9163.000000;0.887327
9162.000000;0.886869
9161.000000;0.886217
9160.000000;0.885864
9159.000000;0.885965
9158.000000;0.886173
9157.000000;0.886027
9156.000000;0.885412
9155.000000;0.884610
9154.000000;0.883989
9153.000000;0.883718
9152.000000;0.883737
9151.000000;0.883940
9150.000000;0.884270
9149.000000;0.884610
9148.000000;0.884680
9147.000000;0.884247
9146.000000;0.883491
9145.000000;0.882996
9144.000000;0.883242
9143.000000;0.884074
9142.000000;0.884744
9141.000000;0.884498
9140.000000;0.883236
9139.000000;0.881658
9138.000000;0.880728
9137.000000;0.880849
9136.000000;0.881576
9135.000000;0.882228
9134.000000;0.882687
9133.000000;0.883331
9132.000000;0.884221
9131.000000;0.884785
9130.000000;0.884464
9129.000000;0.883377
9128.000000;0.882108
9127.000000;0.881103
9126.000000;0.880516
9125.000000;0.880366
9124.000000;0.880494
9123.000000;0.880499
9122.000000;0.880119
9121.000000;0.879652
9120.000000;0.879654
9119.000000;0.880239
9118.000000;0.880965
9117.000000;0.881384
9116.000000;0.881430
9115.000000;0.881265
9114.000000;0.881043
9113.000000;0.880915
9112.000000;0.880972
9111.000000;0.881056
9110.000000;0.880889
9109.000000;0.880490
9108.000000;0.880229
9107.000000;0.880314
9106.000000;0.880461
9105.000000;0.880266
9104.000000;0.879748
9103.000000;0.879307
9102.000000;0.879205
9101.000000;0.879289
9100.000000;0.879245
9099.000000;0.878990
9098.000000;0.878752
9097.000000;0.878740
9096.000000;0.878782
9095.000000;0.878444
9094.000000;0.877608
9093.000000;0.876813
9092.000000;0.876773
9091.000000;0.877546
9090.000000;0.878393
9089.000000;0.878525
9088.000000;0.877841
9087.000000;0.876884
9086.000000;0.876245
9085.000000;0.876164
9084.000000;0.876517
9083.000000;0.876986
9082.000000;0.877272
9081.000000;0.877274
9080.000000;0.877092
9079.000000;0.876865
9078.000000;0.876677
9077.000000;0.876621
9076.000000;0.876772
9075.000000;0.877051
9074.000000;0.877261
9073.000000;0.877329
9072.000000;0.877357
9071.000000;0.877367
9070.000000;0.877186
9069.000000;0.876743
9068.000000;0.876252
9067.000000;0.875885
9066.000000;0.875392
9065.000000;0.874351
9064.000000;0.872811
9063.000000;0.871462
9062.000000;0.871038
9061.000000;0.871645
9060.000000;0.872700
9059.000000;0.873463
9058.000000;0.873642
9057.000000;0.873542
9056.000000;0.873680
9055.000000;0.874245
9054.000000;0.874939
9053.000000;0.875302
