Criado como novo conjunto de dados;"e0108.spp","-4230522.2 Secs"
cm-1;Abs
10000.000000;1.851593
9999.000000;1.853958
9998.000000;1.856337
9997.000000;1.858729
9996.000000;1.861142
9995.000000;1.863544
9994.000000;1.866007
9993.000000;1.868393
9992.000000;1.870957
9991.000000;1.873237
9990.000000;1.876160
9989.000000;1.876099
9988.000000;1.871177
9987.000000;1.866306
9986.000000;1.865244
9985.000000;1.867680
9984.000000;1.870639
9983.000000;1.874479
9982.000000;1.881808
9981.000000;1.891870
9980.000000;1.899294
9979.000000;1.899605
9978.000000;1.893829
9977.000000;1.885686
9976.000000;1.877665
9975.000000;1.871870
9974.000000;1.870542
9973.000000;1.873107
9972.000000;1.875210
9971.000000;1.873414
9970.000000;1.869652
9969.000000;1.868583
9968.000000;1.871900
9967.000000;1.876953
9966.000000;1.879794
9965.000000;1.878259
9964.000000;1.872751
9963.000000;1.865842
9962.000000;1.860633
9961.000000;1.857928
9960.000000;1.856150
9959.000000;1.854963
9958.000000;1.856739
9957.000000;1.862660
9956.000000;1.869229
9955.000000;1.871677
9954.000000;1.870631
9953.000000;1.871424
9952.000000;1.876379
9951.000000;1.881396
9950.000000;1.880715
9949.000000;1.873642
9948.000000;1.865848
9947.000000;1.863769
9946.000000;1.868764
9945.000000;1.876453
9944.000000;1.880596
9943.000000;1.878295
9942.000000;1.871940
9941.000000;1.866344
9940.000000;1.864599
9939.000000;1.866022
9938.000000;1.866868
9937.000000;1.863698
9936.000000;1.857455
9935.000000;1.853409
9934.000000;1.855831
9933.000000;1.863115
9932.000000;1.869108
9931.000000;1.870364
9930.000000;1.870251
9929.000000;1.872945
9928.000000;1.876507
9927.000000;1.875738
9926.000000;1.869842
9925.000000;1.863272
9924.000000;1.859839
9923.000000;1.859259
9922.000000;1.859299
9921.000000;1.858962
9920.000000;1.858587
9919.000000;1.858529
9918.000000;1.858722
9917.000000;1.858302
9916.000000;1.855817
9915.000000;1.851681
9914.000000;1.849818
9913.000000;1.853991
9912.000000;1.861810
9911.000000;1.864691
9910.000000;1.856837
9909.000000;1.843294
9908.000000;1.835138
9907.000000;1.838611
9906.000000;1.850365
9905.000000;1.860487
9904.000000;1.860741
9903.000000;1.851586
9902.000000;1.840624
9901.000000;1.834959
9900.000000;1.835760
9899.000000;1.839098
9898.000000;1.840950
9897.000000;1.840606
9896.000000;1.839329
9895.000000;1.837779
9894.000000;1.836243
9893.000000;1.835855
9892.000000;1.837495
9891.000000;1.839985
9890.000000;1.841084
9889.000000;1.840469
9888.000000;1.840295
9887.000000;1.842284
9886.000000;1.845143
9885.000000;1.845586
9884.000000;1.842048
9883.000000;1.836832
9882.000000;1.833875
9881.000000;1.834741
9880.000000;1.837012
9879.000000;1.836697
9878.000000;1.832981
9877.000000;1.829452
9876.000000;1.829840
9875.000000;1.834507
9874.000000;1.840999
9873.000000;1.846382
9872.000000;1.848701
9871.000000;1.846804
9870.000000;1.840353
9869.000000;1.831115
9868.000000;1.823044
9867.000000;1.819504
9866.000000;1.820392
9865.000000;1.822701
9864.000000;1.824101
9863.000000;1.825153
9862.000000;1.827599
9861.000000;1.831573
9860.000000;1.835568
9859.000000;1.838678
9858.000000;1.841512
9857.000000;1.844460
9856.000000;1.846363
9855.000000;1.845936
9854.000000;1.843649
9853.000000;1.841342
9852.000000;1.840314
9851.000000;1.840528
9850.000000;1.841286
9849.000000;1.841858
9848.000000;1.841793
9847.000000;1.841028
9846.000000;1.839491
9845.000000;1.836316
9844.000000;1.830605
9843.000000;1.824328
9842.000000;1.822318
9841.000000;1.827380
9840.000000;1.836374
9839.000000;1.842556
9838.000000;1.842430
9837.000000;1.838534
9836.000000;1.835054
9835.000000;1.833703
9834.000000;1.834267
9833.000000;1.835997
9832.000000;1.836947
9831.000000;1.834383
9830.000000;1.828219
9829.000000;1.822541
9828.000000;1.821623
9827.000000;1.825280
9826.000000;1.829154
9825.000000;1.828869
9824.000000;1.823237
9823.000000;1.814593
9822.000000;1.807292
9821.000000;1.805370
9820.000000;1.810009
9819.000000;1.818307
9818.000000;1.825148
9817.000000;1.827265
9816.000000;1.825296
9815.000000;1.821965
9814.000000;1.819566
9813.000000;1.818895
9812.000000;1.819064
9811.000000;1.818267
9810.000000;1.815796
9809.000000;1.813247
9808.000000;1.812777
9807.000000;1.814400
9806.000000;1.815995
9805.000000;1.815853
9804.000000;1.814414
9803.000000;1.813122
9802.000000;1.812499
9801.000000;1.812161
9800.000000;1.811738
9799.000000;1.811028
9798.000000;1.809900
9797.000000;1.808823
9796.000000;1.809020
9795.000000;1.811142
9794.000000;1.813785
9793.000000;1.814107
9792.000000;1.810702
9791.000000;1.805856
9790.000000;1.804400
9789.000000;1.809625
9788.000000;1.819402
9787.000000;1.826366
9786.000000;1.824118
9785.000000;1.814119
9784.000000;1.803879
9783.000000;1.798708
9782.000000;1.797803
9781.000000;1.797784
9780.000000;1.797415
9779.000000;1.797211
9778.000000;1.796391
9777.000000;1.793473
9776.000000;1.789818
9775.000000;1.789681
9774.000000;1.795355
9773.000000;1.803643
9772.000000;1.808838
9771.000000;1.808851
9770.000000;1.806250
9769.000000;1.803927
9768.000000;1.802674
9767.000000;1.802804
9766.000000;1.805218
9765.000000;1.809549
9764.000000;1.813159
9763.000000;1.813975
9762.000000;1.812638
9761.000000;1.810181
9760.000000;1.806156
9759.000000;1.800608
9758.000000;1.795846
9757.000000;1.794452
9756.000000;1.796090
9755.000000;1.797837
9754.000000;1.797859
9753.000000;1.797407
9752.000000;1.798971
9751.000000;1.803680
9750.000000;1.810147
9749.000000;1.814755
9748.000000;1.813839
9747.000000;1.807099
9746.000000;1.798235
9745.000000;1.791279
9744.000000;1.787112
9743.000000;1.784074
9742.000000;1.781901
9741.000000;1.782652
9740.000000;1.786768
9739.000000;1.791627
9738.000000;1.794575
9737.000000;1.794962
9736.000000;1.792965
9735.000000;1.788933
9734.000000;1.784912
9733.000000;1.784119
9732.000000;1.787409
9731.000000;1.792021
9730.000000;1.795003
9729.000000;1.796148
9728.000000;1.796048
9727.000000;1.794103
9726.000000;1.791199
9725.000000;1.791474
9724.000000;1.797586
9723.000000;1.805359
9722.000000;1.806619
9721.000000;1.798417
9720.000000;1.786069
9719.000000;1.776496
9718.000000;1.772735
9717.000000;1.774370
9716.000000;1.779239
9715.000000;1.784210
9714.000000;1.786952
9713.000000;1.788259
9712.000000;1.790690
9711.000000;1.793901
9710.000000;1.794363
9709.000000;1.791120
9708.000000;1.788317
9707.000000;1.789900
9706.000000;1.794306
9705.000000;1.796029
9704.000000;1.791781
9703.000000;1.783741
9702.000000;1.776590
9701.000000;1.773324
9700.000000;1.773977
9699.000000;1.776272
9698.000000;1.777250
9697.000000;1.775831
9696.000000;1.774039
9695.000000;1.774672
9694.000000;1.778528
9693.000000;1.784487
9692.000000;1.790372
9691.000000;1.793598
9690.000000;1.793164
9689.000000;1.790316
9688.000000;1.786397
9687.000000;1.781775
9686.000000;1.777036
9685.000000;1.773969
9684.000000;1.774437
9683.000000;1.777825
9682.000000;1.780659
9681.000000;1.780122
9680.000000;1.777007
9679.000000;1.773512
9678.000000;1.769737
9677.000000;1.764625
9676.000000;1.759124
9675.000000;1.756053
9674.000000;1.757109
9673.000000;1.761628
9672.000000;1.767987
9671.000000;1.774742
9670.000000;1.780379
9669.000000;1.783240
9668.000000;1.782325
9667.000000;1.777955
9666.000000;1.771737
9665.000000;1.766209
9664.000000;1.764043
9663.000000;1.766598
9662.000000;1.772996
9661.000000;1.780377
9660.000000;1.785026
9659.000000;1.784035
9658.000000;1.777034
9657.000000;1.767275
9656.000000;1.760328
9655.000000;1.760167
9654.000000;1.765881
9653.000000;1.772369
9652.000000;1.774801
9651.000000;1.772587
9650.000000;1.768842
9649.000000;1.766638
9648.000000;1.766516
9647.000000;1.767453
9646.000000;1.769338
9645.000000;1.773611
9644.000000;1.780906
9643.000000;1.788508
9642.000000;1.791538
9641.000000;1.787483
9640.000000;1.778600
9639.000000;1.769210
9638.000000;1.762467
9637.000000;1.760038
9636.000000;1.761673
9635.000000;1.763701
9634.000000;1.760920
9633.000000;1.752761
9632.000000;1.745262
9631.000000;1.744301
9630.000000;1.749039
9629.000000;1.754137
9628.000000;1.757359
9627.000000;1.761238
9626.000000;1.766592
9625.000000;1.769052
9624.000000;1.764505
9623.000000;1.755297
9622.000000;1.747495
9621.000000;1.743865
9620.000000;1.742725
9619.000000;1.742195
9618.000000;1.742643
9617.000000;1.744790
9616.000000;1.747588
9615.000000;1.748950
9614.000000;1.747977
9613.000000;1.746072
9612.000000;1.745929
9611.000000;1.749192
9610.000000;1.754637
9609.000000;1.758842
9608.000000;1.759255
9607.000000;1.756405
9606.000000;1.752790
9605.000000;1.750392
9604.000000;1.749787
9603.000000;1.750727
9602.000000;1.752622
9601.000000;1.755039
9600.000000;1.757853
9599.000000;1.760646
9598.000000;1.762151
9597.000000;1.760563
9596.000000;1.755378
9595.000000;1.748821
9594.000000;1.743991
9593.000000;1.741786
9592.000000;1.740651
9591.000000;1.739163
9590.000000;1.737824
9589.000000;1.737956
9588.000000;1.739701
9587.000000;1.741880
9586.000000;1.743560
9585.000000;1.745182
9584.000000;1.748016
9583.000000;1.752754
9582.000000;1.758750
9581.000000;1.764558
9580.000000;1.768887
9579.000000;1.770611
9578.000000;1.768240
9577.000000;1.760730
9576.000000;1.749596
9575.000000;1.739334
9574.000000;1.734489
9573.000000;1.736003
9572.000000;1.740538
9571.000000;1.743737
9570.000000;1.744407
9569.000000;1.744624
9568.000000;1.745635
9567.000000;1.745547
9566.000000;1.742246
9565.000000;1.737627
9564.000000;1.736665
9563.000000;1.741728
9562.000000;1.749404
9561.000000;1.753874
9560.000000;1.752800
9559.000000;1.748505
9558.000000;1.744039
9557.000000;1.740465
9556.000000;1.737675
9555.000000;1.735004
9554.000000;1.731066
9553.000000;1.725413
9552.000000;1.720233
9551.000000;1.718479
9550.000000;1.720312
9549.000000;1.723104
9548.000000;1.725359
9547.000000;1.728716
9546.000000;1.734792
9545.000000;1.741643
9544.000000;1.745275
9543.000000;1.744351
9542.000000;1.741279
9541.000000;1.738539
9540.000000;1.736468
9539.000000;1.734770
9538.000000;1.733771
9537.000000;1.733659
9536.000000;1.733836
9535.000000;1.733338
9534.000000;1.731490
9533.000000;1.728507
9532.000000;1.725817
9531.000000;1.725069
9530.000000;1.726201
9529.000000;1.727202
9528.000000;1.726463
9527.000000;1.724566
9526.000000;1.722829
9525.000000;1.721200
9524.000000;1.719035
9523.000000;1.716903
9522.000000;1.715875
9521.000000;1.715755
9520.000000;1.715712
9519.000000;1.716340
9518.000000;1.719148
9517.000000;1.723409
9516.000000;1.725943
9515.000000;1.725375
9514.000000;1.724459
9513.000000;1.726790
9512.000000;1.732653
9511.000000;1.738953
9510.000000;1.742412
9509.000000;1.742228
9508.000000;1.740148
9507.000000;1.738491
9506.000000;1.737909
9505.000000;1.736950
9504.000000;1.734321
9503.000000;1.731371
9502.000000;1.730706
9501.000000;1.732129
9500.000000;1.731810
9499.000000;1.726724
9498.000000;1.718672
9497.000000;1.712135
9496.000000;1.709382
9495.000000;1.709530
9494.000000;1.711133
9493.000000;1.713467
9492.000000;1.715555
9491.000000;1.716121
9490.000000;1.715240
9489.000000;1.714641
9488.000000;1.715698
9487.000000;1.718170
9486.000000;1.721286
9485.000000;1.724616
9484.000000;1.726990
9483.000000;1.726079
9482.000000;1.720916
9481.000000;1.714146
9480.000000;1.709891
9479.000000;1.709410
9478.000000;1.710134
9477.000000;1.709366
9476.000000;1.707839
9475.000000;1.708396
9474.000000;1.711877
9473.000000;1.715781
9472.000000;1.717124
9471.000000;1.715725
9470.000000;1.714212
9469.000000;1.715265
9468.000000;1.719253
9467.000000;1.724014
9466.000000;1.726737
9465.000000;1.726119
9464.000000;1.722467
9463.000000;1.716779
9462.000000;1.710339
9461.000000;1.704984
9460.000000;1.702990
9459.000000;1.705663
9458.000000;1.711672
9457.000000;1.717057
9456.000000;1.718140
9455.000000;1.714709
9454.000000;1.709565
9453.000000;1.705379
9452.000000;1.702686
9451.000000;1.700377
9450.000000;1.697460
9449.000000;1.694275
9448.000000;1.691953
9447.000000;1.690910
9446.000000;1.690543
9445.000000;1.690557
9444.000000;1.691935
9443.000000;1.695802
9442.000000;1.701291
9441.000000;1.705505
9440.000000;1.706339
9439.000000;1.704849
9438.000000;1.703989
9437.000000;1.705436
9436.000000;1.708320
9435.000000;1.710641
9434.000000;1.711170
9433.000000;1.710165
9432.000000;1.709051
9431.000000;1.709255
9430.000000;1.710655
9429.000000;1.711210
9428.000000;1.708751
9427.000000;1.703539
9426.000000;1.698545
9425.000000;1.696752
9424.000000;1.698286
9423.000000;1.700142
9422.000000;1.698950
9421.000000;1.694371
9420.000000;1.689530
9419.000000;1.688214
9418.000000;1.691730
9417.000000;1.697836
9416.000000;1.702447
9415.000000;1.702890
9414.000000;1.699882
9413.000000;1.696378
9412.000000;1.694846
9411.000000;1.695478
9410.000000;1.696191
9409.000000;1.694339
9408.000000;1.689267
9407.000000;1.683565
9406.000000;1.681445
9405.000000;1.685339
9404.000000;1.693667
9403.000000;1.701738
9402.000000;1.705403
9401.000000;1.704267
9400.000000;1.701156
9399.000000;1.698790
9398.000000;1.697469
9397.000000;1.695638
9396.000000;1.692180
9395.000000;1.687852
9394.000000;1.684416
9393.000000;1.683004
9392.000000;1.683704
9391.000000;1.686243
9390.000000;1.690441
9389.000000;1.695957
9388.000000;1.701683
9387.000000;1.705492
9386.000000;1.705136
9385.000000;1.700171
9384.000000;1.692877
9383.000000;1.686829
9382.000000;1.684443
9381.000000;1.685536
9380.000000;1.687615
9379.000000;1.687664
9378.000000;1.684613
9377.000000;1.680508
9376.000000;1.678763
9375.000000;1.680904
9374.000000;1.685226
9373.000000;1.688858
9372.000000;1.690516
9371.000000;1.690407
9370.000000;1.688447
9369.000000;1.684606
9368.000000;1.680714
9367.000000;1.679707
9366.000000;1.682597
9365.000000;1.687638
9364.000000;1.692813
9363.000000;1.697400
9362.000000;1.700082
9361.000000;1.698050
9360.000000;1.690577
9359.000000;1.681738
9358.000000;1.676922
9357.000000;1.677634
9356.000000;1.680996
9355.000000;1.683599
9354.000000;1.684650
9353.000000;1.685144
9352.000000;1.685417
9351.000000;1.684811
9350.000000;1.683055
9349.000000;1.680921
9348.000000;1.679473
9347.000000;1.678934
9346.000000;1.678480
9345.000000;1.677556
9344.000000;1.677166
9343.000000;1.679006
9342.000000;1.682986
9341.000000;1.686395
9340.000000;1.686470
9339.000000;1.683430
9338.000000;1.679961
9337.000000;1.678291
9336.000000;1.678738
9335.000000;1.680176
9334.000000;1.680739
9333.000000;1.678854
9332.000000;1.675033
9331.000000;1.672171
9330.000000;1.672752
9329.000000;1.676052
9328.000000;1.679031
9327.000000;1.679792
9326.000000;1.678981
9325.000000;1.677957
9324.000000;1.677395
9323.000000;1.677739
9322.000000;1.679111
9321.000000;1.680371
9320.000000;1.679849
9319.000000;1.677603
9318.000000;1.675729
9317.000000;1.675946
9316.000000;1.677913
9315.000000;1.680250
9314.000000;1.681927
9313.000000;1.682042
9312.000000;1.679610
9311.000000;1.674762
9310.000000;1.669400
9309.000000;1.665868
9308.000000;1.665571
9307.000000;1.668816
9306.000000;1.674587
9305.000000;1.680162
9304.000000;1.682458
9303.000000;1.680767
9302.000000;1.677382
9301.000000;1.674884
9300.000000;1.673819
9299.000000;1.673417
9298.000000;1.673202
9297.000000;1.672821
9296.000000;1.671491
9295.000000;1.669300
9294.000000;1.668170
9293.000000;1.669917
9292.000000;1.673802
9291.000000;1.677221
9290.000000;1.678533
9289.000000;1.677920
9288.000000;1.675766
9287.000000;1.672006
9286.000000;1.667300
9285.000000;1.663353
9284.000000;1.661601
9283.000000;1.662427
9282.000000;1.665523
9281.000000;1.669815
9280.000000;1.672976
9279.000000;1.672782
9278.000000;1.669891
9277.000000;1.667812
9276.000000;1.668885
9275.000000;1.671225
9274.000000;1.670848
9273.000000;1.666726
9272.000000;1.662210
9271.000000;1.661073
9270.000000;1.663584
9269.000000;1.667006
9268.000000;1.668961
9267.000000;1.669295
9266.000000;1.668863
9265.000000;1.668005
9264.000000;1.667151
9263.000000;1.667864
9262.000000;1.671661
9261.000000;1.677520
9260.000000;1.681590
9259.000000;1.680383
9258.000000;1.674266
9257.000000;1.666997
9256.000000;1.662090
9255.000000;1.660297
9254.000000;1.659976
9253.000000;1.659438
9252.000000;1.659012
9251.000000;1.660392
9250.000000;1.663725
9249.000000;1.666168
9248.000000;1.664595
9247.000000;1.659763
9246.000000;1.655987
9245.000000;1.656185
9244.000000;1.658649
9243.000000;1.659388
9242.000000;1.656869
9241.000000;1.653352
9240.000000;1.652123
9239.000000;1.654734
9238.000000;1.660265
9237.000000;1.665995
9236.000000;1.669034
9235.000000;1.668209
9234.000000;1.664662
9233.000000;1.660238
9232.000000;1.655774
9231.000000;1.651729
9230.000000;1.649454
9229.000000;1.650233
9228.000000;1.653177
9227.000000;1.655431
9226.000000;1.655108
9225.000000;1.653122
9224.000000;1.651671
9223.000000;1.652032
9222.000000;1.654325
9221.000000;1.658158
9220.000000;1.662329
9219.000000;1.664498
9218.000000;1.662794
9217.000000;1.658119
9216.000000;1.653845
9215.000000;1.652697
9214.000000;1.654264
9213.000000;1.655650
9212.000000;1.654409
9211.000000;1.650691
9210.000000;1.646676
9209.000000;1.644609
9208.000000;1.645609
9207.000000;1.649678
9206.000000;1.655796
9205.000000;1.661501
9204.000000;1.663640
9203.000000;1.661171
9202.000000;1.656650
9201.000000;1.653794
9200.000000;1.654134
9199.000000;1.656474
9198.000000;1.658888
9197.000000;1.660370
9196.000000;1.660669
9195.000000;1.659778
9194.000000;1.658143
9193.000000;1.656402
9192.000000;1.654419
9191.000000;1.651466
9190.000000;1.647827
9189.000000;1.645265
9188.000000;1.645165
9187.000000;1.646863
9186.000000;1.648574
9185.000000;1.649658
9184.000000;1.651071
9183.000000;1.653525
9182.000000;1.656157
9181.000000;1.657394
9180.000000;1.656576
9179.000000;1.654439
9178.000000;1.652335
9177.000000;1.651168
9176.000000;1.650856
9175.000000;1.650654
9174.000000;1.650077
9173.000000;1.649503
9172.000000;1.649751
9171.000000;1.650928
9170.000000;1.652055
9169.000000;1.652083
9168.000000;1.650869
9167.000000;1.649086
9166.000000;1.647552
9165.000000;1.646845
9164.000000;1.647176
9163.000000;1.648155
9162.000000;1.648756
9161.000000;1.648206
9160.000000;1.647144
9159.000000;1.647268
9158.000000;1.649281
9157.000000;1.651525
9156.000000;1.651319
9155.000000;1.647830
9154.000000;1.642996
9153.000000;1.639317
9152.000000;1.637520
9151.000000;1.636642
9150.000000;1.635553
9149.000000;1.633786
9148.000000;1.631384
9147.000000;1.628886
9146.000000;1.627416
9145.000000;1.628028
9144.000000;1.630624
9143.000000;1.633909
9142.000000;1.636611
9141.000000;1.638487
9140.000000;1.640136
9139.000000;1.642232
9138.000000;1.644935
9137.000000;1.647615
9136.000000;1.649111
9135.000000;1.648711
9134.000000;1.646929
9133.000000;1.644986
9132.000000;1.643617
9131.000000;1.642777
9130.000000;1.642260
9129.000000;1.641828
9128.000000;1.640791
9127.000000;1.638693
9126.000000;1.636674
9125.000000;1.636782
9124.000000;1.639290
9123.000000;1.641686
9122.000000;1.641463
9121.000000;1.639307
9120.000000;1.637920
9119.000000;1.638087
9118.000000;1.637809
9117.000000;1.635696
9116.000000;1.633553
9115.000000;1.634309
9114.000000;1.638310
9113.000000;1.642909
9112.000000;1.645542
9111.000000;1.646092
9110.000000;1.645789
9109.000000;1.644923
9108.000000;1.642821
9107.000000;1.639663
9106.000000;1.636982
9105.000000;1.635960
9104.000000;1.636044
9103.000000;1.635793
9102.000000;1.634653
9101.000000;1.633368
9100.000000;1.633015
9099.000000;1.634287
9098.000000;1.637330
9097.000000;1.641224
9096.000000;1.643654
9095.000000;1.642471
9094.000000;1.638219
9093.000000;1.633985
9092.000000;1.632298
9091.000000;1.632955
9090.000000;1.634066
9089.000000;1.634681
9088.000000;1.635308
9087.000000;1.636273
9086.000000;1.637285
9085.000000;1.638147
9084.000000;1.638800
9083.000000;1.638559
9082.000000;1.636230
9081.000000;1.632178
9080.000000;1.628907
9079.000000;1.628459
9078.000000;1.630490
9077.000000;1.633315
9076.000000;1.635688
9075.000000;1.636737
9074.000000;1.635463
9073.000000;1.632074
9072.000000;1.629061
9071.000000;1.629003
9070.000000;1.631446
9069.000000;1.633444
9068.000000;1.633273
9067.000000;1.632094
9066.000000;1.631638
9065.000000;1.631859
9064.000000;1.631633
9063.000000;1.630855
9062.000000;1.630487
9061.000000;1.630895
9060.000000;1.631363
9059.000000;1.631078
9058.000000;1.629743
9057.000000;1.627452
9056.000000;1.624871
9055.000000;1.623377
9054.000000;1.624012
9053.000000;1.626045
