Criado como novo conjunto de dados;"e0108.spp","-4216301.1 Secs"
cm-1;Abs
10000.000000;1.998268
9999.000000;2.002578
9998.000000;2.006892
9997.000000;2.011327
9996.000000;2.015399
9995.000000;2.018667
9994.000000;2.019840
9993.000000;2.016321
9992.000000;2.006638
9991.000000;1.993113
9990.000000;1.982332
9989.000000;1.980834
9988.000000;1.989329
9987.000000;2.001584
9986.000000;2.009318
9985.000000;2.007994
9984.000000;1.998550
9983.000000;1.985976
9982.000000;1.976751
9981.000000;1.975107
9980.000000;1.980645
9979.000000;1.989863
9978.000000;1.999553
9977.000000;2.007665
9976.000000;2.012214
9975.000000;2.012783
9974.000000;2.012906
9973.000000;2.017081
9972.000000;2.024160
9971.000000;2.027040
9970.000000;2.021194
9969.000000;2.010020
9968.000000;1.999568
9967.000000;1.991511
9966.000000;1.983536
9965.000000;1.975222
9964.000000;1.969224
9963.000000;1.966396
9962.000000;1.965009
9961.000000;1.964777
9960.000000;1.967121
9959.000000;1.971641
9958.000000;1.975573
9957.000000;1.977308
9956.000000;1.978299
9955.000000;1.980216
9954.000000;1.981741
9953.000000;1.980111
9952.000000;1.975849
9951.000000;1.973268
9950.000000;1.975613
9949.000000;1.981254
9948.000000;1.984523
9947.000000;1.980574
9946.000000;1.970096
9945.000000;1.958885
9944.000000;1.953164
9943.000000;1.955492
9942.000000;1.963921
9941.000000;1.974098
9940.000000;1.982378
9939.000000;1.987545
9938.000000;1.990356
9937.000000;1.991452
9936.000000;1.989656
9935.000000;1.983682
9934.000000;1.975378
9933.000000;1.968875
9932.000000;1.965971
9931.000000;1.964299
9930.000000;1.961141
9929.000000;1.957326
9928.000000;1.956047
9927.000000;1.959221
9926.000000;1.965914
9925.000000;1.973487
9924.000000;1.979596
9923.000000;1.983341
9922.000000;1.985726
9921.000000;1.988432
9920.000000;1.990526
9919.000000;1.988305
9918.000000;1.980017
9917.000000;1.969529
9916.000000;1.963252
9915.000000;1.963310
9914.000000;1.966134
9913.000000;1.967490
9912.000000;1.966430
9911.000000;1.964428
9910.000000;1.962600
9909.000000;1.961005
9908.000000;1.959809
9907.000000;1.959155
9906.000000;1.957763
9905.000000;1.953515
9904.000000;1.946332
9903.000000;1.939397
9902.000000;1.936571
9901.000000;1.939127
9900.000000;1.945346
9899.000000;1.952539
9898.000000;1.958579
9897.000000;1.961811
9896.000000;1.961236
9895.000000;1.957485
9894.000000;1.952377
9893.000000;1.947105
9892.000000;1.941973
9891.000000;1.937800
9890.000000;1.935764
9889.000000;1.935144
9888.000000;1.933014
9887.000000;1.928111
9886.000000;1.924063
9885.000000;1.925962
9884.000000;1.933892
9883.000000;1.942338
9882.000000;1.946793
9881.000000;1.948788
9880.000000;1.952412
9879.000000;1.957517
9878.000000;1.959072
9877.000000;1.954132
9876.000000;1.946873
9875.000000;1.943774
9874.000000;1.945725
9873.000000;1.947232
9872.000000;1.943672
9871.000000;1.937915
9870.000000;1.937466
9869.000000;1.946103
9868.000000;1.959765
9867.000000;1.970084
9866.000000;1.971623
9865.000000;1.964675
9864.000000;1.952234
9863.000000;1.937690
9862.000000;1.925070
9861.000000;1.918538
9860.000000;1.920463
9859.000000;1.929851
9858.000000;1.941779
9857.000000;1.948827
9856.000000;1.946284
9855.000000;1.937301
9854.000000;1.929900
9853.000000;1.927985
9852.000000;1.927431
9851.000000;1.922183
9850.000000;1.912891
9849.000000;1.906011
9848.000000;1.905776
9847.000000;1.911051
9846.000000;1.919001
9845.000000;1.928401
9844.000000;1.937998
9843.000000;1.944447
9842.000000;1.944841
9841.000000;1.939816
9840.000000;1.932730
9839.000000;1.927597
9838.000000;1.927867
9837.000000;1.934320
9836.000000;1.942669
9835.000000;1.946004
9834.000000;1.942726
9833.000000;1.938305
9832.000000;1.936758
9831.000000;1.935562
9830.000000;1.930925
9829.000000;1.925099
9828.000000;1.924769
9827.000000;1.932101
9826.000000;1.940394
9825.000000;1.940512
9824.000000;1.931211
9823.000000;1.919825
9822.000000;1.913329
9821.000000;1.912041
9820.000000;1.911484
9819.000000;1.908854
9818.000000;1.906312
9817.000000;1.907564
9816.000000;1.913122
9815.000000;1.920023
9814.000000;1.924923
9813.000000;1.925598
9812.000000;1.920503
9811.000000;1.910378
9810.000000;1.900475
9809.000000;1.897634
9808.000000;1.903961
9807.000000;1.914735
9806.000000;1.923583
9805.000000;1.928852
9804.000000;1.932925
9803.000000;1.936787
9802.000000;1.938217
9801.000000;1.934818
9800.000000;1.927000
9799.000000;1.918220
9798.000000;1.913112
9797.000000;1.914239
9796.000000;1.919281
9795.000000;1.922154
9794.000000;1.918942
9793.000000;1.912013
9792.000000;1.906412
9791.000000;1.904252
9790.000000;1.904164
9789.000000;1.904404
9788.000000;1.904758
9787.000000;1.905807
9786.000000;1.908227
9785.000000;1.913197
9784.000000;1.921651
9783.000000;1.931621
9782.000000;1.937286
9781.000000;1.933311
9780.000000;1.920165
9779.000000;1.903867
9778.000000;1.891777
9777.000000;1.888437
9776.000000;1.893708
9775.000000;1.903871
9774.000000;1.913908
9773.000000;1.919513
9772.000000;1.918753
9771.000000;1.913107
9770.000000;1.906903
9769.000000;1.904478
9768.000000;1.906955
9767.000000;1.911639
9766.000000;1.914450
9765.000000;1.913022
9764.000000;1.908250
9763.000000;1.904078
9762.000000;1.905409
9761.000000;1.913907
9760.000000;1.924753
9759.000000;1.929556
9758.000000;1.924823
9757.000000;1.915450
9756.000000;1.908034
9755.000000;1.904032
9754.000000;1.901098
9753.000000;1.898209
9752.000000;1.896730
9751.000000;1.897793
9750.000000;1.901357
9749.000000;1.907168
9748.000000;1.913892
9747.000000;1.917550
9746.000000;1.914472
9745.000000;1.906727
9744.000000;1.901224
9743.000000;1.902760
9742.000000;1.909289
9741.000000;1.913775
9740.000000;1.911241
9739.000000;1.903737
9738.000000;1.897186
9737.000000;1.895059
9736.000000;1.896202
9735.000000;1.897500
9734.000000;1.898120
9733.000000;1.899941
9732.000000;1.903436
9731.000000;1.905950
9730.000000;1.905318
9729.000000;1.902922
9728.000000;1.901263
9727.000000;1.900390
9726.000000;1.899170
9725.000000;1.898617
9724.000000;1.900823
9723.000000;1.904836
9722.000000;1.906585
9721.000000;1.903941
9720.000000;1.899276
9719.000000;1.895646
9718.000000;1.893023
9717.000000;1.890125
9716.000000;1.888238
9715.000000;1.890329
9714.000000;1.896792
9713.000000;1.904078
9712.000000;1.908025
9711.000000;1.907875
9710.000000;1.905846
9709.000000;1.903136
9708.000000;1.898792
9707.000000;1.892745
9706.000000;1.887539
9705.000000;1.886238
9704.000000;1.889290
9703.000000;1.894303
9702.000000;1.898862
9701.000000;1.902279
9700.000000;1.903956
9699.000000;1.901895
9698.000000;1.894704
9697.000000;1.884083
9696.000000;1.873822
9695.000000;1.867094
9694.000000;1.865292
9693.000000;1.868096
9692.000000;1.873203
9691.000000;1.876951
9690.000000;1.877713
9689.000000;1.877838
9688.000000;1.879919
9687.000000;1.883135
9686.000000;1.884863
9685.000000;1.884374
9684.000000;1.883351
9683.000000;1.883618
9682.000000;1.886095
9681.000000;1.890906
9680.000000;1.895954
9679.000000;1.896118
9678.000000;1.887811
9677.000000;1.874838
9676.000000;1.865964
9675.000000;1.866206
9674.000000;1.872546
9673.000000;1.878267
9672.000000;1.880286
9671.000000;1.880770
9670.000000;1.882863
9669.000000;1.887636
9668.000000;1.894316
9667.000000;1.900657
9666.000000;1.903349
9665.000000;1.900532
9664.000000;1.893925
9663.000000;1.886918
9662.000000;1.881180
9661.000000;1.876096
9660.000000;1.870951
9659.000000;1.866758
9658.000000;1.865469
9657.000000;1.867592
9656.000000;1.871309
9655.000000;1.873905
9654.000000;1.873590
9653.000000;1.870433
9652.000000;1.866488
9651.000000;1.864788
9650.000000;1.867048
9649.000000;1.871866
9648.000000;1.875545
9647.000000;1.875172
9646.000000;1.870813
9645.000000;1.864249
9644.000000;1.857220
9643.000000;1.852022
9642.000000;1.851355
9641.000000;1.856060
9640.000000;1.863583
9639.000000;1.869441
9638.000000;1.871369
9637.000000;1.871262
9636.000000;1.871729
9635.000000;1.872661
9634.000000;1.872684
9633.000000;1.871771
9632.000000;1.871004
9631.000000;1.871048
9630.000000;1.870926
9629.000000;1.868776
9628.000000;1.864373
9627.000000;1.859722
9626.000000;1.857493
9625.000000;1.859158
9624.000000;1.863495
9623.000000;1.867296
9622.000000;1.869312
9621.000000;1.872152
9620.000000;1.877777
9619.000000;1.882920
9618.000000;1.882156
9617.000000;1.875416
9616.000000;1.868889
9615.000000;1.867808
9614.000000;1.871464
9613.000000;1.875649
9612.000000;1.877795
9611.000000;1.878074
9610.000000;1.876846
9609.000000;1.874100
9608.000000;1.871178
9607.000000;1.870027
9606.000000;1.870418
9605.000000;1.870049
9604.000000;1.867604
9603.000000;1.864048
9602.000000;1.860761
9601.000000;1.858092
9600.000000;1.856305
9599.000000;1.856427
9598.000000;1.858769
9597.000000;1.861229
9596.000000;1.860735
9595.000000;1.856810
9594.000000;1.852427
9593.000000;1.850630
9592.000000;1.851627
9591.000000;1.853823
9590.000000;1.856318
9589.000000;1.859008
9588.000000;1.861257
9587.000000;1.862049
9586.000000;1.861459
9585.000000;1.861173
9584.000000;1.862582
9583.000000;1.865127
9582.000000;1.867504
9581.000000;1.869069
9580.000000;1.869329
9579.000000;1.867337
9578.000000;1.862771
9577.000000;1.857457
9576.000000;1.854571
9575.000000;1.855822
9574.000000;1.859817
9573.000000;1.863444
9572.000000;1.864929
9571.000000;1.865359
9570.000000;1.866807
9569.000000;1.869123
9568.000000;1.869262
9567.000000;1.864475
9566.000000;1.855911
9565.000000;1.847889
9564.000000;1.843701
9563.000000;1.843328
9562.000000;1.844984
9561.000000;1.847485
9560.000000;1.850442
9559.000000;1.853179
9558.000000;1.854715
9557.000000;1.854804
9556.000000;1.854574
9555.000000;1.856153
9554.000000;1.861285
9553.000000;1.869076
9552.000000;1.875135
9551.000000;1.874842
9550.000000;1.868543
9549.000000;1.861583
9548.000000;1.857988
9547.000000;1.856209
9546.000000;1.852464
9545.000000;1.846431
9544.000000;1.841073
9543.000000;1.838057
9542.000000;1.836147
9541.000000;1.833864
9540.000000;1.831616
9539.000000;1.830703
9538.000000;1.831945
9537.000000;1.835891
9536.000000;1.842817
9535.000000;1.851571
9534.000000;1.859429
9533.000000;1.863718
9532.000000;1.862740
9531.000000;1.855443
9530.000000;1.842748
9529.000000;1.829629
9528.000000;1.822382
9527.000000;1.823006
9526.000000;1.828096
9525.000000;1.832851
9524.000000;1.834996
9523.000000;1.834889
9522.000000;1.833756
9521.000000;1.833160
9520.000000;1.834527
9519.000000;1.837535
9518.000000;1.839600
9517.000000;1.838493
9516.000000;1.835092
9515.000000;1.831873
9514.000000;1.829740
9513.000000;1.828606
9512.000000;1.830041
9511.000000;1.836096
9510.000000;1.845288
9509.000000;1.852683
9508.000000;1.854646
9507.000000;1.851359
9506.000000;1.845241
9505.000000;1.838826
9504.000000;1.833871
9503.000000;1.831603
9502.000000;1.832715
9501.000000;1.836653
9500.000000;1.840992
9499.000000;1.841962
9498.000000;1.836982
9497.000000;1.827679
9496.000000;1.819601
9495.000000;1.817540
9494.000000;1.821173
9493.000000;1.825847
9492.000000;1.827651
9491.000000;1.826565
9490.000000;1.824233
9489.000000;1.821365
9488.000000;1.818612
9487.000000;1.817747
9486.000000;1.819929
9485.000000;1.823588
9484.000000;1.825750
9483.000000;1.825581
9482.000000;1.824771
9481.000000;1.824444
9480.000000;1.823930
9479.000000;1.822523
9478.000000;1.820993
9477.000000;1.821172
9476.000000;1.824538
9475.000000;1.830772
9474.000000;1.836833
9473.000000;1.838094
9472.000000;1.832272
9471.000000;1.822270
9470.000000;1.813588
9469.000000;1.809511
9468.000000;1.810015
9467.000000;1.814160
9466.000000;1.820981
9465.000000;1.827580
9464.000000;1.829282
9463.000000;1.824594
9462.000000;1.818484
9461.000000;1.817697
9460.000000;1.823662
9459.000000;1.831392
9458.000000;1.834822
9457.000000;1.832256
9456.000000;1.826402
9455.000000;1.820894
9454.000000;1.817901
9453.000000;1.817654
9452.000000;1.818924
9451.000000;1.820184
9450.000000;1.820701
9449.000000;1.820035
9448.000000;1.816991
9447.000000;1.811446
9446.000000;1.807220
9445.000000;1.809803
9444.000000;1.820024
9443.000000;1.831646
9442.000000;1.836946
9441.000000;1.834286
9440.000000;1.827868
9439.000000;1.821764
9438.000000;1.817343
9437.000000;1.814958
9436.000000;1.814916
9435.000000;1.816572
9434.000000;1.818395
9433.000000;1.819276
9432.000000;1.818666
9431.000000;1.815898
9430.000000;1.811056
9429.000000;1.806083
9428.000000;1.802876
9427.000000;1.800484
9426.000000;1.796616
9425.000000;1.792292
9424.000000;1.792155
9423.000000;1.798932
9422.000000;1.809415
9421.000000;1.817222
9420.000000;1.819216
9419.000000;1.817766
9418.000000;1.817158
9417.000000;1.819762
9416.000000;1.824936
9415.000000;1.829411
9414.000000;1.828880
9413.000000;1.821486
9412.000000;1.810473
9411.000000;1.802030
9410.000000;1.800152
9409.000000;1.803820
9408.000000;1.808627
9407.000000;1.810783
9406.000000;1.809600
9405.000000;1.806728
9404.000000;1.804125
9403.000000;1.803044
9402.000000;1.803887
9401.000000;1.805959
9400.000000;1.807542
9399.000000;1.807550
9398.000000;1.807485
9397.000000;1.810099
9396.000000;1.815209
9395.000000;1.818497
9394.000000;1.816269
9393.000000;1.810434
9392.000000;1.806607
9391.000000;1.807366
9390.000000;1.809451
9389.000000;1.808675
9388.000000;1.805389
9387.000000;1.802767
9386.000000;1.801941
9385.000000;1.801581
9384.000000;1.800895
9383.000000;1.800362
9382.000000;1.800058
9381.000000;1.799820
9380.000000;1.800879
9379.000000;1.804779
9378.000000;1.810515
9377.000000;1.814855
9376.000000;1.815892
9375.000000;1.814609
9374.000000;1.812365
9373.000000;1.808759
9372.000000;1.803543
9371.000000;1.798846
9370.000000;1.797131
9369.000000;1.797846
9368.000000;1.798009
9367.000000;1.795905
9366.000000;1.792662
9365.000000;1.790301
9364.000000;1.789820
9363.000000;1.791241
9362.000000;1.794081
9361.000000;1.797183
9360.000000;1.799026
9359.000000;1.799263
9358.000000;1.799201
9357.000000;1.799749
9356.000000;1.800194
9355.000000;1.799539
9354.000000;1.798067
9353.000000;1.797217
9352.000000;1.798217
9351.000000;1.801246
9350.000000;1.804915
9349.000000;1.806393
9348.000000;1.804017
9347.000000;1.799252
9346.000000;1.794840
9345.000000;1.791997
9344.000000;1.789998
9343.000000;1.788171
9342.000000;1.787270
9341.000000;1.788039
9340.000000;1.789617
9339.000000;1.790745
9338.000000;1.791727
9337.000000;1.793572
9336.000000;1.795445
9335.000000;1.794508
9334.000000;1.788992
9333.000000;1.780506
9332.000000;1.772774
9331.000000;1.768709
9330.000000;1.768856
9329.000000;1.772059
9328.000000;1.776877
9327.000000;1.782360
9326.000000;1.787825
9325.000000;1.791889
9324.000000;1.792577
9323.000000;1.789580
9322.000000;1.785589
9321.000000;1.783967
9320.000000;1.785518
9319.000000;1.788213
9318.000000;1.789776
9317.000000;1.790034
9316.000000;1.790053
9315.000000;1.789894
9314.000000;1.788825
9313.000000;1.786827
9312.000000;1.784652
9311.000000;1.783113
9310.000000;1.782667
9309.000000;1.782953
9308.000000;1.782575
9307.000000;1.780220
9306.000000;1.776437
9305.000000;1.773396
9304.000000;1.772489
9303.000000;1.773119
9302.000000;1.774264
9301.000000;1.776158
9300.000000;1.779474
9299.000000;1.783535
9298.000000;1.786700
9297.000000;1.788275
9296.000000;1.788860
9295.000000;1.789400
9294.000000;1.790513
9293.000000;1.791905
9292.000000;1.792061
9291.000000;1.789121
9290.000000;1.782740
9289.000000;1.774666
9288.000000;1.767260
9287.000000;1.762189
9286.000000;1.760471
9285.000000;1.762317
9284.000000;1.766180
9283.000000;1.769171
9282.000000;1.769775
9281.000000;1.769195
9280.000000;1.768773
9279.000000;1.767735
9278.000000;1.765418
9277.000000;1.764164
9276.000000;1.767157
9275.000000;1.773756
9274.000000;1.779397
9273.000000;1.780801
9272.000000;1.779167
9271.000000;1.777298
9270.000000;1.776288
9269.000000;1.776312
9268.000000;1.778271
9267.000000;1.782554
9266.000000;1.787203
9265.000000;1.789093
9264.000000;1.786761
9263.000000;1.781438
9262.000000;1.775936
9261.000000;1.772810
9260.000000;1.772778
9259.000000;1.774338
9258.000000;1.774998
9257.000000;1.773302
9256.000000;1.769828
9255.000000;1.766034
9254.000000;1.762657
9253.000000;1.759964
9252.000000;1.758781
9251.000000;1.759998
9250.000000;1.763051
9249.000000;1.765852
9248.000000;1.766594
9247.000000;1.765321
9246.000000;1.763674
9245.000000;1.763201
9244.000000;1.764000
9243.000000;1.765080
9242.000000;1.765774
9241.000000;1.766308
9240.000000;1.767045
9239.000000;1.767855
9238.000000;1.768618
9237.000000;1.769875
9236.000000;1.772305
9235.000000;1.775782
9234.000000;1.779405
9233.000000;1.781928
9232.000000;1.781859
9231.000000;1.778267
9230.000000;1.772255
9229.000000;1.766668
9228.000000;1.763628
9227.000000;1.762972
9226.000000;1.763386
9225.000000;1.764339
9224.000000;1.766105
9223.000000;1.768571
9222.000000;1.771364
9221.000000;1.774403
9220.000000;1.776734
9219.000000;1.775768
9218.000000;1.770200
9217.000000;1.763398
9216.000000;1.761065
9215.000000;1.765105
9214.000000;1.771529
9213.000000;1.774820
9212.000000;1.773135
9211.000000;1.768785
9210.000000;1.765247
9209.000000;1.764467
9208.000000;1.765751
9207.000000;1.766487
9206.000000;1.764907
9205.000000;1.762360
9204.000000;1.761503
9203.000000;1.762694
9202.000000;1.763957
9201.000000;1.764318
9200.000000;1.765049
9199.000000;1.766830
9198.000000;1.768010
9197.000000;1.767325
9196.000000;1.766264
9195.000000;1.766525
9194.000000;1.766946
9193.000000;1.765264
9192.000000;1.761647
9191.000000;1.758114
9190.000000;1.755437
9189.000000;1.753121
9188.000000;1.751930
9187.000000;1.753777
9186.000000;1.758747
9185.000000;1.764211
9184.000000;1.767526
9183.000000;1.768157
9182.000000;1.766526
9181.000000;1.762604
9180.000000;1.757033
9179.000000;1.752352
9178.000000;1.751405
9177.000000;1.754585
9176.000000;1.759378
9175.000000;1.762695
9174.000000;1.763259
9173.000000;1.761767
9172.000000;1.759460
9171.000000;1.757201
9170.000000;1.755738
9169.000000;1.756048
9168.000000;1.758920
9167.000000;1.764270
9166.000000;1.770948
9165.000000;1.777038
9164.000000;1.780067
9163.000000;1.778020
9162.000000;1.771579
9161.000000;1.764539
9160.000000;1.760559
9159.000000;1.759838
9158.000000;1.759742
9157.000000;1.758390
9156.000000;1.756534
9155.000000;1.755989
9154.000000;1.757866
9153.000000;1.762485
9152.000000;1.768912
9151.000000;1.773963
9150.000000;1.773843
9149.000000;1.768416
9148.000000;1.762182
9147.000000;1.759295
9146.000000;1.759357
9145.000000;1.759298
9144.000000;1.757862
9143.000000;1.756480
9142.000000;1.756565
9141.000000;1.757798
9140.000000;1.758475
9139.000000;1.756476
9138.000000;1.751128
9137.000000;1.745373
9136.000000;1.744338
9135.000000;1.749958
9134.000000;1.757968
9133.000000;1.761922
9132.000000;1.760125
9131.000000;1.756531
9130.000000;1.754944
9129.000000;1.755583
9128.000000;1.757460
9127.000000;1.760327
9126.000000;1.763250
9125.000000;1.764146
9124.000000;1.762220
9123.000000;1.759287
9122.000000;1.757345
9121.000000;1.756250
9120.000000;1.755077
9119.000000;1.754497
9118.000000;1.756044
9117.000000;1.759428
9116.000000;1.762001
9115.000000;1.761083
9114.000000;1.756460
9113.000000;1.750627
9112.000000;1.746892
9111.000000;1.747140
9110.000000;1.750751
9109.000000;1.755413
9108.000000;1.759058
9107.000000;1.760838
9106.000000;1.760654
9105.000000;1.758775
9104.000000;1.756160
9103.000000;1.754316
9102.000000;1.754065
9101.000000;1.754730
9100.000000;1.755112
9099.000000;1.755046
9098.000000;1.755463
9097.000000;1.756953
9096.000000;1.758516
9095.000000;1.757898
9094.000000;1.753719
9093.000000;1.747295
9092.000000;1.741694
9091.000000;1.739061
9090.000000;1.739537
9089.000000;1.742520
9088.000000;1.747480
9087.000000;1.752802
9086.000000;1.755341
9085.000000;1.753283
9084.000000;1.748884
9083.000000;1.745916
9082.000000;1.745297
9081.000000;1.745152
9080.000000;1.744290
9079.000000;1.743735
9078.000000;1.744389
9077.000000;1.745325
9076.000000;1.745586
9075.000000;1.745946
9074.000000;1.747611
9073.000000;1.750474
9072.000000;1.753654
9071.000000;1.756525
9070.000000;1.758277
9069.000000;1.757844
9068.000000;1.755334
9067.000000;1.752710
9066.000000;1.752133
9065.000000;1.753920
9064.000000;1.756524
9063.000000;1.757702
9062.000000;1.755452
9061.000000;1.749181
9060.000000;1.740862
9059.000000;1.734228
9058.000000;1.731886
9057.000000;1.733403
9056.000000;1.736415
9055.000000;1.738967
9054.000000;1.740328
9053.000000;1.740456
