Criado como novo conjunto de dados;"e0108.spp","-4291725.2 Secs"
cm-1;Abs
10000.000000;0.360180
9999.000000;0.359941
9998.000000;0.359739
9997.000000;0.359535
9996.000000;0.359202
9995.000000;0.358710
9994.000000;0.358181
9993.000000;0.357710
9992.000000;0.357265
9991.000000;0.356817
9990.000000;0.356468
9989.000000;0.356299
9988.000000;0.356130
9987.000000;0.355610
9986.000000;0.354632
9985.000000;0.353565
9984.000000;0.352948
9983.000000;0.352970
9982.000000;0.353343
9981.000000;0.353665
9980.000000;0.353755
9979.000000;0.353619
9978.000000;0.353276
9977.000000;0.352769
9976.000000;0.352270
9975.000000;0.351966
9974.000000;0.351861
9973.000000;0.351778
9972.000000;0.351553
9971.000000;0.351125
9970.000000;0.350486
9969.000000;0.349707
9968.000000;0.349047
9967.000000;0.348826
9966.000000;0.349070
9965.000000;0.349395
9964.000000;0.349382
9963.000000;0.349026
9962.000000;0.348692
9961.000000;0.348613
9960.000000;0.348563
9959.000000;0.348092
9958.000000;0.347034
9957.000000;0.345758
9956.000000;0.344892
9955.000000;0.344785
9954.000000;0.345198
9953.000000;0.345524
9952.000000;0.345322
9951.000000;0.344611
9950.000000;0.343692
9949.000000;0.342792
9948.000000;0.341958
9947.000000;0.341214
9946.000000;0.340631
9945.000000;0.340221
9944.000000;0.339911
9943.000000;0.339686
9942.000000;0.339614
9941.000000;0.339630
9940.000000;0.339440
9939.000000;0.338891
9938.000000;0.338371
9937.000000;0.338534
9936.000000;0.339507
9935.000000;0.340555
9934.000000;0.340720
9933.000000;0.339705
9932.000000;0.338030
9931.000000;0.336453
9930.000000;0.335435
9929.000000;0.335061
9928.000000;0.335192
9927.000000;0.335569
9926.000000;0.335887
9925.000000;0.335887
9924.000000;0.335416
9923.000000;0.334447
9922.000000;0.333143
9921.000000;0.331870
9920.000000;0.331045
9919.000000;0.330905
9918.000000;0.331428
9917.000000;0.332384
9916.000000;0.333375
9915.000000;0.333938
9914.000000;0.333825
9913.000000;0.333180
9912.000000;0.332322
9911.000000;0.331391
9910.000000;0.330392
9909.000000;0.329531
9908.000000;0.329162
9907.000000;0.329285
9906.000000;0.329395
9905.000000;0.329050
9904.000000;0.328407
9903.000000;0.327939
9902.000000;0.327750
9901.000000;0.327453
9900.000000;0.326738
9899.000000;0.325771
9898.000000;0.324962
9897.000000;0.324493
9896.000000;0.324239
9895.000000;0.324030
9894.000000;0.323888
9893.000000;0.323981
9892.000000;0.324389
9891.000000;0.324934
9890.000000;0.325262
9889.000000;0.325110
9888.000000;0.324515
9887.000000;0.323737
9886.000000;0.323019
9885.000000;0.322425
9884.000000;0.321875
9883.000000;0.321274
9882.000000;0.320607
9881.000000;0.319949
9880.000000;0.319390
9879.000000;0.318965
9878.000000;0.318659
9877.000000;0.318459
9876.000000;0.318321
9875.000000;0.318122
9874.000000;0.317748
9873.000000;0.317268
9872.000000;0.316926
9871.000000;0.316873
9870.000000;0.316993
9869.000000;0.317046
9868.000000;0.316898
9867.000000;0.316560
9866.000000;0.316084
9865.000000;0.315535
9864.000000;0.315025
9863.000000;0.314649
9862.000000;0.314390
9861.000000;0.314147
9860.000000;0.313842
9859.000000;0.313469
9858.000000;0.313073
9857.000000;0.312739
9856.000000;0.312579
9855.000000;0.312636
9854.000000;0.312827
9853.000000;0.313015
9852.000000;0.313097
9851.000000;0.313007
9850.000000;0.312691
9849.000000;0.312166
9848.000000;0.311531
9847.000000;0.310861
9846.000000;0.310155
9845.000000;0.309451
9844.000000;0.308936
9843.000000;0.308792
9842.000000;0.308904
9841.000000;0.308861
9840.000000;0.308305
9839.000000;0.307300
9838.000000;0.306336
9837.000000;0.305988
9836.000000;0.306450
9835.000000;0.307337
9834.000000;0.307927
9833.000000;0.307683
9832.000000;0.306609
9831.000000;0.305200
9830.000000;0.304105
9829.000000;0.303732
9828.000000;0.303957
9827.000000;0.304165
9826.000000;0.303774
9825.000000;0.302848
9824.000000;0.302031
9823.000000;0.301783
9822.000000;0.301857
9821.000000;0.301720
9820.000000;0.301266
9819.000000;0.300836
9818.000000;0.300630
9817.000000;0.300457
9816.000000;0.300089
9815.000000;0.299580
9814.000000;0.299124
9813.000000;0.298834
9812.000000;0.298758
9811.000000;0.298886
9810.000000;0.299039
9809.000000;0.298926
9808.000000;0.298457
9807.000000;0.297865
9806.000000;0.297396
9805.000000;0.297034
9804.000000;0.296632
9803.000000;0.296168
9802.000000;0.295710
9801.000000;0.295255
9800.000000;0.294794
9799.000000;0.294442
9798.000000;0.294293
9797.000000;0.294192
9796.000000;0.293882
9795.000000;0.293387
9794.000000;0.293048
9793.000000;0.293102
9792.000000;0.293392
9791.000000;0.293559
9790.000000;0.293453
9789.000000;0.293236
9788.000000;0.293141
9787.000000;0.293192
9786.000000;0.293182
9785.000000;0.292892
9784.000000;0.292314
9783.000000;0.291662
9782.000000;0.291160
9781.000000;0.290852
9780.000000;0.290572
9779.000000;0.290077
9778.000000;0.289239
9777.000000;0.288229
9776.000000;0.287509
9775.000000;0.287495
9774.000000;0.288109
9773.000000;0.288789
9772.000000;0.289068
9771.000000;0.288992
9770.000000;0.288809
9769.000000;0.288388
9768.000000;0.287314
9767.000000;0.285592
9766.000000;0.283887
9765.000000;0.282895
9764.000000;0.282675
9763.000000;0.282812
9762.000000;0.282999
9761.000000;0.283190
9760.000000;0.283320
9759.000000;0.283249
9758.000000;0.283005
9757.000000;0.282796
9756.000000;0.282682
9755.000000;0.282472
9754.000000;0.282040
9753.000000;0.281537
9752.000000;0.281196
9751.000000;0.281062
9750.000000;0.281042
9749.000000;0.281057
9748.000000;0.280989
9747.000000;0.280656
9746.000000;0.280026
9745.000000;0.279354
9744.000000;0.278902
9743.000000;0.278631
9742.000000;0.278347
9741.000000;0.278079
9740.000000;0.278020
9739.000000;0.278132
9738.000000;0.278096
9737.000000;0.277716
9736.000000;0.277139
9735.000000;0.276566
9734.000000;0.276012
9733.000000;0.275466
9732.000000;0.275074
9731.000000;0.274931
9730.000000;0.274873
9729.000000;0.274701
9728.000000;0.274480
9727.000000;0.274369
9726.000000;0.274237
9725.000000;0.273790
9724.000000;0.273068
9723.000000;0.272491
9722.000000;0.272280
9721.000000;0.272109
9720.000000;0.271554
9719.000000;0.270727
9718.000000;0.270195
9717.000000;0.270317
9716.000000;0.270852
9715.000000;0.271247
9714.000000;0.271179
9713.000000;0.270780
9712.000000;0.270468
9711.000000;0.270591
9710.000000;0.271128
9709.000000;0.271651
9708.000000;0.271643
9707.000000;0.270936
9706.000000;0.269864
9705.000000;0.268966
9704.000000;0.268519
9703.000000;0.268374
9702.000000;0.268181
9701.000000;0.267760
9700.000000;0.267243
9699.000000;0.266899
9698.000000;0.266846
9697.000000;0.266944
9696.000000;0.266995
9695.000000;0.266993
9694.000000;0.267083
9693.000000;0.267264
9692.000000;0.267260
9691.000000;0.266788
9690.000000;0.265921
9689.000000;0.265043
9688.000000;0.264447
9687.000000;0.264078
9686.000000;0.263723
9685.000000;0.263294
9684.000000;0.262855
9683.000000;0.262455
9682.000000;0.262104
9681.000000;0.261846
9680.000000;0.261720
9679.000000;0.261624
9678.000000;0.261373
9677.000000;0.260951
9676.000000;0.260587
9675.000000;0.260465
9674.000000;0.260447
9673.000000;0.260200
9672.000000;0.259586
9671.000000;0.258814
9670.000000;0.258206
9669.000000;0.257886
9668.000000;0.257756
9667.000000;0.257688
9666.000000;0.257657
9665.000000;0.257671
9664.000000;0.257666
9663.000000;0.257521
9662.000000;0.257192
9661.000000;0.256787
9660.000000;0.256481
9659.000000;0.256312
9658.000000;0.256101
9657.000000;0.255628
9656.000000;0.254894
9655.000000;0.254164
9654.000000;0.253719
9653.000000;0.253586
9652.000000;0.253589
9651.000000;0.253590
9650.000000;0.253581
9649.000000;0.253550
9648.000000;0.253382
9647.000000;0.253004
9646.000000;0.252532
9645.000000;0.252176
9644.000000;0.251998
9643.000000;0.251870
9642.000000;0.251636
9641.000000;0.251250
9640.000000;0.250750
9639.000000;0.250200
9638.000000;0.249675
9637.000000;0.249238
9636.000000;0.248903
9635.000000;0.248674
9634.000000;0.248595
9633.000000;0.248681
9632.000000;0.248793
9631.000000;0.248727
9630.000000;0.248470
9629.000000;0.248237
9628.000000;0.248168
9627.000000;0.248136
9626.000000;0.247917
9625.000000;0.247445
9624.000000;0.246786
9623.000000;0.246009
9622.000000;0.245258
9621.000000;0.244836
9620.000000;0.244973
9619.000000;0.245491
9618.000000;0.245891
9617.000000;0.245842
9616.000000;0.245422
9615.000000;0.244874
9614.000000;0.244285
9613.000000;0.243650
9612.000000;0.243092
9611.000000;0.242834
9610.000000;0.242912
9609.000000;0.243053
9608.000000;0.242882
9607.000000;0.242301
9606.000000;0.241617
9605.000000;0.241272
9604.000000;0.241425
9603.000000;0.241816
9602.000000;0.242063
9601.000000;0.242006
9600.000000;0.241742
9599.000000;0.241403
9598.000000;0.241039
9597.000000;0.240658
9596.000000;0.240224
9595.000000;0.239616
9594.000000;0.238748
9593.000000;0.237779
9592.000000;0.237041
9591.000000;0.236695
9590.000000;0.236570
9589.000000;0.236403
9588.000000;0.236134
9587.000000;0.235888
9586.000000;0.235772
9585.000000;0.235787
9584.000000;0.235875
9583.000000;0.235959
9582.000000;0.235972
9581.000000;0.235924
9580.000000;0.235875
9579.000000;0.235780
9578.000000;0.235443
9577.000000;0.234733
9576.000000;0.233818
9575.000000;0.233037
9574.000000;0.232578
9573.000000;0.232349
9572.000000;0.232154
9571.000000;0.231891
9570.000000;0.231557
9569.000000;0.231198
9568.000000;0.230898
9567.000000;0.230734
9566.000000;0.230680
9565.000000;0.230586
9564.000000;0.230343
9563.000000;0.230032
9562.000000;0.229829
9561.000000;0.229787
9560.000000;0.229775
9559.000000;0.229641
9558.000000;0.229370
9557.000000;0.229054
9556.000000;0.228763
9555.000000;0.228533
9554.000000;0.228405
9553.000000;0.228364
9552.000000;0.228255
9551.000000;0.227892
9550.000000;0.227313
9549.000000;0.226809
9548.000000;0.226629
9547.000000;0.226687
9546.000000;0.226657
9545.000000;0.226287
9544.000000;0.225585
9543.000000;0.224776
9542.000000;0.224150
9541.000000;0.223908
9540.000000;0.224016
9539.000000;0.224241
9538.000000;0.224407
9537.000000;0.224550
9536.000000;0.224770
9535.000000;0.225012
9534.000000;0.225141
9533.000000;0.225142
9532.000000;0.225048
9531.000000;0.224724
9530.000000;0.223975
9529.000000;0.222890
9528.000000;0.221868
9527.000000;0.221227
9526.000000;0.220959
9525.000000;0.220948
9524.000000;0.221179
9523.000000;0.221584
9522.000000;0.221852
9521.000000;0.221669
9520.000000;0.221100
9519.000000;0.220533
9518.000000;0.220228
9517.000000;0.220088
9516.000000;0.219910
9515.000000;0.219688
9514.000000;0.219555
9513.000000;0.219510
9512.000000;0.219323
9511.000000;0.218778
9510.000000;0.217988
9509.000000;0.217390
9508.000000;0.217362
9507.000000;0.217834
9506.000000;0.218323
9505.000000;0.218383
9504.000000;0.217994
9503.000000;0.217492
9502.000000;0.217199
9501.000000;0.217169
9500.000000;0.217247
9499.000000;0.217277
9498.000000;0.217189
9497.000000;0.216946
9496.000000;0.216494
9495.000000;0.215855
9494.000000;0.215243
9493.000000;0.214920
9492.000000;0.214878
9491.000000;0.214764
9490.000000;0.214260
9489.000000;0.213473
9488.000000;0.212804
9487.000000;0.212495
9486.000000;0.212453
9485.000000;0.212488
9484.000000;0.212506
9483.000000;0.212445
9482.000000;0.212254
9481.000000;0.212001
9480.000000;0.211833
9479.000000;0.211721
9478.000000;0.211403
9477.000000;0.210720
9476.000000;0.209899
9475.000000;0.209364
9474.000000;0.209319
9473.000000;0.209610
9472.000000;0.209892
9471.000000;0.209856
9470.000000;0.209413
9469.000000;0.208809
9468.000000;0.208478
9467.000000;0.208656
9466.000000;0.209152
9465.000000;0.209570
9464.000000;0.209645
9463.000000;0.209296
9462.000000;0.208541
9461.000000;0.207572
9460.000000;0.206815
9459.000000;0.206664
9458.000000;0.207108
9457.000000;0.207740
9456.000000;0.208135
9455.000000;0.208132
9454.000000;0.207810
9453.000000;0.207364
9452.000000;0.206993
9451.000000;0.206778
9450.000000;0.206617
9449.000000;0.206381
9448.000000;0.206114
9447.000000;0.205978
9446.000000;0.206020
9445.000000;0.206128
9444.000000;0.206205
9443.000000;0.206227
9442.000000;0.206097
9441.000000;0.205615
9440.000000;0.204703
9439.000000;0.203585
9438.000000;0.202664
9437.000000;0.202215
9436.000000;0.202215
9435.000000;0.202403
9434.000000;0.202481
9433.000000;0.202319
9432.000000;0.202006
9431.000000;0.201714
9430.000000;0.201525
9429.000000;0.201400
9428.000000;0.201292
9427.000000;0.201182
9426.000000;0.201045
9425.000000;0.200838
9424.000000;0.200527
9423.000000;0.200071
9422.000000;0.199425
9421.000000;0.198649
9420.000000;0.197999
9419.000000;0.197764
9418.000000;0.197984
9417.000000;0.198437
9416.000000;0.198931
9415.000000;0.199472
9414.000000;0.200049
9413.000000;0.200400
9412.000000;0.200184
9411.000000;0.199392
9410.000000;0.198410
9409.000000;0.197634
9408.000000;0.197123
9407.000000;0.196730
9406.000000;0.196445
9405.000000;0.196425
9404.000000;0.196651
9403.000000;0.196801
9402.000000;0.196589
9401.000000;0.196122
9400.000000;0.195731
9399.000000;0.195513
9398.000000;0.195257
9397.000000;0.194814
9396.000000;0.194303
9395.000000;0.193885
9394.000000;0.193552
9393.000000;0.193284
9392.000000;0.193211
9391.000000;0.193390
9390.000000;0.193569
9389.000000;0.193430
9388.000000;0.193025
9387.000000;0.192722
9386.000000;0.192727
9385.000000;0.192880
9384.000000;0.192940
9383.000000;0.192863
9382.000000;0.192714
9381.000000;0.192515
9380.000000;0.192285
9379.000000;0.192059
9378.000000;0.191785
9377.000000;0.191333
9376.000000;0.190726
9375.000000;0.190258
9374.000000;0.190211
9373.000000;0.190526
9372.000000;0.190884
9371.000000;0.191063
9370.000000;0.191114
9369.000000;0.191168
9368.000000;0.191230
9367.000000;0.191171
9366.000000;0.190885
9365.000000;0.190390
9364.000000;0.189818
9363.000000;0.189339
9362.000000;0.189071
9361.000000;0.189039
9360.000000;0.189184
9359.000000;0.189382
9358.000000;0.189470
9357.000000;0.189322
9356.000000;0.188945
9355.000000;0.188490
9354.000000;0.188124
9353.000000;0.187887
9352.000000;0.187686
9351.000000;0.187400
9350.000000;0.186977
9349.000000;0.186435
9348.000000;0.185811
9347.000000;0.185158
9346.000000;0.184586
9345.000000;0.184275
9344.000000;0.184346
9343.000000;0.184710
9342.000000;0.185083
9341.000000;0.185235
9340.000000;0.185197
9339.000000;0.185195
9338.000000;0.185367
9337.000000;0.185614
9336.000000;0.185739
9335.000000;0.185655
9334.000000;0.185438
9333.000000;0.185209
9332.000000;0.185004
9331.000000;0.184754
9330.000000;0.184393
9329.000000;0.183960
9328.000000;0.183608
9327.000000;0.183468
9326.000000;0.183520
9325.000000;0.183634
9324.000000;0.183698
9323.000000;0.183666
9322.000000;0.183489
9321.000000;0.183116
9320.000000;0.182604
9319.000000;0.182141
9318.000000;0.181876
9317.000000;0.181713
9316.000000;0.181396
9315.000000;0.180820
9314.000000;0.180202
9313.000000;0.179857
9312.000000;0.179841
9311.000000;0.179890
9310.000000;0.179741
9309.000000;0.179399
9308.000000;0.179071
9307.000000;0.178902
9306.000000;0.178892
9305.000000;0.178999
9304.000000;0.179194
9303.000000;0.179430
9302.000000;0.179645
9301.000000;0.179804
9300.000000;0.179841
9299.000000;0.179605
9298.000000;0.179022
9297.000000;0.178320
9296.000000;0.177930
9295.000000;0.178039
9294.000000;0.178375
9293.000000;0.178500
9292.000000;0.178227
9291.000000;0.177681
9290.000000;0.177106
9289.000000;0.176720
9288.000000;0.176613
9287.000000;0.176664
9286.000000;0.176617
9285.000000;0.176389
9284.000000;0.176184
9283.000000;0.176198
9282.000000;0.176318
9281.000000;0.176319
9280.000000;0.176208
9279.000000;0.176149
9278.000000;0.176115
9277.000000;0.175880
9276.000000;0.175381
9275.000000;0.174819
9274.000000;0.174376
9273.000000;0.174045
9272.000000;0.173805
9271.000000;0.173715
9270.000000;0.173749
9269.000000;0.173738
9268.000000;0.173615
9267.000000;0.173520
9266.000000;0.173541
9265.000000;0.173507
9264.000000;0.173226
9263.000000;0.172813
9262.000000;0.172599
9261.000000;0.172766
9260.000000;0.173168
9259.000000;0.173483
9258.000000;0.173401
9257.000000;0.172783
9256.000000;0.171792
9255.000000;0.170855
9254.000000;0.170374
9253.000000;0.170438
9252.000000;0.170860
9251.000000;0.171393
9250.000000;0.171801
9249.000000;0.171838
9248.000000;0.171347
9247.000000;0.170457
9246.000000;0.169545
9245.000000;0.168963
9244.000000;0.168824
9243.000000;0.169017
9242.000000;0.169349
9241.000000;0.169661
9240.000000;0.169903
9239.000000;0.170128
9238.000000;0.170378
9237.000000;0.170575
9236.000000;0.170585
9235.000000;0.170398
9234.000000;0.170156
9233.000000;0.169998
9232.000000;0.169915
9231.000000;0.169800
9230.000000;0.169596
9229.000000;0.169337
9228.000000;0.169061
9227.000000;0.168724
9226.000000;0.168246
9225.000000;0.167665
9224.000000;0.167204
9223.000000;0.167108
9222.000000;0.167379
9221.000000;0.167698
9220.000000;0.167684
9219.000000;0.167227
9218.000000;0.166579
9217.000000;0.166136
9216.000000;0.166143
9215.000000;0.166553
9214.000000;0.167127
9213.000000;0.167626
9212.000000;0.167920
9211.000000;0.167930
9210.000000;0.167575
9209.000000;0.166885
9208.000000;0.166165
9207.000000;0.165865
9206.000000;0.166161
9205.000000;0.166724
9204.000000;0.166985
9203.000000;0.166641
9202.000000;0.165854
9201.000000;0.165014
9200.000000;0.164387
9199.000000;0.163988
9198.000000;0.163711
9197.000000;0.163525
9196.000000;0.163515
9195.000000;0.163745
9194.000000;0.164097
9193.000000;0.164315
9192.000000;0.164229
9191.000000;0.163897
9190.000000;0.163541
9189.000000;0.163381
9188.000000;0.163492
9187.000000;0.163739
9186.000000;0.163816
9185.000000;0.163487
9184.000000;0.162858
9183.000000;0.162305
9182.000000;0.162069
9181.000000;0.162006
9180.000000;0.161819
9179.000000;0.161424
9178.000000;0.160960
9177.000000;0.160530
9176.000000;0.160145
9175.000000;0.159882
9174.000000;0.159913
9173.000000;0.160311
9172.000000;0.160923
9171.000000;0.161477
9170.000000;0.161716
9169.000000;0.161464
9168.000000;0.160750
9167.000000;0.159920
9166.000000;0.159466
9165.000000;0.159597
9164.000000;0.160045
9163.000000;0.160373
9162.000000;0.160422
9161.000000;0.160351
9160.000000;0.160336
9159.000000;0.160373
9158.000000;0.160356
9157.000000;0.160224
9156.000000;0.159965
9155.000000;0.159571
9154.000000;0.159109
9153.000000;0.158800
9152.000000;0.158894
9151.000000;0.159403
9150.000000;0.159997
9149.000000;0.160254
9148.000000;0.160016
9147.000000;0.159459
9146.000000;0.158844
9145.000000;0.158322
9144.000000;0.157990
9143.000000;0.157959
9142.000000;0.158203
9141.000000;0.158413
9140.000000;0.158231
9139.000000;0.157675
9138.000000;0.157139
9137.000000;0.156929
9136.000000;0.156926
9135.000000;0.156835
9134.000000;0.156626
9133.000000;0.156537
9132.000000;0.156695
9131.000000;0.156937
9130.000000;0.157034
9129.000000;0.156960
9128.000000;0.156830
9127.000000;0.156696
9126.000000;0.156542
9125.000000;0.156426
9124.000000;0.156491
9123.000000;0.156753
9122.000000;0.156973
9121.000000;0.156859
9120.000000;0.156397
9119.000000;0.155882
9118.000000;0.155602
9117.000000;0.155561
9116.000000;0.155569
9115.000000;0.155532
9114.000000;0.155510
9113.000000;0.155518
9112.000000;0.155404
9111.000000;0.155031
9110.000000;0.154517
9109.000000;0.154170
9108.000000;0.154177
9107.000000;0.154409
9106.000000;0.154559
9105.000000;0.154422
9104.000000;0.154046
9103.000000;0.153659
9102.000000;0.153466
9101.000000;0.153488
9100.000000;0.153545
9099.000000;0.153431
9098.000000;0.153130
9097.000000;0.152842
9096.000000;0.152769
9095.000000;0.152919
9094.000000;0.153137
9093.000000;0.153290
9092.000000;0.153337
9091.000000;0.153253
9090.000000;0.152997
9089.000000;0.152623
9088.000000;0.152332
9087.000000;0.152320
9086.000000;0.152595
9085.000000;0.152985
9084.000000;0.153270
9083.000000;0.153263
9082.000000;0.152863
9081.000000;0.152185
9080.000000;0.151607
9079.000000;0.151502
9078.000000;0.151865
9077.000000;0.152280
9076.000000;0.152330
9075.000000;0.151953
9074.000000;0.151392
9073.000000;0.150905
9072.000000;0.150604
9071.000000;0.150478
9070.000000;0.150461
9069.000000;0.150489
9068.000000;0.150559
9067.000000;0.150705
9066.000000;0.150897
9065.000000;0.151014
9064.000000;0.150984
9063.000000;0.150859
9062.000000;0.150710
9061.000000;0.150521
9060.000000;0.150272
9059.000000;0.150046
9058.000000;0.149950
9057.000000;0.149989
9056.000000;0.150097
9055.000000;0.150225
9054.000000;0.150287
9053.000000;0.150127
