Criado como novo conjunto de dados;"e0108.spp","-4248163.1 Secs"
cm-1;Abs
10000.000000;0.998643
9999.000000;0.997966
9998.000000;0.997770
9997.000000;0.997380
9996.000000;0.995935
9995.000000;0.993806
9994.000000;0.992096
9993.000000;0.991563
9992.000000;0.992077
9991.000000;0.993274
9990.000000;0.994968
9989.000000;0.996889
9988.000000;0.998394
9987.000000;0.998846
9986.000000;0.998225
9985.000000;0.997104
9984.000000;0.996062
9983.000000;0.995307
9982.000000;0.994821
9981.000000;0.994566
9980.000000;0.994454
9979.000000;0.994349
9978.000000;0.994273
9977.000000;0.994460
9976.000000;0.995038
9975.000000;0.995723
9974.000000;0.995960
9973.000000;0.995299
9972.000000;0.993587
9971.000000;0.990993
9970.000000;0.988080
9969.000000;0.985636
9968.000000;0.984142
9967.000000;0.983478
9966.000000;0.983367
9965.000000;0.983937
9964.000000;0.985494
9963.000000;0.987777
9962.000000;0.989861
9961.000000;0.990927
9960.000000;0.990835
9959.000000;0.989831
9958.000000;0.988151
9957.000000;0.986167
9956.000000;0.984555
9955.000000;0.983860
9954.000000;0.983959
9953.000000;0.984228
9952.000000;0.984190
9951.000000;0.983826
9950.000000;0.983362
9949.000000;0.982979
9948.000000;0.982715
9947.000000;0.982481
9946.000000;0.982156
9945.000000;0.981713
9944.000000;0.981177
9943.000000;0.980445
9942.000000;0.979282
9941.000000;0.977613
9940.000000;0.975694
9939.000000;0.973955
9938.000000;0.972838
9937.000000;0.972812
9936.000000;0.974201
9935.000000;0.976673
9934.000000;0.979038
9933.000000;0.979947
9932.000000;0.978907
9931.000000;0.976602
9930.000000;0.974283
9929.000000;0.972921
9928.000000;0.972750
9927.000000;0.973304
9926.000000;0.973837
9925.000000;0.973859
9924.000000;0.973345
9923.000000;0.972418
9922.000000;0.971061
9921.000000;0.969327
9920.000000;0.967682
9919.000000;0.966835
9918.000000;0.967187
9917.000000;0.968492
9916.000000;0.969976
9915.000000;0.970732
9914.000000;0.970318
9913.000000;0.969196
9912.000000;0.968380
9911.000000;0.968380
9910.000000;0.968622
9909.000000;0.968231
9908.000000;0.967203
9907.000000;0.966347
9906.000000;0.966195
9905.000000;0.966546
9904.000000;0.967105
9903.000000;0.967907
9902.000000;0.968821
9901.000000;0.969179
9900.000000;0.968364
9899.000000;0.966554
9898.000000;0.964572
9897.000000;0.963184
9896.000000;0.962718
9895.000000;0.963047
9894.000000;0.963593
9893.000000;0.963609
9892.000000;0.962834
9891.000000;0.961773
9890.000000;0.961106
9889.000000;0.961008
9888.000000;0.961263
9887.000000;0.961688
9886.000000;0.962079
9885.000000;0.962019
9884.000000;0.961317
9883.000000;0.960486
9882.000000;0.960152
9881.000000;0.960044
9880.000000;0.959273
9879.000000;0.957707
9878.000000;0.956351
9877.000000;0.956040
9876.000000;0.956398
9875.000000;0.956502
9874.000000;0.956082
9873.000000;0.955545
9872.000000;0.955173
9871.000000;0.954945
9870.000000;0.954976
9869.000000;0.955450
9868.000000;0.956069
9867.000000;0.956141
9866.000000;0.955433
9865.000000;0.954507
9864.000000;0.954022
9863.000000;0.954066
9862.000000;0.954347
9861.000000;0.954635
9860.000000;0.954741
9859.000000;0.954423
9858.000000;0.953710
9857.000000;0.953092
9856.000000;0.952922
9855.000000;0.952752
9854.000000;0.951745
9853.000000;0.949879
9852.000000;0.948297
9851.000000;0.948187
9850.000000;0.949573
9849.000000;0.951410
9848.000000;0.952669
9847.000000;0.952962
9846.000000;0.952214
9845.000000;0.950312
9844.000000;0.947530
9843.000000;0.944949
9842.000000;0.943832
9841.000000;0.944441
9840.000000;0.945758
9839.000000;0.946525
9838.000000;0.946339
9837.000000;0.945589
9836.000000;0.944730
9835.000000;0.944042
9834.000000;0.943846
9833.000000;0.944304
9832.000000;0.944886
9831.000000;0.944657
9830.000000;0.943424
9829.000000;0.942151
9828.000000;0.941781
9827.000000;0.942041
9826.000000;0.941968
9825.000000;0.941334
9824.000000;0.940834
9823.000000;0.940835
9822.000000;0.940695
9821.000000;0.939734
9820.000000;0.938381
9819.000000;0.937786
9818.000000;0.938441
9817.000000;0.939645
9816.000000;0.940279
9815.000000;0.939778
9814.000000;0.938403
9813.000000;0.936898
9812.000000;0.935959
9811.000000;0.935751
9810.000000;0.935783
9809.000000;0.935441
9808.000000;0.934720
9807.000000;0.934269
9806.000000;0.934632
9805.000000;0.935626
9804.000000;0.936511
9803.000000;0.936632
9802.000000;0.935893
9801.000000;0.934753
9800.000000;0.933830
9799.000000;0.933336
9798.000000;0.932852
9797.000000;0.931874
9796.000000;0.930610
9795.000000;0.929879
9794.000000;0.930023
9793.000000;0.930324
9792.000000;0.929867
9791.000000;0.928693
9790.000000;0.927634
9789.000000;0.927241
9788.000000;0.927361
9787.000000;0.927654
9786.000000;0.927926
9785.000000;0.927896
9784.000000;0.927299
9783.000000;0.926442
9782.000000;0.926135
9781.000000;0.926700
9780.000000;0.927426
9779.000000;0.927402
9778.000000;0.926618
9777.000000;0.925845
9776.000000;0.925691
9775.000000;0.926169
9774.000000;0.926926
9773.000000;0.927447
9772.000000;0.927231
9771.000000;0.926285
9770.000000;0.925342
9769.000000;0.925087
9768.000000;0.925241
9767.000000;0.924944
9766.000000;0.924016
9765.000000;0.923218
9764.000000;0.923094
9763.000000;0.923157
9762.000000;0.922607
9761.000000;0.921408
9760.000000;0.920222
9759.000000;0.919552
9758.000000;0.919351
9757.000000;0.919262
9756.000000;0.918868
9755.000000;0.917896
9754.000000;0.916599
9753.000000;0.915835
9752.000000;0.916308
9751.000000;0.917674
9750.000000;0.918745
9749.000000;0.918759
9748.000000;0.918163
9747.000000;0.917904
9746.000000;0.918167
9745.000000;0.918175
9744.000000;0.917227
9743.000000;0.915614
9742.000000;0.914338
9741.000000;0.914068
9740.000000;0.914588
9739.000000;0.915181
9738.000000;0.915340
9737.000000;0.915036
9736.000000;0.914525
9735.000000;0.914072
9734.000000;0.913776
9733.000000;0.913454
9732.000000;0.912800
9731.000000;0.911860
9730.000000;0.911225
9729.000000;0.911459
9728.000000;0.912323
9727.000000;0.912870
9726.000000;0.912434
9725.000000;0.911318
9724.000000;0.910374
9723.000000;0.910104
9722.000000;0.910303
9721.000000;0.910397
9720.000000;0.909993
9719.000000;0.909222
9718.000000;0.908630
9717.000000;0.908637
9716.000000;0.909011
9715.000000;0.909002
9714.000000;0.908100
9713.000000;0.906616
9712.000000;0.905459
9711.000000;0.905375
9710.000000;0.906377
9709.000000;0.907709
9708.000000;0.908362
9707.000000;0.907836
9706.000000;0.906509
9705.000000;0.905164
9704.000000;0.904184
9703.000000;0.903398
9702.000000;0.902644
9701.000000;0.902136
9700.000000;0.902177
9699.000000;0.902817
9698.000000;0.903894
9697.000000;0.905083
9696.000000;0.905833
9695.000000;0.905709
9694.000000;0.904965
9693.000000;0.904358
9692.000000;0.904104
9691.000000;0.903525
9690.000000;0.902130
9689.000000;0.900608
9688.000000;0.900133
9687.000000;0.900881
9686.000000;0.901832
9685.000000;0.901920
9684.000000;0.900883
9683.000000;0.899086
9682.000000;0.897160
9681.000000;0.895867
9680.000000;0.895693
9679.000000;0.896350
9678.000000;0.897114
9677.000000;0.897783
9676.000000;0.898724
9675.000000;0.899821
9674.000000;0.900093
9673.000000;0.898881
9672.000000;0.896981
9671.000000;0.895915
9670.000000;0.896216
9669.000000;0.896882
9668.000000;0.896524
9667.000000;0.894751
9666.000000;0.892375
9665.000000;0.890535
9664.000000;0.889805
9663.000000;0.890022
9662.000000;0.890737
9661.000000;0.891630
9660.000000;0.892423
9659.000000;0.892671
9658.000000;0.892056
9657.000000;0.890919
9656.000000;0.890053
9655.000000;0.889811
9654.000000;0.889741
9653.000000;0.889335
9652.000000;0.888831
9651.000000;0.888856
9650.000000;0.889503
9649.000000;0.890173
9648.000000;0.890334
9647.000000;0.890059
9646.000000;0.889755
9645.000000;0.889647
9644.000000;0.889634
9643.000000;0.889445
9642.000000;0.888822
9641.000000;0.887711
9640.000000;0.886391
9639.000000;0.885328
9638.000000;0.884796
9637.000000;0.884735
9636.000000;0.884967
9635.000000;0.885431
9634.000000;0.886054
9633.000000;0.886512
9632.000000;0.886325
9631.000000;0.885279
9630.000000;0.883682
9629.000000;0.882162
9628.000000;0.881237
9627.000000;0.881080
9626.000000;0.881566
9625.000000;0.882357
9624.000000;0.882908
9623.000000;0.882697
9622.000000;0.881708
9621.000000;0.880614
9620.000000;0.880234
9619.000000;0.880724
9618.000000;0.881448
9617.000000;0.881724
9616.000000;0.881501
9615.000000;0.881164
9614.000000;0.880891
9613.000000;0.880541
9612.000000;0.880089
9611.000000;0.879811
9610.000000;0.879871
9609.000000;0.879962
9608.000000;0.879592
9607.000000;0.878715
9606.000000;0.877887
9605.000000;0.877693
9604.000000;0.878094
9603.000000;0.878390
9602.000000;0.877829
9601.000000;0.876235
9600.000000;0.874116
9599.000000;0.872288
9598.000000;0.871426
9597.000000;0.871774
9596.000000;0.873026
9595.000000;0.874431
9594.000000;0.875218
9593.000000;0.875131
9592.000000;0.874549
9591.000000;0.874030
9590.000000;0.873751
9589.000000;0.873472
9588.000000;0.872963
9587.000000;0.872300
9586.000000;0.871713
9585.000000;0.871258
9584.000000;0.870760
9583.000000;0.870098
9582.000000;0.869476
9581.000000;0.869305
9580.000000;0.869757
9579.000000;0.870475
9578.000000;0.870834
9577.000000;0.870509
9576.000000;0.869735
9575.000000;0.868984
9574.000000;0.868496
9573.000000;0.868159
9572.000000;0.867750
9571.000000;0.867187
9570.000000;0.866575
9569.000000;0.866105
9568.000000;0.865861
9567.000000;0.865650
9566.000000;0.865076
9565.000000;0.863990
9564.000000;0.862865
9563.000000;0.862463
9562.000000;0.863000
9561.000000;0.863795
9560.000000;0.863982
9559.000000;0.863460
9558.000000;0.862902
9557.000000;0.862849
9556.000000;0.863130
9555.000000;0.863252
9554.000000;0.863061
9553.000000;0.862791
9552.000000;0.862633
9551.000000;0.862503
9550.000000;0.862213
9549.000000;0.861682
9548.000000;0.861043
9547.000000;0.860618
9546.000000;0.860654
9545.000000;0.860922
9544.000000;0.860782
9543.000000;0.859987
9542.000000;0.859253
9541.000000;0.859546
9540.000000;0.860804
9539.000000;0.861881
9538.000000;0.861936
9537.000000;0.861370
9536.000000;0.861024
9535.000000;0.860956
9534.000000;0.860562
9533.000000;0.859623
9532.000000;0.858594
9531.000000;0.857885
9530.000000;0.857415
9529.000000;0.857018
9528.000000;0.856815
9527.000000;0.856981
9526.000000;0.857406
9525.000000;0.857820
9524.000000;0.858033
9523.000000;0.857862
9522.000000;0.857101
9521.000000;0.855862
9520.000000;0.854780
9519.000000;0.854587
9518.000000;0.855414
9517.000000;0.856630
9516.000000;0.857381
9515.000000;0.857219
9514.000000;0.856289
9513.000000;0.855082
9512.000000;0.854047
9511.000000;0.853394
9510.000000;0.853166
9509.000000;0.853339
9508.000000;0.853741
9507.000000;0.853924
9506.000000;0.853420
9505.000000;0.852256
9504.000000;0.851062
9503.000000;0.850504
9502.000000;0.850666
9501.000000;0.851134
9500.000000;0.851565
9499.000000;0.851968
9498.000000;0.852386
9497.000000;0.852539
9496.000000;0.852010
9495.000000;0.850803
9494.000000;0.849547
9493.000000;0.848978
9492.000000;0.849238
9491.000000;0.849751
9490.000000;0.849825
9489.000000;0.849261
9488.000000;0.848304
9487.000000;0.847206
9486.000000;0.846097
9485.000000;0.845207
9484.000000;0.844889
9483.000000;0.845301
9482.000000;0.846141
9481.000000;0.846815
9480.000000;0.846831
9479.000000;0.846157
9478.000000;0.845301
9477.000000;0.844957
9476.000000;0.845332
9475.000000;0.845837
9474.000000;0.845712
9473.000000;0.844960
9472.000000;0.844283
9471.000000;0.844018
9470.000000;0.843605
9469.000000;0.842436
9468.000000;0.840917
9467.000000;0.840163
9466.000000;0.840679
9465.000000;0.841808
9464.000000;0.842543
9463.000000;0.842518
9462.000000;0.842052
9461.000000;0.841560
9460.000000;0.841210
9459.000000;0.841015
9458.000000;0.840941
9457.000000;0.840899
9456.000000;0.840788
9455.000000;0.840614
9454.000000;0.840466
9453.000000;0.840401
9452.000000;0.840415
9451.000000;0.840515
9450.000000;0.840652
9449.000000;0.840601
9448.000000;0.840088
9447.000000;0.839138
9446.000000;0.838188
9445.000000;0.837710
9444.000000;0.837779
9443.000000;0.838095
9442.000000;0.838332
9441.000000;0.838346
9440.000000;0.838141
9439.000000;0.837858
9438.000000;0.837787
9437.000000;0.838124
9436.000000;0.838610
9435.000000;0.838631
9434.000000;0.837828
9433.000000;0.836474
9432.000000;0.835156
9431.000000;0.834285
9430.000000;0.834019
9429.000000;0.834368
9428.000000;0.835033
9427.000000;0.835356
9426.000000;0.834874
9425.000000;0.833914
9424.000000;0.833287
9423.000000;0.833348
9422.000000;0.833665
9421.000000;0.833675
9420.000000;0.833334
9419.000000;0.833019
9418.000000;0.833049
9417.000000;0.833476
9416.000000;0.834075
9415.000000;0.834381
9414.000000;0.833950
9413.000000;0.832823
9412.000000;0.831561
9411.000000;0.830673
9410.000000;0.830170
9409.000000;0.829834
9408.000000;0.829655
9407.000000;0.829741
9406.000000;0.829990
9405.000000;0.830147
9404.000000;0.830086
9403.000000;0.829756
9402.000000;0.829020
9401.000000;0.827913
9400.000000;0.826965
9399.000000;0.826826
9398.000000;0.827503
9397.000000;0.828296
9396.000000;0.828625
9395.000000;0.828614
9394.000000;0.828715
9393.000000;0.829021
9392.000000;0.829195
9391.000000;0.828920
9390.000000;0.828208
9389.000000;0.827328
9388.000000;0.826541
9387.000000;0.825880
9386.000000;0.825136
9385.000000;0.824176
9384.000000;0.823215
9383.000000;0.822630
9382.000000;0.822471
9381.000000;0.822440
9380.000000;0.822397
9379.000000;0.822603
9378.000000;0.823245
9377.000000;0.824015
9376.000000;0.824420
9375.000000;0.824330
9374.000000;0.823927
9373.000000;0.823305
9372.000000;0.822515
9371.000000;0.821936
9370.000000;0.822107
9369.000000;0.823069
9368.000000;0.824190
9367.000000;0.824793
9366.000000;0.824698
9365.000000;0.824063
9364.000000;0.823056
9363.000000;0.821936
9362.000000;0.821190
9361.000000;0.821202
9360.000000;0.821858
9359.000000;0.822671
9358.000000;0.823225
9357.000000;0.823270
9356.000000;0.822618
9355.000000;0.821338
9354.000000;0.820042
9353.000000;0.819537
9352.000000;0.819991
9351.000000;0.820720
9350.000000;0.820961
9349.000000;0.820628
9348.000000;0.820116
9347.000000;0.819639
9346.000000;0.819135
9345.000000;0.818702
9344.000000;0.818659
9343.000000;0.819030
9342.000000;0.819282
9341.000000;0.818857
9340.000000;0.817857
9339.000000;0.816966
9338.000000;0.816737
9337.000000;0.817136
9336.000000;0.817748
9335.000000;0.818203
9334.000000;0.818331
9333.000000;0.818100
9332.000000;0.817606
9331.000000;0.817054
9330.000000;0.816570
9329.000000;0.816042
9328.000000;0.815302
9327.000000;0.814484
9326.000000;0.814004
9325.000000;0.814119
9324.000000;0.814597
9323.000000;0.814918
9322.000000;0.814730
9321.000000;0.814083
9320.000000;0.813334
9319.000000;0.812891
9318.000000;0.812908
9317.000000;0.813106
9316.000000;0.812979
9315.000000;0.812341
9314.000000;0.811579
9313.000000;0.811202
9312.000000;0.811237
9311.000000;0.811284
9310.000000;0.811096
9309.000000;0.810827
9308.000000;0.810687
9307.000000;0.810615
9306.000000;0.810424
9305.000000;0.810088
9304.000000;0.809763
9303.000000;0.809654
9302.000000;0.809919
9301.000000;0.810535
9300.000000;0.811156
9299.000000;0.811284
9298.000000;0.810750
9297.000000;0.809913
9296.000000;0.809289
9295.000000;0.809059
9294.000000;0.809011
9293.000000;0.808790
9292.000000;0.808133
9291.000000;0.807056
9290.000000;0.806001
9289.000000;0.805622
9288.000000;0.806173
9287.000000;0.807197
9286.000000;0.807990
9285.000000;0.808294
9284.000000;0.808300
9283.000000;0.808122
9282.000000;0.807611
9281.000000;0.806708
9280.000000;0.805690
9279.000000;0.804928
9278.000000;0.804576
9277.000000;0.804570
9276.000000;0.804746
9275.000000;0.804893
9274.000000;0.804847
9273.000000;0.804668
9272.000000;0.804608
9271.000000;0.804794
9270.000000;0.805049
9269.000000;0.805117
9268.000000;0.804983
9267.000000;0.804859
9266.000000;0.804869
9265.000000;0.804878
9264.000000;0.804647
9263.000000;0.804133
9262.000000;0.803629
9261.000000;0.803564
9260.000000;0.804117
9259.000000;0.804991
9258.000000;0.805607
9257.000000;0.805550
9256.000000;0.804823
9255.000000;0.803740
9254.000000;0.802693
9253.000000;0.802000
9252.000000;0.801821
9251.000000;0.802088
9250.000000;0.802485
9249.000000;0.802604
9248.000000;0.802207
9247.000000;0.801396
9246.000000;0.800519
9245.000000;0.799850
9244.000000;0.799379
9243.000000;0.799006
9242.000000;0.798881
9241.000000;0.799359
9240.000000;0.800480
9239.000000;0.801676
9238.000000;0.802222
9237.000000;0.801964
9236.000000;0.801401
9235.000000;0.801075
9234.000000;0.801122
9233.000000;0.801374
9232.000000;0.801636
9231.000000;0.801762
9230.000000;0.801679
9229.000000;0.801491
9228.000000;0.801383
9227.000000;0.801283
9226.000000;0.800781
9225.000000;0.799608
9224.000000;0.798134
9223.000000;0.797129
9222.000000;0.796971
9221.000000;0.797224
9220.000000;0.797075
9219.000000;0.796151
9218.000000;0.794906
9217.000000;0.794224
9216.000000;0.794649
9215.000000;0.795952
9214.000000;0.797371
9213.000000;0.798260
9212.000000;0.798487
9211.000000;0.798297
9210.000000;0.797930
9209.000000;0.797461
9208.000000;0.796903
9207.000000;0.796294
9206.000000;0.795622
9205.000000;0.794764
9204.000000;0.793624
9203.000000;0.792379
9202.000000;0.791491
9201.000000;0.791370
9200.000000;0.791961
9199.000000;0.792758
9198.000000;0.793266
9197.000000;0.793406
9196.000000;0.793416
9195.000000;0.793498
9194.000000;0.793696
9193.000000;0.794013
9192.000000;0.794427
9191.000000;0.794769
9190.000000;0.794782
9189.000000;0.794412
9188.000000;0.793914
9187.000000;0.793596
9186.000000;0.793511
9185.000000;0.793455
9184.000000;0.793196
9183.000000;0.792640
9182.000000;0.791847
9181.000000;0.790927
9180.000000;0.789938
9179.000000;0.788917
9178.000000;0.788054
9177.000000;0.787691
9176.000000;0.787982
9175.000000;0.788607
9174.000000;0.789093
9173.000000;0.789423
9172.000000;0.790035
9171.000000;0.791107
9170.000000;0.792136
9169.000000;0.792465
9168.000000;0.792029
9167.000000;0.791280
9166.000000;0.790508
9165.000000;0.789612
9164.000000;0.788576
9163.000000;0.787807
9162.000000;0.787799
9161.000000;0.788563
9160.000000;0.789519
9159.000000;0.789943
9158.000000;0.789500
9157.000000;0.788423
9156.000000;0.787249
9155.000000;0.786381
9154.000000;0.785917
9153.000000;0.785841
9152.000000;0.786198
9151.000000;0.786950
9150.000000;0.787772
9149.000000;0.788215
9148.000000;0.788129
9147.000000;0.787781
9146.000000;0.787471
9145.000000;0.787179
9144.000000;0.786679
9143.000000;0.785934
9142.000000;0.785237
9141.000000;0.784917
9140.000000;0.784984
9139.000000;0.785113
9138.000000;0.785003
9137.000000;0.784714
9136.000000;0.784571
9135.000000;0.784720
9134.000000;0.784899
9133.000000;0.784759
9132.000000;0.784348
9131.000000;0.784090
9130.000000;0.784259
9129.000000;0.784616
9128.000000;0.784657
9127.000000;0.784153
9126.000000;0.783381
9125.000000;0.782866
9124.000000;0.782973
9123.000000;0.783640
9122.000000;0.784445
9121.000000;0.784946
9120.000000;0.785010
9119.000000;0.784798
9118.000000;0.784470
9117.000000;0.784028
9116.000000;0.783496
9115.000000;0.783098
9114.000000;0.783068
9113.000000;0.783336
9112.000000;0.783585
9111.000000;0.783624
9110.000000;0.783541
9109.000000;0.783447
9108.000000;0.783209
9107.000000;0.782626
9106.000000;0.781796
9105.000000;0.781176
9104.000000;0.781210
9103.000000;0.781923
9102.000000;0.782868
9101.000000;0.783439
9100.000000;0.783266
9099.000000;0.782437
9098.000000;0.781370
9097.000000;0.780452
9096.000000;0.779785
9095.000000;0.779308
9094.000000;0.779086
9093.000000;0.779301
9092.000000;0.779885
9091.000000;0.780368
9090.000000;0.780305
9089.000000;0.779818
9088.000000;0.779486
9087.000000;0.779660
9086.000000;0.780111
9085.000000;0.780401
9084.000000;0.780379
9083.000000;0.780149
9082.000000;0.779775
9081.000000;0.779287
9080.000000;0.778881
9079.000000;0.778787
9078.000000;0.778942
9077.000000;0.779045
9076.000000;0.779031
9075.000000;0.779223
9074.000000;0.779890
9073.000000;0.780811
9072.000000;0.781420
9071.000000;0.781298
9070.000000;0.780446
9069.000000;0.779261
9068.000000;0.778351
9067.000000;0.778162
9066.000000;0.778571
9065.000000;0.778906
9064.000000;0.778580
9063.000000;0.777657
9062.000000;0.776682
9061.000000;0.776087
9060.000000;0.775972
9059.000000;0.776310
9058.000000;0.777011
9057.000000;0.777782
9056.000000;0.778213
9055.000000;0.778123
9054.000000;0.777665
9053.000000;0.777079
