Criado como novo conjunto de dados;"e0108.spp","-4223141.8 Secs"
cm-1;Abs
10000.000000;2.050792
9999.000000;2.064371
9998.000000;2.075718
9997.000000;2.078810
9996.000000;2.073897
9995.000000;2.066169
9994.000000;2.061263
9993.000000;2.061565
9992.000000;2.065602
9991.000000;2.068790
9990.000000;2.066822
9989.000000;2.061106
9988.000000;2.057402
9987.000000;2.058946
9986.000000;2.064003
9985.000000;2.068778
9984.000000;2.070751
9983.000000;2.069009
9982.000000;2.062944
9981.000000;2.052696
9980.000000;2.040770
9979.000000;2.031162
9978.000000;2.026182
9977.000000;2.025336
9976.000000;2.027735
9975.000000;2.033369
9974.000000;2.040595
9973.000000;2.045214
9972.000000;2.044454
9971.000000;2.039983
9970.000000;2.034961
9969.000000;2.029898
9968.000000;2.023794
9967.000000;2.018051
9966.000000;2.015405
9965.000000;2.015051
9964.000000;2.012561
9963.000000;2.005831
9962.000000;1.998367
9961.000000;1.995299
9960.000000;1.998328
9959.000000;2.004801
9958.000000;2.010204
9957.000000;2.012053
9956.000000;2.011283
9955.000000;2.010147
9954.000000;2.010681
9953.000000;2.013931
9952.000000;2.019363
9951.000000;2.025122
9950.000000;2.028912
9949.000000;2.030214
9948.000000;2.031272
9947.000000;2.034077
9946.000000;2.036464
9945.000000;2.033117
9944.000000;2.022782
9943.000000;2.012490
9942.000000;2.011071
9941.000000;2.019862
9940.000000;2.031285
9939.000000;2.037080
9938.000000;2.036653
9937.000000;2.035100
9936.000000;2.035508
9935.000000;2.036025
9934.000000;2.034645
9933.000000;2.033027
9932.000000;2.033439
9931.000000;2.034971
9930.000000;2.035219
9929.000000;2.035030
9928.000000;2.037832
9927.000000;2.042939
9926.000000;2.044590
9925.000000;2.038613
9924.000000;2.027316
9923.000000;2.018374
9922.000000;2.017333
9921.000000;2.022748
9920.000000;2.028646
9919.000000;2.029056
9918.000000;2.022076
9917.000000;2.011700
9916.000000;2.004574
9915.000000;2.005322
9914.000000;2.014107
9913.000000;2.026236
9912.000000;2.035489
9911.000000;2.039606
9910.000000;2.040848
9909.000000;2.040895
9908.000000;2.038112
9907.000000;2.030346
9906.000000;2.018408
9905.000000;2.005938
9904.000000;1.996370
9903.000000;1.990208
9902.000000;1.985451
9901.000000;1.980821
9900.000000;1.977802
9899.000000;1.978879
9898.000000;1.984318
9897.000000;1.991519
9896.000000;1.997496
9895.000000;2.001364
9894.000000;2.004678
9893.000000;2.009840
9892.000000;2.017759
9891.000000;2.026409
9890.000000;2.031378
9889.000000;2.029447
9888.000000;2.022354
9887.000000;2.014837
9886.000000;2.008873
9885.000000;2.002567
9884.000000;1.995150
9883.000000;1.989652
9882.000000;1.988784
9881.000000;1.990545
9880.000000;1.990269
9879.000000;1.986697
9878.000000;1.983403
9877.000000;1.983987
9876.000000;1.988023
9875.000000;1.992040
9874.000000;1.993877
9873.000000;1.994454
9872.000000;1.995400
9871.000000;1.997214
9870.000000;1.999609
9869.000000;2.002341
9868.000000;2.005027
9867.000000;2.006414
9866.000000;2.005328
9865.000000;2.002409
9864.000000;1.999941
9863.000000;2.000451
9862.000000;2.004668
9861.000000;2.010222
9860.000000;2.013483
9859.000000;2.013309
9858.000000;2.012343
9857.000000;2.014048
9856.000000;2.018846
9855.000000;2.023501
9854.000000;2.024254
9853.000000;2.020216
9852.000000;2.013553
9851.000000;2.006710
9850.000000;2.000428
9849.000000;1.995404
9848.000000;1.993424
9847.000000;1.995204
9846.000000;1.998227
9845.000000;1.997585
9844.000000;1.990409
9843.000000;1.979532
9842.000000;1.971655
9841.000000;1.972037
9840.000000;1.980572
9839.000000;1.991647
9838.000000;1.998102
9837.000000;1.996679
9836.000000;1.989227
9835.000000;1.979394
9834.000000;1.971001
9833.000000;1.968361
9832.000000;1.974270
9831.000000;1.986552
9830.000000;1.998486
9829.000000;2.005026
9828.000000;2.007206
9827.000000;2.007722
9826.000000;2.005825
9825.000000;2.000277
9824.000000;1.993576
9823.000000;1.988245
9822.000000;1.982474
9821.000000;1.974769
9820.000000;1.970166
9819.000000;1.976537
9818.000000;1.994513
9817.000000;2.013547
9816.000000;2.020804
9815.000000;2.013925
9814.000000;2.000290
9813.000000;1.987688
9812.000000;1.980942
9811.000000;1.981843
9810.000000;1.988170
9809.000000;1.995497
9808.000000;2.002226
9807.000000;2.009716
9806.000000;2.015091
9805.000000;2.010332
9804.000000;1.993959
9803.000000;1.976145
9802.000000;1.967866
9801.000000;1.970129
9800.000000;1.975074
9799.000000;1.975795
9798.000000;1.971945
9797.000000;1.966091
9796.000000;1.960389
9795.000000;1.957464
9794.000000;1.959459
9793.000000;1.965272
9792.000000;1.971623
9791.000000;1.977288
9790.000000;1.983537
9789.000000;1.989597
9788.000000;1.991349
9787.000000;1.987178
9786.000000;1.981161
9785.000000;1.977569
9784.000000;1.976600
9783.000000;1.976230
9782.000000;1.974605
9781.000000;1.969872
9780.000000;1.961282
9779.000000;1.952497
9778.000000;1.950187
9777.000000;1.957453
9776.000000;1.970376
9775.000000;1.982574
9774.000000;1.992018
9773.000000;2.000327
9772.000000;2.006594
9771.000000;2.006827
9770.000000;2.000394
9769.000000;1.991872
9768.000000;1.984353
9767.000000;1.975528
9766.000000;1.962920
9765.000000;1.950508
9764.000000;1.946128
9763.000000;1.952689
9762.000000;1.965075
9761.000000;1.975904
9760.000000;1.982385
9759.000000;1.985585
9758.000000;1.985425
9757.000000;1.980359
9756.000000;1.971503
9755.000000;1.963788
9754.000000;1.961487
9753.000000;1.963912
9752.000000;1.966148
9751.000000;1.963594
9750.000000;1.955769
9749.000000;1.946175
9748.000000;1.939459
9747.000000;1.938841
9746.000000;1.944795
9745.000000;1.954683
9744.000000;1.963920
9743.000000;1.968610
9742.000000;1.967396
9741.000000;1.962387
9740.000000;1.957609
9739.000000;1.954105
9738.000000;1.949240
9737.000000;1.942504
9736.000000;1.938559
9735.000000;1.941871
9734.000000;1.949815
9733.000000;1.954007
9732.000000;1.949884
9731.000000;1.942277
9730.000000;1.939342
9729.000000;1.944023
9728.000000;1.952901
9727.000000;1.960872
9726.000000;1.964912
9725.000000;1.964122
9724.000000;1.958638
9723.000000;1.949568
9722.000000;1.939286
9721.000000;1.931730
9720.000000;1.931854
9719.000000;1.942701
9718.000000;1.961696
9717.000000;1.980326
9716.000000;1.989328
9715.000000;1.985472
9714.000000;1.971937
9713.000000;1.953968
9712.000000;1.937417
9711.000000;1.927382
9710.000000;1.925428
9709.000000;1.929391
9708.000000;1.936116
9707.000000;1.943693
9706.000000;1.950811
9705.000000;1.956243
9704.000000;1.960411
9703.000000;1.965423
9702.000000;1.971614
9701.000000;1.975013
9700.000000;1.971177
9699.000000;1.961413
9698.000000;1.951734
9697.000000;1.946488
9696.000000;1.946028
9695.000000;1.948980
9694.000000;1.953155
9693.000000;1.954413
9692.000000;1.948896
9691.000000;1.938056
9690.000000;1.928440
9689.000000;1.925462
9688.000000;1.928867
9687.000000;1.933923
9686.000000;1.936107
9685.000000;1.934881
9684.000000;1.933552
9683.000000;1.935710
9682.000000;1.941691
9681.000000;1.948745
9680.000000;1.954409
9679.000000;1.958272
9678.000000;1.960124
9677.000000;1.958241
9676.000000;1.951534
9675.000000;1.942318
9674.000000;1.934966
9673.000000;1.932158
9672.000000;1.933244
9671.000000;1.935865
9670.000000;1.937818
9669.000000;1.937903
9668.000000;1.936905
9667.000000;1.937047
9666.000000;1.939017
9665.000000;1.940304
9664.000000;1.937839
9663.000000;1.932212
9662.000000;1.926819
9661.000000;1.922669
9660.000000;1.917529
9659.000000;1.910680
9658.000000;1.905223
9657.000000;1.904580
9656.000000;1.908538
9655.000000;1.913541
9654.000000;1.915916
9653.000000;1.914325
9652.000000;1.910879
9651.000000;1.910709
9650.000000;1.918170
9649.000000;1.931793
9648.000000;1.943892
9647.000000;1.947075
9646.000000;1.940861
9645.000000;1.930496
9644.000000;1.921656
9643.000000;1.918129
9642.000000;1.921495
9641.000000;1.929181
9640.000000;1.934317
9639.000000;1.932273
9638.000000;1.925854
9637.000000;1.921086
9636.000000;1.920101
9635.000000;1.919602
9634.000000;1.916227
9633.000000;1.911206
9632.000000;1.907902
9631.000000;1.907076
9630.000000;1.906952
9629.000000;1.906538
9628.000000;1.906642
9627.000000;1.908212
9626.000000;1.911104
9625.000000;1.914697
9624.000000;1.919039
9623.000000;1.924479
9622.000000;1.929614
9621.000000;1.930608
9620.000000;1.924932
9619.000000;1.915206
9618.000000;1.907572
9617.000000;1.906679
9616.000000;1.911872
9615.000000;1.918082
9614.000000;1.920786
9613.000000;1.919042
9612.000000;1.914119
9611.000000;1.907827
9610.000000;1.902923
9609.000000;1.903366
9608.000000;1.911830
9607.000000;1.925793
9606.000000;1.936992
9605.000000;1.937546
9604.000000;1.927676
9603.000000;1.915246
9602.000000;1.907836
9601.000000;1.907052
9600.000000;1.909531
9599.000000;1.911644
9598.000000;1.912730
9597.000000;1.914228
9596.000000;1.916908
9595.000000;1.920137
9594.000000;1.922920
9593.000000;1.924129
9592.000000;1.922574
9591.000000;1.917852
9590.000000;1.911099
9589.000000;1.904956
9588.000000;1.902557
9587.000000;1.905777
9586.000000;1.913407
9585.000000;1.921583
9584.000000;1.927019
9583.000000;1.929148
9582.000000;1.928899
9581.000000;1.927024
9580.000000;1.923990
9579.000000;1.920116
9578.000000;1.915177
9577.000000;1.908803
9576.000000;1.902358
9575.000000;1.898633
9574.000000;1.898850
9573.000000;1.901865
9572.000000;1.905227
9571.000000;1.906515
9570.000000;1.904770
9569.000000;1.900465
9568.000000;1.895722
9567.000000;1.894114
9566.000000;1.896654
9565.000000;1.898959
9564.000000;1.896358
9563.000000;1.891169
9562.000000;1.890330
9561.000000;1.896424
9560.000000;1.904751
9559.000000;1.909365
9558.000000;1.908980
9557.000000;1.905346
9556.000000;1.899529
9555.000000;1.892600
9554.000000;1.887981
9553.000000;1.889545
9552.000000;1.897567
9551.000000;1.908370
9550.000000;1.916502
9549.000000;1.917683
9548.000000;1.911798
9547.000000;1.903201
9546.000000;1.897536
9545.000000;1.897482
9544.000000;1.901463
9543.000000;1.905982
9542.000000;1.907934
9541.000000;1.905340
9540.000000;1.898048
9539.000000;1.888717
9538.000000;1.881882
9537.000000;1.880162
9536.000000;1.882133
9535.000000;1.884837
9534.000000;1.887116
9533.000000;1.889587
9532.000000;1.892767
9531.000000;1.896758
9530.000000;1.900884
9529.000000;1.902411
9528.000000;1.898676
9527.000000;1.892084
9526.000000;1.889491
9525.000000;1.894259
9524.000000;1.901445
9523.000000;1.903490
9522.000000;1.899606
9521.000000;1.896024
9520.000000;1.897495
9519.000000;1.901946
9518.000000;1.903442
9517.000000;1.898611
9516.000000;1.889280
9515.000000;1.880173
9514.000000;1.875634
9513.000000;1.877175
9512.000000;1.882693
9511.000000;1.888583
9510.000000;1.893135
9509.000000;1.897249
9508.000000;1.901935
9507.000000;1.906336
9506.000000;1.908383
9505.000000;1.906477
9504.000000;1.900731
9503.000000;1.893541
9502.000000;1.888313
9501.000000;1.886584
9500.000000;1.886898
9499.000000;1.887079
9498.000000;1.886511
9497.000000;1.885123
9496.000000;1.881768
9495.000000;1.876008
9494.000000;1.870451
9493.000000;1.868615
9492.000000;1.871024
9491.000000;1.875607
9490.000000;1.881312
9489.000000;1.888128
9488.000000;1.893242
9487.000000;1.891801
9486.000000;1.883995
9485.000000;1.876663
9484.000000;1.875462
9483.000000;1.878881
9482.000000;1.881156
9481.000000;1.879117
9480.000000;1.873880
9479.000000;1.867489
9478.000000;1.861878
9477.000000;1.860137
9476.000000;1.864720
9475.000000;1.873543
9474.000000;1.880375
9473.000000;1.881051
9472.000000;1.877784
9471.000000;1.875706
9470.000000;1.877580
9469.000000;1.883025
9468.000000;1.890130
9467.000000;1.895938
9466.000000;1.897135
9465.000000;1.892861
9464.000000;1.886322
9463.000000;1.881459
9462.000000;1.878658
9461.000000;1.875640
9460.000000;1.871779
9459.000000;1.869463
9458.000000;1.871156
9457.000000;1.876603
9456.000000;1.883391
9455.000000;1.889336
9454.000000;1.893467
9453.000000;1.895149
9452.000000;1.893618
9451.000000;1.888711
9450.000000;1.880924
9449.000000;1.871490
9448.000000;1.862996
9447.000000;1.858187
9446.000000;1.858452
9445.000000;1.863195
9444.000000;1.869282
9443.000000;1.872562
9442.000000;1.871404
9441.000000;1.868303
9440.000000;1.867596
9439.000000;1.871490
9438.000000;1.878106
9437.000000;1.883228
9436.000000;1.884330
9435.000000;1.882793
9434.000000;1.880954
9433.000000;1.877958
9432.000000;1.870603
9431.000000;1.858073
9430.000000;1.844379
9429.000000;1.835432
9428.000000;1.834572
9427.000000;1.841142
9426.000000;1.851842
9425.000000;1.862376
9424.000000;1.868657
9423.000000;1.868403
9422.000000;1.862486
9421.000000;1.854294
9420.000000;1.847544
9419.000000;1.844503
9418.000000;1.845595
9417.000000;1.850065
9416.000000;1.856435
9415.000000;1.862899
9414.000000;1.868520
9413.000000;1.872819
9412.000000;1.873867
9411.000000;1.869707
9410.000000;1.862265
9409.000000;1.857194
9408.000000;1.858226
9407.000000;1.862591
9406.000000;1.863875
9405.000000;1.859333
9404.000000;1.852252
9403.000000;1.847532
9402.000000;1.847140
9401.000000;1.849305
9400.000000;1.850354
9399.000000;1.847447
9398.000000;1.841186
9397.000000;1.836144
9396.000000;1.837728
9395.000000;1.847495
9394.000000;1.861122
9393.000000;1.871392
9392.000000;1.874227
9391.000000;1.871633
9390.000000;1.867816
9389.000000;1.864296
9388.000000;1.860595
9387.000000;1.857158
9386.000000;1.855743
9385.000000;1.858056
9384.000000;1.863926
9383.000000;1.870315
9382.000000;1.873257
9381.000000;1.871691
9380.000000;1.868309
9379.000000;1.865820
9378.000000;1.863773
9377.000000;1.860312
9376.000000;1.855985
9375.000000;1.853719
9374.000000;1.854961
9373.000000;1.857715
9372.000000;1.859155
9371.000000;1.858836
9370.000000;1.857784
9369.000000;1.855354
9368.000000;1.849699
9367.000000;1.841748
9366.000000;1.835826
9365.000000;1.835131
9364.000000;1.838571
9363.000000;1.842856
9362.000000;1.846444
9361.000000;1.849981
9360.000000;1.853248
9359.000000;1.853896
9358.000000;1.850501
9357.000000;1.845195
9356.000000;1.841358
9355.000000;1.839890
9354.000000;1.839162
9353.000000;1.838126
9352.000000;1.838089
9351.000000;1.840452
9350.000000;1.843897
9349.000000;1.845443
9348.000000;1.843828
9347.000000;1.840728
9346.000000;1.838864
9345.000000;1.839490
9344.000000;1.841596
9343.000000;1.843539
9342.000000;1.844960
9341.000000;1.846349
9340.000000;1.847006
9339.000000;1.844581
9338.000000;1.838121
9337.000000;1.831158
9336.000000;1.829083
9335.000000;1.833185
9334.000000;1.839323
9333.000000;1.843413
9332.000000;1.846036
9331.000000;1.849035
9330.000000;1.850389
9329.000000;1.846810
9328.000000;1.840347
9327.000000;1.837113
9326.000000;1.839129
9325.000000;1.841883
9324.000000;1.840953
9323.000000;1.837567
9322.000000;1.835427
9321.000000;1.835437
9320.000000;1.836344
9319.000000;1.838085
9318.000000;1.841201
9317.000000;1.844361
9316.000000;1.845467
9315.000000;1.844318
9314.000000;1.841866
9313.000000;1.838120
9312.000000;1.833236
9311.000000;1.829577
9310.000000;1.829980
9309.000000;1.834169
9308.000000;1.838752
9307.000000;1.840753
9306.000000;1.839650
9305.000000;1.836351
9304.000000;1.832335
9303.000000;1.829654
9302.000000;1.829642
9301.000000;1.831535
9300.000000;1.833699
9299.000000;1.835702
9298.000000;1.837526
9297.000000;1.837536
9296.000000;1.834016
9295.000000;1.828594
9294.000000;1.825096
9293.000000;1.824761
9292.000000;1.825224
9291.000000;1.824805
9290.000000;1.824980
9289.000000;1.826941
9288.000000;1.828702
9287.000000;1.827793
9286.000000;1.825162
9285.000000;1.824299
9284.000000;1.827177
9283.000000;1.832774
9282.000000;1.838904
9281.000000;1.843341
9280.000000;1.844098
9279.000000;1.841122
9278.000000;1.837256
9277.000000;1.836075
9276.000000;1.838432
9275.000000;1.841497
9274.000000;1.841739
9273.000000;1.838588
9272.000000;1.834554
9271.000000;1.832211
9270.000000;1.831633
9269.000000;1.830686
9268.000000;1.827864
9267.000000;1.824289
9266.000000;1.822156
9265.000000;1.821827
9264.000000;1.821342
9263.000000;1.818787
9262.000000;1.814697
9261.000000;1.811790
9260.000000;1.812652
9259.000000;1.817859
9258.000000;1.825681
9257.000000;1.833113
9256.000000;1.837576
9255.000000;1.838299
9254.000000;1.836383
9253.000000;1.833707
9252.000000;1.831651
9251.000000;1.830413
9250.000000;1.829194
9249.000000;1.827305
9248.000000;1.825540
9247.000000;1.825711
9246.000000;1.827974
9245.000000;1.829522
9244.000000;1.827276
9243.000000;1.821669
9242.000000;1.816472
9241.000000;1.814944
9240.000000;1.817126
9239.000000;1.820155
9238.000000;1.820640
9237.000000;1.817207
9236.000000;1.811850
9235.000000;1.809214
9234.000000;1.812669
9233.000000;1.820499
9232.000000;1.827331
9231.000000;1.829795
9230.000000;1.829350
9229.000000;1.828995
9228.000000;1.829534
9227.000000;1.830062
9226.000000;1.830132
9225.000000;1.829950
9224.000000;1.829385
9223.000000;1.828209
9222.000000;1.826829
9221.000000;1.825769
9220.000000;1.825111
9219.000000;1.824854
9218.000000;1.824642
9217.000000;1.822946
9216.000000;1.818031
9215.000000;1.810717
9214.000000;1.805005
9213.000000;1.804150
9212.000000;1.806777
9211.000000;1.808718
9210.000000;1.808496
9209.000000;1.808841
9208.000000;1.812482
9207.000000;1.818351
9206.000000;1.822617
9205.000000;1.823018
9204.000000;1.821372
9203.000000;1.821283
9202.000000;1.824002
9201.000000;1.827275
9200.000000;1.828227
9199.000000;1.826745
9198.000000;1.824965
9197.000000;1.823741
9196.000000;1.821237
9195.000000;1.815764
9194.000000;1.808902
9193.000000;1.804328
9192.000000;1.804012
9191.000000;1.806557
9190.000000;1.809133
9189.000000;1.810403
9188.000000;1.811284
9187.000000;1.813030
9186.000000;1.814932
9185.000000;1.814460
9184.000000;1.810356
9183.000000;1.805201
9182.000000;1.803645
9181.000000;1.807826
9180.000000;1.815083
9179.000000;1.820088
9178.000000;1.819030
9177.000000;1.812425
9176.000000;1.804774
9175.000000;1.801517
9174.000000;1.805323
9173.000000;1.813765
9172.000000;1.820666
9171.000000;1.821703
9170.000000;1.818524
9169.000000;1.815536
9168.000000;1.814191
9167.000000;1.812602
9166.000000;1.809814
9165.000000;1.807906
9164.000000;1.809184
9163.000000;1.813227
9162.000000;1.817648
9161.000000;1.820513
9160.000000;1.821100
9159.000000;1.819200
9158.000000;1.815188
9157.000000;1.810684
9156.000000;1.808036
9155.000000;1.808567
9154.000000;1.811452
9153.000000;1.814673
9152.000000;1.816846
9151.000000;1.817677
9150.000000;1.816990
9149.000000;1.814432
9148.000000;1.810538
9147.000000;1.807331
9146.000000;1.807194
9145.000000;1.810421
9144.000000;1.814554
9143.000000;1.817062
9142.000000;1.817540
9141.000000;1.816844
9140.000000;1.815229
9139.000000;1.812506
9138.000000;1.809723
9137.000000;1.808689
9136.000000;1.809576
9135.000000;1.810765
9134.000000;1.811467
9133.000000;1.812754
9132.000000;1.815090
9131.000000;1.816384
9130.000000;1.813998
9129.000000;1.808038
9128.000000;1.801255
9127.000000;1.796246
9126.000000;1.794163
9125.000000;1.795696
9124.000000;1.801372
9123.000000;1.809989
9122.000000;1.817853
9121.000000;1.821160
9120.000000;1.819230
9119.000000;1.814462
9118.000000;1.809405
9117.000000;1.804899
9116.000000;1.801045
9115.000000;1.798653
9114.000000;1.798542
9113.000000;1.799928
9112.000000;1.800749
9111.000000;1.799921
9110.000000;1.798228
9109.000000;1.796531
9108.000000;1.794461
9107.000000;1.791702
9106.000000;1.789401
9105.000000;1.789062
9104.000000;1.790639
9103.000000;1.792905
9102.000000;1.795385
9101.000000;1.798361
9100.000000;1.801215
9099.000000;1.802426
9098.000000;1.801329
9097.000000;1.799179
9096.000000;1.798182
9095.000000;1.799500
9094.000000;1.802235
9093.000000;1.804046
9092.000000;1.802912
9091.000000;1.798991
9090.000000;1.794642
9089.000000;1.792275
9088.000000;1.792428
9087.000000;1.794063
9086.000000;1.795951
9085.000000;1.797007
9084.000000;1.795994
9083.000000;1.792561
9082.000000;1.788713
9081.000000;1.787685
9080.000000;1.790621
9079.000000;1.794998
9078.000000;1.796978
9077.000000;1.795244
9076.000000;1.792140
9075.000000;1.791045
9074.000000;1.792845
9073.000000;1.794941
9072.000000;1.793916
9071.000000;1.789594
9070.000000;1.785945
9069.000000;1.787036
9068.000000;1.792524
9067.000000;1.797949
9066.000000;1.799598
9065.000000;1.798301
9064.000000;1.797537
9063.000000;1.798850
9062.000000;1.800219
9061.000000;1.798211
9060.000000;1.791382
9059.000000;1.782135
9058.000000;1.775396
9057.000000;1.775097
9056.000000;1.781025
9055.000000;1.788718
9054.000000;1.793321
9053.000000;1.793671
