Criado como novo conjunto de dados;"e0108.spp","-4213960.8 Secs"
cm-1;Abs
10000.000000;1.158352
9999.000000;1.157322
9998.000000;1.156140
9997.000000;1.155889
9996.000000;1.156410
9995.000000;1.156883
9994.000000;1.157183
9993.000000;1.157916
9992.000000;1.159129
9991.000000;1.159724
9990.000000;1.158492
9989.000000;1.155390
9988.000000;1.151524
9987.000000;1.148210
9986.000000;1.146286
9985.000000;1.145993
9984.000000;1.147099
9983.000000;1.149121
9982.000000;1.151549
9981.000000;1.153750
9980.000000;1.154724
9979.000000;1.153538
9978.000000;1.150479
9977.000000;1.147356
9976.000000;1.146092
9975.000000;1.147089
9974.000000;1.149082
9973.000000;1.150363
9972.000000;1.149973
9971.000000;1.148061
9970.000000;1.145664
9969.000000;1.144080
9968.000000;1.143947
9967.000000;1.144810
9966.000000;1.145777
9965.000000;1.146463
9964.000000;1.147007
9963.000000;1.147406
9962.000000;1.147368
9961.000000;1.146763
9960.000000;1.145689
9959.000000;1.144067
9958.000000;1.141725
9957.000000;1.139080
9956.000000;1.137209
9955.000000;1.136878
9954.000000;1.137719
9953.000000;1.138609
9952.000000;1.138686
9951.000000;1.137918
9950.000000;1.136916
9949.000000;1.136364
9948.000000;1.136495
9947.000000;1.136912
9946.000000;1.137004
9945.000000;1.136541
9944.000000;1.135666
9943.000000;1.134610
9942.000000;1.133750
9941.000000;1.133672
9940.000000;1.134661
9939.000000;1.136051
9938.000000;1.136666
9937.000000;1.136138
9936.000000;1.135246
9935.000000;1.134715
9934.000000;1.134370
9933.000000;1.133766
9932.000000;1.132969
9931.000000;1.132245
9930.000000;1.131503
9929.000000;1.130607
9928.000000;1.129812
9927.000000;1.129253
9926.000000;1.128409
9925.000000;1.126874
9924.000000;1.125372
9923.000000;1.125191
9922.000000;1.126569
9921.000000;1.128353
9920.000000;1.129374
9919.000000;1.129434
9918.000000;1.128766
9917.000000;1.127387
9916.000000;1.125392
9915.000000;1.123353
9914.000000;1.121962
9913.000000;1.121444
9912.000000;1.121571
9911.000000;1.122126
9910.000000;1.123030
9909.000000;1.124033
9908.000000;1.124592
9907.000000;1.124281
9906.000000;1.123284
9905.000000;1.122386
9904.000000;1.122316
9903.000000;1.122975
9902.000000;1.123360
9901.000000;1.122438
9900.000000;1.120126
9899.000000;1.117297
9898.000000;1.114945
9897.000000;1.113528
9896.000000;1.113021
9895.000000;1.113203
9894.000000;1.113742
9893.000000;1.114261
9892.000000;1.114608
9891.000000;1.114930
9890.000000;1.115251
9889.000000;1.115125
9888.000000;1.114018
9887.000000;1.112061
9886.000000;1.110171
9885.000000;1.109254
9884.000000;1.109427
9883.000000;1.110104
9882.000000;1.110730
9881.000000;1.111197
9880.000000;1.111507
9879.000000;1.111386
9878.000000;1.110534
9877.000000;1.109168
9876.000000;1.107983
9875.000000;1.107458
9874.000000;1.107492
9873.000000;1.107730
9872.000000;1.107893
9871.000000;1.107652
9870.000000;1.106541
9869.000000;1.104490
9868.000000;1.102339
9867.000000;1.101348
9866.000000;1.102014
9865.000000;1.103510
9864.000000;1.104407
9863.000000;1.103943
9862.000000;1.102519
9861.000000;1.101049
9860.000000;1.100035
9859.000000;1.099326
9858.000000;1.098647
9857.000000;1.098191
9856.000000;1.098469
9855.000000;1.099584
9854.000000;1.100892
9853.000000;1.101554
9852.000000;1.101259
9851.000000;1.100234
9850.000000;1.098701
9849.000000;1.096702
9848.000000;1.094459
9847.000000;1.092550
9846.000000;1.091522
9845.000000;1.091494
9844.000000;1.092303
9843.000000;1.093844
9842.000000;1.095940
9841.000000;1.097983
9840.000000;1.099070
9839.000000;1.098715
9838.000000;1.097336
9837.000000;1.095890
9836.000000;1.094970
9835.000000;1.094365
9834.000000;1.093539
9833.000000;1.092394
9832.000000;1.091396
9831.000000;1.091007
9830.000000;1.091119
9829.000000;1.091061
9828.000000;1.090187
9827.000000;1.088523
9826.000000;1.086827
9825.000000;1.085942
9824.000000;1.086025
9823.000000;1.086341
9822.000000;1.085932
9821.000000;1.084566
9820.000000;1.082984
9819.000000;1.082184
9818.000000;1.082551
9817.000000;1.083678
9816.000000;1.084902
9815.000000;1.085869
9814.000000;1.086654
9813.000000;1.087438
9812.000000;1.088083
9811.000000;1.088075
9810.000000;1.086968
9809.000000;1.084862
9808.000000;1.082366
9807.000000;1.080134
9806.000000;1.078561
9805.000000;1.077823
9804.000000;1.077901
9803.000000;1.078387
9802.000000;1.078580
9801.000000;1.078153
9800.000000;1.077590
9799.000000;1.077593
9798.000000;1.078135
9797.000000;1.078439
9796.000000;1.078029
9795.000000;1.077384
9794.000000;1.077172
9793.000000;1.077179
9792.000000;1.076591
9791.000000;1.075270
9790.000000;1.074137
9789.000000;1.074095
9788.000000;1.075017
9787.000000;1.076103
9786.000000;1.076885
9785.000000;1.077404
9784.000000;1.077543
9783.000000;1.076861
9782.000000;1.075222
9781.000000;1.073089
9780.000000;1.070986
9779.000000;1.069108
9778.000000;1.067703
9777.000000;1.067348
9776.000000;1.068346
9775.000000;1.070023
9774.000000;1.071144
9773.000000;1.071110
9772.000000;1.070437
9771.000000;1.070011
9770.000000;1.070182
9769.000000;1.070561
9768.000000;1.070464
9767.000000;1.069608
9766.000000;1.068552
9765.000000;1.068308
9764.000000;1.069292
9763.000000;1.070682
9762.000000;1.071080
9761.000000;1.069833
9760.000000;1.067480
9759.000000;1.065039
9758.000000;1.063312
9757.000000;1.062779
9756.000000;1.063491
9755.000000;1.064798
9754.000000;1.065665
9753.000000;1.065603
9752.000000;1.065025
9751.000000;1.064483
9750.000000;1.063897
9749.000000;1.062817
9748.000000;1.061125
9747.000000;1.059146
9746.000000;1.057268
9745.000000;1.055857
9744.000000;1.055275
9743.000000;1.055523
9742.000000;1.056017
9741.000000;1.056142
9740.000000;1.055965
9739.000000;1.056063
9738.000000;1.056719
9737.000000;1.057653
9736.000000;1.058470
9735.000000;1.059002
9734.000000;1.059185
9733.000000;1.058977
9732.000000;1.058469
9731.000000;1.057807
9730.000000;1.056969
9729.000000;1.055841
9728.000000;1.054497
9727.000000;1.053144
9726.000000;1.051827
9725.000000;1.050500
9724.000000;1.049384
9723.000000;1.048858
9722.000000;1.048903
9721.000000;1.048990
9720.000000;1.048716
9719.000000;1.048230
9718.000000;1.047861
9717.000000;1.047634
9716.000000;1.047363
9715.000000;1.046989
9714.000000;1.046625
9713.000000;1.046469
9712.000000;1.046867
9711.000000;1.048118
9710.000000;1.049919
9709.000000;1.051242
9708.000000;1.051163
9707.000000;1.049812
9706.000000;1.048202
9705.000000;1.047134
9704.000000;1.046505
9703.000000;1.045645
9702.000000;1.044172
9701.000000;1.042453
9700.000000;1.041327
9699.000000;1.041349
9698.000000;1.042189
9697.000000;1.042922
9696.000000;1.043052
9695.000000;1.043063
9694.000000;1.043644
9693.000000;1.044550
9692.000000;1.044691
9691.000000;1.043429
9690.000000;1.041352
9689.000000;1.039531
9688.000000;1.038345
9687.000000;1.037441
9686.000000;1.036658
9685.000000;1.036449
9684.000000;1.037190
9683.000000;1.038390
9682.000000;1.038939
9681.000000;1.038175
9680.000000;1.036498
9679.000000;1.034842
9678.000000;1.033712
9677.000000;1.033031
9676.000000;1.032755
9675.000000;1.033123
9674.000000;1.034173
9673.000000;1.035315
9672.000000;1.035773
9671.000000;1.035510
9670.000000;1.035259
9669.000000;1.035388
9668.000000;1.035201
9667.000000;1.033773
9666.000000;1.031271
9665.000000;1.028960
9664.000000;1.027927
9663.000000;1.028142
9662.000000;1.028788
9661.000000;1.029124
9660.000000;1.028849
9659.000000;1.027999
9658.000000;1.026947
9657.000000;1.026432
9656.000000;1.027065
9655.000000;1.028560
9654.000000;1.029718
9653.000000;1.029479
9652.000000;1.027931
9651.000000;1.026089
9650.000000;1.024844
9649.000000;1.024401
9648.000000;1.024588
9647.000000;1.025169
9646.000000;1.025670
9645.000000;1.025414
9644.000000;1.024204
9643.000000;1.022744
9642.000000;1.021933
9641.000000;1.021793
9640.000000;1.021495
9639.000000;1.020503
9638.000000;1.019235
9637.000000;1.018457
9636.000000;1.018391
9635.000000;1.018762
9634.000000;1.019447
9633.000000;1.020600
9632.000000;1.022076
9631.000000;1.023132
9630.000000;1.022984
9629.000000;1.021541
9628.000000;1.019463
9627.000000;1.017536
9626.000000;1.016133
9625.000000;1.015254
9624.000000;1.014820
9623.000000;1.014774
9622.000000;1.015035
9621.000000;1.015615
9620.000000;1.016720
9619.000000;1.018417
9618.000000;1.020099
9617.000000;1.020710
9616.000000;1.019831
9615.000000;1.018263
9614.000000;1.017043
9613.000000;1.016103
9612.000000;1.014489
9611.000000;1.011895
9610.000000;1.009333
9609.000000;1.008005
9608.000000;1.008059
9607.000000;1.008818
9606.000000;1.009763
9605.000000;1.010794
9604.000000;1.011737
9603.000000;1.012170
9602.000000;1.011765
9601.000000;1.010510
9600.000000;1.008674
9599.000000;1.006861
9598.000000;1.005915
9597.000000;1.006240
9596.000000;1.007172
9595.000000;1.007472
9594.000000;1.006643
9593.000000;1.005428
9592.000000;1.004890
9591.000000;1.005269
9590.000000;1.005918
9589.000000;1.006110
9588.000000;1.005679
9587.000000;1.005000
9586.000000;1.004556
9585.000000;1.004489
9584.000000;1.004464
9583.000000;1.003997
9582.000000;1.003017
9581.000000;1.002072
9580.000000;1.001895
9579.000000;1.002734
9578.000000;1.004051
9577.000000;1.004833
9576.000000;1.004332
9575.000000;1.002677
9574.000000;1.000778
9573.000000;0.999588
9572.000000;0.999369
9571.000000;0.999642
9570.000000;0.999728
9569.000000;0.999307
9568.000000;0.998586
9567.000000;0.998030
9566.000000;0.997812
9565.000000;0.997480
9564.000000;0.996425
9563.000000;0.994751
9562.000000;0.993312
9561.000000;0.992662
9560.000000;0.992406
9559.000000;0.991983
9558.000000;0.991698
9557.000000;0.992321
9556.000000;0.993823
9555.000000;0.995244
9554.000000;0.995902
9553.000000;0.996038
9552.000000;0.996026
9551.000000;0.995688
9550.000000;0.994811
9549.000000;0.993776
9548.000000;0.993135
9547.000000;0.992876
9546.000000;0.992537
9545.000000;0.991851
9544.000000;0.990941
9543.000000;0.990052
9542.000000;0.989370
9541.000000;0.988959
9540.000000;0.988688
9539.000000;0.988419
9538.000000;0.988381
9537.000000;0.988973
9536.000000;0.989965
9535.000000;0.990369
9534.000000;0.989556
9533.000000;0.988142
9532.000000;0.987195
9531.000000;0.986830
9530.000000;0.986217
9529.000000;0.984929
9528.000000;0.983620
9527.000000;0.983159
9526.000000;0.983581
9525.000000;0.984231
9524.000000;0.984587
9523.000000;0.984558
9522.000000;0.984166
9521.000000;0.983404
9520.000000;0.982510
9519.000000;0.982030
9518.000000;0.982335
9517.000000;0.983161
9516.000000;0.983880
9515.000000;0.984209
9514.000000;0.984355
9513.000000;0.984407
9512.000000;0.983980
9511.000000;0.982828
9510.000000;0.981503
9509.000000;0.980884
9508.000000;0.981093
9507.000000;0.981365
9506.000000;0.981011
9505.000000;0.980064
9504.000000;0.978905
9503.000000;0.977835
9502.000000;0.977230
9501.000000;0.977558
9500.000000;0.978830
9499.000000;0.980348
9498.000000;0.981334
9497.000000;0.981575
9496.000000;0.981242
9495.000000;0.980414
9494.000000;0.979127
9493.000000;0.977593
9492.000000;0.976011
9491.000000;0.974457
9490.000000;0.973266
9489.000000;0.973094
9488.000000;0.974089
9487.000000;0.975271
9486.000000;0.975328
9485.000000;0.973967
9484.000000;0.972058
9483.000000;0.970654
9482.000000;0.970273
9481.000000;0.970843
9480.000000;0.971745
9479.000000;0.971995
9478.000000;0.970978
9477.000000;0.969091
9476.000000;0.967375
9475.000000;0.966568
9474.000000;0.966815
9473.000000;0.967950
9472.000000;0.969506
9471.000000;0.970602
9470.000000;0.970571
9469.000000;0.969759
9468.000000;0.969141
9467.000000;0.969065
9466.000000;0.968920
9465.000000;0.968144
9464.000000;0.966990
9463.000000;0.966085
9462.000000;0.965740
9461.000000;0.965914
9460.000000;0.966480
9459.000000;0.967246
9458.000000;0.967937
9457.000000;0.968303
9456.000000;0.968155
9455.000000;0.967353
9454.000000;0.966081
9453.000000;0.965018
9452.000000;0.964752
9451.000000;0.965035
9450.000000;0.965061
9449.000000;0.964591
9448.000000;0.964226
9447.000000;0.964411
9446.000000;0.964760
9445.000000;0.964717
9444.000000;0.964417
9443.000000;0.964396
9442.000000;0.964724
9441.000000;0.964808
9440.000000;0.963957
9439.000000;0.961968
9438.000000;0.959449
9437.000000;0.957673
9436.000000;0.957674
9435.000000;0.959160
9434.000000;0.960593
9433.000000;0.960698
9432.000000;0.959694
9431.000000;0.958741
9430.000000;0.958444
9429.000000;0.958349
9428.000000;0.957726
9427.000000;0.956417
9426.000000;0.954899
9425.000000;0.953782
9424.000000;0.953254
9423.000000;0.952901
9422.000000;0.952140
9421.000000;0.950943
9420.000000;0.949919
9419.000000;0.949593
9418.000000;0.949911
9417.000000;0.950594
9416.000000;0.951599
9415.000000;0.952833
9414.000000;0.953716
9413.000000;0.953536
9412.000000;0.952247
9411.000000;0.950551
9410.000000;0.949245
9409.000000;0.948673
9408.000000;0.948728
9407.000000;0.949109
9406.000000;0.949619
9405.000000;0.950312
9404.000000;0.951256
9403.000000;0.952137
9402.000000;0.952386
9401.000000;0.951875
9400.000000;0.951103
9399.000000;0.950444
9398.000000;0.949612
9397.000000;0.948283
9396.000000;0.946855
9395.000000;0.946005
9394.000000;0.945855
9393.000000;0.946140
9392.000000;0.946893
9391.000000;0.948168
9390.000000;0.949288
9389.000000;0.949235
9388.000000;0.947942
9387.000000;0.946444
9386.000000;0.945520
9385.000000;0.944903
9384.000000;0.944086
9383.000000;0.943145
9382.000000;0.942325
9381.000000;0.941454
9380.000000;0.940422
9379.000000;0.939729
9378.000000;0.939873
9377.000000;0.940524
9376.000000;0.940976
9375.000000;0.941196
9374.000000;0.941755
9373.000000;0.942813
9372.000000;0.943849
9371.000000;0.944427
9370.000000;0.944629
9369.000000;0.944622
9368.000000;0.944335
9367.000000;0.943751
9366.000000;0.943075
9365.000000;0.942359
9364.000000;0.941329
9363.000000;0.939878
9362.000000;0.938432
9361.000000;0.937590
9360.000000;0.937610
9359.000000;0.938336
9358.000000;0.939356
9357.000000;0.940075
9356.000000;0.939971
9355.000000;0.939120
9354.000000;0.938251
9353.000000;0.937949
9352.000000;0.937979
9351.000000;0.937632
9350.000000;0.936592
9349.000000;0.935158
9348.000000;0.933829
9347.000000;0.933069
9346.000000;0.933243
9345.000000;0.934244
9344.000000;0.935180
9343.000000;0.934988
9342.000000;0.933590
9341.000000;0.932043
9340.000000;0.931377
9339.000000;0.931647
9338.000000;0.932274
9337.000000;0.932877
9336.000000;0.933410
9335.000000;0.933776
9334.000000;0.933795
9333.000000;0.933469
9332.000000;0.932925
9331.000000;0.932160
9330.000000;0.931207
9329.000000;0.930460
9328.000000;0.930386
9327.000000;0.930827
9326.000000;0.930976
9325.000000;0.930282
9324.000000;0.929132
9323.000000;0.928367
9322.000000;0.928335
9321.000000;0.928661
9320.000000;0.928832
9319.000000;0.928702
9318.000000;0.928409
9317.000000;0.928078
9316.000000;0.927775
9315.000000;0.927610
9314.000000;0.927678
9313.000000;0.927848
9312.000000;0.927739
9311.000000;0.927021
9310.000000;0.925779
9309.000000;0.924512
9308.000000;0.923762
9307.000000;0.923759
9306.000000;0.924415
9305.000000;0.925498
9304.000000;0.926694
9303.000000;0.927600
9302.000000;0.927897
9301.000000;0.927608
9300.000000;0.927079
9299.000000;0.926601
9298.000000;0.926108
9297.000000;0.925343
9296.000000;0.924271
9295.000000;0.923168
9294.000000;0.922308
9293.000000;0.921732
9292.000000;0.921403
9291.000000;0.921437
9290.000000;0.922011
9289.000000;0.923028
9288.000000;0.923978
9287.000000;0.924252
9286.000000;0.923606
9285.000000;0.922288
9284.000000;0.920789
9283.000000;0.919549
9282.000000;0.918824
9281.000000;0.918608
9280.000000;0.918602
9279.000000;0.918422
9278.000000;0.918029
9277.000000;0.917888
9276.000000;0.918468
9275.000000;0.919600
9274.000000;0.920476
9273.000000;0.920446
9272.000000;0.919680
9271.000000;0.918887
9270.000000;0.918483
9269.000000;0.918269
9268.000000;0.917875
9267.000000;0.917283
9266.000000;0.916754
9265.000000;0.916397
9264.000000;0.916055
9263.000000;0.915607
9262.000000;0.915204
9261.000000;0.915103
9260.000000;0.915388
9259.000000;0.915912
9258.000000;0.916393
9257.000000;0.916478
9256.000000;0.915838
9255.000000;0.914476
9254.000000;0.912932
9253.000000;0.911974
9252.000000;0.911923
9251.000000;0.912387
9250.000000;0.912700
9249.000000;0.912548
9248.000000;0.912051
9247.000000;0.911409
9246.000000;0.910709
9245.000000;0.910084
9244.000000;0.909810
9243.000000;0.910077
9242.000000;0.910713
9241.000000;0.911272
9240.000000;0.911453
9239.000000;0.911359
9238.000000;0.911338
9237.000000;0.911582
9236.000000;0.911953
9235.000000;0.912166
9234.000000;0.912108
9233.000000;0.911908
9232.000000;0.911722
9231.000000;0.911565
9230.000000;0.911339
9229.000000;0.910946
9228.000000;0.910321
9227.000000;0.909435
9226.000000;0.908375
9225.000000;0.907446
9224.000000;0.907056
9223.000000;0.907341
9222.000000;0.907895
9221.000000;0.907993
9220.000000;0.907232
9219.000000;0.905912
9218.000000;0.904719
9217.000000;0.904085
9216.000000;0.903973
9215.000000;0.904216
9214.000000;0.904812
9213.000000;0.905728
9212.000000;0.906607
9211.000000;0.906933
9210.000000;0.906528
9209.000000;0.905731
9208.000000;0.905048
9207.000000;0.904709
9206.000000;0.904562
9205.000000;0.904325
9204.000000;0.903920
9203.000000;0.903557
9202.000000;0.903447
9201.000000;0.903429
9200.000000;0.903067
9199.000000;0.902241
9198.000000;0.901461
9197.000000;0.901331
9196.000000;0.901799
9195.000000;0.902231
9194.000000;0.902193
9193.000000;0.901818
9192.000000;0.901356
9191.000000;0.900731
9190.000000;0.899812
9189.000000;0.898830
9188.000000;0.898252
9187.000000;0.898301
9186.000000;0.898811
9185.000000;0.899439
9184.000000;0.899863
9183.000000;0.899852
9182.000000;0.899388
9181.000000;0.898736
9180.000000;0.898235
9179.000000;0.898030
9178.000000;0.898038
9177.000000;0.898098
9176.000000;0.898065
9175.000000;0.897913
9174.000000;0.897831
9173.000000;0.898097
9172.000000;0.898660
9171.000000;0.898993
9170.000000;0.898608
9169.000000;0.897689
9168.000000;0.896949
9167.000000;0.896844
9166.000000;0.897111
9165.000000;0.897124
9164.000000;0.896517
9163.000000;0.895403
9162.000000;0.894179
9161.000000;0.893279
9160.000000;0.893007
9159.000000;0.893401
9158.000000;0.894174
9157.000000;0.894837
9156.000000;0.894965
9155.000000;0.894440
9154.000000;0.893519
9153.000000;0.892661
9152.000000;0.892151
9151.000000;0.891864
9150.000000;0.891453
9149.000000;0.890804
9148.000000;0.890253
9147.000000;0.890321
9146.000000;0.891222
9145.000000;0.892552
9144.000000;0.893431
9143.000000;0.893070
9142.000000;0.891446
9141.000000;0.889456
9140.000000;0.888265
9139.000000;0.888404
9138.000000;0.889406
9137.000000;0.890292
9136.000000;0.890404
9135.000000;0.889784
9134.000000;0.888902
9133.000000;0.888186
9132.000000;0.887793
9131.000000;0.887641
9130.000000;0.887536
9129.000000;0.887328
9128.000000;0.887047
9127.000000;0.886911
9126.000000;0.887103
9125.000000;0.887525
9124.000000;0.887845
9123.000000;0.887837
9122.000000;0.887619
9121.000000;0.887477
9120.000000;0.887526
9119.000000;0.887618
9118.000000;0.887574
9117.000000;0.887390
9116.000000;0.887216
9115.000000;0.887150
9114.000000;0.887082
9113.000000;0.886741
9112.000000;0.885959
9111.000000;0.884923
9110.000000;0.884067
9109.000000;0.883683
9108.000000;0.883735
9107.000000;0.884107
9106.000000;0.884803
9105.000000;0.885777
9104.000000;0.886738
9103.000000;0.887360
9102.000000;0.887613
9101.000000;0.887616
9100.000000;0.887260
9099.000000;0.886361
9098.000000;0.885174
9097.000000;0.884398
9096.000000;0.884509
9095.000000;0.885293
9094.000000;0.886164
9093.000000;0.886672
9092.000000;0.886610
9091.000000;0.885894
9090.000000;0.884632
9089.000000;0.883182
9088.000000;0.881951
9087.000000;0.881184
9086.000000;0.880995
9085.000000;0.881366
9084.000000;0.881958
9083.000000;0.882181
9082.000000;0.881773
9081.000000;0.881181
9080.000000;0.881115
9079.000000;0.881809
9078.000000;0.882891
9077.000000;0.883799
9076.000000;0.884118
9075.000000;0.883652
9074.000000;0.882584
9073.000000;0.881517
9072.000000;0.881008
9071.000000;0.880995
9070.000000;0.880950
9069.000000;0.880621
9068.000000;0.880331
9067.000000;0.880418
9066.000000;0.880657
9065.000000;0.880459
9064.000000;0.879505
9063.000000;0.878052
9062.000000;0.876687
9061.000000;0.875954
9060.000000;0.876105
9059.000000;0.877014
9058.000000;0.878252
9057.000000;0.879289
9056.000000;0.879693
9055.000000;0.879267
9054.000000;0.878165
9053.000000;0.876904
