Criado como novo conjunto de dados;"e0108.spp","-4236822.2 Secs"
cm-1;Abs
10000.000000;0.983243
9999.000000;0.982983
9998.000000;0.982727
9997.000000;0.982463
9996.000000;0.982213
9995.000000;0.981939
9994.000000;0.981721
9993.000000;0.981458
9992.000000;0.980858
9991.000000;0.980410
9990.000000;0.980628
9989.000000;0.981529
9988.000000;0.982506
9987.000000;0.982782
9986.000000;0.981990
9985.000000;0.980514
9984.000000;0.979226
9983.000000;0.978865
9982.000000;0.979617
9981.000000;0.981098
9980.000000;0.982476
9979.000000;0.982696
9978.000000;0.981104
9977.000000;0.978190
9976.000000;0.975447
9975.000000;0.974175
9974.000000;0.974483
9973.000000;0.975517
9972.000000;0.976404
9971.000000;0.976730
9970.000000;0.976379
9969.000000;0.975474
9968.000000;0.974577
9967.000000;0.974417
9966.000000;0.975084
9965.000000;0.975770
9964.000000;0.975656
9963.000000;0.974928
9962.000000;0.974538
9961.000000;0.974952
9960.000000;0.975524
9959.000000;0.975289
9958.000000;0.974115
9957.000000;0.972731
9956.000000;0.971727
9955.000000;0.970944
9954.000000;0.969933
9953.000000;0.968676
9952.000000;0.967548
9951.000000;0.966780
9950.000000;0.966307
9949.000000;0.966036
9948.000000;0.965891
9947.000000;0.965615
9946.000000;0.964941
9945.000000;0.964113
9944.000000;0.963890
9943.000000;0.964756
9942.000000;0.966284
9941.000000;0.967465
9940.000000;0.967566
9939.000000;0.966515
9938.000000;0.964724
9937.000000;0.962891
9936.000000;0.961771
9935.000000;0.961658
9934.000000;0.961977
9933.000000;0.961704
9932.000000;0.960385
9931.000000;0.958634
9930.000000;0.957565
9929.000000;0.957819
9928.000000;0.959078
9927.000000;0.960340
9926.000000;0.960692
9925.000000;0.960052
9924.000000;0.959181
9923.000000;0.958783
9922.000000;0.958699
9921.000000;0.958262
9920.000000;0.957380
9919.000000;0.956745
9918.000000;0.956809
9917.000000;0.957056
9916.000000;0.956743
9915.000000;0.956065
9914.000000;0.955995
9913.000000;0.956973
9912.000000;0.958210
9911.000000;0.958484
9910.000000;0.957414
9909.000000;0.955780
9908.000000;0.954720
9907.000000;0.954728
9906.000000;0.955296
9905.000000;0.955441
9904.000000;0.954675
9903.000000;0.953451
9902.000000;0.952563
9901.000000;0.952201
9900.000000;0.951879
9899.000000;0.951256
9898.000000;0.950649
9897.000000;0.950557
9896.000000;0.950977
9895.000000;0.951468
9894.000000;0.951715
9893.000000;0.951673
9892.000000;0.951284
9891.000000;0.950414
9890.000000;0.949149
9889.000000;0.947874
9888.000000;0.946933
9887.000000;0.946398
9886.000000;0.946220
9885.000000;0.946389
9884.000000;0.946787
9883.000000;0.947058
9882.000000;0.946842
9881.000000;0.946059
9880.000000;0.944869
9879.000000;0.943486
9878.000000;0.942216
9877.000000;0.941531
9876.000000;0.941789
9875.000000;0.942819
9874.000000;0.943964
9873.000000;0.944602
9872.000000;0.944510
9871.000000;0.943759
9870.000000;0.942537
9869.000000;0.941148
9868.000000;0.939972
9867.000000;0.939221
9866.000000;0.938803
9865.000000;0.938463
9864.000000;0.937990
9863.000000;0.937283
9862.000000;0.936396
9861.000000;0.935607
9860.000000;0.935219
9859.000000;0.935196
9858.000000;0.935201
9857.000000;0.935106
9856.000000;0.935217
9855.000000;0.935726
9854.000000;0.936211
9853.000000;0.936125
9852.000000;0.935651
9851.000000;0.935573
9850.000000;0.936214
9849.000000;0.936890
9848.000000;0.936654
9847.000000;0.935363
9846.000000;0.933724
9845.000000;0.932503
9844.000000;0.931938
9843.000000;0.931761
9842.000000;0.931558
9841.000000;0.931134
9840.000000;0.930662
9839.000000;0.930432
9838.000000;0.930442
9837.000000;0.930436
9836.000000;0.930373
9835.000000;0.930577
9834.000000;0.931245
9833.000000;0.932033
9832.000000;0.932367
9831.000000;0.931996
9830.000000;0.931089
9829.000000;0.930027
9828.000000;0.929295
9827.000000;0.929279
9826.000000;0.929768
9825.000000;0.929902
9824.000000;0.929059
9823.000000;0.927672
9822.000000;0.926672
9821.000000;0.926276
9820.000000;0.925897
9819.000000;0.925172
9818.000000;0.924408
9817.000000;0.923888
9816.000000;0.923398
9815.000000;0.922733
9814.000000;0.922134
9813.000000;0.921798
9812.000000;0.921420
9811.000000;0.920737
9810.000000;0.920208
9809.000000;0.920612
9808.000000;0.922039
9807.000000;0.923700
9806.000000;0.924675
9805.000000;0.924530
9804.000000;0.923348
9803.000000;0.921585
9802.000000;0.919936
9801.000000;0.918953
9800.000000;0.918675
9799.000000;0.918774
9798.000000;0.919021
9797.000000;0.919423
9796.000000;0.919966
9795.000000;0.920509
9794.000000;0.920903
9793.000000;0.920916
9792.000000;0.920128
9791.000000;0.918279
9790.000000;0.915848
9789.000000;0.913908
9788.000000;0.913233
9787.000000;0.913694
9786.000000;0.914620
9785.000000;0.915487
9784.000000;0.916122
9783.000000;0.916499
9782.000000;0.916609
9781.000000;0.916456
9780.000000;0.915995
9779.000000;0.915150
9778.000000;0.914015
9777.000000;0.912999
9776.000000;0.912636
9775.000000;0.913217
9774.000000;0.914575
9773.000000;0.916132
9772.000000;0.917166
9771.000000;0.917197
9770.000000;0.916231
9769.000000;0.914586
9768.000000;0.912521
9767.000000;0.910213
9766.000000;0.908052
9765.000000;0.906629
9764.000000;0.906225
9763.000000;0.906451
9762.000000;0.906614
9761.000000;0.906377
9760.000000;0.905916
9759.000000;0.905517
9758.000000;0.905243
9757.000000;0.905008
9756.000000;0.904753
9755.000000;0.904435
9754.000000;0.903958
9753.000000;0.903266
9752.000000;0.902531
9751.000000;0.902147
9750.000000;0.902419
9749.000000;0.903171
9748.000000;0.903767
9747.000000;0.903633
9746.000000;0.902812
9745.000000;0.901941
9744.000000;0.901718
9743.000000;0.902391
9742.000000;0.903645
9741.000000;0.904823
9740.000000;0.905284
9739.000000;0.904760
9738.000000;0.903495
9737.000000;0.902009
9736.000000;0.900720
9735.000000;0.899794
9734.000000;0.899259
9733.000000;0.899075
9732.000000;0.899115
9731.000000;0.899221
9730.000000;0.899281
9729.000000;0.899109
9728.000000;0.898319
9727.000000;0.896615
9726.000000;0.894368
9725.000000;0.892655
9724.000000;0.892445
9723.000000;0.893721
9722.000000;0.895433
9721.000000;0.896359
9720.000000;0.896078
9719.000000;0.895190
9718.000000;0.894703
9717.000000;0.895165
9716.000000;0.896262
9715.000000;0.897202
9714.000000;0.897426
9713.000000;0.896900
9712.000000;0.895909
9711.000000;0.894872
9710.000000;0.894317
9709.000000;0.894599
9708.000000;0.895406
9707.000000;0.895833
9706.000000;0.895300
9705.000000;0.894260
9704.000000;0.893603
9703.000000;0.893413
9702.000000;0.892789
9701.000000;0.891057
9700.000000;0.888774
9699.000000;0.887201
9698.000000;0.886989
9697.000000;0.887706
9696.000000;0.888581
9695.000000;0.889315
9694.000000;0.889998
9693.000000;0.890531
9692.000000;0.890545
9691.000000;0.889875
9690.000000;0.888754
9689.000000;0.887446
9688.000000;0.886000
9687.000000;0.884578
9686.000000;0.883707
9685.000000;0.883772
9684.000000;0.884383
9683.000000;0.884674
9682.000000;0.884345
9681.000000;0.883978
9680.000000;0.884150
9679.000000;0.884615
9678.000000;0.884680
9677.000000;0.884169
9676.000000;0.883617
9675.000000;0.883544
9674.000000;0.883870
9673.000000;0.884109
9672.000000;0.883889
9671.000000;0.883191
9670.000000;0.882207
9669.000000;0.881119
9668.000000;0.880002
9667.000000;0.878925
9666.000000;0.878128
9665.000000;0.877940
9664.000000;0.878452
9663.000000;0.879326
9662.000000;0.879997
9661.000000;0.880039
9660.000000;0.879369
9659.000000;0.878231
9658.000000;0.877036
9657.000000;0.876119
9656.000000;0.875584
9655.000000;0.875484
9654.000000;0.876055
9653.000000;0.877477
9652.000000;0.879255
9651.000000;0.880240
9650.000000;0.879660
9649.000000;0.878007
9648.000000;0.876508
9647.000000;0.875799
9646.000000;0.875516
9645.000000;0.875155
9644.000000;0.874831
9643.000000;0.874933
9642.000000;0.875347
9641.000000;0.875407
9640.000000;0.874571
9639.000000;0.872951
9638.000000;0.871162
9637.000000;0.869827
9636.000000;0.869236
9635.000000;0.869305
9634.000000;0.869762
9633.000000;0.870353
9632.000000;0.870947
9631.000000;0.871487
9630.000000;0.871889
9629.000000;0.871976
9628.000000;0.871581
9627.000000;0.870755
9626.000000;0.869870
9625.000000;0.869358
9624.000000;0.869260
9623.000000;0.869162
9622.000000;0.868680
9621.000000;0.867958
9620.000000;0.867503
9619.000000;0.867561
9618.000000;0.867856
9617.000000;0.867955
9616.000000;0.867660
9615.000000;0.866983
9614.000000;0.865977
9613.000000;0.864768
9612.000000;0.863638
9611.000000;0.862927
9610.000000;0.862868
9609.000000;0.863519
9608.000000;0.864713
9607.000000;0.866021
9606.000000;0.866944
9605.000000;0.867266
9604.000000;0.867121
9603.000000;0.866655
9602.000000;0.865802
9601.000000;0.864551
9600.000000;0.863233
9599.000000;0.862249
9598.000000;0.861593
9597.000000;0.860946
9596.000000;0.860230
9595.000000;0.859787
9594.000000;0.859894
9593.000000;0.860335
9592.000000;0.860581
9591.000000;0.860312
9590.000000;0.859632
9589.000000;0.858905
9588.000000;0.858506
9587.000000;0.858570
9586.000000;0.858829
9585.000000;0.858804
9584.000000;0.858324
9583.000000;0.857701
9582.000000;0.857237
9581.000000;0.856801
9580.000000;0.856145
9579.000000;0.855427
9578.000000;0.855006
9577.000000;0.854812
9576.000000;0.854403
9575.000000;0.853755
9574.000000;0.853475
9573.000000;0.853957
9572.000000;0.854736
9571.000000;0.855019
9570.000000;0.854545
9569.000000;0.853565
9568.000000;0.852274
9567.000000;0.850771
9566.000000;0.849461
9565.000000;0.848950
9564.000000;0.849462
9563.000000;0.850624
9562.000000;0.851831
9561.000000;0.852619
9560.000000;0.852782
9559.000000;0.852472
9558.000000;0.852139
9557.000000;0.852048
9556.000000;0.851909
9555.000000;0.851288
9554.000000;0.850292
9553.000000;0.849405
9552.000000;0.848750
9551.000000;0.848005
9550.000000;0.847101
9549.000000;0.846441
9548.000000;0.846280
9547.000000;0.846377
9546.000000;0.846434
9545.000000;0.846439
9544.000000;0.846393
9543.000000;0.846171
9542.000000;0.845908
9541.000000;0.846033
9540.000000;0.846566
9539.000000;0.846876
9538.000000;0.846544
9537.000000;0.846024
9536.000000;0.845950
9535.000000;0.846177
9534.000000;0.846068
9533.000000;0.845454
9532.000000;0.844701
9531.000000;0.844040
9530.000000;0.843415
9529.000000;0.842912
9528.000000;0.842756
9527.000000;0.842898
9526.000000;0.843111
9525.000000;0.843497
9524.000000;0.844312
9523.000000;0.845241
9522.000000;0.845408
9521.000000;0.844329
9520.000000;0.842547
9519.000000;0.841117
9518.000000;0.840690
9517.000000;0.841174
9516.000000;0.841952
9515.000000;0.842292
9514.000000;0.841851
9513.000000;0.840938
9512.000000;0.840124
9511.000000;0.839599
9510.000000;0.839142
9509.000000;0.838661
9508.000000;0.838331
9507.000000;0.838122
9506.000000;0.837660
9505.000000;0.836804
9504.000000;0.836006
9503.000000;0.835827
9502.000000;0.836307
9501.000000;0.837009
9500.000000;0.837460
9499.000000;0.837386
9498.000000;0.836761
9497.000000;0.835918
9496.000000;0.835422
9495.000000;0.835537
9494.000000;0.835863
9493.000000;0.835696
9492.000000;0.834780
9491.000000;0.833566
9490.000000;0.832767
9489.000000;0.832734
9488.000000;0.833242
9487.000000;0.833761
9486.000000;0.833958
9485.000000;0.833933
9484.000000;0.833965
9483.000000;0.834142
9482.000000;0.834328
9481.000000;0.834379
9480.000000;0.834168
9479.000000;0.833507
9478.000000;0.832335
9477.000000;0.830980
9476.000000;0.829999
9475.000000;0.829683
9474.000000;0.829904
9473.000000;0.830374
9472.000000;0.830758
9471.000000;0.830569
9470.000000;0.829426
9469.000000;0.827650
9468.000000;0.826291
9467.000000;0.826293
9466.000000;0.827712
9465.000000;0.829781
9464.000000;0.831494
9463.000000;0.832065
9462.000000;0.831234
9461.000000;0.829447
9460.000000;0.827603
9459.000000;0.826417
9458.000000;0.826060
9457.000000;0.826396
9456.000000;0.827208
9455.000000;0.828072
9454.000000;0.828421
9453.000000;0.828095
9452.000000;0.827585
9451.000000;0.827422
9450.000000;0.827512
9449.000000;0.827375
9448.000000;0.826871
9447.000000;0.826315
9446.000000;0.826007
9445.000000;0.826009
9444.000000;0.826300
9443.000000;0.826756
9442.000000;0.826934
9441.000000;0.826255
9440.000000;0.824606
9439.000000;0.822650
9438.000000;0.821410
9437.000000;0.821556
9436.000000;0.822919
9435.000000;0.824553
9434.000000;0.825371
9433.000000;0.824949
9432.000000;0.823726
9431.000000;0.822382
9430.000000;0.821199
9429.000000;0.820210
9428.000000;0.819684
9427.000000;0.819991
9426.000000;0.820972
9425.000000;0.821833
9424.000000;0.821852
9423.000000;0.820980
9422.000000;0.819686
9421.000000;0.818457
9420.000000;0.817620
9419.000000;0.817370
9418.000000;0.817721
9417.000000;0.818484
9416.000000;0.819397
9415.000000;0.820201
9414.000000;0.820609
9413.000000;0.820419
9412.000000;0.819811
9411.000000;0.819316
9410.000000;0.819252
9409.000000;0.819256
9408.000000;0.818652
9407.000000;0.817313
9406.000000;0.815911
9405.000000;0.815204
9404.000000;0.815230
9403.000000;0.815417
9402.000000;0.815353
9401.000000;0.815168
9400.000000;0.815102
9399.000000;0.815040
9398.000000;0.814743
9397.000000;0.814364
9396.000000;0.814317
9395.000000;0.814606
9394.000000;0.814713
9393.000000;0.814321
9392.000000;0.813830
9391.000000;0.813822
9390.000000;0.814249
9389.000000;0.814526
9388.000000;0.814304
9387.000000;0.813811
9386.000000;0.813444
9385.000000;0.813345
9384.000000;0.813407
9383.000000;0.813386
9382.000000;0.812964
9381.000000;0.812006
9380.000000;0.810860
9379.000000;0.810134
9378.000000;0.810042
9377.000000;0.810181
9376.000000;0.810124
9375.000000;0.809972
9374.000000;0.810112
9373.000000;0.810638
9372.000000;0.811298
9371.000000;0.811890
9370.000000;0.812386
9369.000000;0.812671
9368.000000;0.812458
9367.000000;0.811573
9366.000000;0.810170
9365.000000;0.808619
9364.000000;0.807291
9363.000000;0.806470
9362.000000;0.806287
9361.000000;0.806616
9360.000000;0.807123
9359.000000;0.807518
9358.000000;0.807725
9357.000000;0.807737
9356.000000;0.807461
9355.000000;0.806841
9354.000000;0.806095
9353.000000;0.805633
9352.000000;0.805649
9351.000000;0.805892
9350.000000;0.805926
9349.000000;0.805570
9348.000000;0.805012
9347.000000;0.804556
9346.000000;0.804370
9345.000000;0.804464
9344.000000;0.804728
9343.000000;0.804917
9342.000000;0.804721
9341.000000;0.804054
9340.000000;0.803255
9339.000000;0.802886
9338.000000;0.803243
9337.000000;0.804106
9336.000000;0.804966
9335.000000;0.805462
9334.000000;0.805588
9333.000000;0.805588
9332.000000;0.805667
9331.000000;0.805787
9330.000000;0.805674
9329.000000;0.805094
9328.000000;0.804120
9327.000000;0.803095
9326.000000;0.802295
9325.000000;0.801733
9324.000000;0.801316
9323.000000;0.801088
9322.000000;0.801156
9321.000000;0.801420
9320.000000;0.801548
9319.000000;0.801285
9318.000000;0.800723
9317.000000;0.800172
9316.000000;0.799822
9315.000000;0.799610
9314.000000;0.799362
9313.000000;0.798972
9312.000000;0.798465
9311.000000;0.797966
9310.000000;0.797608
9309.000000;0.797395
9308.000000;0.797166
9307.000000;0.796760
9306.000000;0.796257
9305.000000;0.795961
9304.000000;0.796121
9303.000000;0.796717
9302.000000;0.797487
9301.000000;0.798050
9300.000000;0.798013
9299.000000;0.797175
9298.000000;0.795832
9297.000000;0.794752
9296.000000;0.794583
9295.000000;0.795255
9294.000000;0.796074
9293.000000;0.796425
9292.000000;0.796291
9291.000000;0.796096
9290.000000;0.796230
9289.000000;0.796751
9288.000000;0.797362
9287.000000;0.797602
9286.000000;0.797214
9285.000000;0.796425
9284.000000;0.795775
9283.000000;0.795592
9282.000000;0.795723
9281.000000;0.795810
9280.000000;0.795655
9279.000000;0.795226
9278.000000;0.794510
9277.000000;0.793583
9276.000000;0.792711
9275.000000;0.792153
9274.000000;0.791929
9273.000000;0.791919
9272.000000;0.792069
9271.000000;0.792288
9270.000000;0.792279
9269.000000;0.791819
9268.000000;0.791191
9267.000000;0.790995
9266.000000;0.791416
9265.000000;0.791983
9264.000000;0.792178
9263.000000;0.792029
9262.000000;0.791914
9261.000000;0.792015
9260.000000;0.792192
9259.000000;0.792202
9258.000000;0.791798
9257.000000;0.790761
9256.000000;0.789169
9255.000000;0.787614
9254.000000;0.786876
9253.000000;0.787260
9252.000000;0.788359
9251.000000;0.789430
9250.000000;0.789890
9249.000000;0.789533
9248.000000;0.788539
9247.000000;0.787373
9246.000000;0.786518
9245.000000;0.786192
9244.000000;0.786318
9243.000000;0.786724
9242.000000;0.787245
9241.000000;0.787705
9240.000000;0.788027
9239.000000;0.788348
9238.000000;0.788841
9237.000000;0.789350
9236.000000;0.789453
9235.000000;0.789005
9234.000000;0.788407
9233.000000;0.788114
9232.000000;0.788045
9231.000000;0.787748
9230.000000;0.787068
9229.000000;0.786363
9228.000000;0.786004
9227.000000;0.785926
9226.000000;0.785825
9225.000000;0.785633
9224.000000;0.785609
9223.000000;0.785955
9222.000000;0.786498
9221.000000;0.786818
9220.000000;0.786642
9219.000000;0.786046
9218.000000;0.785307
9217.000000;0.784689
9216.000000;0.784374
9215.000000;0.784481
9214.000000;0.784982
9213.000000;0.785592
9212.000000;0.785898
9211.000000;0.785648
9210.000000;0.784909
9209.000000;0.783975
9208.000000;0.783217
9207.000000;0.782964
9206.000000;0.783301
9205.000000;0.783884
9204.000000;0.784101
9203.000000;0.783587
9202.000000;0.782543
9201.000000;0.781508
9200.000000;0.780863
9199.000000;0.780591
9198.000000;0.780410
9197.000000;0.780072
9196.000000;0.779617
9195.000000;0.779450
9194.000000;0.780002
9193.000000;0.781186
9192.000000;0.782299
9191.000000;0.782657
9190.000000;0.782263
9189.000000;0.781691
9188.000000;0.781398
9187.000000;0.781348
9186.000000;0.781222
9185.000000;0.780763
9184.000000;0.779934
9183.000000;0.778969
9182.000000;0.778258
9181.000000;0.777995
9180.000000;0.777919
9179.000000;0.777628
9178.000000;0.777111
9177.000000;0.776745
9176.000000;0.776768
9175.000000;0.777036
9174.000000;0.777365
9173.000000;0.777776
9172.000000;0.778241
9171.000000;0.778437
9170.000000;0.778034
9169.000000;0.777108
9168.000000;0.776068
9167.000000;0.775279
9166.000000;0.774938
9165.000000;0.775183
9164.000000;0.776053
9163.000000;0.777291
9162.000000;0.778398
9161.000000;0.778946
9160.000000;0.778850
9159.000000;0.778337
9158.000000;0.777731
9157.000000;0.777244
9156.000000;0.776882
9155.000000;0.776510
9154.000000;0.776033
9153.000000;0.775544
9152.000000;0.775312
9151.000000;0.775590
9150.000000;0.776326
9149.000000;0.777035
9148.000000;0.777083
9147.000000;0.776293
9146.000000;0.775203
9145.000000;0.774547
9144.000000;0.774515
9143.000000;0.774699
9142.000000;0.774681
9141.000000;0.774402
9140.000000;0.773961
9139.000000;0.773422
9138.000000;0.772943
9137.000000;0.772812
9136.000000;0.773143
9135.000000;0.773708
9134.000000;0.774164
9133.000000;0.774256
9132.000000;0.773791
9131.000000;0.772733
9130.000000;0.771486
9129.000000;0.770746
9128.000000;0.770802
9127.000000;0.771238
9126.000000;0.771546
9125.000000;0.771737
9124.000000;0.772022
9123.000000;0.772244
9122.000000;0.772095
9121.000000;0.771700
9120.000000;0.771470
9119.000000;0.771470
9118.000000;0.771416
9117.000000;0.771253
9116.000000;0.771263
9115.000000;0.771550
9114.000000;0.771877
9113.000000;0.772108
9112.000000;0.772392
9111.000000;0.772739
9110.000000;0.772804
9109.000000;0.772299
9108.000000;0.771381
9107.000000;0.770438
9106.000000;0.769720
9105.000000;0.769324
9104.000000;0.769266
9103.000000;0.769416
9102.000000;0.769566
9101.000000;0.769706
9100.000000;0.770007
9099.000000;0.770433
9098.000000;0.770633
9097.000000;0.770398
9096.000000;0.770009
9095.000000;0.769907
9094.000000;0.770171
9093.000000;0.770492
9092.000000;0.770542
9091.000000;0.770203
9090.000000;0.769591
9089.000000;0.769010
9088.000000;0.768763
9087.000000;0.768858
9086.000000;0.769003
9085.000000;0.768999
9084.000000;0.768964
9083.000000;0.769044
9082.000000;0.769091
9081.000000;0.768860
9080.000000;0.768389
9079.000000;0.767977
9078.000000;0.767851
9077.000000;0.767978
9076.000000;0.768089
9075.000000;0.767784
9074.000000;0.766820
9073.000000;0.765483
9072.000000;0.764520
9071.000000;0.764447
9070.000000;0.765049
9069.000000;0.765739
9068.000000;0.766259
9067.000000;0.766726
9066.000000;0.767106
9065.000000;0.767045
9064.000000;0.766325
9063.000000;0.765240
9062.000000;0.764384
9061.000000;0.764210
9060.000000;0.764783
9059.000000;0.765766
9058.000000;0.766581
9057.000000;0.766771
9056.000000;0.766315
9055.000000;0.765543
9054.000000;0.764774
9053.000000;0.764203
