Criado como novo conjunto de dados;"e0108.spp","-4260223.8 Secs"
cm-1;Abs
10000.000000;1.045769
9999.000000;1.045532
9998.000000;1.043928
9997.000000;1.041817
9996.000000;1.040676
9995.000000;1.040837
9994.000000;1.041632
9993.000000;1.041861
9992.000000;1.041076
9991.000000;1.039709
9990.000000;1.038705
9989.000000;1.038701
9988.000000;1.039527
9987.000000;1.040329
9986.000000;1.040322
9985.000000;1.039461
9984.000000;1.038278
9983.000000;1.037225
9982.000000;1.036397
9981.000000;1.035778
9980.000000;1.035353
9979.000000;1.034995
9978.000000;1.034629
9977.000000;1.034477
9976.000000;1.034790
9975.000000;1.035290
9974.000000;1.035271
9973.000000;1.034414
9972.000000;1.033217
9971.000000;1.032436
9970.000000;1.032391
9969.000000;1.032903
9968.000000;1.033604
9967.000000;1.034115
9966.000000;1.034169
9965.000000;1.033773
9964.000000;1.033190
9963.000000;1.032674
9962.000000;1.032311
9961.000000;1.032050
9960.000000;1.031636
9959.000000;1.030546
9958.000000;1.028402
9957.000000;1.025660
9956.000000;1.023553
9955.000000;1.023023
9954.000000;1.023847
9953.000000;1.024998
9952.000000;1.025741
9951.000000;1.026166
9950.000000;1.026695
9949.000000;1.027266
9948.000000;1.027189
9947.000000;1.025876
9946.000000;1.023704
9945.000000;1.021927
9944.000000;1.021583
9943.000000;1.022559
9942.000000;1.023835
9941.000000;1.024432
9940.000000;1.023932
9939.000000;1.022358
9938.000000;1.020141
9937.000000;1.018223
9936.000000;1.017577
9935.000000;1.018312
9934.000000;1.019570
9933.000000;1.020403
9932.000000;1.020479
9931.000000;1.019921
9930.000000;1.018958
9929.000000;1.017991
9928.000000;1.017583
9927.000000;1.017970
9926.000000;1.018736
9925.000000;1.019227
9924.000000;1.019177
9923.000000;1.018807
9922.000000;1.018560
9921.000000;1.018899
9920.000000;1.020030
9919.000000;1.021483
9918.000000;1.022197
9917.000000;1.021410
9916.000000;1.019466
9915.000000;1.017449
9914.000000;1.016104
9913.000000;1.015319
9912.000000;1.014548
9911.000000;1.013517
9910.000000;1.012508
9909.000000;1.012080
9908.000000;1.012485
9907.000000;1.013331
9906.000000;1.013909
9905.000000;1.013862
9904.000000;1.013318
9903.000000;1.012396
9902.000000;1.010993
9901.000000;1.009305
9900.000000;1.008107
9899.000000;1.008015
9898.000000;1.008636
9897.000000;1.008934
9896.000000;1.008455
9895.000000;1.007723
9894.000000;1.007311
9893.000000;1.007066
9892.000000;1.006559
9891.000000;1.005934
9890.000000;1.005769
9889.000000;1.006186
9888.000000;1.006592
9887.000000;1.006475
9886.000000;1.006045
9885.000000;1.005734
9884.000000;1.005417
9883.000000;1.004705
9882.000000;1.003862
9881.000000;1.003692
9880.000000;1.004337
9879.000000;1.004796
9878.000000;1.004094
9877.000000;1.002454
9876.000000;1.000827
9875.000000;0.999724
9874.000000;0.999197
9873.000000;0.999566
9872.000000;1.001186
9871.000000;1.003414
9870.000000;1.004652
9869.000000;1.003889
9868.000000;1.001718
9867.000000;0.999532
9866.000000;0.998184
9865.000000;0.997670
9864.000000;0.997533
9863.000000;0.997187
9862.000000;0.996248
9861.000000;0.995033
9860.000000;0.994448
9859.000000;0.994941
9858.000000;0.995804
9857.000000;0.995959
9856.000000;0.995308
9855.000000;0.994804
9854.000000;0.995179
9853.000000;0.996135
9852.000000;0.996924
9851.000000;0.997330
9850.000000;0.997689
9849.000000;0.998054
9848.000000;0.997806
9847.000000;0.996396
9846.000000;0.994261
9845.000000;0.992527
9844.000000;0.991753
9843.000000;0.991381
9842.000000;0.990650
9841.000000;0.989624
9840.000000;0.988834
9839.000000;0.988295
9838.000000;0.987563
9837.000000;0.986634
9836.000000;0.986050
9835.000000;0.986038
9834.000000;0.986224
9833.000000;0.986383
9832.000000;0.986833
9831.000000;0.987764
9830.000000;0.988734
9829.000000;0.989209
9828.000000;0.989156
9827.000000;0.988678
9826.000000;0.987583
9825.000000;0.985837
9824.000000;0.984037
9823.000000;0.982871
9822.000000;0.982339
9821.000000;0.981957
9820.000000;0.981516
9819.000000;0.981157
9818.000000;0.980899
9817.000000;0.980613
9816.000000;0.980352
9815.000000;0.980241
9814.000000;0.980166
9813.000000;0.979972
9812.000000;0.979837
9811.000000;0.979980
9810.000000;0.980140
9809.000000;0.979871
9808.000000;0.979285
9807.000000;0.978955
9806.000000;0.979031
9805.000000;0.979039
9804.000000;0.978690
9803.000000;0.978365
9802.000000;0.978532
9801.000000;0.979097
9800.000000;0.979628
9799.000000;0.979897
9798.000000;0.979824
9797.000000;0.979144
9796.000000;0.977621
9795.000000;0.975627
9794.000000;0.974087
9793.000000;0.973637
9792.000000;0.973989
9791.000000;0.974214
9790.000000;0.973586
9789.000000;0.972135
9788.000000;0.970539
9787.000000;0.969635
9786.000000;0.969885
9785.000000;0.971094
9784.000000;0.972592
9783.000000;0.973828
9782.000000;0.974819
9781.000000;0.975828
9780.000000;0.976663
9779.000000;0.976656
9778.000000;0.975565
9777.000000;0.974083
9776.000000;0.973034
9775.000000;0.972300
9774.000000;0.971108
9773.000000;0.969346
9772.000000;0.967972
9771.000000;0.967887
9770.000000;0.968867
9769.000000;0.969874
9768.000000;0.970138
9767.000000;0.969627
9766.000000;0.968756
9765.000000;0.967989
9764.000000;0.967584
9763.000000;0.967450
9762.000000;0.967275
9761.000000;0.966850
9760.000000;0.966199
9759.000000;0.965368
9758.000000;0.964361
9757.000000;0.963381
9756.000000;0.962832
9755.000000;0.962892
9754.000000;0.963241
9753.000000;0.963399
9752.000000;0.963159
9751.000000;0.962554
9750.000000;0.961659
9749.000000;0.960629
9748.000000;0.959690
9747.000000;0.958877
9746.000000;0.957984
9745.000000;0.956997
9744.000000;0.956381
9743.000000;0.956617
9742.000000;0.957643
9741.000000;0.959025
9740.000000;0.960436
9739.000000;0.961638
9738.000000;0.962220
9737.000000;0.961844
9736.000000;0.960708
9735.000000;0.959360
9734.000000;0.958046
9733.000000;0.956626
9732.000000;0.955152
9731.000000;0.954140
9730.000000;0.954110
9729.000000;0.955040
9728.000000;0.956343
9727.000000;0.957234
9726.000000;0.957163
9725.000000;0.956196
9724.000000;0.955027
9723.000000;0.954354
9722.000000;0.954123
9721.000000;0.953561
9720.000000;0.952072
9719.000000;0.949971
9718.000000;0.948259
9717.000000;0.947769
9716.000000;0.948554
9715.000000;0.949950
9714.000000;0.951162
9713.000000;0.951818
9712.000000;0.952016
9711.000000;0.951885
9710.000000;0.951340
9709.000000;0.950372
9708.000000;0.949380
9707.000000;0.948889
9706.000000;0.949010
9705.000000;0.949358
9704.000000;0.949442
9703.000000;0.948942
9702.000000;0.947730
9701.000000;0.945988
9700.000000;0.944355
9699.000000;0.943626
9698.000000;0.944048
9697.000000;0.945044
9696.000000;0.945797
9695.000000;0.946059
9694.000000;0.946301
9693.000000;0.947033
9692.000000;0.948077
9691.000000;0.948553
9690.000000;0.947697
9689.000000;0.945688
9688.000000;0.943548
9687.000000;0.942179
9686.000000;0.941735
9685.000000;0.941925
9684.000000;0.942475
9683.000000;0.943031
9682.000000;0.943025
9681.000000;0.942229
9680.000000;0.941325
9679.000000;0.941306
9678.000000;0.942149
9677.000000;0.942646
9676.000000;0.941874
9675.000000;0.940478
9674.000000;0.939967
9673.000000;0.940931
9672.000000;0.942399
9671.000000;0.942944
9670.000000;0.942073
9669.000000;0.940385
9668.000000;0.938684
9667.000000;0.937347
9666.000000;0.936503
9665.000000;0.936330
9664.000000;0.936830
9663.000000;0.937481
9662.000000;0.937508
9661.000000;0.936689
9660.000000;0.935613
9659.000000;0.934956
9658.000000;0.934728
9657.000000;0.934501
9656.000000;0.934168
9655.000000;0.934067
9654.000000;0.934389
9653.000000;0.934849
9652.000000;0.935110
9651.000000;0.935236
9650.000000;0.935515
9649.000000;0.935979
9648.000000;0.936297
9647.000000;0.936099
9646.000000;0.935243
9645.000000;0.933854
9644.000000;0.932272
9643.000000;0.930917
9642.000000;0.930038
9641.000000;0.929521
9640.000000;0.929057
9639.000000;0.928550
9638.000000;0.928268
9637.000000;0.928499
9636.000000;0.929073
9635.000000;0.929381
9634.000000;0.928942
9633.000000;0.927930
9632.000000;0.927021
9631.000000;0.926744
9630.000000;0.927060
9629.000000;0.927585
9628.000000;0.928077
9627.000000;0.928582
9626.000000;0.929105
9625.000000;0.929339
9624.000000;0.928886
9623.000000;0.927803
9622.000000;0.926822
9621.000000;0.926811
9620.000000;0.927896
9619.000000;0.929212
9618.000000;0.929673
9617.000000;0.928986
9616.000000;0.927731
9615.000000;0.926567
9614.000000;0.925656
9613.000000;0.924850
9612.000000;0.924111
9611.000000;0.923529
9610.000000;0.923153
9609.000000;0.922956
9608.000000;0.922881
9607.000000;0.922767
9606.000000;0.922418
9605.000000;0.921919
9604.000000;0.921700
9603.000000;0.922011
9602.000000;0.922425
9601.000000;0.922183
9600.000000;0.921079
9599.000000;0.919763
9598.000000;0.919064
9597.000000;0.919129
9596.000000;0.919315
9595.000000;0.918888
9594.000000;0.917763
9593.000000;0.916524
9592.000000;0.915720
9591.000000;0.915283
9590.000000;0.914775
9589.000000;0.914135
9588.000000;0.913826
9587.000000;0.914150
9586.000000;0.914779
9585.000000;0.915222
9584.000000;0.915511
9583.000000;0.916020
9582.000000;0.916758
9581.000000;0.917258
9580.000000;0.917132
9579.000000;0.916412
9578.000000;0.915332
9577.000000;0.914165
9576.000000;0.913306
9575.000000;0.913127
9574.000000;0.913492
9573.000000;0.913727
9572.000000;0.913326
9571.000000;0.912540
9570.000000;0.912041
9569.000000;0.912125
9568.000000;0.912436
9567.000000;0.912361
9566.000000;0.911556
9565.000000;0.910183
9564.000000;0.908776
9563.000000;0.907836
9562.000000;0.907443
9561.000000;0.907278
9560.000000;0.907038
9559.000000;0.906738
9558.000000;0.906562
9557.000000;0.906584
9556.000000;0.906776
9555.000000;0.907171
9554.000000;0.907759
9553.000000;0.908266
9552.000000;0.908293
9551.000000;0.907787
9550.000000;0.907189
9549.000000;0.906979
9548.000000;0.907139
9547.000000;0.907208
9546.000000;0.906819
9545.000000;0.906045
9544.000000;0.905210
9543.000000;0.904525
9542.000000;0.904023
9541.000000;0.903727
9540.000000;0.903711
9539.000000;0.903959
9538.000000;0.904273
9537.000000;0.904393
9536.000000;0.904184
9535.000000;0.903748
9534.000000;0.903397
9533.000000;0.903463
9532.000000;0.903966
9531.000000;0.904430
9530.000000;0.904185
9529.000000;0.903010
9528.000000;0.901455
9527.000000;0.900421
9526.000000;0.900438
9525.000000;0.901353
9524.000000;0.902574
9523.000000;0.903435
9522.000000;0.903446
9521.000000;0.902473
9520.000000;0.900878
9519.000000;0.899379
9518.000000;0.898591
9517.000000;0.898598
9516.000000;0.899008
9515.000000;0.899393
9514.000000;0.899590
9513.000000;0.899576
9512.000000;0.899253
9511.000000;0.898561
9510.000000;0.897797
9509.000000;0.897554
9508.000000;0.898096
9507.000000;0.898856
9506.000000;0.898828
9505.000000;0.897575
9504.000000;0.895722
9503.000000;0.894343
9502.000000;0.893961
9501.000000;0.894269
9500.000000;0.894742
9499.000000;0.895269
9498.000000;0.896030
9497.000000;0.896873
9496.000000;0.897147
9495.000000;0.896395
9494.000000;0.895069
9493.000000;0.894182
9492.000000;0.894175
9491.000000;0.894430
9490.000000;0.894137
9489.000000;0.893354
9488.000000;0.892806
9487.000000;0.892762
9486.000000;0.892648
9485.000000;0.891926
9484.000000;0.890944
9483.000000;0.890565
9482.000000;0.891090
9481.000000;0.891876
9480.000000;0.892022
9479.000000;0.891267
9478.000000;0.890157
9477.000000;0.889383
9476.000000;0.889081
9475.000000;0.888872
9474.000000;0.888517
9473.000000;0.888273
9472.000000;0.888402
9471.000000;0.888629
9470.000000;0.888406
9469.000000;0.887630
9468.000000;0.886757
9467.000000;0.886248
9466.000000;0.886258
9465.000000;0.886786
9464.000000;0.887636
9463.000000;0.888189
9462.000000;0.887785
9461.000000;0.886592
9460.000000;0.885623
9459.000000;0.885561
9458.000000;0.885973
9457.000000;0.886006
9456.000000;0.885468
9455.000000;0.884795
9454.000000;0.884341
9453.000000;0.884194
9452.000000;0.884442
9451.000000;0.885014
9450.000000;0.885387
9449.000000;0.885023
9448.000000;0.884122
9447.000000;0.883487
9446.000000;0.883608
9445.000000;0.884298
9444.000000;0.885174
9443.000000;0.885979
9442.000000;0.886329
9441.000000;0.885663
9440.000000;0.883829
9439.000000;0.881465
9438.000000;0.879539
9437.000000;0.878642
9436.000000;0.878821
9435.000000;0.879770
9434.000000;0.880977
9433.000000;0.881856
9432.000000;0.882049
9431.000000;0.881591
9430.000000;0.880731
9429.000000;0.879712
9428.000000;0.878795
9427.000000;0.878270
9426.000000;0.878224
9425.000000;0.878354
9424.000000;0.878207
9423.000000;0.877639
9422.000000;0.876950
9421.000000;0.876566
9420.000000;0.876626
9419.000000;0.876867
9418.000000;0.876900
9417.000000;0.876629
9416.000000;0.876298
9415.000000;0.876095
9414.000000;0.875895
9413.000000;0.875530
9412.000000;0.875173
9411.000000;0.875198
9410.000000;0.875657
9409.000000;0.876130
9408.000000;0.876151
9407.000000;0.875628
9406.000000;0.874792
9405.000000;0.873906
9404.000000;0.873150
9403.000000;0.872686
9402.000000;0.872670
9401.000000;0.873117
9400.000000;0.873762
9399.000000;0.874111
9398.000000;0.873788
9397.000000;0.872900
9396.000000;0.871962
9395.000000;0.871393
9394.000000;0.871196
9393.000000;0.871238
9392.000000;0.871563
9391.000000;0.872170
9390.000000;0.872643
9389.000000;0.872441
9388.000000;0.871549
9387.000000;0.870534
9386.000000;0.869918
9385.000000;0.869797
9384.000000;0.870059
9383.000000;0.870576
9382.000000;0.871042
9381.000000;0.870987
9380.000000;0.870243
9379.000000;0.869195
9378.000000;0.868411
9377.000000;0.868175
9376.000000;0.868462
9375.000000;0.869097
9374.000000;0.869703
9373.000000;0.869769
9372.000000;0.869124
9371.000000;0.868253
9370.000000;0.867823
9369.000000;0.867934
9368.000000;0.868056
9367.000000;0.867640
9366.000000;0.866631
9365.000000;0.865424
9364.000000;0.864555
9363.000000;0.864425
9362.000000;0.865078
9361.000000;0.866120
9360.000000;0.866952
9359.000000;0.867212
9358.000000;0.866976
9357.000000;0.866562
9356.000000;0.866160
9355.000000;0.865660
9354.000000;0.864814
9353.000000;0.863662
9352.000000;0.862741
9351.000000;0.862633
9350.000000;0.863250
9349.000000;0.863754
9348.000000;0.863414
9347.000000;0.862392
9346.000000;0.861468
9345.000000;0.861089
9344.000000;0.861044
9343.000000;0.861029
9342.000000;0.861151
9341.000000;0.861630
9340.000000;0.862283
9339.000000;0.862617
9338.000000;0.862426
9337.000000;0.862019
9336.000000;0.861759
9335.000000;0.861598
9334.000000;0.861242
9333.000000;0.860663
9332.000000;0.860189
9331.000000;0.860002
9330.000000;0.859776
9329.000000;0.859066
9328.000000;0.857939
9327.000000;0.856986
9326.000000;0.856704
9325.000000;0.857085
9324.000000;0.857809
9323.000000;0.858544
9322.000000;0.858942
9321.000000;0.858690
9320.000000;0.857914
9319.000000;0.857308
9318.000000;0.857468
9317.000000;0.858151
9316.000000;0.858583
9315.000000;0.858496
9314.000000;0.858426
9313.000000;0.858822
9312.000000;0.859264
9311.000000;0.858961
9310.000000;0.857799
9309.000000;0.856451
9308.000000;0.855495
9307.000000;0.854906
9306.000000;0.854491
9305.000000;0.854376
9304.000000;0.854711
9303.000000;0.855140
9302.000000;0.855023
9301.000000;0.854218
9300.000000;0.853305
9299.000000;0.852913
9298.000000;0.853026
9297.000000;0.853149
9296.000000;0.853027
9295.000000;0.852954
9294.000000;0.853339
9293.000000;0.854160
9292.000000;0.854940
9291.000000;0.855200
9290.000000;0.854888
9289.000000;0.854376
9288.000000;0.854053
9287.000000;0.853932
9286.000000;0.853735
9285.000000;0.853347
9284.000000;0.853060
9283.000000;0.853225
9282.000000;0.853738
9281.000000;0.854076
9280.000000;0.853869
9279.000000;0.853272
9278.000000;0.852713
9277.000000;0.852428
9276.000000;0.852337
9275.000000;0.852227
9274.000000;0.851957
9273.000000;0.851549
9272.000000;0.851204
9271.000000;0.851151
9270.000000;0.851393
9269.000000;0.851679
9268.000000;0.851795
9267.000000;0.851811
9266.000000;0.851887
9265.000000;0.851885
9264.000000;0.851435
9263.000000;0.850445
9262.000000;0.849361
9261.000000;0.848775
9260.000000;0.848841
9259.000000;0.849168
9258.000000;0.849228
9257.000000;0.848774
9256.000000;0.847939
9255.000000;0.847086
9254.000000;0.846615
9253.000000;0.846770
9252.000000;0.847453
9251.000000;0.848186
9250.000000;0.848379
9249.000000;0.847792
9248.000000;0.846738
9247.000000;0.845791
9246.000000;0.845293
9245.000000;0.845203
9244.000000;0.845319
9243.000000;0.845504
9242.000000;0.845647
9241.000000;0.845632
9240.000000;0.845486
9239.000000;0.845432
9238.000000;0.845641
9237.000000;0.845971
9236.000000;0.846067
9235.000000;0.845740
9234.000000;0.845152
9233.000000;0.844652
9232.000000;0.844535
9231.000000;0.844901
9230.000000;0.845545
9229.000000;0.845952
9228.000000;0.845612
9227.000000;0.844527
9226.000000;0.843299
9225.000000;0.842612
9224.000000;0.842661
9223.000000;0.843175
9222.000000;0.843814
9221.000000;0.844354
9220.000000;0.844577
9219.000000;0.844293
9218.000000;0.843595
9217.000000;0.842875
9216.000000;0.842481
9215.000000;0.842463
9214.000000;0.842762
9213.000000;0.843411
9212.000000;0.844341
9211.000000;0.845108
9210.000000;0.845117
9209.000000;0.844172
9208.000000;0.842632
9207.000000;0.841045
9206.000000;0.839789
9205.000000;0.839069
9204.000000;0.838963
9203.000000;0.839327
9202.000000;0.839833
9201.000000;0.840243
9200.000000;0.840547
9199.000000;0.840723
9198.000000;0.840581
9197.000000;0.840020
9196.000000;0.839303
9195.000000;0.838815
9194.000000;0.838694
9193.000000;0.838893
9192.000000;0.839448
9191.000000;0.840337
9190.000000;0.841119
9189.000000;0.841174
9188.000000;0.840404
9187.000000;0.839379
9186.000000;0.838637
9185.000000;0.838144
9184.000000;0.837626
9183.000000;0.837090
9182.000000;0.836716
9181.000000;0.836416
9180.000000;0.835907
9179.000000;0.835169
9178.000000;0.834541
9177.000000;0.834329
9176.000000;0.834498
9175.000000;0.834785
9174.000000;0.834969
9173.000000;0.835059
9172.000000;0.835316
9171.000000;0.836007
9170.000000;0.836956
9169.000000;0.837464
9168.000000;0.836961
9167.000000;0.835717
9166.000000;0.834634
9165.000000;0.834317
9164.000000;0.834591
9163.000000;0.834944
9162.000000;0.835116
9161.000000;0.835137
9160.000000;0.835095
9159.000000;0.835083
9158.000000;0.835183
9157.000000;0.835281
9156.000000;0.835034
9155.000000;0.834239
9154.000000;0.833146
9153.000000;0.832285
9152.000000;0.832021
9151.000000;0.832371
9150.000000;0.833131
9149.000000;0.833989
9148.000000;0.834596
9147.000000;0.834701
9146.000000;0.834289
9145.000000;0.833536
9144.000000;0.832719
9143.000000;0.832150
9142.000000;0.832017
9141.000000;0.832130
9140.000000;0.832029
9139.000000;0.831515
9138.000000;0.830920
9137.000000;0.830661
9136.000000;0.830687
9135.000000;0.830647
9134.000000;0.830455
9133.000000;0.830348
9132.000000;0.830426
9131.000000;0.830527
9130.000000;0.830595
9129.000000;0.830801
9128.000000;0.831153
9127.000000;0.831311
9126.000000;0.831031
9125.000000;0.830573
9124.000000;0.830407
9123.000000;0.830651
9122.000000;0.831026
9121.000000;0.831277
9120.000000;0.831383
9119.000000;0.831371
9118.000000;0.831141
9117.000000;0.830553
9116.000000;0.829628
9115.000000;0.828615
9114.000000;0.827846
9113.000000;0.827460
9112.000000;0.827284
9111.000000;0.827065
9110.000000;0.826817
9109.000000;0.826800
9108.000000;0.827123
9107.000000;0.827540
9106.000000;0.827710
9105.000000;0.827475
9104.000000;0.826832
9103.000000;0.825864
9102.000000;0.824854
9101.000000;0.824243
9100.000000;0.824230
9099.000000;0.824541
9098.000000;0.824804
9097.000000;0.825008
9096.000000;0.825347
9095.000000;0.825776
9094.000000;0.826075
9093.000000;0.826287
9092.000000;0.826656
9091.000000;0.827104
9090.000000;0.827142
9089.000000;0.826486
9088.000000;0.825496
9087.000000;0.824782
9086.000000;0.824587
9085.000000;0.824720
9084.000000;0.824876
9083.000000;0.824806
9082.000000;0.824350
9081.000000;0.823607
9080.000000;0.823006
9079.000000;0.822980
9078.000000;0.823546
9077.000000;0.824327
9076.000000;0.824938
9075.000000;0.825241
9074.000000;0.825272
9073.000000;0.825122
9072.000000;0.824899
9071.000000;0.824700
9070.000000;0.824578
9069.000000;0.824616
9068.000000;0.824944
9067.000000;0.825516
9066.000000;0.825941
9065.000000;0.825770
9064.000000;0.825020
9063.000000;0.824227
9062.000000;0.823858
9061.000000;0.823809
9060.000000;0.823602
9059.000000;0.823037
9058.000000;0.822438
9057.000000;0.822229
9056.000000;0.822374
9055.000000;0.822364
9054.000000;0.821797
9053.000000;0.820890
