Criado como novo conjunto de dados;"e0108.spp","-4267423.9 Secs"
cm-1;Abs
10000.000000;1.099956
9999.000000;1.099790
9998.000000;1.098083
9997.000000;1.095625
9996.000000;1.093308
9995.000000;1.091426
9994.000000;1.090337
9993.000000;1.089887
9992.000000;1.089993
9991.000000;1.090591
9990.000000;1.091525
9989.000000;1.092140
9988.000000;1.091880
9987.000000;1.091088
9986.000000;1.090697
9985.000000;1.090916
9984.000000;1.090807
9983.000000;1.089515
9982.000000;1.087513
9981.000000;1.086108
9980.000000;1.085947
9979.000000;1.086459
9978.000000;1.086715
9977.000000;1.086357
9976.000000;1.085611
9975.000000;1.084798
9974.000000;1.084188
9973.000000;1.084053
9972.000000;1.084516
9971.000000;1.085308
9970.000000;1.085873
9969.000000;1.085769
9968.000000;1.084974
9967.000000;1.083893
9966.000000;1.083149
9965.000000;1.083289
9964.000000;1.084422
9963.000000;1.085956
9962.000000;1.086813
9961.000000;1.086121
9960.000000;1.083826
9959.000000;1.080707
9958.000000;1.077932
9957.000000;1.076565
9956.000000;1.077054
9955.000000;1.078808
9954.000000;1.080411
9953.000000;1.080721
9952.000000;1.079903
9951.000000;1.079080
9950.000000;1.078932
9949.000000;1.079001
9948.000000;1.078498
9947.000000;1.077450
9946.000000;1.076641
9945.000000;1.076607
9944.000000;1.077178
9943.000000;1.077962
9942.000000;1.078727
9941.000000;1.079110
9940.000000;1.078508
9939.000000;1.076764
9938.000000;1.074676
9937.000000;1.073367
9936.000000;1.073174
9935.000000;1.073497
9934.000000;1.073622
9933.000000;1.073280
9932.000000;1.072474
9931.000000;1.071328
9930.000000;1.070273
9929.000000;1.069924
9928.000000;1.070482
9927.000000;1.071514
9926.000000;1.072557
9925.000000;1.073610
9924.000000;1.074658
9923.000000;1.075037
9922.000000;1.073882
9921.000000;1.071238
9920.000000;1.068353
9919.000000;1.066690
9918.000000;1.066847
9917.000000;1.068346
9916.000000;1.070117
9915.000000;1.071083
9914.000000;1.070610
9913.000000;1.068745
9912.000000;1.066069
9911.000000;1.063252
9910.000000;1.060747
9909.000000;1.058878
9908.000000;1.057965
9907.000000;1.058190
9906.000000;1.059365
9905.000000;1.060931
9904.000000;1.062250
9903.000000;1.062921
9902.000000;1.062848
9901.000000;1.062090
9900.000000;1.060804
9899.000000;1.059359
9898.000000;1.058302
9897.000000;1.057927
9896.000000;1.057943
9895.000000;1.057897
9894.000000;1.057935
9893.000000;1.058683
9892.000000;1.060176
9891.000000;1.061316
9890.000000;1.060838
9889.000000;1.058663
9888.000000;1.055921
9887.000000;1.053813
9886.000000;1.052875
9885.000000;1.053101
9884.000000;1.054109
9883.000000;1.055193
9882.000000;1.055755
9881.000000;1.055833
9880.000000;1.055817
9879.000000;1.055619
9878.000000;1.054685
9877.000000;1.052950
9876.000000;1.051224
9875.000000;1.050329
9874.000000;1.050346
9873.000000;1.050942
9872.000000;1.051932
9871.000000;1.053073
9870.000000;1.053738
9869.000000;1.053408
9868.000000;1.052372
9867.000000;1.051447
9866.000000;1.051034
9865.000000;1.050835
9864.000000;1.050384
9863.000000;1.049484
9862.000000;1.048215
9861.000000;1.046929
9860.000000;1.046214
9859.000000;1.046488
9858.000000;1.047507
9857.000000;1.048440
9856.000000;1.048545
9855.000000;1.047683
9854.000000;1.046304
9853.000000;1.045137
9852.000000;1.044734
9851.000000;1.045007
9850.000000;1.045219
9849.000000;1.044709
9848.000000;1.043596
9847.000000;1.042516
9846.000000;1.041766
9845.000000;1.041100
9844.000000;1.040326
9843.000000;1.039700
9842.000000;1.039566
9841.000000;1.039863
9840.000000;1.040115
9839.000000;1.039847
9838.000000;1.039033
9837.000000;1.038298
9836.000000;1.038575
9835.000000;1.040225
9834.000000;1.042448
9833.000000;1.043828
9832.000000;1.043601
9831.000000;1.042241
9830.000000;1.040758
9829.000000;1.039712
9828.000000;1.039015
9827.000000;1.038400
9826.000000;1.037747
9825.000000;1.037040
9824.000000;1.036245
9823.000000;1.035350
9822.000000;1.034475
9821.000000;1.033870
9820.000000;1.033740
9819.000000;1.034040
9818.000000;1.034499
9817.000000;1.034868
9816.000000;1.035065
9815.000000;1.035028
9814.000000;1.034619
9813.000000;1.033838
9812.000000;1.033028
9811.000000;1.032629
9810.000000;1.032749
9809.000000;1.033086
9808.000000;1.033223
9807.000000;1.032890
9806.000000;1.032081
9805.000000;1.031145
9804.000000;1.030640
9803.000000;1.030825
9802.000000;1.031326
9801.000000;1.031541
9800.000000;1.031337
9799.000000;1.031008
9798.000000;1.030664
9797.000000;1.030077
9796.000000;1.029220
9795.000000;1.028537
9794.000000;1.028411
9793.000000;1.028589
9792.000000;1.028375
9791.000000;1.027304
9790.000000;1.025615
9789.000000;1.024249
9788.000000;1.024277
9787.000000;1.025991
9786.000000;1.028391
9785.000000;1.029822
9784.000000;1.029370
9783.000000;1.027542
9782.000000;1.025540
9781.000000;1.024107
9780.000000;1.023109
9779.000000;1.021944
9778.000000;1.020261
9777.000000;1.018500
9776.000000;1.017746
9775.000000;1.018705
9774.000000;1.020749
9773.000000;1.022322
9772.000000;1.022484
9771.000000;1.021634
9770.000000;1.020542
9769.000000;1.019258
9768.000000;1.017513
9767.000000;1.015739
9766.000000;1.014846
9765.000000;1.015040
9764.000000;1.015585
9763.000000;1.015917
9762.000000;1.016407
9761.000000;1.017651
9760.000000;1.019423
9759.000000;1.020719
9758.000000;1.020721
9757.000000;1.019428
9756.000000;1.017463
9755.000000;1.015568
9754.000000;1.014316
9753.000000;1.013998
9752.000000;1.014525
9751.000000;1.015404
9750.000000;1.015992
9749.000000;1.015919
9748.000000;1.015322
9747.000000;1.014625
9746.000000;1.014044
9745.000000;1.013387
9744.000000;1.012345
9743.000000;1.010896
9742.000000;1.009385
9741.000000;1.008271
9740.000000;1.007843
9739.000000;1.008041
9738.000000;1.008436
9737.000000;1.008563
9736.000000;1.008412
9735.000000;1.008450
9734.000000;1.008986
9733.000000;1.009673
9732.000000;1.009832
9731.000000;1.009195
9730.000000;1.008108
9729.000000;1.007120
9728.000000;1.006606
9727.000000;1.006662
9726.000000;1.007102
9725.000000;1.007495
9724.000000;1.007432
9723.000000;1.006808
9722.000000;1.005784
9721.000000;1.004587
9720.000000;1.003513
9719.000000;1.002970
9718.000000;1.003170
9717.000000;1.003773
9716.000000;1.004160
9715.000000;1.004119
9714.000000;1.004024
9713.000000;1.004265
9712.000000;1.004817
9711.000000;1.005445
9710.000000;1.006031
9709.000000;1.006469
9708.000000;1.006435
9707.000000;1.005540
9706.000000;1.003738
9705.000000;1.001465
9704.000000;0.999395
9703.000000;0.998067
9702.000000;0.997643
9701.000000;0.997890
9700.000000;0.998442
9699.000000;0.999040
9698.000000;0.999456
9697.000000;0.999319
9696.000000;0.998395
9695.000000;0.997034
9694.000000;0.995949
9693.000000;0.995420
9692.000000;0.995046
9691.000000;0.994467
9690.000000;0.993927
9689.000000;0.993811
9688.000000;0.993930
9687.000000;0.993784
9686.000000;0.993379
9685.000000;0.993227
9684.000000;0.993537
9683.000000;0.993903
9682.000000;0.993896
9681.000000;0.993584
9680.000000;0.993247
9679.000000;0.992898
9678.000000;0.992393
9677.000000;0.991779
9676.000000;0.991260
9675.000000;0.990918
9674.000000;0.990665
9673.000000;0.990482
9672.000000;0.990539
9671.000000;0.991012
9670.000000;0.991788
9669.000000;0.992402
9668.000000;0.992397
9667.000000;0.991774
9666.000000;0.990958
9665.000000;0.990239
9664.000000;0.989433
9663.000000;0.988287
9662.000000;0.987026
9661.000000;0.986150
9660.000000;0.985761
9659.000000;0.985433
9658.000000;0.984775
9657.000000;0.983813
9656.000000;0.982820
9655.000000;0.982134
9654.000000;0.982185
9653.000000;0.983267
9652.000000;0.985055
9651.000000;0.986654
9650.000000;0.987433
9649.000000;0.987624
9648.000000;0.987797
9647.000000;0.987960
9646.000000;0.987569
9645.000000;0.986345
9644.000000;0.984720
9643.000000;0.983420
9642.000000;0.982852
9641.000000;0.982908
9640.000000;0.983169
9639.000000;0.983210
9638.000000;0.982853
9637.000000;0.982150
9636.000000;0.981161
9635.000000;0.979885
9634.000000;0.978520
9633.000000;0.977591
9632.000000;0.977528
9631.000000;0.978156
9630.000000;0.978823
9629.000000;0.979061
9628.000000;0.978942
9627.000000;0.978803
9626.000000;0.978817
9625.000000;0.978888
9624.000000;0.978853
9623.000000;0.978642
9622.000000;0.978279
9621.000000;0.977792
9620.000000;0.977176
9619.000000;0.976522
9618.000000;0.976133
9617.000000;0.976274
9616.000000;0.976727
9615.000000;0.976802
9614.000000;0.976006
9613.000000;0.974565
9612.000000;0.973093
9611.000000;0.971933
9610.000000;0.971113
9609.000000;0.970752
9608.000000;0.971086
9607.000000;0.972053
9606.000000;0.973198
9605.000000;0.974078
9604.000000;0.974529
9603.000000;0.974527
9602.000000;0.974091
9601.000000;0.973453
9600.000000;0.973070
9599.000000;0.973255
9598.000000;0.973891
9597.000000;0.974516
9596.000000;0.974542
9595.000000;0.973497
9594.000000;0.971433
9593.000000;0.969153
9592.000000;0.967645
9591.000000;0.967153
9590.000000;0.967136
9589.000000;0.967170
9588.000000;0.967368
9587.000000;0.967668
9586.000000;0.967372
9585.000000;0.966071
9584.000000;0.964672
9583.000000;0.964646
9582.000000;0.966242
9581.000000;0.968090
9580.000000;0.968774
9579.000000;0.968301
9578.000000;0.967681
9577.000000;0.967502
9576.000000;0.967382
9575.000000;0.966631
9574.000000;0.965073
9573.000000;0.963175
9572.000000;0.961658
9571.000000;0.961021
9570.000000;0.961251
9569.000000;0.961845
9568.000000;0.962138
9567.000000;0.961759
9566.000000;0.960868
9565.000000;0.960028
9564.000000;0.959804
9563.000000;0.960367
9562.000000;0.961368
9561.000000;0.962196
9560.000000;0.962410
9559.000000;0.961921
9558.000000;0.960844
9557.000000;0.959343
9556.000000;0.957685
9555.000000;0.956281
9554.000000;0.955485
9553.000000;0.955369
9552.000000;0.955704
9551.000000;0.956083
9550.000000;0.956042
9549.000000;0.955288
9548.000000;0.953986
9547.000000;0.952733
9546.000000;0.952038
9545.000000;0.951917
9544.000000;0.952172
9543.000000;0.952939
9542.000000;0.954502
9541.000000;0.956428
9540.000000;0.957383
9539.000000;0.956359
9538.000000;0.953938
9537.000000;0.951892
9536.000000;0.951559
9535.000000;0.952892
9534.000000;0.954915
9533.000000;0.956591
9532.000000;0.957182
9531.000000;0.956367
9530.000000;0.954507
9529.000000;0.952607
9528.000000;0.951630
9527.000000;0.951799
9526.000000;0.952696
9525.000000;0.953826
9524.000000;0.954811
9523.000000;0.955191
9522.000000;0.954519
9521.000000;0.952803
9520.000000;0.950710
9519.000000;0.949199
9518.000000;0.948938
9517.000000;0.949894
9516.000000;0.951311
9515.000000;0.952210
9514.000000;0.952191
9513.000000;0.951705
9512.000000;0.951331
9511.000000;0.950961
9510.000000;0.950064
9509.000000;0.948682
9508.000000;0.947636
9507.000000;0.947513
9506.000000;0.947842
9505.000000;0.947645
9504.000000;0.946687
9503.000000;0.945838
9502.000000;0.946106
9501.000000;0.947465
9500.000000;0.948761
9499.000000;0.948821
9498.000000;0.947618
9497.000000;0.946230
9496.000000;0.945664
9495.000000;0.945948
9494.000000;0.946444
9493.000000;0.946692
9492.000000;0.946594
9491.000000;0.946031
9490.000000;0.944913
9489.000000;0.943617
9488.000000;0.942833
9487.000000;0.942732
9486.000000;0.942734
9485.000000;0.942357
9484.000000;0.941924
9483.000000;0.942070
9482.000000;0.942820
9481.000000;0.943524
9480.000000;0.943589
9479.000000;0.942969
9478.000000;0.942056
9477.000000;0.941393
9476.000000;0.941397
9475.000000;0.942047
9474.000000;0.942765
9473.000000;0.942784
9472.000000;0.941734
9471.000000;0.939870
9470.000000;0.937837
9469.000000;0.936300
9468.000000;0.935654
9467.000000;0.935888
9466.000000;0.936719
9465.000000;0.937799
9464.000000;0.938676
9463.000000;0.938734
9462.000000;0.937646
9461.000000;0.935998
9460.000000;0.934983
9459.000000;0.935190
9458.000000;0.936037
9457.000000;0.936647
9456.000000;0.936878
9455.000000;0.937084
9454.000000;0.937287
9453.000000;0.937189
9452.000000;0.936802
9451.000000;0.936431
9450.000000;0.936085
9449.000000;0.935491
9448.000000;0.934727
9447.000000;0.934282
9446.000000;0.934365
9445.000000;0.934621
9444.000000;0.934684
9443.000000;0.934584
9442.000000;0.934420
9441.000000;0.934034
9440.000000;0.933279
9439.000000;0.932359
9438.000000;0.931677
9437.000000;0.931478
9436.000000;0.931709
9435.000000;0.932014
9434.000000;0.931881
9433.000000;0.931100
9432.000000;0.930191
9431.000000;0.930017
9430.000000;0.930786
9429.000000;0.931699
9428.000000;0.931860
9427.000000;0.931294
9426.000000;0.930739
9425.000000;0.930621
9424.000000;0.930601
9423.000000;0.930144
9422.000000;0.929272
9421.000000;0.928590
9420.000000;0.928590
9419.000000;0.928998
9418.000000;0.928965
9417.000000;0.928048
9416.000000;0.926856
9415.000000;0.926448
9414.000000;0.927103
9413.000000;0.928002
9412.000000;0.928182
9411.000000;0.927530
9410.000000;0.926655
9409.000000;0.926074
9408.000000;0.925824
9407.000000;0.925754
9406.000000;0.925825
9405.000000;0.926060
9404.000000;0.926315
9403.000000;0.926220
9402.000000;0.925460
9401.000000;0.924179
9400.000000;0.922996
9399.000000;0.922455
9398.000000;0.922410
9397.000000;0.922184
9396.000000;0.921382
9395.000000;0.920368
9394.000000;0.919848
9393.000000;0.920162
9392.000000;0.921083
9391.000000;0.922062
9390.000000;0.922575
9389.000000;0.922406
9388.000000;0.921794
9387.000000;0.921247
9386.000000;0.921138
9385.000000;0.921529
9384.000000;0.922263
9383.000000;0.922949
9382.000000;0.922931
9381.000000;0.921740
9380.000000;0.919743
9379.000000;0.917977
9378.000000;0.917154
9377.000000;0.917114
9376.000000;0.917383
9375.000000;0.917797
9374.000000;0.918337
9373.000000;0.918793
9372.000000;0.919075
9371.000000;0.919530
9370.000000;0.920431
9369.000000;0.921411
9368.000000;0.921917
9367.000000;0.921957
9366.000000;0.921818
9365.000000;0.921290
9364.000000;0.919886
9363.000000;0.917838
9362.000000;0.916141
9361.000000;0.915462
9360.000000;0.915609
9359.000000;0.916203
9358.000000;0.917164
9357.000000;0.918204
9356.000000;0.918554
9355.000000;0.917833
9354.000000;0.916791
9353.000000;0.916525
9352.000000;0.917138
9351.000000;0.917725
9350.000000;0.917576
9349.000000;0.916869
9348.000000;0.916139
9347.000000;0.915579
9346.000000;0.915081
9345.000000;0.914633
9344.000000;0.914370
9343.000000;0.914309
9342.000000;0.914214
9341.000000;0.913795
9340.000000;0.913045
9339.000000;0.912402
9338.000000;0.912404
9337.000000;0.913052
9336.000000;0.913676
9335.000000;0.913630
9334.000000;0.913045
9333.000000;0.912590
9332.000000;0.912556
9331.000000;0.912495
9330.000000;0.911855
9329.000000;0.910682
9328.000000;0.909535
9327.000000;0.908905
9326.000000;0.908914
9325.000000;0.909407
9324.000000;0.910085
9323.000000;0.910578
9322.000000;0.910644
9321.000000;0.910373
9320.000000;0.910118
9319.000000;0.910127
9318.000000;0.910279
9317.000000;0.910183
9316.000000;0.909542
9315.000000;0.908464
9314.000000;0.907452
9313.000000;0.907051
9312.000000;0.907417
9311.000000;0.908216
9310.000000;0.908939
9309.000000;0.909321
9308.000000;0.909457
9307.000000;0.909546
9306.000000;0.909568
9305.000000;0.909257
9304.000000;0.908442
9303.000000;0.907374
9302.000000;0.906588
9301.000000;0.906280
9300.000000;0.905931
9299.000000;0.904813
9298.000000;0.902991
9297.000000;0.901564
9296.000000;0.901655
9295.000000;0.903215
9294.000000;0.905014
9293.000000;0.905806
9292.000000;0.905368
9291.000000;0.904432
9290.000000;0.903837
9289.000000;0.903851
9288.000000;0.904109
9287.000000;0.904061
9286.000000;0.903546
9285.000000;0.902956
9284.000000;0.902757
9283.000000;0.902936
9282.000000;0.903083
9281.000000;0.902967
9280.000000;0.902739
9279.000000;0.902478
9278.000000;0.901903
9277.000000;0.900822
9276.000000;0.899668
9275.000000;0.899189
9274.000000;0.899633
9273.000000;0.900516
9272.000000;0.901172
9271.000000;0.901324
9270.000000;0.901126
9269.000000;0.900914
9268.000000;0.900955
9267.000000;0.901208
9266.000000;0.901253
9265.000000;0.900638
9264.000000;0.899386
9263.000000;0.898011
9262.000000;0.897037
9261.000000;0.896673
9260.000000;0.896911
9259.000000;0.897627
9258.000000;0.898453
9257.000000;0.898847
9256.000000;0.898545
9255.000000;0.897834
9254.000000;0.897204
9253.000000;0.896855
9252.000000;0.896701
9251.000000;0.896689
9250.000000;0.896839
9249.000000;0.897025
9248.000000;0.896957
9247.000000;0.896456
9246.000000;0.895666
9245.000000;0.895010
9244.000000;0.894947
9243.000000;0.895646
9242.000000;0.896781
9241.000000;0.897735
9240.000000;0.898095
9239.000000;0.897895
9238.000000;0.897358
9237.000000;0.896641
9236.000000;0.895943
9235.000000;0.895580
9234.000000;0.895669
9233.000000;0.895855
9232.000000;0.895638
9231.000000;0.894937
9230.000000;0.894108
9229.000000;0.893494
9228.000000;0.893201
9227.000000;0.893206
9226.000000;0.893387
9225.000000;0.893465
9224.000000;0.893226
9223.000000;0.892834
9222.000000;0.892660
9221.000000;0.892776
9220.000000;0.892889
9219.000000;0.892812
9218.000000;0.892670
9217.000000;0.892558
9216.000000;0.892377
9215.000000;0.892184
9214.000000;0.892341
9213.000000;0.893043
9212.000000;0.893896
9211.000000;0.894234
9210.000000;0.893785
9209.000000;0.892849
9208.000000;0.891973
9207.000000;0.891616
9206.000000;0.891940
9205.000000;0.892596
9204.000000;0.892811
9203.000000;0.892051
9202.000000;0.890660
9201.000000;0.889559
9200.000000;0.889263
9199.000000;0.889422
9198.000000;0.889442
9197.000000;0.889235
9196.000000;0.889160
9195.000000;0.889416
9194.000000;0.889809
9193.000000;0.890051
9192.000000;0.890020
9191.000000;0.889696
9190.000000;0.889127
9189.000000;0.888598
9188.000000;0.888570
9187.000000;0.889132
9186.000000;0.889654
9185.000000;0.889358
9184.000000;0.888296
9183.000000;0.887352
9182.000000;0.887158
9181.000000;0.887347
9180.000000;0.887199
9179.000000;0.886694
9178.000000;0.886441
9177.000000;0.886699
9176.000000;0.887020
9175.000000;0.886997
9174.000000;0.886904
9173.000000;0.887281
9172.000000;0.888119
9171.000000;0.888760
9170.000000;0.888515
9169.000000;0.887264
9168.000000;0.885577
9167.000000;0.884396
9166.000000;0.884382
9165.000000;0.885314
9164.000000;0.886210
9163.000000;0.886252
9162.000000;0.885542
9161.000000;0.884794
9160.000000;0.884433
9159.000000;0.884289
9158.000000;0.884091
9157.000000;0.883874
9156.000000;0.883784
9155.000000;0.883764
9154.000000;0.883657
9153.000000;0.883507
9152.000000;0.883555
9151.000000;0.883963
9150.000000;0.884669
9149.000000;0.885493
9148.000000;0.886261
9147.000000;0.886786
9146.000000;0.886835
9145.000000;0.886238
9144.000000;0.885076
9143.000000;0.883697
9142.000000;0.882513
9141.000000;0.881787
9140.000000;0.881576
9139.000000;0.881778
9138.000000;0.882149
9137.000000;0.882382
9136.000000;0.882338
9135.000000;0.882208
9134.000000;0.882287
9133.000000;0.882577
9132.000000;0.882743
9131.000000;0.882509
9130.000000;0.881954
9129.000000;0.881389
9128.000000;0.881079
9127.000000;0.881154
9126.000000;0.881584
9125.000000;0.882100
9124.000000;0.882289
9123.000000;0.881955
9122.000000;0.881329
9121.000000;0.880778
9120.000000;0.880435
9119.000000;0.880245
9118.000000;0.880241
9117.000000;0.880521
9116.000000;0.880946
9115.000000;0.881116
9114.000000;0.880729
9113.000000;0.879892
9112.000000;0.879047
9111.000000;0.878681
9110.000000;0.879029
9109.000000;0.879878
9108.000000;0.880623
9107.000000;0.880694
9106.000000;0.880024
9105.000000;0.879068
9104.000000;0.878373
9103.000000;0.878200
9102.000000;0.878475
9101.000000;0.878895
9100.000000;0.879080
9099.000000;0.878839
9098.000000;0.878396
9097.000000;0.878193
9096.000000;0.878365
9095.000000;0.878543
9094.000000;0.878300
9093.000000;0.877686
9092.000000;0.877173
9091.000000;0.877124
9090.000000;0.877450
9089.000000;0.877773
9088.000000;0.877810
9087.000000;0.877554
9086.000000;0.877181
9085.000000;0.876846
9084.000000;0.876547
9083.000000;0.876198
9082.000000;0.875836
9081.000000;0.875681
9080.000000;0.875939
9079.000000;0.876583
9078.000000;0.877388
9077.000000;0.878137
9076.000000;0.878697
9075.000000;0.878930
9074.000000;0.878696
9073.000000;0.877991
9072.000000;0.876971
9071.000000;0.875768
9070.000000;0.874425
9069.000000;0.873121
9068.000000;0.872324
9067.000000;0.872468
9066.000000;0.873464
9065.000000;0.874716
9064.000000;0.875672
9063.000000;0.876234
9062.000000;0.876583
9061.000000;0.876804
9060.000000;0.876867
9059.000000;0.876817
9058.000000;0.876757
9057.000000;0.876653
9056.000000;0.876329
9055.000000;0.875664
9054.000000;0.874697
9053.000000;0.873601
