Criado como novo conjunto de dados;"e0108.spp","-4235382.4 Secs"
cm-1;Abs
10000.000000;0.982125
9999.000000;0.982369
9998.000000;0.984050
9997.000000;0.985942
9996.000000;0.986547
9995.000000;0.985851
9994.000000;0.984434
9993.000000;0.982918
9992.000000;0.981372
9991.000000;0.979918
9990.000000;0.978762
9989.000000;0.978020
9988.000000;0.977596
9987.000000;0.977400
9986.000000;0.977376
9985.000000;0.977312
9984.000000;0.976860
9983.000000;0.975919
9982.000000;0.974788
9981.000000;0.973931
9980.000000;0.973717
9979.000000;0.974343
9978.000000;0.975693
9977.000000;0.977159
9976.000000;0.977962
9975.000000;0.977984
9974.000000;0.977973
9973.000000;0.978588
9972.000000;0.979407
9971.000000;0.979243
9970.000000;0.977486
9969.000000;0.974821
9968.000000;0.972544
9967.000000;0.971454
9966.000000;0.971468
9965.000000;0.971935
9964.000000;0.972109
9963.000000;0.971644
9962.000000;0.970914
9961.000000;0.970695
9960.000000;0.971274
9959.000000;0.971938
9958.000000;0.971610
9957.000000;0.970019
9956.000000;0.968001
9955.000000;0.966572
9954.000000;0.965925
9953.000000;0.965536
9952.000000;0.965010
9951.000000;0.964538
9950.000000;0.964513
9949.000000;0.964975
9948.000000;0.965585
9947.000000;0.966023
9946.000000;0.966291
9945.000000;0.966567
9944.000000;0.966834
9943.000000;0.966713
9942.000000;0.965794
9941.000000;0.964194
9940.000000;0.962670
9939.000000;0.962008
9938.000000;0.962346
9937.000000;0.963166
9936.000000;0.963877
9935.000000;0.964157
9934.000000;0.963780
9933.000000;0.962587
9932.000000;0.960933
9931.000000;0.959812
9930.000000;0.960019
9929.000000;0.961202
9928.000000;0.962193
9927.000000;0.962280
9926.000000;0.961756
9925.000000;0.961249
9924.000000;0.960975
9923.000000;0.960797
9922.000000;0.960564
9921.000000;0.960097
9920.000000;0.959141
9919.000000;0.957751
9918.000000;0.956549
9917.000000;0.956204
9916.000000;0.956639
9915.000000;0.957058
9914.000000;0.956785
9913.000000;0.955837
9912.000000;0.954614
9911.000000;0.953356
9910.000000;0.952110
9909.000000;0.951039
9908.000000;0.950503
9907.000000;0.950717
9906.000000;0.951429
9905.000000;0.952031
9904.000000;0.952068
9903.000000;0.951572
9902.000000;0.950783
9901.000000;0.949662
9900.000000;0.948058
9899.000000;0.946373
9898.000000;0.945634
9897.000000;0.946494
9896.000000;0.948312
9895.000000;0.949582
9894.000000;0.949287
9893.000000;0.947602
9892.000000;0.945379
9891.000000;0.943447
9890.000000;0.942389
9889.000000;0.942443
9888.000000;0.943321
9887.000000;0.944412
9886.000000;0.945378
9885.000000;0.946280
9884.000000;0.946980
9883.000000;0.946867
9882.000000;0.945561
9881.000000;0.943618
9880.000000;0.942053
9879.000000;0.941336
9878.000000;0.941270
9877.000000;0.941665
9876.000000;0.942527
9875.000000;0.943507
9874.000000;0.943763
9873.000000;0.942831
9872.000000;0.941305
9871.000000;0.940195
9870.000000;0.939708
9869.000000;0.939078
9868.000000;0.937680
9867.000000;0.935959
9866.000000;0.934990
9865.000000;0.935281
9864.000000;0.936310
9863.000000;0.937233
9862.000000;0.937710
9861.000000;0.937832
9860.000000;0.937567
9859.000000;0.936739
9858.000000;0.935514
9857.000000;0.934395
9856.000000;0.933569
9855.000000;0.932673
9854.000000;0.931494
9853.000000;0.930564
9852.000000;0.930656
9851.000000;0.931836
9850.000000;0.933402
9849.000000;0.934697
9848.000000;0.935559
9847.000000;0.935908
9846.000000;0.935461
9845.000000;0.934204
9844.000000;0.932837
9843.000000;0.932267
9842.000000;0.932638
9841.000000;0.933103
9840.000000;0.932605
9839.000000;0.930833
9838.000000;0.928484
9837.000000;0.926772
9836.000000;0.926610
9835.000000;0.928031
9834.000000;0.930165
9833.000000;0.931772
9832.000000;0.932024
9831.000000;0.931032
9830.000000;0.929748
9829.000000;0.929214
9828.000000;0.929705
9827.000000;0.930474
9826.000000;0.930443
9825.000000;0.929221
9824.000000;0.927433
9823.000000;0.926016
9822.000000;0.925300
9821.000000;0.924846
9820.000000;0.924120
9819.000000;0.923174
9818.000000;0.922613
9817.000000;0.922944
9816.000000;0.923975
9815.000000;0.924884
9814.000000;0.924947
9813.000000;0.924266
9812.000000;0.923651
9811.000000;0.923714
9810.000000;0.924181
9809.000000;0.924212
9808.000000;0.923354
9807.000000;0.921969
9806.000000;0.920734
9805.000000;0.919978
9804.000000;0.919647
9803.000000;0.919626
9802.000000;0.919756
9801.000000;0.919594
9800.000000;0.918649
9799.000000;0.917074
9798.000000;0.915732
9797.000000;0.915256
9796.000000;0.915309
9795.000000;0.915107
9794.000000;0.914501
9793.000000;0.914016
9792.000000;0.913869
9791.000000;0.913574
9790.000000;0.912787
9789.000000;0.912075
9788.000000;0.912332
9787.000000;0.913602
9786.000000;0.914937
9785.000000;0.915418
9784.000000;0.915037
9783.000000;0.914476
9782.000000;0.914309
9781.000000;0.914532
9780.000000;0.914667
9779.000000;0.914231
9778.000000;0.913139
9777.000000;0.911775
9776.000000;0.910707
9775.000000;0.910309
9774.000000;0.910570
9773.000000;0.911142
9772.000000;0.911576
9771.000000;0.911639
9770.000000;0.911463
9769.000000;0.911272
9768.000000;0.910944
9767.000000;0.910067
9766.000000;0.908563
9765.000000;0.906994
9764.000000;0.906008
9763.000000;0.905654
9762.000000;0.905519
9761.000000;0.905342
9760.000000;0.905204
9759.000000;0.905184
9758.000000;0.905170
9757.000000;0.905052
9756.000000;0.904894
9755.000000;0.904869
9754.000000;0.905146
9753.000000;0.905706
9752.000000;0.906136
9751.000000;0.905796
9750.000000;0.904530
9749.000000;0.903047
9748.000000;0.902156
9747.000000;0.901753
9746.000000;0.901065
9745.000000;0.899888
9744.000000;0.898968
9743.000000;0.898906
9742.000000;0.899297
9741.000000;0.899373
9740.000000;0.899114
9739.000000;0.899131
9738.000000;0.899582
9737.000000;0.899776
9736.000000;0.898981
9735.000000;0.897378
9734.000000;0.896022
9733.000000;0.895919
9732.000000;0.897141
9731.000000;0.898746
9730.000000;0.899610
9729.000000;0.899444
9728.000000;0.898857
9727.000000;0.898405
9726.000000;0.897909
9725.000000;0.896936
9724.000000;0.895615
9723.000000;0.894578
9722.000000;0.894166
9721.000000;0.894141
9720.000000;0.894213
9719.000000;0.894431
9718.000000;0.894860
9717.000000;0.895191
9716.000000;0.894980
9715.000000;0.894220
9714.000000;0.893406
9713.000000;0.893025
9712.000000;0.893142
9711.000000;0.893505
9710.000000;0.893888
9709.000000;0.894184
9708.000000;0.894259
9707.000000;0.893898
9706.000000;0.892976
9705.000000;0.891642
9704.000000;0.890282
9703.000000;0.889289
9702.000000;0.888815
9701.000000;0.888692
9700.000000;0.888582
9699.000000;0.888240
9698.000000;0.887651
9697.000000;0.886933
9696.000000;0.886178
9695.000000;0.885572
9694.000000;0.885571
9693.000000;0.886537
9692.000000;0.888079
9691.000000;0.889096
9690.000000;0.888755
9689.000000;0.887302
9688.000000;0.885664
9687.000000;0.884439
9686.000000;0.883639
9685.000000;0.883180
9684.000000;0.883133
9683.000000;0.883474
9682.000000;0.884013
9681.000000;0.884607
9680.000000;0.885130
9679.000000;0.885268
9678.000000;0.884816
9677.000000;0.884200
9676.000000;0.884184
9675.000000;0.884788
9674.000000;0.885020
9673.000000;0.884093
9672.000000;0.882452
9671.000000;0.881156
9670.000000;0.880584
9669.000000;0.880250
9668.000000;0.879677
9667.000000;0.878919
9666.000000;0.878256
9665.000000;0.877820
9664.000000;0.877586
9663.000000;0.877464
9662.000000;0.877347
9661.000000;0.877230
9660.000000;0.877209
9659.000000;0.877211
9658.000000;0.876932
9657.000000;0.876326
9656.000000;0.875911
9655.000000;0.876158
9654.000000;0.876676
9653.000000;0.876553
9652.000000;0.875577
9651.000000;0.874633
9650.000000;0.874667
9649.000000;0.875640
9648.000000;0.876688
9647.000000;0.877032
9646.000000;0.876459
9645.000000;0.875206
9644.000000;0.873741
9643.000000;0.872610
9642.000000;0.872160
9641.000000;0.872282
9640.000000;0.872520
9639.000000;0.872493
9638.000000;0.872196
9637.000000;0.871863
9636.000000;0.871612
9635.000000;0.871304
9634.000000;0.870793
9633.000000;0.870267
9632.000000;0.870120
9631.000000;0.870410
9630.000000;0.870626
9629.000000;0.870198
9628.000000;0.869151
9627.000000;0.868048
9626.000000;0.867325
9625.000000;0.866954
9624.000000;0.866732
9623.000000;0.866595
9622.000000;0.866522
9621.000000;0.866385
9620.000000;0.866115
9619.000000;0.865900
9618.000000;0.865982
9617.000000;0.866319
9616.000000;0.866565
9615.000000;0.866429
9614.000000;0.865962
9613.000000;0.865438
9612.000000;0.865014
9611.000000;0.864532
9610.000000;0.863701
9609.000000;0.862513
9608.000000;0.861453
9607.000000;0.861215
9606.000000;0.862132
9605.000000;0.863806
9604.000000;0.865237
9603.000000;0.865439
9602.000000;0.864179
9601.000000;0.862237
9600.000000;0.860830
9599.000000;0.860619
9598.000000;0.861200
9597.000000;0.861593
9596.000000;0.861136
9595.000000;0.859909
9594.000000;0.858445
9593.000000;0.857270
9592.000000;0.856616
9591.000000;0.856362
9590.000000;0.856221
9589.000000;0.856092
9588.000000;0.856166
9587.000000;0.856577
9586.000000;0.857102
9585.000000;0.857419
9584.000000;0.857565
9583.000000;0.857833
9582.000000;0.858218
9581.000000;0.858297
9580.000000;0.857757
9579.000000;0.856832
9578.000000;0.856084
9577.000000;0.855896
9576.000000;0.856236
9575.000000;0.856701
9574.000000;0.856748
9573.000000;0.856111
9572.000000;0.855093
9571.000000;0.854261
9570.000000;0.853798
9569.000000;0.853363
9568.000000;0.852656
9567.000000;0.851813
9566.000000;0.851085
9565.000000;0.850434
9564.000000;0.849718
9563.000000;0.849059
9562.000000;0.848705
9561.000000;0.848630
9560.000000;0.848553
9559.000000;0.848313
9558.000000;0.847971
9557.000000;0.847656
9556.000000;0.847543
9555.000000;0.847889
9554.000000;0.848757
9553.000000;0.849669
9552.000000;0.849899
9551.000000;0.849241
9550.000000;0.848249
9549.000000;0.847561
9548.000000;0.847250
9547.000000;0.847011
9546.000000;0.846755
9545.000000;0.846680
9544.000000;0.846843
9543.000000;0.846948
9542.000000;0.846651
9541.000000;0.845925
9540.000000;0.845060
9539.000000;0.844426
9538.000000;0.844264
9537.000000;0.844571
9536.000000;0.845051
9535.000000;0.845216
9534.000000;0.844712
9533.000000;0.843639
9532.000000;0.842513
9531.000000;0.841836
9530.000000;0.841683
9529.000000;0.841720
9528.000000;0.841607
9527.000000;0.841279
9526.000000;0.840871
9525.000000;0.840517
9524.000000;0.840315
9523.000000;0.840327
9522.000000;0.840432
9521.000000;0.840314
9520.000000;0.839850
9519.000000;0.839451
9518.000000;0.839667
9517.000000;0.840434
9516.000000;0.841056
9515.000000;0.841082
9514.000000;0.840860
9513.000000;0.840937
9512.000000;0.841174
9511.000000;0.840866
9510.000000;0.839693
9509.000000;0.838178
9508.000000;0.837157
9507.000000;0.837052
9506.000000;0.837703
9505.000000;0.838641
9504.000000;0.839414
9503.000000;0.839793
9502.000000;0.839768
9501.000000;0.839251
9500.000000;0.837975
9499.000000;0.835972
9498.000000;0.834072
9497.000000;0.833403
9496.000000;0.834225
9495.000000;0.835595
9494.000000;0.836364
9493.000000;0.836191
9492.000000;0.835394
9491.000000;0.834295
9490.000000;0.833206
9489.000000;0.832679
9488.000000;0.833115
9487.000000;0.834144
9486.000000;0.834930
9485.000000;0.835122
9484.000000;0.835035
9483.000000;0.834934
9482.000000;0.834712
9481.000000;0.834371
9480.000000;0.834205
9479.000000;0.834200
9478.000000;0.833775
9477.000000;0.832572
9476.000000;0.831172
9475.000000;0.830517
9474.000000;0.830766
9473.000000;0.831160
9472.000000;0.830954
9471.000000;0.830113
9470.000000;0.829077
9469.000000;0.828232
9468.000000;0.827735
9467.000000;0.827609
9466.000000;0.827778
9465.000000;0.828056
9464.000000;0.828176
9463.000000;0.827869
9462.000000;0.827037
9461.000000;0.825937
9460.000000;0.825084
9459.000000;0.824829
9458.000000;0.825065
9457.000000;0.825446
9456.000000;0.825763
9455.000000;0.826003
9454.000000;0.826157
9453.000000;0.826201
9452.000000;0.826183
9451.000000;0.826133
9450.000000;0.825924
9449.000000;0.825481
9448.000000;0.825091
9447.000000;0.825205
9446.000000;0.825870
9445.000000;0.826559
9444.000000;0.826715
9443.000000;0.826257
9442.000000;0.825400
9441.000000;0.824196
9440.000000;0.822556
9439.000000;0.820713
9438.000000;0.819390
9437.000000;0.819280
9436.000000;0.820337
9435.000000;0.821706
9434.000000;0.822448
9433.000000;0.822340
9432.000000;0.821922
9431.000000;0.821799
9430.000000;0.822017
9429.000000;0.822131
9428.000000;0.821726
9427.000000;0.820775
9426.000000;0.819624
9425.000000;0.818768
9424.000000;0.818529
9423.000000;0.818764
9422.000000;0.818932
9421.000000;0.818596
9420.000000;0.817868
9419.000000;0.817263
9418.000000;0.817132
9417.000000;0.817370
9416.000000;0.817652
9415.000000;0.817777
9414.000000;0.817715
9413.000000;0.817471
9412.000000;0.817048
9411.000000;0.816505
9410.000000;0.815909
9409.000000;0.815259
9408.000000;0.814564
9407.000000;0.814017
9406.000000;0.813979
9405.000000;0.814611
9404.000000;0.815521
9403.000000;0.815945
9402.000000;0.815457
9401.000000;0.814445
9400.000000;0.813750
9399.000000;0.813828
9398.000000;0.814406
9397.000000;0.814912
9396.000000;0.815046
9395.000000;0.814857
9394.000000;0.814497
9393.000000;0.814076
9392.000000;0.813645
9391.000000;0.813168
9390.000000;0.812580
9389.000000;0.811939
9388.000000;0.811422
9387.000000;0.811076
9386.000000;0.810727
9385.000000;0.810300
9384.000000;0.810059
9383.000000;0.810321
9382.000000;0.811021
9381.000000;0.811751
9380.000000;0.812133
9379.000000;0.811973
9378.000000;0.811193
9377.000000;0.809918
9376.000000;0.808606
9375.000000;0.807795
9374.000000;0.807652
9373.000000;0.807953
9372.000000;0.808505
9371.000000;0.809315
9370.000000;0.810245
9369.000000;0.810786
9368.000000;0.810445
9367.000000;0.809303
9366.000000;0.807996
9365.000000;0.807124
9364.000000;0.806747
9363.000000;0.806480
9362.000000;0.806068
9361.000000;0.805788
9360.000000;0.806142
9359.000000;0.807071
9358.000000;0.807720
9357.000000;0.807240
9356.000000;0.805810
9355.000000;0.804541
9354.000000;0.804331
9353.000000;0.805047
9352.000000;0.805849
9351.000000;0.806093
9350.000000;0.805718
9349.000000;0.804982
9348.000000;0.804137
9347.000000;0.803383
9346.000000;0.802913
9345.000000;0.802808
9344.000000;0.802884
9343.000000;0.802733
9342.000000;0.802071
9341.000000;0.801146
9340.000000;0.800677
9339.000000;0.801203
9338.000000;0.802467
9337.000000;0.803600
9336.000000;0.803948
9335.000000;0.803616
9334.000000;0.803167
9333.000000;0.802989
9332.000000;0.803041
9331.000000;0.803054
9330.000000;0.802800
9329.000000;0.802223
9328.000000;0.801449
9327.000000;0.800703
9326.000000;0.800177
9325.000000;0.799966
9324.000000;0.800093
9323.000000;0.800467
9322.000000;0.800818
9321.000000;0.800822
9320.000000;0.800420
9319.000000;0.799932
9318.000000;0.799746
9317.000000;0.799901
9316.000000;0.800025
9315.000000;0.799707
9314.000000;0.798888
9313.000000;0.797902
9312.000000;0.797150
9311.000000;0.796750
9310.000000;0.796511
9309.000000;0.796219
9308.000000;0.795882
9307.000000;0.795665
9306.000000;0.795681
9305.000000;0.795909
9304.000000;0.796269
9303.000000;0.796680
9302.000000;0.797107
9301.000000;0.797581
9300.000000;0.798084
9299.000000;0.798349
9298.000000;0.797960
9297.000000;0.796867
9296.000000;0.795648
9295.000000;0.794987
9294.000000;0.794897
9293.000000;0.794773
9292.000000;0.794196
9291.000000;0.793446
9290.000000;0.793100
9289.000000;0.793369
9288.000000;0.793955
9287.000000;0.794422
9286.000000;0.794543
9285.000000;0.794419
9284.000000;0.794337
9283.000000;0.794464
9282.000000;0.794642
9281.000000;0.794575
9280.000000;0.794201
9279.000000;0.793713
9278.000000;0.793255
9277.000000;0.792837
9276.000000;0.792548
9275.000000;0.792556
9274.000000;0.792769
9273.000000;0.792782
9272.000000;0.792332
9271.000000;0.791599
9270.000000;0.790917
9269.000000;0.790389
9268.000000;0.790001
9267.000000;0.789846
9266.000000;0.789959
9265.000000;0.790052
9264.000000;0.789736
9263.000000;0.788971
9262.000000;0.788115
9261.000000;0.787584
9260.000000;0.787592
9259.000000;0.788101
9258.000000;0.788782
9257.000000;0.789126
9256.000000;0.788853
9255.000000;0.788205
9254.000000;0.787688
9253.000000;0.787577
9252.000000;0.787831
9251.000000;0.788320
9250.000000;0.788866
9249.000000;0.789103
9248.000000;0.788662
9247.000000;0.787586
9246.000000;0.786386
9245.000000;0.785600
9244.000000;0.785426
9243.000000;0.785767
9242.000000;0.786420
9241.000000;0.787127
9240.000000;0.787636
9239.000000;0.787825
9238.000000;0.787745
9237.000000;0.787516
9236.000000;0.787246
9235.000000;0.787062
9234.000000;0.787064
9233.000000;0.787217
9232.000000;0.787333
9231.000000;0.787189
9230.000000;0.786673
9229.000000;0.785858
9228.000000;0.784992
9227.000000;0.784348
9226.000000;0.783977
9225.000000;0.783675
9224.000000;0.783285
9223.000000;0.782918
9222.000000;0.782752
9221.000000;0.782764
9220.000000;0.782821
9219.000000;0.782912
9218.000000;0.783039
9217.000000;0.783010
9216.000000;0.782657
9215.000000;0.782227
9214.000000;0.782192
9213.000000;0.782627
9212.000000;0.783076
9211.000000;0.783111
9210.000000;0.782733
9209.000000;0.782165
9208.000000;0.781600
9207.000000;0.781283
9206.000000;0.781458
9205.000000;0.781947
9204.000000;0.782058
9203.000000;0.781276
9202.000000;0.779946
9201.000000;0.778974
9200.000000;0.778881
9199.000000;0.779399
9198.000000;0.779912
9197.000000;0.780079
9196.000000;0.780002
9195.000000;0.779983
9194.000000;0.780193
9193.000000;0.780490
9192.000000;0.780543
9191.000000;0.780204
9190.000000;0.779711
9189.000000;0.779461
9188.000000;0.779622
9187.000000;0.780001
9186.000000;0.780193
9185.000000;0.779791
9184.000000;0.778613
9183.000000;0.776925
9182.000000;0.775374
9181.000000;0.774544
9180.000000;0.774561
9179.000000;0.775171
9178.000000;0.776039
9177.000000;0.776828
9176.000000;0.777142
9175.000000;0.776732
9174.000000;0.775807
9173.000000;0.774966
9172.000000;0.774722
9171.000000;0.775123
9170.000000;0.775798
9169.000000;0.776234
9168.000000;0.776106
9167.000000;0.775538
9166.000000;0.775064
9165.000000;0.775161
9164.000000;0.775805
9163.000000;0.776563
9162.000000;0.777070
9161.000000;0.777244
9160.000000;0.777122
9159.000000;0.776756
9158.000000;0.776342
9157.000000;0.776153
9156.000000;0.776202
9155.000000;0.776127
9154.000000;0.775594
9153.000000;0.774713
9152.000000;0.773971
9151.000000;0.773824
9150.000000;0.774376
9149.000000;0.775289
9148.000000;0.775927
9147.000000;0.775790
9146.000000;0.775000
9145.000000;0.774216
9144.000000;0.773942
9143.000000;0.774046
9142.000000;0.774056
9141.000000;0.773747
9140.000000;0.773248
9139.000000;0.772743
9138.000000;0.772320
9137.000000;0.772044
9136.000000;0.771933
9135.000000;0.771898
9134.000000;0.771882
9133.000000;0.771959
9132.000000;0.772087
9131.000000;0.771861
9130.000000;0.770916
9129.000000;0.769574
9128.000000;0.768694
9127.000000;0.768750
9126.000000;0.769355
9125.000000;0.769904
9124.000000;0.770347
9123.000000;0.771002
9122.000000;0.771817
9121.000000;0.772263
9120.000000;0.771986
9119.000000;0.771222
9118.000000;0.770483
9117.000000;0.770069
9116.000000;0.769981
9115.000000;0.770078
9114.000000;0.770160
9113.000000;0.770021
9112.000000;0.769645
9111.000000;0.769309
9110.000000;0.769368
9109.000000;0.769856
9108.000000;0.770371
9107.000000;0.770411
9106.000000;0.769835
9105.000000;0.768967
9104.000000;0.768267
9103.000000;0.767943
9102.000000;0.767902
9101.000000;0.767973
9100.000000;0.768096
9099.000000;0.768310
9098.000000;0.768669
9097.000000;0.769201
9096.000000;0.769860
9095.000000;0.770472
9094.000000;0.770836
9093.000000;0.770892
9092.000000;0.770719
9091.000000;0.770336
9090.000000;0.769660
9089.000000;0.768713
9088.000000;0.767734
9087.000000;0.766951
9086.000000;0.766398
9085.000000;0.766071
9084.000000;0.766097
9083.000000;0.766496
9082.000000;0.766913
9081.000000;0.766895
9080.000000;0.766461
9079.000000;0.766125
9078.000000;0.766297
9077.000000;0.766857
9076.000000;0.767386
9075.000000;0.767583
9074.000000;0.767373
9073.000000;0.766822
9072.000000;0.766116
9071.000000;0.765479
9070.000000;0.765010
9069.000000;0.764693
9068.000000;0.764599
9067.000000;0.764864
9066.000000;0.765377
9065.000000;0.765723
9064.000000;0.765607
9063.000000;0.765184
9062.000000;0.764770
9061.000000;0.764381
9060.000000;0.763774
9059.000000;0.762886
9058.000000;0.761998
9057.000000;0.761505
9056.000000;0.761645
9055.000000;0.762363
9054.000000;0.763246
9053.000000;0.763720
