Criado como novo conjunto de dados;"e0108.spp","-4283445.0 Secs"
cm-1;Abs
10000.000000;0.866396
9999.000000;0.866464
9998.000000;0.866477
9997.000000;0.866608
9996.000000;0.866131
9995.000000;0.864967
9994.000000;0.864064
9993.000000;0.863687
9992.000000;0.863612
9991.000000;0.863710
9990.000000;0.864139
9989.000000;0.864617
9988.000000;0.864408
9987.000000;0.863304
9986.000000;0.862027
9985.000000;0.861283
9984.000000;0.860950
9983.000000;0.860597
9982.000000;0.860312
9981.000000;0.860433
9980.000000;0.860792
9979.000000;0.860876
9978.000000;0.860669
9977.000000;0.860783
9976.000000;0.861650
9975.000000;0.862890
9974.000000;0.863563
9973.000000;0.862879
9972.000000;0.860774
9971.000000;0.858065
9970.000000;0.856000
9969.000000;0.855362
9968.000000;0.855945
9967.000000;0.856963
9966.000000;0.857817
9965.000000;0.858224
9964.000000;0.857857
9963.000000;0.856526
9962.000000;0.854805
9961.000000;0.853897
9960.000000;0.854449
9959.000000;0.855715
9958.000000;0.856219
9957.000000;0.855190
9956.000000;0.853154
9955.000000;0.851231
9954.000000;0.850167
9953.000000;0.850005
9952.000000;0.850298
9951.000000;0.850455
9950.000000;0.850108
9949.000000;0.849416
9948.000000;0.848985
9947.000000;0.849288
9946.000000;0.850149
9945.000000;0.850871
9944.000000;0.850919
9943.000000;0.850347
9942.000000;0.849566
9941.000000;0.848855
9940.000000;0.848253
9939.000000;0.847819
9938.000000;0.847754
9937.000000;0.848187
9936.000000;0.848935
9935.000000;0.849530
9934.000000;0.849446
9933.000000;0.848376
9932.000000;0.846475
9931.000000;0.844360
9930.000000;0.842740
9929.000000;0.841944
9928.000000;0.841857
9927.000000;0.842271
9926.000000;0.843061
9925.000000;0.843904
9924.000000;0.844098
9923.000000;0.843067
9922.000000;0.841110
9921.000000;0.839372
9920.000000;0.838866
9919.000000;0.839575
9918.000000;0.840582
9917.000000;0.841004
9916.000000;0.840731
9915.000000;0.840272
9914.000000;0.840039
9913.000000;0.839858
9912.000000;0.839202
9911.000000;0.837873
9910.000000;0.836378
9909.000000;0.835538
9908.000000;0.835718
9907.000000;0.836447
9906.000000;0.836837
9905.000000;0.836400
9904.000000;0.835441
9903.000000;0.834658
9902.000000;0.834410
9901.000000;0.834441
9900.000000;0.834304
9899.000000;0.833892
9898.000000;0.833424
9897.000000;0.832994
9896.000000;0.832429
9895.000000;0.831636
9894.000000;0.830894
9893.000000;0.830586
9892.000000;0.830731
9891.000000;0.830949
9890.000000;0.830872
9889.000000;0.830506
9888.000000;0.830151
9887.000000;0.830058
9886.000000;0.830159
9885.000000;0.830078
9884.000000;0.829421
9883.000000;0.828159
9882.000000;0.826725
9881.000000;0.825659
9880.000000;0.825176
9879.000000;0.825110
9878.000000;0.825180
9877.000000;0.825162
9876.000000;0.824858
9875.000000;0.824176
9874.000000;0.823329
9873.000000;0.822786
9872.000000;0.822874
9871.000000;0.823518
9870.000000;0.824441
9869.000000;0.825417
9868.000000;0.826200
9867.000000;0.826415
9866.000000;0.825849
9865.000000;0.824837
9864.000000;0.824081
9863.000000;0.823945
9862.000000;0.824082
9861.000000;0.823837
9860.000000;0.822928
9859.000000;0.821672
9858.000000;0.820619
9857.000000;0.820028
9856.000000;0.819683
9855.000000;0.819183
9854.000000;0.818446
9853.000000;0.817873
9852.000000;0.817917
9851.000000;0.818547
9850.000000;0.819215
9849.000000;0.819401
9848.000000;0.819081
9847.000000;0.818600
9846.000000;0.818205
9845.000000;0.817822
9844.000000;0.817233
9843.000000;0.816402
9842.000000;0.815565
9841.000000;0.814965
9840.000000;0.814504
9839.000000;0.813781
9838.000000;0.812647
9837.000000;0.811617
9836.000000;0.811422
9835.000000;0.812088
9834.000000;0.812776
9833.000000;0.812735
9832.000000;0.812138
9831.000000;0.811695
9830.000000;0.811671
9829.000000;0.811721
9828.000000;0.811620
9827.000000;0.811619
9826.000000;0.811905
9825.000000;0.812137
9824.000000;0.811846
9823.000000;0.811086
9822.000000;0.810302
9821.000000;0.809681
9820.000000;0.809019
9819.000000;0.808277
9818.000000;0.807854
9817.000000;0.808072
9816.000000;0.808607
9815.000000;0.808739
9814.000000;0.808189
9813.000000;0.807443
9812.000000;0.807143
9811.000000;0.807333
9810.000000;0.807474
9809.000000;0.807074
9808.000000;0.806136
9807.000000;0.805055
9806.000000;0.804296
9805.000000;0.804174
9804.000000;0.804655
9803.000000;0.805263
9802.000000;0.805387
9801.000000;0.804855
9800.000000;0.804076
9799.000000;0.803469
9798.000000;0.802930
9797.000000;0.802087
9796.000000;0.800907
9795.000000;0.799757
9794.000000;0.798908
9793.000000;0.798292
9792.000000;0.797790
9791.000000;0.797486
9790.000000;0.797543
9789.000000;0.798039
9788.000000;0.798994
9787.000000;0.800305
9786.000000;0.801549
9785.000000;0.802095
9784.000000;0.801629
9783.000000;0.800424
9782.000000;0.798972
9781.000000;0.797524
9780.000000;0.796155
9779.000000;0.795074
9778.000000;0.794562
9777.000000;0.794650
9776.000000;0.795046
9775.000000;0.795388
9774.000000;0.795412
9773.000000;0.794955
9772.000000;0.794100
9771.000000;0.793333
9770.000000;0.793282
9769.000000;0.794061
9768.000000;0.794978
9767.000000;0.795078
9766.000000;0.794019
9765.000000;0.792366
9764.000000;0.791048
9763.000000;0.790595
9762.000000;0.790877
9761.000000;0.791418
9760.000000;0.791830
9759.000000;0.791953
9758.000000;0.791761
9757.000000;0.791286
9756.000000;0.790619
9755.000000;0.789848
9754.000000;0.788964
9753.000000;0.787915
9752.000000;0.786809
9751.000000;0.785972
9750.000000;0.785732
9749.000000;0.786142
9748.000000;0.786937
9747.000000;0.787699
9746.000000;0.788077
9745.000000;0.787915
9744.000000;0.787261
9743.000000;0.786294
9742.000000;0.785273
9741.000000;0.784533
9740.000000;0.784394
9739.000000;0.784894
9738.000000;0.785625
9737.000000;0.785944
9736.000000;0.785418
9735.000000;0.784075
9734.000000;0.782308
9733.000000;0.780692
9732.000000;0.779791
9731.000000;0.779863
9730.000000;0.780616
9729.000000;0.781436
9728.000000;0.781949
9727.000000;0.782219
9726.000000;0.782377
9725.000000;0.782323
9724.000000;0.781931
9723.000000;0.781285
9722.000000;0.780483
9721.000000;0.779410
9720.000000;0.778020
9719.000000;0.776680
9718.000000;0.775945
9717.000000;0.776038
9716.000000;0.776749
9715.000000;0.777718
9714.000000;0.778540
9713.000000;0.778762
9712.000000;0.778254
9711.000000;0.777587
9710.000000;0.777593
9709.000000;0.778397
9708.000000;0.779174
9707.000000;0.779013
9706.000000;0.777774
9705.000000;0.776000
9704.000000;0.774320
9703.000000;0.773205
9702.000000;0.772992
9701.000000;0.773706
9700.000000;0.774863
9699.000000;0.775702
9698.000000;0.775716
9697.000000;0.774905
9696.000000;0.773666
9695.000000;0.772619
9694.000000;0.772338
9693.000000;0.772911
9692.000000;0.773728
9691.000000;0.773961
9690.000000;0.773361
9689.000000;0.772439
9688.000000;0.771830
9687.000000;0.771637
9686.000000;0.771458
9685.000000;0.770903
9684.000000;0.769975
9683.000000;0.769028
9682.000000;0.768452
9681.000000;0.768310
9680.000000;0.768204
9679.000000;0.767609
9678.000000;0.766454
9677.000000;0.765305
9676.000000;0.764857
9675.000000;0.765272
9674.000000;0.766112
9673.000000;0.766862
9672.000000;0.767330
9671.000000;0.767518
9670.000000;0.767343
9669.000000;0.766693
9668.000000;0.765703
9667.000000;0.764774
9666.000000;0.764252
9665.000000;0.764185
9664.000000;0.764335
9663.000000;0.764371
9662.000000;0.764063
9661.000000;0.763463
9660.000000;0.762905
9659.000000;0.762688
9658.000000;0.762719
9657.000000;0.762622
9656.000000;0.762285
9655.000000;0.762067
9654.000000;0.762282
9653.000000;0.762663
9652.000000;0.762617
9651.000000;0.761945
9650.000000;0.761027
9649.000000;0.760290
9648.000000;0.759782
9647.000000;0.759319
9646.000000;0.758755
9645.000000;0.758003
9644.000000;0.757063
9643.000000;0.756205
9642.000000;0.755877
9641.000000;0.756140
9640.000000;0.756407
9639.000000;0.756092
9638.000000;0.755401
9637.000000;0.755066
9636.000000;0.755314
9635.000000;0.755526
9634.000000;0.755106
9633.000000;0.754343
9632.000000;0.754052
9631.000000;0.754547
9630.000000;0.755306
9629.000000;0.755606
9628.000000;0.755207
9627.000000;0.754360
9626.000000;0.753425
9625.000000;0.752645
9624.000000;0.752148
9623.000000;0.751935
9622.000000;0.751872
9621.000000;0.751829
9620.000000;0.751847
9619.000000;0.752057
9618.000000;0.752415
9617.000000;0.752607
9616.000000;0.752324
9615.000000;0.751618
9614.000000;0.750863
9613.000000;0.750331
9612.000000;0.749891
9611.000000;0.749230
9610.000000;0.748307
9609.000000;0.747445
9608.000000;0.746945
9607.000000;0.746805
9606.000000;0.746927
9605.000000;0.747389
9604.000000;0.748238
9603.000000;0.749100
9602.000000;0.749353
9601.000000;0.748806
9600.000000;0.747989
9599.000000;0.747583
9598.000000;0.747709
9597.000000;0.747931
9596.000000;0.747833
9595.000000;0.747394
9594.000000;0.746850
9593.000000;0.746422
9592.000000;0.746181
9591.000000;0.745996
9590.000000;0.745570
9589.000000;0.744669
9588.000000;0.743381
9587.000000;0.742072
9586.000000;0.741081
9585.000000;0.740506
9584.000000;0.740248
9583.000000;0.740139
9582.000000;0.740031
9581.000000;0.739888
9580.000000;0.739817
9579.000000;0.739925
9578.000000;0.740166
9577.000000;0.740407
9576.000000;0.740581
9575.000000;0.740624
9574.000000;0.740365
9573.000000;0.739760
9572.000000;0.739196
9571.000000;0.739218
9570.000000;0.739820
9569.000000;0.740311
9568.000000;0.740058
9567.000000;0.739143
9566.000000;0.738107
9565.000000;0.737288
9564.000000;0.736696
9563.000000;0.736327
9562.000000;0.736237
9561.000000;0.736346
9560.000000;0.736427
9559.000000;0.736296
9558.000000;0.735861
9557.000000;0.735102
9556.000000;0.734223
9555.000000;0.733677
9554.000000;0.733723
9553.000000;0.734045
9552.000000;0.734145
9551.000000;0.734039
9550.000000;0.734173
9549.000000;0.734630
9548.000000;0.734893
9547.000000;0.734556
9546.000000;0.733850
9545.000000;0.733201
9544.000000;0.732637
9543.000000;0.731984
9542.000000;0.731357
9541.000000;0.731054
9540.000000;0.731074
9539.000000;0.731138
9538.000000;0.731122
9537.000000;0.731094
9536.000000;0.730958
9535.000000;0.730463
9534.000000;0.729707
9533.000000;0.729275
9532.000000;0.729609
9531.000000;0.730395
9530.000000;0.730826
9529.000000;0.730415
9528.000000;0.729407
9527.000000;0.728409
9526.000000;0.727830
9525.000000;0.727733
9524.000000;0.728029
9523.000000;0.728565
9522.000000;0.728980
9521.000000;0.728772
9520.000000;0.727781
9519.000000;0.726604
9518.000000;0.726200
9517.000000;0.726921
9516.000000;0.728067
9515.000000;0.728608
9514.000000;0.728211
9513.000000;0.727380
9512.000000;0.726684
9511.000000;0.726222
9510.000000;0.725886
9509.000000;0.725767
9508.000000;0.725995
9507.000000;0.726326
9506.000000;0.726208
9505.000000;0.725307
9504.000000;0.723873
9503.000000;0.722555
9502.000000;0.721939
9501.000000;0.722199
9500.000000;0.723015
9499.000000;0.723800
9498.000000;0.724079
9497.000000;0.723776
9496.000000;0.723144
9495.000000;0.722468
9494.000000;0.721859
9493.000000;0.721268
9492.000000;0.720616
9491.000000;0.719911
9490.000000;0.719301
9489.000000;0.719010
9488.000000;0.719116
9487.000000;0.719359
9486.000000;0.719287
9485.000000;0.718669
9484.000000;0.717789
9483.000000;0.717269
9482.000000;0.717559
9481.000000;0.718556
9480.000000;0.719643
9479.000000;0.720067
9478.000000;0.719379
9477.000000;0.717707
9476.000000;0.715738
9475.000000;0.714390
9474.000000;0.714262
9473.000000;0.715140
9472.000000;0.716077
9471.000000;0.716164
9470.000000;0.715350
9469.000000;0.714401
9468.000000;0.714057
9467.000000;0.714403
9466.000000;0.715105
9465.000000;0.715924
9464.000000;0.716683
9463.000000;0.716938
9462.000000;0.716214
9461.000000;0.714662
9460.000000;0.713100
9459.000000;0.712222
9458.000000;0.712049
9457.000000;0.712311
9456.000000;0.712959
9455.000000;0.713933
9454.000000;0.714687
9453.000000;0.714537
9452.000000;0.713545
9451.000000;0.712581
9450.000000;0.712318
9449.000000;0.712489
9448.000000;0.712386
9447.000000;0.711836
9446.000000;0.711368
9445.000000;0.711486
9444.000000;0.712087
9443.000000;0.712626
9442.000000;0.712623
9441.000000;0.711944
9440.000000;0.710807
9439.000000;0.709705
9438.000000;0.709205
9437.000000;0.709578
9436.000000;0.710515
9435.000000;0.711313
9434.000000;0.711455
9433.000000;0.711011
9432.000000;0.710439
9431.000000;0.710066
9430.000000;0.709828
9429.000000;0.709471
9428.000000;0.708852
9427.000000;0.708054
9426.000000;0.707365
9425.000000;0.707144
9424.000000;0.707505
9423.000000;0.707994
9422.000000;0.707810
9421.000000;0.706620
9420.000000;0.705054
9419.000000;0.704133
9418.000000;0.704243
9417.000000;0.704890
9416.000000;0.705404
9415.000000;0.705541
9414.000000;0.705341
9413.000000;0.704792
9412.000000;0.703920
9411.000000;0.702993
9410.000000;0.702314
9409.000000;0.701889
9408.000000;0.701538
9407.000000;0.701294
9406.000000;0.701420
9405.000000;0.701995
9404.000000;0.702689
9403.000000;0.703048
9402.000000;0.702880
9401.000000;0.702300
9400.000000;0.701522
9399.000000;0.700726
9398.000000;0.700044
9397.000000;0.699539
9396.000000;0.699140
9395.000000;0.698711
9394.000000;0.698288
9393.000000;0.698169
9392.000000;0.698615
9391.000000;0.699427
9390.000000;0.699991
9389.000000;0.699895
9388.000000;0.699394
9387.000000;0.699078
9386.000000;0.699161
9385.000000;0.699301
9384.000000;0.699122
9383.000000;0.698629
9382.000000;0.698063
9381.000000;0.697597
9380.000000;0.697279
9379.000000;0.697046
9378.000000;0.696692
9377.000000;0.696025
9376.000000;0.695221
9375.000000;0.694790
9374.000000;0.694984
9373.000000;0.695454
9372.000000;0.695712
9371.000000;0.695745
9370.000000;0.695850
9369.000000;0.696039
9368.000000;0.695960
9367.000000;0.695415
9366.000000;0.694587
9365.000000;0.693729
9364.000000;0.692928
9363.000000;0.692275
9362.000000;0.692006
9361.000000;0.692311
9360.000000;0.693100
9359.000000;0.694036
9358.000000;0.694677
9357.000000;0.694654
9356.000000;0.693929
9355.000000;0.692923
9354.000000;0.692195
9353.000000;0.691903
9352.000000;0.691749
9351.000000;0.691490
9350.000000;0.691284
9349.000000;0.691382
9348.000000;0.691705
9347.000000;0.691899
9346.000000;0.691728
9345.000000;0.691263
9344.000000;0.690751
9343.000000;0.690407
9342.000000;0.690303
9341.000000;0.690372
9340.000000;0.690548
9339.000000;0.690857
9338.000000;0.691277
9337.000000;0.691545
9336.000000;0.691339
9335.000000;0.690710
9334.000000;0.690115
9333.000000;0.689857
9332.000000;0.689669
9331.000000;0.689032
9330.000000;0.687808
9329.000000;0.686421
9328.000000;0.685510
9327.000000;0.685495
9326.000000;0.686312
9325.000000;0.687396
9324.000000;0.688043
9323.000000;0.688002
9322.000000;0.687664
9321.000000;0.687517
9320.000000;0.687560
9319.000000;0.687468
9318.000000;0.687173
9317.000000;0.686954
9316.000000;0.686945
9315.000000;0.686904
9314.000000;0.686591
9313.000000;0.686115
9312.000000;0.685712
9311.000000;0.685376
9310.000000;0.684922
9309.000000;0.684334
9308.000000;0.683849
9307.000000;0.683670
9306.000000;0.683742
9305.000000;0.683843
9304.000000;0.683848
9303.000000;0.683888
9302.000000;0.684250
9301.000000;0.685066
9300.000000;0.686025
9299.000000;0.686489
9298.000000;0.686018
9297.000000;0.684831
9296.000000;0.683661
9295.000000;0.683112
9294.000000;0.683192
9293.000000;0.683433
9292.000000;0.683381
9291.000000;0.682954
9290.000000;0.682424
9289.000000;0.682101
9288.000000;0.681997
9287.000000;0.681771
9286.000000;0.681098
9285.000000;0.680119
9284.000000;0.679412
9283.000000;0.679400
9282.000000;0.679871
9281.000000;0.680256
9280.000000;0.680300
9279.000000;0.680257
9278.000000;0.680422
9277.000000;0.680768
9276.000000;0.681109
9275.000000;0.681376
9274.000000;0.681526
9273.000000;0.681379
9272.000000;0.680811
9271.000000;0.679985
9270.000000;0.679191
9269.000000;0.678524
9268.000000;0.677966
9267.000000;0.677651
9266.000000;0.677743
9265.000000;0.678062
9264.000000;0.678170
9263.000000;0.677919
9262.000000;0.677634
9261.000000;0.677614
9260.000000;0.677701
9259.000000;0.677534
9258.000000;0.677010
9257.000000;0.676308
9256.000000;0.675592
9255.000000;0.674935
9254.000000;0.674459
9253.000000;0.674356
9252.000000;0.674715
9251.000000;0.675423
9250.000000;0.676198
9249.000000;0.676672
9248.000000;0.676548
9247.000000;0.675797
9246.000000;0.674712
9245.000000;0.673728
9244.000000;0.673202
9243.000000;0.673325
9242.000000;0.674056
9241.000000;0.675059
9240.000000;0.675849
9239.000000;0.676143
9238.000000;0.676003
9237.000000;0.675575
9236.000000;0.674859
9235.000000;0.673904
9234.000000;0.673060
9233.000000;0.672771
9232.000000;0.673117
9231.000000;0.673750
9230.000000;0.674287
9229.000000;0.674614
9228.000000;0.674794
9227.000000;0.674839
9226.000000;0.674678
9225.000000;0.674268
9224.000000;0.673695
9223.000000;0.673184
9222.000000;0.672943
9221.000000;0.672952
9220.000000;0.672928
9219.000000;0.672614
9218.000000;0.672062
9217.000000;0.671559
9216.000000;0.671317
9215.000000;0.671331
9214.000000;0.671495
9213.000000;0.671690
9212.000000;0.671759
9211.000000;0.671540
9210.000000;0.671020
9209.000000;0.670411
9208.000000;0.670021
9207.000000;0.670022
9206.000000;0.670277
9205.000000;0.670376
9204.000000;0.669962
9203.000000;0.669139
9202.000000;0.668449
9201.000000;0.668331
9200.000000;0.668666
9199.000000;0.669006
9198.000000;0.669165
9197.000000;0.669335
9196.000000;0.669657
9195.000000;0.670003
9194.000000;0.670279
9193.000000;0.670647
9192.000000;0.671188
9191.000000;0.671547
9190.000000;0.671254
9189.000000;0.670409
9188.000000;0.669756
9187.000000;0.669878
9186.000000;0.670471
9185.000000;0.670604
9184.000000;0.669698
9183.000000;0.668112
9182.000000;0.666705
9181.000000;0.665979
9180.000000;0.665785
9179.000000;0.665755
9178.000000;0.665768
9177.000000;0.665921
9176.000000;0.666246
9175.000000;0.666634
9174.000000;0.666928
9173.000000;0.666974
9172.000000;0.666628
9171.000000;0.665903
9170.000000;0.665062
9169.000000;0.664441
9168.000000;0.664161
9167.000000;0.664141
9166.000000;0.664343
9165.000000;0.664833
9164.000000;0.665534
9163.000000;0.666103
9162.000000;0.666202
9161.000000;0.665838
9160.000000;0.665339
9159.000000;0.665009
9158.000000;0.664887
9157.000000;0.664821
9156.000000;0.664703
9155.000000;0.664550
9154.000000;0.664398
9153.000000;0.664214
9152.000000;0.664002
9151.000000;0.663905
9150.000000;0.664032
9149.000000;0.664211
9148.000000;0.664106
9147.000000;0.663651
9146.000000;0.663172
9145.000000;0.662966
9144.000000;0.662941
9143.000000;0.662863
9142.000000;0.662730
9141.000000;0.662649
9140.000000;0.662497
9139.000000;0.662106
9138.000000;0.661699
9137.000000;0.661723
9136.000000;0.662169
9135.000000;0.662451
9134.000000;0.662163
9133.000000;0.661621
9132.000000;0.661415
9131.000000;0.661649
9130.000000;0.661915
9129.000000;0.661836
9128.000000;0.661360
9127.000000;0.660660
9126.000000;0.660036
9125.000000;0.659866
9124.000000;0.660322
9123.000000;0.661073
9122.000000;0.661501
9121.000000;0.661328
9120.000000;0.660876
9119.000000;0.660624
9118.000000;0.660701
9117.000000;0.660883
9116.000000;0.660931
9115.000000;0.660770
9114.000000;0.660431
9113.000000;0.660014
9112.000000;0.659703
9111.000000;0.659648
9110.000000;0.659763
9109.000000;0.659706
9108.000000;0.659179
9107.000000;0.658274
9106.000000;0.657420
9105.000000;0.656970
9104.000000;0.656887
9103.000000;0.656913
9102.000000;0.656959
9101.000000;0.657169
9100.000000;0.657590
9099.000000;0.657988
9098.000000;0.658108
9097.000000;0.658007
9096.000000;0.657939
9095.000000;0.658004
9094.000000;0.658057
9093.000000;0.657968
9092.000000;0.657796
9091.000000;0.657676
9090.000000;0.657640
9089.000000;0.657622
9088.000000;0.657526
9087.000000;0.657275
9086.000000;0.656862
9085.000000;0.656423
9084.000000;0.656138
9083.000000;0.656020
9082.000000;0.655880
9081.000000;0.655602
9080.000000;0.655372
9079.000000;0.655508
9078.000000;0.656078
9077.000000;0.656814
9076.000000;0.657390
9075.000000;0.657690
9074.000000;0.657755
9073.000000;0.657582
9072.000000;0.657112
9071.000000;0.656398
9070.000000;0.655699
9069.000000;0.655328
9068.000000;0.655390
9067.000000;0.655674
9066.000000;0.655811
9065.000000;0.655556
9064.000000;0.654917
9063.000000;0.654053
9062.000000;0.653144
9061.000000;0.652367
9060.000000;0.651944
9059.000000;0.652057
9058.000000;0.652677
9057.000000;0.653562
9056.000000;0.654423
9055.000000;0.655052
9054.000000;0.655277
9053.000000;0.654986
