Criado como novo conjunto de dados;"e0108.spp","-4258423.4 Secs"
cm-1;Abs
10000.000000;1.051068
9999.000000;1.050445
9998.000000;1.049878
9997.000000;1.049189
9996.000000;1.049159
9995.000000;1.050043
9994.000000;1.050782
9993.000000;1.050558
9992.000000;1.049321
9991.000000;1.047774
9990.000000;1.046508
9989.000000;1.045663
9988.000000;1.045179
9987.000000;1.045057
9986.000000;1.045335
9985.000000;1.046018
9984.000000;1.046927
9983.000000;1.047535
9982.000000;1.047202
9981.000000;1.045927
9980.000000;1.044680
9979.000000;1.044506
9978.000000;1.045299
9977.000000;1.045908
9976.000000;1.045478
9975.000000;1.044273
9974.000000;1.043003
9973.000000;1.041890
9972.000000;1.040883
9971.000000;1.040418
9970.000000;1.041209
9969.000000;1.043147
9968.000000;1.044923
9967.000000;1.045122
9966.000000;1.043542
9965.000000;1.041201
9964.000000;1.039241
9963.000000;1.038116
9962.000000;1.037645
9961.000000;1.037458
9960.000000;1.037272
9959.000000;1.036959
9958.000000;1.036556
9957.000000;1.036191
9956.000000;1.035913
9955.000000;1.035591
9954.000000;1.034977
9953.000000;1.033889
9952.000000;1.032405
9951.000000;1.030996
9950.000000;1.030358
9949.000000;1.030884
9948.000000;1.032202
9947.000000;1.033357
9946.000000;1.033576
9945.000000;1.032857
9944.000000;1.031846
9943.000000;1.031219
9942.000000;1.031161
9941.000000;1.031258
9940.000000;1.030898
9939.000000;1.030022
9938.000000;1.029512
9937.000000;1.030471
9936.000000;1.032851
9935.000000;1.035067
9934.000000;1.035343
9933.000000;1.033365
9932.000000;1.030344
9931.000000;1.027655
9930.000000;1.025821
9929.000000;1.024683
9928.000000;1.024031
9927.000000;1.023871
9926.000000;1.024347
9925.000000;1.025518
9924.000000;1.026982
9923.000000;1.027741
9922.000000;1.026857
9921.000000;1.024518
9920.000000;1.022171
9919.000000;1.021284
9918.000000;1.022092
9917.000000;1.023629
9916.000000;1.024721
9915.000000;1.024761
9914.000000;1.023763
9913.000000;1.022120
9912.000000;1.020381
9911.000000;1.018942
9910.000000;1.017876
9909.000000;1.017153
9908.000000;1.016947
9907.000000;1.017501
9906.000000;1.018639
9905.000000;1.019753
9904.000000;1.020432
9903.000000;1.020886
9902.000000;1.021397
9901.000000;1.021517
9900.000000;1.020328
9899.000000;1.017697
9898.000000;1.014873
9897.000000;1.013437
9896.000000;1.013776
9895.000000;1.014885
9894.000000;1.015574
9893.000000;1.015557
9892.000000;1.015320
9891.000000;1.015370
9890.000000;1.015882
9889.000000;1.016720
9888.000000;1.017412
9887.000000;1.017309
9886.000000;1.016167
9885.000000;1.014489
9884.000000;1.013016
9883.000000;1.011977
9882.000000;1.011145
9881.000000;1.010507
9880.000000;1.010439
9879.000000;1.011065
9878.000000;1.011768
9877.000000;1.011641
9876.000000;1.010443
9875.000000;1.008901
9874.000000;1.008007
9873.000000;1.008157
9872.000000;1.008951
9871.000000;1.009692
9870.000000;1.009918
9869.000000;1.009462
9868.000000;1.008317
9867.000000;1.006792
9866.000000;1.005637
9865.000000;1.005440
9864.000000;1.005760
9863.000000;1.005405
9862.000000;1.003918
9861.000000;1.002306
9860.000000;1.001808
9859.000000;1.002358
9858.000000;1.002844
9857.000000;1.002630
9856.000000;1.002093
9855.000000;1.001655
9854.000000;1.001094
9853.000000;1.000131
9852.000000;0.999148
9851.000000;0.998863
9850.000000;0.999460
9849.000000;1.000344
9848.000000;1.000679
9847.000000;1.000069
9846.000000;0.998915
9845.000000;0.998225
9844.000000;0.998834
9843.000000;1.000583
9842.000000;1.002318
9841.000000;1.002783
9840.000000;1.001525
9839.000000;0.999062
9838.000000;0.996498
9837.000000;0.994949
9836.000000;0.994914
9835.000000;0.995895
9834.000000;0.996800
9833.000000;0.996842
9832.000000;0.996015
9831.000000;0.994818
9830.000000;0.993791
9829.000000;0.993273
9828.000000;0.993218
9827.000000;0.993175
9826.000000;0.992708
9825.000000;0.991895
9824.000000;0.991184
9823.000000;0.990802
9822.000000;0.990606
9821.000000;0.990456
9820.000000;0.990306
9819.000000;0.989947
9818.000000;0.989140
9817.000000;0.988145
9816.000000;0.987636
9815.000000;0.987865
9814.000000;0.988321
9813.000000;0.988381
9812.000000;0.987944
9811.000000;0.987270
9810.000000;0.986676
9809.000000;0.986552
9808.000000;0.987147
9807.000000;0.988024
9806.000000;0.988273
9805.000000;0.987679
9804.000000;0.987180
9803.000000;0.987712
9802.000000;0.989012
9801.000000;0.990009
9800.000000;0.990032
9799.000000;0.989157
9798.000000;0.987705
9797.000000;0.986091
9796.000000;0.984931
9795.000000;0.984612
9794.000000;0.984735
9793.000000;0.984490
9792.000000;0.983594
9791.000000;0.982446
9790.000000;0.981401
9789.000000;0.980444
9788.000000;0.979602
9787.000000;0.979184
9786.000000;0.979427
9785.000000;0.980209
9784.000000;0.981160
9783.000000;0.981778
9782.000000;0.981510
9781.000000;0.980157
9780.000000;0.978339
9779.000000;0.977182
9778.000000;0.977352
9777.000000;0.978541
9776.000000;0.979893
9775.000000;0.980695
9774.000000;0.980663
9773.000000;0.979946
9772.000000;0.979039
9771.000000;0.978394
9770.000000;0.977869
9769.000000;0.976795
9768.000000;0.974865
9767.000000;0.972812
9766.000000;0.971877
9765.000000;0.972598
9764.000000;0.974327
9763.000000;0.975969
9762.000000;0.976943
9761.000000;0.977296
9760.000000;0.977134
9759.000000;0.976342
9758.000000;0.974924
9757.000000;0.973264
9756.000000;0.971794
9755.000000;0.970608
9754.000000;0.969700
9753.000000;0.969377
9752.000000;0.969943
9751.000000;0.970963
9750.000000;0.971358
9749.000000;0.970544
9748.000000;0.969086
9747.000000;0.967888
9746.000000;0.967055
9745.000000;0.966041
9744.000000;0.964702
9743.000000;0.963698
9742.000000;0.963756
9741.000000;0.964879
9740.000000;0.966388
9739.000000;0.967537
9738.000000;0.967987
9737.000000;0.967765
9736.000000;0.966960
9735.000000;0.965612
9734.000000;0.963987
9733.000000;0.962802
9732.000000;0.962794
9731.000000;0.963918
9730.000000;0.965254
9729.000000;0.965936
9728.000000;0.965934
9727.000000;0.965707
9726.000000;0.965380
9725.000000;0.964710
9724.000000;0.963653
9723.000000;0.962534
9722.000000;0.961631
9721.000000;0.960915
9720.000000;0.960260
9719.000000;0.959667
9718.000000;0.959259
9717.000000;0.959245
9716.000000;0.959804
9715.000000;0.960720
9714.000000;0.961247
9713.000000;0.960761
9712.000000;0.959585
9711.000000;0.958722
9710.000000;0.958691
9709.000000;0.958959
9708.000000;0.958712
9707.000000;0.957836
9706.000000;0.956909
9705.000000;0.956427
9704.000000;0.956356
9703.000000;0.956371
9702.000000;0.956269
9701.000000;0.956032
9700.000000;0.955628
9699.000000;0.954963
9698.000000;0.954122
9697.000000;0.953558
9696.000000;0.953818
9695.000000;0.954950
9694.000000;0.956286
9693.000000;0.956938
9692.000000;0.956487
9691.000000;0.955126
9690.000000;0.953348
9689.000000;0.951694
9688.000000;0.950612
9687.000000;0.950295
9686.000000;0.950657
9685.000000;0.951549
9684.000000;0.952834
9683.000000;0.954143
9682.000000;0.954787
9681.000000;0.954205
9680.000000;0.952465
9679.000000;0.950115
9678.000000;0.947688
9677.000000;0.945625
9676.000000;0.944481
9675.000000;0.944648
9674.000000;0.945805
9673.000000;0.947008
9672.000000;0.947525
9671.000000;0.947402
9670.000000;0.947147
9669.000000;0.947053
9668.000000;0.946925
9667.000000;0.946347
9666.000000;0.945168
9665.000000;0.943860
9664.000000;0.943265
9663.000000;0.943776
9662.000000;0.944775
9661.000000;0.945161
9660.000000;0.944450
9659.000000;0.943180
9658.000000;0.942208
9657.000000;0.941873
9656.000000;0.941861
9655.000000;0.941623
9654.000000;0.940862
9653.000000;0.939810
9652.000000;0.939077
9651.000000;0.939046
9650.000000;0.939400
9649.000000;0.939483
9648.000000;0.939091
9647.000000;0.938593
9646.000000;0.938218
9645.000000;0.937652
9644.000000;0.936585
9643.000000;0.935364
9642.000000;0.934743
9641.000000;0.935058
9640.000000;0.935897
9639.000000;0.936603
9638.000000;0.936994
9637.000000;0.937446
9636.000000;0.938272
9635.000000;0.939118
9634.000000;0.939222
9633.000000;0.938340
9632.000000;0.937073
9631.000000;0.936037
9630.000000;0.935079
9629.000000;0.933766
9628.000000;0.932400
9627.000000;0.931857
9626.000000;0.932339
9625.000000;0.932919
9624.000000;0.932645
9623.000000;0.931682
9622.000000;0.930973
9621.000000;0.931119
9620.000000;0.931997
9619.000000;0.933207
9618.000000;0.934425
9617.000000;0.935359
9616.000000;0.935760
9615.000000;0.935566
9614.000000;0.934860
9613.000000;0.933697
9612.000000;0.932152
9611.000000;0.930487
9610.000000;0.929092
9609.000000;0.928222
9608.000000;0.927895
9607.000000;0.927966
9606.000000;0.928221
9605.000000;0.928449
9604.000000;0.928512
9603.000000;0.928346
9602.000000;0.927874
9601.000000;0.927057
9600.000000;0.926128
9599.000000;0.925629
9598.000000;0.925997
9597.000000;0.927073
9596.000000;0.928087
9595.000000;0.928134
9594.000000;0.926783
9593.000000;0.924438
9592.000000;0.922160
9591.000000;0.920923
9590.000000;0.920892
9589.000000;0.921450
9588.000000;0.921899
9587.000000;0.922018
9586.000000;0.921974
9585.000000;0.921991
9584.000000;0.922198
9583.000000;0.922563
9582.000000;0.922786
9581.000000;0.922509
9580.000000;0.921785
9579.000000;0.921082
9578.000000;0.920622
9577.000000;0.920012
9576.000000;0.918848
9575.000000;0.917453
9574.000000;0.916557
9573.000000;0.916377
9572.000000;0.916487
9571.000000;0.916567
9570.000000;0.916825
9569.000000;0.917513
9568.000000;0.918426
9567.000000;0.919108
9566.000000;0.919327
9565.000000;0.919120
9564.000000;0.918598
9563.000000;0.917932
9562.000000;0.917402
9561.000000;0.917184
9560.000000;0.917128
9559.000000;0.916905
9558.000000;0.916345
9557.000000;0.915557
9556.000000;0.914813
9555.000000;0.914432
9554.000000;0.914654
9553.000000;0.915398
9552.000000;0.916168
9551.000000;0.916380
9550.000000;0.915872
9549.000000;0.914980
9548.000000;0.914097
9547.000000;0.913330
9546.000000;0.912659
9545.000000;0.912202
9544.000000;0.912089
9543.000000;0.912189
9542.000000;0.912199
9541.000000;0.911984
9540.000000;0.911679
9539.000000;0.911455
9538.000000;0.911417
9537.000000;0.911693
9536.000000;0.912300
9535.000000;0.912822
9534.000000;0.912540
9533.000000;0.911173
9532.000000;0.909356
9531.000000;0.908087
9530.000000;0.907753
9529.000000;0.907953
9528.000000;0.908132
9527.000000;0.908070
9526.000000;0.907783
9525.000000;0.907348
9524.000000;0.906970
9523.000000;0.906878
9522.000000;0.906978
9521.000000;0.906869
9520.000000;0.906385
9519.000000;0.905847
9518.000000;0.905518
9517.000000;0.905127
9516.000000;0.904343
9515.000000;0.903512
9514.000000;0.903381
9513.000000;0.904098
9512.000000;0.904956
9511.000000;0.905316
9510.000000;0.905380
9509.000000;0.905731
9508.000000;0.906396
9507.000000;0.906764
9506.000000;0.906397
9505.000000;0.905598
9504.000000;0.905067
9503.000000;0.905143
9502.000000;0.905477
9501.000000;0.905431
9500.000000;0.904764
9499.000000;0.903897
9498.000000;0.903464
9497.000000;0.903605
9496.000000;0.903768
9495.000000;0.903286
9494.000000;0.902083
9493.000000;0.900701
9492.000000;0.899765
9491.000000;0.899613
9490.000000;0.900290
9489.000000;0.901479
9488.000000;0.902414
9487.000000;0.902252
9486.000000;0.900858
9485.000000;0.899090
9484.000000;0.898038
9483.000000;0.898036
9482.000000;0.898595
9481.000000;0.899150
9480.000000;0.899492
9479.000000;0.899476
9478.000000;0.898783
9477.000000;0.897344
9476.000000;0.895775
9475.000000;0.894991
9474.000000;0.895349
9473.000000;0.896340
9472.000000;0.897105
9471.000000;0.897089
9470.000000;0.896253
9469.000000;0.894957
9468.000000;0.893783
9467.000000;0.893290
9466.000000;0.893683
9465.000000;0.894663
9464.000000;0.895650
9463.000000;0.896185
9462.000000;0.896138
9461.000000;0.895597
9460.000000;0.894644
9459.000000;0.893346
9458.000000;0.891956
9457.000000;0.890999
9456.000000;0.890955
9455.000000;0.891797
9454.000000;0.892928
9453.000000;0.893661
9452.000000;0.893743
9451.000000;0.893367
9450.000000;0.892820
9449.000000;0.892261
9448.000000;0.891752
9447.000000;0.891377
9446.000000;0.891289
9445.000000;0.891667
9444.000000;0.892513
9443.000000;0.893411
9442.000000;0.893638
9441.000000;0.892793
9440.000000;0.891297
9439.000000;0.890028
9438.000000;0.889499
9437.000000;0.889494
9436.000000;0.889448
9435.000000;0.889051
9434.000000;0.888499
9433.000000;0.888208
9432.000000;0.888298
9431.000000;0.888330
9430.000000;0.887705
9429.000000;0.886431
9428.000000;0.885293
9427.000000;0.885065
9426.000000;0.885691
9425.000000;0.886436
9424.000000;0.886707
9423.000000;0.886416
9422.000000;0.885668
9421.000000;0.884568
9420.000000;0.883426
9419.000000;0.882723
9418.000000;0.882691
9417.000000;0.883184
9416.000000;0.884025
9415.000000;0.885110
9414.000000;0.886046
9413.000000;0.886141
9412.000000;0.885123
9411.000000;0.883608
9410.000000;0.882509
9409.000000;0.882118
9408.000000;0.882037
9407.000000;0.881869
9406.000000;0.881596
9405.000000;0.881345
9404.000000;0.881125
9403.000000;0.880900
9402.000000;0.880698
9401.000000;0.880559
9400.000000;0.880459
9399.000000;0.880320
9398.000000;0.880007
9397.000000;0.879395
9396.000000;0.878549
9395.000000;0.877756
9394.000000;0.877274
9393.000000;0.877160
9392.000000;0.877372
9391.000000;0.877846
9390.000000;0.878331
9389.000000;0.878405
9388.000000;0.877947
9387.000000;0.877456
9386.000000;0.877560
9385.000000;0.878239
9384.000000;0.878785
9383.000000;0.878568
9382.000000;0.877652
9381.000000;0.876658
9380.000000;0.876194
9379.000000;0.876373
9378.000000;0.876689
9377.000000;0.876455
9376.000000;0.875571
9375.000000;0.874760
9374.000000;0.874790
9373.000000;0.875591
9372.000000;0.876432
9371.000000;0.876838
9370.000000;0.876886
9369.000000;0.876652
9368.000000;0.875935
9367.000000;0.874749
9366.000000;0.873598
9365.000000;0.872911
9364.000000;0.872488
9363.000000;0.871840
9362.000000;0.870913
9361.000000;0.870143
9360.000000;0.869902
9359.000000;0.870131
9358.000000;0.870492
9357.000000;0.870671
9356.000000;0.870610
9355.000000;0.870536
9354.000000;0.870710
9353.000000;0.871067
9352.000000;0.871265
9351.000000;0.871142
9350.000000;0.870902
9349.000000;0.870745
9348.000000;0.870579
9347.000000;0.870268
9346.000000;0.869888
9345.000000;0.869476
9344.000000;0.868832
9343.000000;0.867908
9342.000000;0.867187
9341.000000;0.867223
9340.000000;0.867905
9339.000000;0.868547
9338.000000;0.868732
9337.000000;0.868677
9336.000000;0.868725
9335.000000;0.868851
9334.000000;0.868817
9333.000000;0.868496
9332.000000;0.867912
9331.000000;0.867180
9330.000000;0.866553
9329.000000;0.866311
9328.000000;0.866500
9327.000000;0.866896
9326.000000;0.867275
9325.000000;0.867530
9324.000000;0.867532
9323.000000;0.867166
9322.000000;0.866631
9321.000000;0.866382
9320.000000;0.866547
9319.000000;0.866635
9318.000000;0.866080
9317.000000;0.864963
9316.000000;0.863936
9315.000000;0.863540
9314.000000;0.863798
9313.000000;0.864339
9312.000000;0.864714
9311.000000;0.864642
9310.000000;0.864172
9309.000000;0.863585
9308.000000;0.863065
9307.000000;0.862515
9306.000000;0.861834
9305.000000;0.861245
9304.000000;0.861136
9303.000000;0.861571
9302.000000;0.862159
9301.000000;0.862429
9300.000000;0.862218
9299.000000;0.861703
9298.000000;0.861203
9297.000000;0.861008
9296.000000;0.861269
9295.000000;0.861892
9294.000000;0.862515
9293.000000;0.862648
9292.000000;0.862003
9291.000000;0.860836
9290.000000;0.859883
9289.000000;0.859709
9288.000000;0.860096
9287.000000;0.860303
9286.000000;0.860007
9285.000000;0.859684
9284.000000;0.859857
9283.000000;0.860287
9282.000000;0.860313
9281.000000;0.859768
9280.000000;0.859066
9279.000000;0.858484
9278.000000;0.857907
9277.000000;0.857399
9276.000000;0.857454
9275.000000;0.858317
9274.000000;0.859383
9273.000000;0.859723
9272.000000;0.859077
9271.000000;0.857962
9270.000000;0.856932
9269.000000;0.856126
9268.000000;0.855552
9267.000000;0.855367
9266.000000;0.855652
9265.000000;0.856154
9264.000000;0.856462
9263.000000;0.856383
9262.000000;0.856007
9261.000000;0.855510
9260.000000;0.855051
9259.000000;0.854810
9258.000000;0.854926
9257.000000;0.855329
9256.000000;0.855731
9255.000000;0.855872
9254.000000;0.855750
9253.000000;0.855563
9252.000000;0.855428
9251.000000;0.855204
9250.000000;0.854610
9249.000000;0.853534
9248.000000;0.852239
9247.000000;0.851243
9246.000000;0.850925
9245.000000;0.851191
9244.000000;0.851581
9243.000000;0.851738
9242.000000;0.851720
9241.000000;0.851812
9240.000000;0.852183
9239.000000;0.852837
9238.000000;0.853743
9237.000000;0.854752
9236.000000;0.855421
9235.000000;0.855258
9234.000000;0.854277
9233.000000;0.853097
9232.000000;0.852342
9231.000000;0.852137
9230.000000;0.852257
9229.000000;0.852495
9228.000000;0.852617
9227.000000;0.852226
9226.000000;0.851101
9225.000000;0.849675
9224.000000;0.848832
9223.000000;0.849077
9222.000000;0.850066
9221.000000;0.850979
9220.000000;0.851211
9219.000000;0.850705
9218.000000;0.849842
9217.000000;0.849180
9216.000000;0.849157
9215.000000;0.849822
9214.000000;0.850797
9213.000000;0.851539
9212.000000;0.851675
9211.000000;0.851209
9210.000000;0.850520
9209.000000;0.850082
9208.000000;0.850017
9207.000000;0.849914
9206.000000;0.849290
9205.000000;0.848228
9204.000000;0.847390
9203.000000;0.847328
9202.000000;0.847919
9201.000000;0.848459
9200.000000;0.848240
9199.000000;0.847109
9198.000000;0.845632
9197.000000;0.844702
9196.000000;0.844777
9195.000000;0.845464
9194.000000;0.845991
9193.000000;0.846046
9192.000000;0.845901
9191.000000;0.845778
9190.000000;0.845536
9189.000000;0.845119
9188.000000;0.844842
9187.000000;0.844890
9186.000000;0.844850
9185.000000;0.844200
9184.000000;0.843106
9183.000000;0.842291
9182.000000;0.842138
9181.000000;0.842275
9180.000000;0.842137
9179.000000;0.841622
9178.000000;0.841097
9177.000000;0.840946
9176.000000;0.841255
9175.000000;0.841782
9174.000000;0.842116
9173.000000;0.841985
9172.000000;0.841502
9171.000000;0.841063
9170.000000;0.840939
9169.000000;0.841003
9168.000000;0.840927
9167.000000;0.840602
9166.000000;0.840336
9165.000000;0.840571
9164.000000;0.841347
9163.000000;0.842057
9162.000000;0.841928
9161.000000;0.840876
9160.000000;0.839779
9159.000000;0.839694
9158.000000;0.840784
9157.000000;0.842153
9156.000000;0.842729
9155.000000;0.842222
9154.000000;0.841178
9153.000000;0.840296
9152.000000;0.839859
9151.000000;0.839754
9150.000000;0.839817
9149.000000;0.840011
9148.000000;0.840271
9147.000000;0.840387
9146.000000;0.840225
9145.000000;0.840028
9144.000000;0.840252
9143.000000;0.840948
9142.000000;0.841484
9141.000000;0.841099
9140.000000;0.839750
9139.000000;0.838233
9138.000000;0.837430
9137.000000;0.837527
9136.000000;0.837954
9135.000000;0.838034
9134.000000;0.837619
9133.000000;0.837069
9132.000000;0.836667
9131.000000;0.836221
9130.000000;0.835428
9129.000000;0.834528
9128.000000;0.834260
9127.000000;0.835024
9126.000000;0.836369
9125.000000;0.837538
9124.000000;0.838327
9123.000000;0.839035
9122.000000;0.839698
9121.000000;0.839854
9120.000000;0.839213
9119.000000;0.838179
9118.000000;0.837454
9117.000000;0.837298
9116.000000;0.837380
9115.000000;0.837256
9114.000000;0.836818
9113.000000;0.836326
9112.000000;0.836108
9111.000000;0.836249
9110.000000;0.836484
9109.000000;0.836427
9108.000000;0.835930
9107.000000;0.835212
9106.000000;0.834644
9105.000000;0.834464
9104.000000;0.834691
9103.000000;0.835169
9102.000000;0.835638
9101.000000;0.835865
9100.000000;0.835816
9099.000000;0.835680
9098.000000;0.835644
9097.000000;0.835687
9096.000000;0.835616
9095.000000;0.835279
9094.000000;0.834703
9093.000000;0.834060
9092.000000;0.833510
9091.000000;0.833072
9090.000000;0.832631
9089.000000;0.832132
9088.000000;0.831749
9087.000000;0.831818
9086.000000;0.832554
9085.000000;0.833814
9084.000000;0.835031
9083.000000;0.835440
9082.000000;0.834626
9081.000000;0.832996
9080.000000;0.831567
9079.000000;0.831021
9078.000000;0.831069
9077.000000;0.830940
9076.000000;0.830412
9075.000000;0.830007
9074.000000;0.830150
9073.000000;0.830562
9072.000000;0.830663
9071.000000;0.830324
9070.000000;0.829930
9069.000000;0.829895
9068.000000;0.830350
9067.000000;0.831157
9066.000000;0.831955
9065.000000;0.832261
9064.000000;0.831838
9063.000000;0.831029
9062.000000;0.830519
9061.000000;0.830675
9060.000000;0.831218
9059.000000;0.831555
9058.000000;0.831346
9057.000000;0.830778
9056.000000;0.830385
9055.000000;0.830592
9054.000000;0.831298
9053.000000;0.831918
