Criado como novo conjunto de dados;"e0108.spp","-4261483.5 Secs"
cm-1;Abs
10000.000000;1.048926
9999.000000;1.048124
9998.000000;1.047324
9997.000000;1.046526
9996.000000;1.045728
9995.000000;1.044933
9994.000000;1.044138
9993.000000;1.043346
9992.000000;1.042551
9991.000000;1.041833
9990.000000;1.041001
9989.000000;1.040137
9988.000000;1.039449
9987.000000;1.038956
9986.000000;1.038522
9985.000000;1.038054
9984.000000;1.037629
9983.000000;1.037512
9982.000000;1.037979
9981.000000;1.038937
9980.000000;1.039791
9979.000000;1.040007
9978.000000;1.039792
9977.000000;1.039865
9976.000000;1.040473
9975.000000;1.041049
9974.000000;1.040983
9973.000000;1.040309
9972.000000;1.039277
9971.000000;1.037645
9970.000000;1.035018
9969.000000;1.031850
9968.000000;1.029482
9967.000000;1.028905
9966.000000;1.029798
9965.000000;1.030959
9964.000000;1.031546
9963.000000;1.031701
9962.000000;1.031995
9961.000000;1.032470
9960.000000;1.032374
9959.000000;1.030882
9958.000000;1.028088
9957.000000;1.025180
9956.000000;1.023505
9955.000000;1.023455
9954.000000;1.024291
9953.000000;1.025058
9952.000000;1.025489
9951.000000;1.025974
9950.000000;1.026849
9949.000000;1.027902
9948.000000;1.028512
9947.000000;1.028153
9946.000000;1.026819
9945.000000;1.025095
9944.000000;1.023801
9943.000000;1.023434
9942.000000;1.023815
9941.000000;1.024241
9940.000000;1.024032
9939.000000;1.023018
9938.000000;1.021672
9937.000000;1.020825
9936.000000;1.020993
9935.000000;1.021768
9934.000000;1.022063
9933.000000;1.021236
9932.000000;1.019954
9931.000000;1.019592
9930.000000;1.020664
9929.000000;1.022165
9928.000000;1.022691
9927.000000;1.021978
9926.000000;1.020935
9925.000000;1.020308
9924.000000;1.019846
9923.000000;1.018903
9922.000000;1.017426
9921.000000;1.015967
9920.000000;1.014921
9919.000000;1.014231
9918.000000;1.013900
9917.000000;1.014361
9916.000000;1.015960
9915.000000;1.018104
9914.000000;1.019296
9913.000000;1.018343
9912.000000;1.015494
9911.000000;1.012238
9910.000000;1.010026
9909.000000;1.009393
9908.000000;1.010115
9907.000000;1.011699
9906.000000;1.013422
9905.000000;1.014206
9904.000000;1.013146
9903.000000;1.010541
9902.000000;1.008039
9901.000000;1.007321
9900.000000;1.008684
9899.000000;1.010923
9898.000000;1.012395
9897.000000;1.012197
9896.000000;1.010633
9895.000000;1.008836
9894.000000;1.007907
9893.000000;1.008103
9892.000000;1.008769
9891.000000;1.009183
9890.000000;1.009374
9889.000000;1.009808
9888.000000;1.010424
9887.000000;1.010551
9886.000000;1.009880
9885.000000;1.009002
9884.000000;1.008601
9883.000000;1.008423
9882.000000;1.007511
9881.000000;1.005359
9880.000000;1.002502
9879.000000;0.999992
9878.000000;0.998631
9877.000000;0.998660
9876.000000;0.999791
9875.000000;1.001373
9874.000000;1.002742
9873.000000;1.003592
9872.000000;1.003970
9871.000000;1.003949
9870.000000;1.003466
9869.000000;1.002491
9868.000000;1.001211
9867.000000;0.999956
9866.000000;0.999009
9865.000000;0.998508
9864.000000;0.998392
9863.000000;0.998402
9862.000000;0.998249
9861.000000;0.997883
9860.000000;0.997556
9859.000000;0.997583
9858.000000;0.998062
9857.000000;0.998820
9856.000000;0.999512
9855.000000;0.999737
9854.000000;0.999216
9853.000000;0.997989
9852.000000;0.996431
9851.000000;0.995024
9850.000000;0.994053
9849.000000;0.993523
9848.000000;0.993303
9847.000000;0.993326
9846.000000;0.993591
9845.000000;0.993998
9844.000000;0.994260
9843.000000;0.994065
9842.000000;0.993347
9841.000000;0.992299
9840.000000;0.991132
9839.000000;0.989985
9838.000000;0.989109
9837.000000;0.988903
9836.000000;0.989537
9835.000000;0.990622
9834.000000;0.991462
9833.000000;0.991619
9832.000000;0.991171
9831.000000;0.990557
9830.000000;0.990271
9829.000000;0.990508
9828.000000;0.990896
9827.000000;0.990761
9826.000000;0.989939
9825.000000;0.989130
9824.000000;0.989079
9823.000000;0.989473
9822.000000;0.989129
9821.000000;0.987360
9820.000000;0.984747
9819.000000;0.982402
9818.000000;0.980916
9817.000000;0.980209
9816.000000;0.979967
9815.000000;0.979846
9814.000000;0.979534
9813.000000;0.979069
9812.000000;0.978975
9811.000000;0.979721
9810.000000;0.981043
9809.000000;0.982091
9808.000000;0.982276
9807.000000;0.981779
9806.000000;0.981237
9805.000000;0.981151
9804.000000;0.981536
9803.000000;0.981905
9802.000000;0.981589
9801.000000;0.980357
9800.000000;0.978760
9799.000000;0.977647
9798.000000;0.977294
9797.000000;0.977214
9796.000000;0.976933
9795.000000;0.976697
9794.000000;0.977071
9793.000000;0.977922
9792.000000;0.978231
9791.000000;0.977221
9790.000000;0.975483
9789.000000;0.974552
9788.000000;0.975268
9787.000000;0.976859
9786.000000;0.977828
9785.000000;0.977531
9784.000000;0.976496
9783.000000;0.975394
9782.000000;0.974301
9781.000000;0.973072
9780.000000;0.971879
9779.000000;0.971006
9778.000000;0.970430
9777.000000;0.969991
9776.000000;0.969752
9775.000000;0.969817
9774.000000;0.969921
9773.000000;0.969613
9772.000000;0.968863
9771.000000;0.968228
9770.000000;0.968294
9769.000000;0.969104
9768.000000;0.970078
9767.000000;0.970389
9766.000000;0.969566
9765.000000;0.968001
9764.000000;0.966780
9763.000000;0.966699
9762.000000;0.967416
9761.000000;0.967817
9760.000000;0.967209
9759.000000;0.965920
9758.000000;0.964706
9757.000000;0.963983
9756.000000;0.963801
9755.000000;0.964166
9754.000000;0.964988
9753.000000;0.965783
9752.000000;0.965869
9751.000000;0.965012
9750.000000;0.963721
9749.000000;0.962718
9748.000000;0.962207
9747.000000;0.961793
9746.000000;0.961108
9745.000000;0.960276
9744.000000;0.959603
9743.000000;0.959031
9742.000000;0.958271
9741.000000;0.957470
9740.000000;0.957258
9739.000000;0.957883
9738.000000;0.958637
9737.000000;0.958601
9736.000000;0.957829
9735.000000;0.957338
9734.000000;0.957810
9733.000000;0.958705
9732.000000;0.958888
9731.000000;0.957894
9730.000000;0.956378
9729.000000;0.955436
9728.000000;0.955616
9727.000000;0.956446
9726.000000;0.956786
9725.000000;0.955779
9724.000000;0.953634
9723.000000;0.951450
9722.000000;0.950257
9721.000000;0.950299
9720.000000;0.951178
9719.000000;0.952413
9718.000000;0.953646
9717.000000;0.954512
9716.000000;0.954657
9715.000000;0.954035
9714.000000;0.953068
9713.000000;0.952387
9712.000000;0.952360
9711.000000;0.952819
9710.000000;0.953252
9709.000000;0.953247
9708.000000;0.952709
9707.000000;0.951732
9706.000000;0.950467
9705.000000;0.949195
9704.000000;0.948353
9703.000000;0.948186
9702.000000;0.948405
9701.000000;0.948436
9700.000000;0.948090
9699.000000;0.947780
9698.000000;0.948004
9697.000000;0.948790
9696.000000;0.949700
9695.000000;0.950230
9694.000000;0.950137
9693.000000;0.949523
9692.000000;0.948734
9691.000000;0.948068
9690.000000;0.947467
9689.000000;0.946585
9688.000000;0.945244
9687.000000;0.943740
9686.000000;0.942595
9685.000000;0.942097
9684.000000;0.942145
9683.000000;0.942445
9682.000000;0.942777
9681.000000;0.943097
9680.000000;0.943467
9679.000000;0.943861
9678.000000;0.944081
9677.000000;0.943985
9676.000000;0.943736
9675.000000;0.943615
9674.000000;0.943546
9673.000000;0.943097
9672.000000;0.942073
9671.000000;0.940844
9670.000000;0.939890
9669.000000;0.939266
9668.000000;0.938778
9667.000000;0.938458
9666.000000;0.938482
9665.000000;0.938716
9664.000000;0.938754
9663.000000;0.938451
9662.000000;0.938067
9661.000000;0.937821
9660.000000;0.937598
9659.000000;0.937251
9658.000000;0.936915
9657.000000;0.936872
9656.000000;0.937234
9655.000000;0.937859
9654.000000;0.938392
9653.000000;0.938314
9652.000000;0.937209
9651.000000;0.935244
9650.000000;0.933307
9649.000000;0.932396
9648.000000;0.932834
9647.000000;0.934106
9646.000000;0.935393
9645.000000;0.936167
9644.000000;0.936335
9643.000000;0.935988
9642.000000;0.935186
9641.000000;0.934014
9640.000000;0.932763
9639.000000;0.931818
9638.000000;0.931213
9637.000000;0.930440
9636.000000;0.929045
9635.000000;0.927466
9634.000000;0.926859
9633.000000;0.927820
9632.000000;0.929587
9631.000000;0.930830
9630.000000;0.931065
9629.000000;0.930852
9628.000000;0.930706
9627.000000;0.930418
9626.000000;0.929676
9625.000000;0.928800
9624.000000;0.928401
9623.000000;0.928530
9622.000000;0.928583
9621.000000;0.928029
9620.000000;0.926946
9619.000000;0.925822
9618.000000;0.925076
9617.000000;0.924797
9616.000000;0.924726
9615.000000;0.924447
9614.000000;0.923806
9613.000000;0.923144
9612.000000;0.922928
9611.000000;0.923162
9610.000000;0.923379
9609.000000;0.923265
9608.000000;0.923025
9607.000000;0.923024
9606.000000;0.923332
9605.000000;0.923772
9604.000000;0.924148
9603.000000;0.924168
9602.000000;0.923403
9601.000000;0.921778
9600.000000;0.920049
9599.000000;0.919305
9598.000000;0.919848
9597.000000;0.920906
9596.000000;0.921599
9595.000000;0.921827
9594.000000;0.921917
9593.000000;0.921758
9592.000000;0.920891
9591.000000;0.919407
9590.000000;0.918174
9589.000000;0.917864
9588.000000;0.918132
9587.000000;0.918092
9586.000000;0.917444
9585.000000;0.916758
9584.000000;0.916667
9583.000000;0.917179
9582.000000;0.917920
9581.000000;0.918656
9580.000000;0.919268
9579.000000;0.919435
9578.000000;0.918798
9577.000000;0.917487
9576.000000;0.916171
9575.000000;0.915384
9574.000000;0.914964
9573.000000;0.914356
9572.000000;0.913384
9571.000000;0.912477
9570.000000;0.912099
9569.000000;0.912150
9568.000000;0.912097
9567.000000;0.911629
9566.000000;0.911021
9565.000000;0.910801
9564.000000;0.911160
9563.000000;0.911768
9562.000000;0.912105
9561.000000;0.911893
9560.000000;0.911259
9559.000000;0.910564
9558.000000;0.910043
9557.000000;0.909575
9556.000000;0.908904
9555.000000;0.908119
9554.000000;0.907701
9553.000000;0.907881
9552.000000;0.908123
9551.000000;0.907662
9550.000000;0.906584
9549.000000;0.905957
9548.000000;0.906594
9547.000000;0.907953
9546.000000;0.908612
9545.000000;0.907760
9544.000000;0.905937
9543.000000;0.904353
9542.000000;0.903798
9541.000000;0.904189
9540.000000;0.904878
9539.000000;0.905321
9538.000000;0.905593
9537.000000;0.906178
9536.000000;0.907109
9535.000000;0.907540
9534.000000;0.906597
9533.000000;0.904586
9532.000000;0.902829
9531.000000;0.902199
9530.000000;0.902317
9529.000000;0.902341
9528.000000;0.902040
9527.000000;0.901679
9526.000000;0.901264
9525.000000;0.900547
9524.000000;0.899634
9523.000000;0.899008
9522.000000;0.898846
9521.000000;0.898790
9520.000000;0.898582
9519.000000;0.898545
9518.000000;0.899153
9517.000000;0.900246
9516.000000;0.900989
9515.000000;0.900677
9514.000000;0.899467
9513.000000;0.898216
9512.000000;0.897601
9511.000000;0.897535
9510.000000;0.897509
9509.000000;0.897364
9508.000000;0.897444
9507.000000;0.897979
9506.000000;0.898649
9505.000000;0.898943
9504.000000;0.898646
9503.000000;0.897776
9502.000000;0.896381
9501.000000;0.894791
9500.000000;0.893757
9499.000000;0.893769
9498.000000;0.894274
9497.000000;0.894150
9496.000000;0.893147
9495.000000;0.892357
9494.000000;0.892947
9493.000000;0.894748
9492.000000;0.896382
9491.000000;0.896656
9490.000000;0.895586
9489.000000;0.894170
9488.000000;0.893417
9487.000000;0.893571
9486.000000;0.894038
9485.000000;0.894003
9484.000000;0.893184
9483.000000;0.891979
9482.000000;0.890925
9481.000000;0.890197
9480.000000;0.889632
9479.000000;0.889002
9478.000000;0.888170
9477.000000;0.887242
9476.000000;0.886699
9475.000000;0.887131
9474.000000;0.888538
9473.000000;0.890048
9472.000000;0.890645
9471.000000;0.890140
9470.000000;0.889153
9469.000000;0.888243
9468.000000;0.887433
9467.000000;0.886602
9466.000000;0.885941
9465.000000;0.885743
9464.000000;0.885944
9463.000000;0.886144
9462.000000;0.886022
9461.000000;0.885597
9460.000000;0.885133
9459.000000;0.884938
9458.000000;0.885212
9457.000000;0.885938
9456.000000;0.886847
9455.000000;0.887525
9454.000000;0.887664
9453.000000;0.887205
9452.000000;0.886306
9451.000000;0.885236
9450.000000;0.884309
9449.000000;0.883726
9448.000000;0.883374
9447.000000;0.882871
9446.000000;0.882027
9445.000000;0.881263
9444.000000;0.881358
9443.000000;0.882619
9442.000000;0.884357
9441.000000;0.885352
9440.000000;0.884900
9439.000000;0.883389
9438.000000;0.881887
9437.000000;0.881226
9436.000000;0.881417
9435.000000;0.881793
9434.000000;0.881663
9433.000000;0.880925
9432.000000;0.880113
9431.000000;0.879853
9430.000000;0.880250
9429.000000;0.880793
9428.000000;0.880820
9427.000000;0.880067
9426.000000;0.878845
9425.000000;0.877732
9424.000000;0.877084
9423.000000;0.876810
9422.000000;0.876587
9421.000000;0.876287
9420.000000;0.876101
9419.000000;0.876216
9418.000000;0.876507
9417.000000;0.876692
9416.000000;0.876691
9415.000000;0.876614
9414.000000;0.876465
9413.000000;0.876091
9412.000000;0.875477
9411.000000;0.874923
9410.000000;0.874790
9409.000000;0.875153
9408.000000;0.875771
9407.000000;0.876345
9406.000000;0.876743
9405.000000;0.876989
9404.000000;0.877074
9403.000000;0.876848
9402.000000;0.876184
9401.000000;0.875240
9400.000000;0.874403
9399.000000;0.873898
9398.000000;0.873603
9397.000000;0.873353
9396.000000;0.873244
9395.000000;0.873426
9394.000000;0.873758
9393.000000;0.873936
9392.000000;0.873911
9391.000000;0.873877
9390.000000;0.873853
9389.000000;0.873576
9388.000000;0.872878
9387.000000;0.871904
9386.000000;0.870942
9385.000000;0.870232
9384.000000;0.869954
9383.000000;0.870085
9382.000000;0.870267
9381.000000;0.870133
9380.000000;0.869805
9379.000000;0.869697
9378.000000;0.869749
9377.000000;0.869412
9376.000000;0.868604
9375.000000;0.868175
9374.000000;0.868919
9373.000000;0.870488
9372.000000;0.871736
9371.000000;0.871962
9370.000000;0.871379
9369.000000;0.870493
9368.000000;0.869567
9367.000000;0.868702
9366.000000;0.867977
9365.000000;0.867335
9364.000000;0.866608
9363.000000;0.865779
9362.000000;0.865099
9361.000000;0.864917
9360.000000;0.865455
9359.000000;0.866591
9358.000000;0.867700
9357.000000;0.867937
9356.000000;0.867030
9355.000000;0.865651
9354.000000;0.864677
9353.000000;0.864267
9352.000000;0.864010
9351.000000;0.863751
9350.000000;0.863674
9349.000000;0.863626
9348.000000;0.863047
9347.000000;0.861815
9346.000000;0.860620
9345.000000;0.860180
9344.000000;0.860474
9343.000000;0.861008
9342.000000;0.861454
9341.000000;0.861757
9340.000000;0.861940
9339.000000;0.862142
9338.000000;0.862628
9337.000000;0.863411
9336.000000;0.864022
9335.000000;0.863924
9334.000000;0.863063
9333.000000;0.861837
9332.000000;0.860653
9331.000000;0.859753
9330.000000;0.859277
9329.000000;0.859215
9328.000000;0.859332
9327.000000;0.859327
9326.000000;0.859053
9325.000000;0.858532
9324.000000;0.857958
9323.000000;0.857762
9322.000000;0.858297
9321.000000;0.859280
9320.000000;0.859877
9319.000000;0.859663
9318.000000;0.859154
9317.000000;0.859000
9316.000000;0.859000
9315.000000;0.858482
9314.000000;0.857393
9313.000000;0.856343
9312.000000;0.855642
9311.000000;0.854997
9310.000000;0.854241
9309.000000;0.853686
9308.000000;0.853512
9307.000000;0.853394
9306.000000;0.853095
9305.000000;0.852990
9304.000000;0.853582
9303.000000;0.854792
9302.000000;0.856110
9301.000000;0.857200
9300.000000;0.857961
9299.000000;0.858185
9298.000000;0.857659
9297.000000;0.856601
9296.000000;0.855644
9295.000000;0.855301
9294.000000;0.855561
9293.000000;0.855970
9292.000000;0.855964
9291.000000;0.855277
9290.000000;0.854232
9289.000000;0.853543
9288.000000;0.853605
9287.000000;0.854047
9286.000000;0.854186
9285.000000;0.853803
9284.000000;0.853213
9283.000000;0.852670
9282.000000;0.852105
9281.000000;0.851502
9280.000000;0.851158
9279.000000;0.851338
9278.000000;0.851895
9277.000000;0.852414
9276.000000;0.852599
9275.000000;0.852372
9274.000000;0.851790
9273.000000;0.851060
9272.000000;0.850521
9271.000000;0.850382
9270.000000;0.850473
9269.000000;0.850460
9268.000000;0.850293
9267.000000;0.850281
9266.000000;0.850670
9265.000000;0.851301
9264.000000;0.851742
9263.000000;0.851657
9262.000000;0.851046
9261.000000;0.850231
9260.000000;0.849667
9259.000000;0.849616
9258.000000;0.849873
9257.000000;0.849901
9256.000000;0.849412
9255.000000;0.848740
9254.000000;0.848426
9253.000000;0.848495
9252.000000;0.848449
9251.000000;0.848023
9250.000000;0.847577
9249.000000;0.847487
9248.000000;0.847459
9247.000000;0.846916
9246.000000;0.845916
9245.000000;0.845206
9244.000000;0.845281
9243.000000;0.845830
9242.000000;0.846272
9241.000000;0.846436
9240.000000;0.846423
9239.000000;0.846178
9238.000000;0.845615
9237.000000;0.844982
9236.000000;0.844661
9235.000000;0.844673
9234.000000;0.844741
9233.000000;0.844805
9232.000000;0.845081
9231.000000;0.845560
9230.000000;0.845838
9229.000000;0.845603
9228.000000;0.844967
9227.000000;0.844191
9226.000000;0.843382
9225.000000;0.842680
9224.000000;0.842404
9223.000000;0.842708
9222.000000;0.843259
9221.000000;0.843598
9220.000000;0.843671
9219.000000;0.843706
9218.000000;0.843670
9217.000000;0.843267
9216.000000;0.842503
9215.000000;0.841881
9214.000000;0.841841
9213.000000;0.842244
9212.000000;0.842567
9211.000000;0.842463
9210.000000;0.842002
9209.000000;0.841509
9208.000000;0.841360
9207.000000;0.841798
9206.000000;0.842707
9205.000000;0.843521
9204.000000;0.843552
9203.000000;0.842528
9202.000000;0.840826
9201.000000;0.839162
9200.000000;0.838071
9199.000000;0.837674
9198.000000;0.837841
9197.000000;0.838422
9196.000000;0.839243
9195.000000;0.839989
9194.000000;0.840297
9193.000000;0.840039
9192.000000;0.839381
9191.000000;0.838513
9190.000000;0.837532
9189.000000;0.836661
9188.000000;0.836334
9187.000000;0.836729
9186.000000;0.837346
9185.000000;0.837431
9184.000000;0.836868
9183.000000;0.836291
9182.000000;0.836200
9181.000000;0.836343
9180.000000;0.836226
9179.000000;0.835880
9178.000000;0.835743
9177.000000;0.835957
9176.000000;0.836187
9175.000000;0.836123
9174.000000;0.835800
9173.000000;0.835389
9172.000000;0.834979
9171.000000;0.834675
9170.000000;0.834643
9169.000000;0.834941
9168.000000;0.835420
9167.000000;0.835895
9166.000000;0.836299
9165.000000;0.836623
9164.000000;0.836833
9163.000000;0.836913
9162.000000;0.836846
9161.000000;0.836510
9160.000000;0.835768
9159.000000;0.834761
9158.000000;0.833951
9157.000000;0.833744
9156.000000;0.834154
9155.000000;0.834867
9154.000000;0.835477
9153.000000;0.835627
9152.000000;0.835162
9151.000000;0.834329
9150.000000;0.833668
9149.000000;0.833512
9148.000000;0.833682
9147.000000;0.833764
9146.000000;0.833571
9145.000000;0.833197
9144.000000;0.832759
9143.000000;0.832336
9142.000000;0.832067
9141.000000;0.832012
9140.000000;0.831967
9139.000000;0.831680
9138.000000;0.831256
9137.000000;0.831094
9136.000000;0.831401
9135.000000;0.831992
9134.000000;0.832576
9133.000000;0.832991
9132.000000;0.833074
9131.000000;0.832592
9130.000000;0.831526
9129.000000;0.830289
9128.000000;0.829456
9127.000000;0.829273
9126.000000;0.829509
9125.000000;0.829759
9124.000000;0.829832
9123.000000;0.829837
9122.000000;0.829917
9121.000000;0.829947
9120.000000;0.829616
9119.000000;0.828869
9118.000000;0.828129
9117.000000;0.827901
9116.000000;0.828204
9115.000000;0.828614
9114.000000;0.828822
9113.000000;0.828886
9112.000000;0.828888
9111.000000;0.828687
9110.000000;0.828154
9109.000000;0.827459
9108.000000;0.826922
9107.000000;0.826713
9106.000000;0.826830
9105.000000;0.827208
9104.000000;0.827702
9103.000000;0.828102
9102.000000;0.828331
9101.000000;0.828485
9100.000000;0.828562
9099.000000;0.828359
9098.000000;0.827866
9097.000000;0.827536
9096.000000;0.827830
9095.000000;0.828547
9094.000000;0.828971
9093.000000;0.828701
9092.000000;0.828060
9091.000000;0.827620
9090.000000;0.827615
9089.000000;0.827856
9088.000000;0.827972
9087.000000;0.827644
9086.000000;0.826869
9085.000000;0.826077
9084.000000;0.825817
9083.000000;0.826181
9082.000000;0.826707
9081.000000;0.826926
9080.000000;0.826817
9079.000000;0.826628
9078.000000;0.826477
9077.000000;0.826320
9076.000000;0.826139
9075.000000;0.825909
9074.000000;0.825490
9073.000000;0.824807
9072.000000;0.824126
9071.000000;0.823916
9070.000000;0.824384
9069.000000;0.825249
9068.000000;0.826001
9067.000000;0.826284
9066.000000;0.826018
9065.000000;0.825316
9064.000000;0.824384
9063.000000;0.823452
9062.000000;0.822709
9061.000000;0.822248
9060.000000;0.822041
9059.000000;0.821942
9058.000000;0.821808
9057.000000;0.821656
9056.000000;0.821694
9055.000000;0.822076
9054.000000;0.822676
9053.000000;0.823170
