Criado como novo conjunto de dados;"e0108.spp","-4241502.5 Secs"
cm-1;Abs
10000.000000;0.978750
9999.000000;0.979147
9998.000000;0.979454
9997.000000;0.978829
9996.000000;0.977188
9995.000000;0.975183
9994.000000;0.973455
9993.000000;0.972634
9992.000000;0.973001
9991.000000;0.974065
9990.000000;0.974584
9989.000000;0.973663
9988.000000;0.971636
9987.000000;0.969625
9986.000000;0.968450
9985.000000;0.968228
9984.000000;0.968723
9983.000000;0.969626
9982.000000;0.970482
9981.000000;0.970752
9980.000000;0.970202
9979.000000;0.969170
9978.000000;0.968272
9977.000000;0.967853
9976.000000;0.967751
9975.000000;0.967556
9974.000000;0.967049
9973.000000;0.966418
9972.000000;0.966023
9971.000000;0.965955
9970.000000;0.965944
9969.000000;0.965792
9968.000000;0.965790
9967.000000;0.966356
9966.000000;0.967248
9965.000000;0.967507
9964.000000;0.966458
9963.000000;0.964599
9962.000000;0.963133
9961.000000;0.962702
9960.000000;0.962924
9959.000000;0.963098
9958.000000;0.962923
9957.000000;0.962394
9956.000000;0.961449
9955.000000;0.960145
9954.000000;0.958959
9953.000000;0.958453
9952.000000;0.958626
9951.000000;0.958894
9950.000000;0.958722
9949.000000;0.958097
9948.000000;0.957428
9947.000000;0.957242
9946.000000;0.957905
9945.000000;0.959264
9944.000000;0.960493
9943.000000;0.960638
9942.000000;0.959445
9941.000000;0.957444
9940.000000;0.955267
9939.000000;0.953308
9938.000000;0.952050
9937.000000;0.952067
9936.000000;0.953328
9935.000000;0.954917
9934.000000;0.955834
9933.000000;0.955807
9932.000000;0.955043
9931.000000;0.953664
9930.000000;0.951878
9929.000000;0.950347
9928.000000;0.949722
9927.000000;0.949882
9926.000000;0.950153
9925.000000;0.950193
9924.000000;0.950173
9923.000000;0.950184
9922.000000;0.950015
9921.000000;0.949591
9920.000000;0.949103
9919.000000;0.948643
9918.000000;0.948138
9917.000000;0.947725
9916.000000;0.947725
9915.000000;0.948125
9914.000000;0.948500
9913.000000;0.948547
9912.000000;0.948274
9911.000000;0.947628
9910.000000;0.946500
9909.000000;0.945273
9908.000000;0.944748
9907.000000;0.945140
9906.000000;0.945618
9905.000000;0.945261
9904.000000;0.944078
9903.000000;0.942729
9902.000000;0.941644
9901.000000;0.940885
9900.000000;0.940539
9899.000000;0.940617
9898.000000;0.940716
9897.000000;0.940360
9896.000000;0.939705
9895.000000;0.939457
9894.000000;0.939983
9893.000000;0.940842
9892.000000;0.941230
9891.000000;0.940706
9890.000000;0.939510
9889.000000;0.938352
9888.000000;0.937820
9887.000000;0.937787
9886.000000;0.937528
9885.000000;0.936597
9884.000000;0.935383
9883.000000;0.934541
9882.000000;0.934130
9881.000000;0.933763
9880.000000;0.933376
9879.000000;0.933288
9878.000000;0.933531
9877.000000;0.933704
9876.000000;0.933605
9875.000000;0.933523
9874.000000;0.933718
9873.000000;0.934023
9872.000000;0.934170
9871.000000;0.934182
9870.000000;0.934236
9869.000000;0.934374
9868.000000;0.934524
9867.000000;0.934552
9866.000000;0.934138
9865.000000;0.932969
9864.000000;0.931295
9863.000000;0.929992
9862.000000;0.929769
9861.000000;0.930443
9860.000000;0.931146
9859.000000;0.931104
9858.000000;0.930174
9857.000000;0.928912
9856.000000;0.928262
9855.000000;0.928859
9854.000000;0.930315
9853.000000;0.931384
9852.000000;0.931130
9851.000000;0.929787
9850.000000;0.928267
9849.000000;0.927095
9848.000000;0.926144
9847.000000;0.925142
9846.000000;0.923963
9845.000000;0.922571
9844.000000;0.921162
9843.000000;0.920293
9842.000000;0.920396
9841.000000;0.921118
9840.000000;0.921523
9839.000000;0.921133
9838.000000;0.920471
9837.000000;0.920416
9836.000000;0.921278
9835.000000;0.922630
9834.000000;0.923753
9833.000000;0.924020
9832.000000;0.923118
9831.000000;0.921285
9830.000000;0.919322
9829.000000;0.918096
9828.000000;0.917876
9827.000000;0.918169
9826.000000;0.918206
9825.000000;0.917610
9824.000000;0.916672
9823.000000;0.916005
9822.000000;0.915920
9821.000000;0.916163
9820.000000;0.916277
9819.000000;0.916102
9818.000000;0.915836
9817.000000;0.915735
9816.000000;0.915902
9815.000000;0.916270
9814.000000;0.916559
9813.000000;0.916324
9812.000000;0.915330
9811.000000;0.913896
9810.000000;0.912667
9809.000000;0.912035
9808.000000;0.911972
9807.000000;0.912308
9806.000000;0.912801
9805.000000;0.912979
9804.000000;0.912377
9803.000000;0.911123
9802.000000;0.909946
9801.000000;0.909403
9800.000000;0.909379
9799.000000;0.909460
9798.000000;0.909450
9797.000000;0.909321
9796.000000;0.909030
9795.000000;0.908749
9794.000000;0.908892
9793.000000;0.909490
9792.000000;0.909810
9791.000000;0.909113
9790.000000;0.907673
9789.000000;0.906535
9788.000000;0.906264
9787.000000;0.906370
9786.000000;0.906043
9785.000000;0.905063
9784.000000;0.903815
9783.000000;0.902777
9782.000000;0.902239
9781.000000;0.902261
9780.000000;0.902608
9779.000000;0.902820
9778.000000;0.902581
9777.000000;0.902036
9776.000000;0.901633
9775.000000;0.901637
9774.000000;0.901870
9773.000000;0.901986
9772.000000;0.901966
9771.000000;0.902215
9770.000000;0.902995
9769.000000;0.903814
9768.000000;0.903679
9767.000000;0.902186
9766.000000;0.900120
9765.000000;0.898738
9764.000000;0.898594
9763.000000;0.899276
9762.000000;0.900069
9761.000000;0.900497
9760.000000;0.900321
9759.000000;0.899498
9758.000000;0.898287
9757.000000;0.897117
9756.000000;0.896219
9755.000000;0.895566
9754.000000;0.895189
9753.000000;0.895241
9752.000000;0.895624
9751.000000;0.895806
9750.000000;0.895241
9749.000000;0.893890
9748.000000;0.892224
9747.000000;0.890839
9746.000000;0.890104
9745.000000;0.889982
9744.000000;0.890099
9743.000000;0.890122
9742.000000;0.890146
9741.000000;0.890542
9740.000000;0.891429
9739.000000;0.892453
9738.000000;0.893105
9737.000000;0.893089
9736.000000;0.892408
9735.000000;0.891265
9734.000000;0.890041
9733.000000;0.889173
9732.000000;0.888871
9731.000000;0.889022
9730.000000;0.889369
9729.000000;0.889660
9728.000000;0.889646
9727.000000;0.889142
9726.000000;0.888202
9725.000000;0.887122
9724.000000;0.886208
9723.000000;0.885605
9722.000000;0.885321
9721.000000;0.885216
9720.000000;0.885040
9719.000000;0.884668
9718.000000;0.884291
9717.000000;0.884137
9716.000000;0.884036
9715.000000;0.883523
9714.000000;0.882465
9713.000000;0.881336
9712.000000;0.880812
9711.000000;0.881249
9710.000000;0.882465
9709.000000;0.883732
9708.000000;0.884058
9707.000000;0.882976
9706.000000;0.881185
9705.000000;0.880003
9704.000000;0.879986
9703.000000;0.880410
9702.000000;0.880294
9701.000000;0.879575
9700.000000;0.878981
9699.000000;0.879087
9698.000000;0.879882
9697.000000;0.880976
9696.000000;0.881862
9695.000000;0.882098
9694.000000;0.881598
9693.000000;0.880704
9692.000000;0.879779
9691.000000;0.878872
9690.000000;0.877927
9689.000000;0.877085
9688.000000;0.876507
9687.000000;0.876079
9686.000000;0.875597
9685.000000;0.875109
9684.000000;0.874848
9683.000000;0.874958
9682.000000;0.875463
9681.000000;0.876308
9680.000000;0.877239
9679.000000;0.877831
9678.000000;0.877936
9677.000000;0.877903
9676.000000;0.878036
9675.000000;0.878058
9674.000000;0.877490
9673.000000;0.876381
9672.000000;0.875204
9671.000000;0.874130
9670.000000;0.872892
9669.000000;0.871384
9668.000000;0.869987
9667.000000;0.869191
9666.000000;0.869190
9665.000000;0.869920
9664.000000;0.871147
9663.000000;0.872409
9662.000000;0.873137
9661.000000;0.873018
9660.000000;0.872127
9659.000000;0.870707
9658.000000;0.869039
9657.000000;0.867526
9656.000000;0.866581
9655.000000;0.866272
9654.000000;0.866244
9653.000000;0.866120
9652.000000;0.865852
9651.000000;0.865588
9650.000000;0.865372
9649.000000;0.865136
9648.000000;0.864857
9647.000000;0.864560
9646.000000;0.864213
9645.000000;0.863748
9644.000000;0.863238
9643.000000;0.862973
9642.000000;0.863281
9641.000000;0.864164
9640.000000;0.865131
9639.000000;0.865509
9638.000000;0.865020
9637.000000;0.864023
9636.000000;0.863139
9635.000000;0.862729
9634.000000;0.862696
9633.000000;0.862698
9632.000000;0.862507
9631.000000;0.862256
9630.000000;0.862356
9629.000000;0.862980
9628.000000;0.863567
9627.000000;0.863174
9626.000000;0.861547
9625.000000;0.859553
9624.000000;0.858288
9623.000000;0.857992
9622.000000;0.858095
9621.000000;0.858091
9620.000000;0.858019
9619.000000;0.858132
9618.000000;0.858486
9617.000000;0.858899
9616.000000;0.859092
9615.000000;0.858873
9614.000000;0.858309
9613.000000;0.857682
9612.000000;0.857107
9611.000000;0.856349
9610.000000;0.855204
9609.000000;0.853915
9608.000000;0.852964
9607.000000;0.852610
9606.000000;0.852910
9605.000000;0.853949
9604.000000;0.855572
9603.000000;0.857014
9602.000000;0.857316
9601.000000;0.856260
9600.000000;0.854572
9599.000000;0.853183
9598.000000;0.852576
9597.000000;0.852735
9596.000000;0.853250
9595.000000;0.853425
9594.000000;0.852765
9593.000000;0.851550
9592.000000;0.850574
9591.000000;0.850213
9590.000000;0.850157
9589.000000;0.850119
9588.000000;0.850290
9587.000000;0.850814
9586.000000;0.851286
9585.000000;0.851182
9584.000000;0.850520
9583.000000;0.849738
9582.000000;0.849176
9581.000000;0.848945
9580.000000;0.849028
9579.000000;0.849157
9578.000000;0.848790
9577.000000;0.847657
9576.000000;0.846208
9575.000000;0.845151
9574.000000;0.844651
9573.000000;0.844333
9572.000000;0.844018
9571.000000;0.843984
9570.000000;0.844381
9569.000000;0.844762
9568.000000;0.844460
9567.000000;0.843314
9566.000000;0.841817
9565.000000;0.840590
9564.000000;0.839878
9563.000000;0.839567
9562.000000;0.839553
9561.000000;0.839916
9560.000000;0.840684
9559.000000;0.841545
9558.000000;0.841989
9557.000000;0.841782
9556.000000;0.841227
9555.000000;0.840856
9554.000000;0.840925
9553.000000;0.841244
9552.000000;0.841445
9551.000000;0.841332
9550.000000;0.840999
9549.000000;0.840621
9548.000000;0.840169
9547.000000;0.839420
9546.000000;0.838360
9545.000000;0.837437
9544.000000;0.837161
9543.000000;0.837461
9542.000000;0.837686
9541.000000;0.837328
9540.000000;0.836573
9539.000000;0.836005
9538.000000;0.835968
9537.000000;0.836403
9536.000000;0.837093
9535.000000;0.837820
9534.000000;0.838358
9533.000000;0.838544
9532.000000;0.838399
9531.000000;0.838048
9530.000000;0.837511
9529.000000;0.836689
9528.000000;0.835590
9527.000000;0.834488
9526.000000;0.833778
9525.000000;0.833646
9524.000000;0.833872
9523.000000;0.833939
9522.000000;0.833430
9521.000000;0.832419
9520.000000;0.831415
9519.000000;0.830868
9518.000000;0.830767
9517.000000;0.830777
9516.000000;0.830742
9515.000000;0.830877
9514.000000;0.831368
9513.000000;0.831854
9512.000000;0.831564
9511.000000;0.830166
9510.000000;0.828427
9509.000000;0.827690
9508.000000;0.828530
9507.000000;0.830050
9506.000000;0.830730
9505.000000;0.829920
9504.000000;0.828302
9503.000000;0.827010
9502.000000;0.826639
9501.000000;0.827114
9500.000000;0.828064
9499.000000;0.829068
9498.000000;0.829737
9497.000000;0.829883
9496.000000;0.829612
9495.000000;0.829140
9494.000000;0.828539
9493.000000;0.827749
9492.000000;0.826817
9491.000000;0.826001
9490.000000;0.825575
9489.000000;0.825531
9488.000000;0.825503
9487.000000;0.825113
9486.000000;0.824436
9485.000000;0.823935
9484.000000;0.823860
9483.000000;0.823944
9482.000000;0.823901
9481.000000;0.823947
9480.000000;0.824406
9479.000000;0.824951
9478.000000;0.824822
9477.000000;0.823843
9476.000000;0.822694
9475.000000;0.821959
9474.000000;0.821434
9473.000000;0.820704
9472.000000;0.819937
9471.000000;0.819585
9470.000000;0.819600
9469.000000;0.819575
9468.000000;0.819525
9467.000000;0.819940
9466.000000;0.820939
9465.000000;0.821872
9464.000000;0.821985
9463.000000;0.821193
9462.000000;0.820019
9461.000000;0.818979
9460.000000;0.818251
9459.000000;0.817798
9458.000000;0.817602
9457.000000;0.817686
9456.000000;0.817966
9455.000000;0.818165
9454.000000;0.818047
9453.000000;0.817771
9452.000000;0.817807
9451.000000;0.818273
9450.000000;0.818553
9449.000000;0.817911
9448.000000;0.816460
9447.000000;0.815133
9446.000000;0.814644
9445.000000;0.814837
9444.000000;0.815199
9443.000000;0.815569
9442.000000;0.815968
9441.000000;0.816032
9440.000000;0.815226
9439.000000;0.813672
9438.000000;0.812351
9437.000000;0.812185
9436.000000;0.813117
9435.000000;0.814269
9434.000000;0.814821
9433.000000;0.814557
9432.000000;0.813713
9431.000000;0.812665
9430.000000;0.811813
9429.000000;0.811462
9428.000000;0.811569
9427.000000;0.811698
9426.000000;0.811434
9425.000000;0.810859
9424.000000;0.810494
9423.000000;0.810680
9422.000000;0.811123
9421.000000;0.811162
9420.000000;0.810470
9419.000000;0.809405
9418.000000;0.808612
9417.000000;0.808340
9416.000000;0.808267
9415.000000;0.808018
9414.000000;0.807699
9413.000000;0.807769
9412.000000;0.808378
9411.000000;0.809003
9410.000000;0.808863
9409.000000;0.807677
9408.000000;0.805945
9407.000000;0.804537
9406.000000;0.804080
9405.000000;0.804620
9404.000000;0.805668
9403.000000;0.806548
9402.000000;0.806855
9401.000000;0.806702
9400.000000;0.806525
9399.000000;0.806595
9398.000000;0.806723
9397.000000;0.806496
9396.000000;0.805783
9395.000000;0.804952
9394.000000;0.804533
9393.000000;0.804695
9392.000000;0.805082
9391.000000;0.805213
9390.000000;0.804964
9389.000000;0.804587
9388.000000;0.804305
9387.000000;0.804066
9386.000000;0.803733
9385.000000;0.803349
9384.000000;0.803044
9383.000000;0.802806
9382.000000;0.802517
9381.000000;0.802168
9380.000000;0.801845
9379.000000;0.801502
9378.000000;0.800985
9377.000000;0.800348
9376.000000;0.799984
9375.000000;0.800241
9374.000000;0.801007
9373.000000;0.801821
9372.000000;0.802334
9371.000000;0.802513
9370.000000;0.802405
9369.000000;0.801981
9368.000000;0.801339
9367.000000;0.800861
9366.000000;0.800894
9365.000000;0.801258
9364.000000;0.801324
9363.000000;0.800703
9362.000000;0.799708
9361.000000;0.798980
9360.000000;0.798777
9359.000000;0.798813
9358.000000;0.798676
9357.000000;0.798205
9356.000000;0.797515
9355.000000;0.796907
9354.000000;0.796782
9353.000000;0.797314
9352.000000;0.798108
9351.000000;0.798411
9350.000000;0.797792
9349.000000;0.796493
9348.000000;0.795075
9347.000000;0.793986
9346.000000;0.793526
9345.000000;0.793886
9344.000000;0.794865
9343.000000;0.795742
9342.000000;0.795855
9341.000000;0.795306
9340.000000;0.794846
9339.000000;0.795040
9338.000000;0.795732
9337.000000;0.796268
9336.000000;0.796089
9335.000000;0.795151
9334.000000;0.793910
9333.000000;0.792885
9332.000000;0.792143
9331.000000;0.791335
9330.000000;0.790374
9329.000000;0.789807
9328.000000;0.790189
9327.000000;0.791249
9326.000000;0.792079
9325.000000;0.792177
9324.000000;0.791889
9323.000000;0.791722
9322.000000;0.791629
9321.000000;0.791184
9320.000000;0.790230
9319.000000;0.789107
9318.000000;0.788375
9317.000000;0.788433
9316.000000;0.789248
9315.000000;0.790275
9314.000000;0.790739
9313.000000;0.790164
9312.000000;0.788693
9311.000000;0.786940
9310.000000;0.785571
9309.000000;0.784974
9308.000000;0.785131
9307.000000;0.785751
9306.000000;0.786595
9305.000000;0.787618
9304.000000;0.788719
9303.000000;0.789509
9302.000000;0.789587
9301.000000;0.789000
9300.000000;0.788163
9299.000000;0.787352
9298.000000;0.786595
9297.000000;0.786046
9296.000000;0.786063
9295.000000;0.786728
9294.000000;0.787563
9293.000000;0.787956
9292.000000;0.787708
9291.000000;0.787034
9290.000000;0.786253
9289.000000;0.785633
9288.000000;0.785330
9287.000000;0.785289
9286.000000;0.785327
9285.000000;0.785417
9284.000000;0.785684
9283.000000;0.786038
9282.000000;0.786066
9281.000000;0.785473
9280.000000;0.784444
9279.000000;0.783381
9278.000000;0.782505
9277.000000;0.781901
9276.000000;0.781693
9275.000000;0.781848
9274.000000;0.781959
9273.000000;0.781605
9272.000000;0.780870
9271.000000;0.780276
9270.000000;0.780223
9269.000000;0.780733
9268.000000;0.781621
9267.000000;0.782605
9266.000000;0.783259
9265.000000;0.783189
9264.000000;0.782421
9263.000000;0.781466
9262.000000;0.780924
9261.000000;0.781038
9260.000000;0.781566
9259.000000;0.781957
9258.000000;0.781729
9257.000000;0.780891
9256.000000;0.779986
9255.000000;0.779576
9254.000000;0.779715
9253.000000;0.780041
9252.000000;0.780263
9251.000000;0.780320
9250.000000;0.780118
9249.000000;0.779487
9248.000000;0.778528
9247.000000;0.777710
9246.000000;0.777401
9245.000000;0.777468
9244.000000;0.777482
9243.000000;0.777210
9242.000000;0.776766
9241.000000;0.776386
9240.000000;0.776267
9239.000000;0.776530
9238.000000;0.777139
9237.000000;0.777830
9236.000000;0.778270
9235.000000;0.778321
9234.000000;0.778094
9233.000000;0.777754
9232.000000;0.777384
9231.000000;0.777070
9230.000000;0.776972
9229.000000;0.777182
9228.000000;0.777563
9227.000000;0.777810
9226.000000;0.777670
9225.000000;0.777108
9224.000000;0.776322
9223.000000;0.775646
9222.000000;0.775403
9221.000000;0.775675
9220.000000;0.776157
9219.000000;0.776324
9218.000000;0.775898
9217.000000;0.775169
9216.000000;0.774755
9215.000000;0.775005
9214.000000;0.775687
9213.000000;0.776255
9212.000000;0.776371
9211.000000;0.776101
9210.000000;0.775679
9209.000000;0.775239
9208.000000;0.774823
9207.000000;0.774544
9206.000000;0.774549
9205.000000;0.774737
9204.000000;0.774671
9203.000000;0.773963
9202.000000;0.772742
9201.000000;0.771599
9200.000000;0.771050
9199.000000;0.771132
9198.000000;0.771508
9197.000000;0.771774
9196.000000;0.771623
9195.000000;0.770954
9194.000000;0.770059
9193.000000;0.769522
9192.000000;0.769679
9191.000000;0.770226
9190.000000;0.770606
9189.000000;0.770683
9188.000000;0.770755
9187.000000;0.770923
9186.000000;0.770835
9185.000000;0.770184
9184.000000;0.769202
9183.000000;0.768426
9182.000000;0.768132
9181.000000;0.768143
9180.000000;0.768102
9179.000000;0.767759
9178.000000;0.767085
9177.000000;0.766288
9176.000000;0.765715
9175.000000;0.765652
9174.000000;0.766182
9173.000000;0.767202
9172.000000;0.768467
9171.000000;0.769574
9170.000000;0.770039
9169.000000;0.769598
9168.000000;0.768482
9167.000000;0.767328
9166.000000;0.766751
9165.000000;0.766919
9164.000000;0.767443
9163.000000;0.767693
9162.000000;0.767343
9161.000000;0.766681
9160.000000;0.766335
9159.000000;0.766640
9158.000000;0.767296
9157.000000;0.767624
9156.000000;0.767114
9155.000000;0.765790
9154.000000;0.764196
9153.000000;0.763070
9152.000000;0.762861
9151.000000;0.763442
9150.000000;0.764287
9149.000000;0.764918
9148.000000;0.765141
9147.000000;0.764933
9146.000000;0.764344
9145.000000;0.763573
9144.000000;0.762935
9143.000000;0.762619
9142.000000;0.762564
9141.000000;0.762639
9140.000000;0.762780
9139.000000;0.762891
9138.000000;0.762793
9137.000000;0.762442
9136.000000;0.762087
9135.000000;0.762005
9134.000000;0.762156
9133.000000;0.762246
9132.000000;0.762091
9131.000000;0.761780
9130.000000;0.761492
9129.000000;0.761288
9128.000000;0.761094
9127.000000;0.760806
9126.000000;0.760447
9125.000000;0.760258
9124.000000;0.760548
9123.000000;0.761345
9122.000000;0.762237
9121.000000;0.762681
9120.000000;0.762509
9119.000000;0.762063
9118.000000;0.761834
9117.000000;0.762018
9116.000000;0.762402
9115.000000;0.762616
9114.000000;0.762488
9113.000000;0.762167
9112.000000;0.761875
9111.000000;0.761582
9110.000000;0.761005
9109.000000;0.759959
9108.000000;0.758645
9107.000000;0.757557
9106.000000;0.757151
9105.000000;0.757549
9104.000000;0.758441
9103.000000;0.759291
9102.000000;0.759775
9101.000000;0.760022
9100.000000;0.760296
9099.000000;0.760524
9098.000000;0.760368
9097.000000;0.759789
9096.000000;0.759219
9095.000000;0.759032
9094.000000;0.759094
9093.000000;0.759043
9092.000000;0.758811
9091.000000;0.758599
9090.000000;0.758498
9089.000000;0.758416
9088.000000;0.758313
9087.000000;0.758255
9086.000000;0.758266
9085.000000;0.758290
9084.000000;0.758282
9083.000000;0.758177
9082.000000;0.757839
9081.000000;0.757244
9080.000000;0.756686
9079.000000;0.756566
9078.000000;0.756962
9077.000000;0.757546
9076.000000;0.757918
9075.000000;0.757877
9074.000000;0.757425
9073.000000;0.756725
9072.000000;0.756094
9071.000000;0.755842
9070.000000;0.756031
9069.000000;0.756454
9068.000000;0.756832
9067.000000;0.756946
9066.000000;0.756660
9065.000000;0.756001
9064.000000;0.755251
9063.000000;0.754788
9062.000000;0.754812
9061.000000;0.755270
9060.000000;0.755987
9059.000000;0.756713
9058.000000;0.757133
9057.000000;0.757085
9056.000000;0.756753
9055.000000;0.756403
9054.000000;0.755978
9053.000000;0.755247
