Criado como novo conjunto de dados;"e0108.spp","-4229441.6 Secs"
cm-1;Abs
10000.000000;1.858109
9999.000000;1.847820
9998.000000;1.839723
9997.000000;1.837817
9996.000000;1.843683
9995.000000;1.853045
9994.000000;1.859430
9993.000000;1.861068
9992.000000;1.861145
9991.000000;1.861824
9990.000000;1.861132
9989.000000;1.856572
9988.000000;1.849668
9987.000000;1.844962
9986.000000;1.845898
9985.000000;1.852490
9984.000000;1.861569
9983.000000;1.868737
9982.000000;1.871608
9981.000000;1.872455
9980.000000;1.876223
9979.000000;1.884176
9978.000000;1.890210
9977.000000;1.886030
9976.000000;1.871223
9975.000000;1.854807
9974.000000;1.846398
9973.000000;1.849007
9972.000000;1.858939
9971.000000;1.869921
9970.000000;1.877055
9969.000000;1.878257
9968.000000;1.873902
9967.000000;1.866148
9966.000000;1.857985
9965.000000;1.851667
9964.000000;1.847921
9963.000000;1.846635
9962.000000;1.847522
9961.000000;1.849788
9960.000000;1.851902
9959.000000;1.852572
9958.000000;1.851770
9957.000000;1.850262
9956.000000;1.848523
9955.000000;1.846915
9954.000000;1.846517
9953.000000;1.848326
9952.000000;1.851123
9951.000000;1.851654
9950.000000;1.848455
9949.000000;1.844495
9948.000000;1.844344
9947.000000;1.849006
9946.000000;1.854463
9945.000000;1.855842
9944.000000;1.852135
9943.000000;1.845686
9942.000000;1.839173
9941.000000;1.834794
9940.000000;1.834230
9939.000000;1.837731
9938.000000;1.843397
9937.000000;1.848035
9936.000000;1.850073
9935.000000;1.851230
9934.000000;1.853579
9933.000000;1.855837
9932.000000;1.854813
9931.000000;1.850615
9930.000000;1.847699
9929.000000;1.849166
9928.000000;1.851820
9927.000000;1.849196
9926.000000;1.839837
9925.000000;1.829587
9924.000000;1.824690
9923.000000;1.825711
9922.000000;1.828946
9921.000000;1.831436
9920.000000;1.832933
9919.000000;1.833899
9918.000000;1.833932
9917.000000;1.832970
9916.000000;1.832283
9915.000000;1.833082
9914.000000;1.835050
9913.000000;1.836920
9912.000000;1.838185
9911.000000;1.839894
9910.000000;1.843637
9909.000000;1.849616
9908.000000;1.855623
9907.000000;1.858389
9906.000000;1.856654
9905.000000;1.852426
9904.000000;1.848614
9903.000000;1.846389
9902.000000;1.845508
9901.000000;1.845947
9900.000000;1.847674
9899.000000;1.849262
9898.000000;1.848543
9897.000000;1.844930
9896.000000;1.839454
9895.000000;1.832467
9894.000000;1.823380
9893.000000;1.813125
9892.000000;1.805013
9891.000000;1.802177
9890.000000;1.805159
9889.000000;1.812235
9888.000000;1.820913
9887.000000;1.828617
9886.000000;1.833187
9885.000000;1.834085
9884.000000;1.832700
9883.000000;1.830613
9882.000000;1.828071
9881.000000;1.824802
9880.000000;1.821468
9879.000000;1.819070
9878.000000;1.817858
9877.000000;1.817727
9876.000000;1.818516
9875.000000;1.819076
9874.000000;1.817115
9873.000000;1.811752
9872.000000;1.806029
9871.000000;1.804740
9870.000000;1.809411
9869.000000;1.816796
9868.000000;1.822706
9867.000000;1.826102
9866.000000;1.828253
9865.000000;1.829449
9864.000000;1.828731
9863.000000;1.826234
9862.000000;1.823907
9861.000000;1.823438
9860.000000;1.824354
9859.000000;1.824996
9858.000000;1.824948
9857.000000;1.825337
9856.000000;1.826599
9855.000000;1.826983
9854.000000;1.823899
9853.000000;1.817264
9852.000000;1.811374
9851.000000;1.811660
9850.000000;1.819564
9849.000000;1.830945
9848.000000;1.838689
9847.000000;1.838092
9846.000000;1.830299
9845.000000;1.819979
9844.000000;1.811616
9843.000000;1.808255
9842.000000;1.810514
9841.000000;1.815626
9840.000000;1.818831
9839.000000;1.816872
9838.000000;1.810739
9837.000000;1.804070
9836.000000;1.799421
9835.000000;1.797432
9834.000000;1.798250
9833.000000;1.801965
9832.000000;1.807371
9831.000000;1.811479
9830.000000;1.811590
9829.000000;1.807743
9828.000000;1.802406
9827.000000;1.798176
9826.000000;1.796414
9825.000000;1.797418
9824.000000;1.800735
9823.000000;1.805085
9822.000000;1.808595
9821.000000;1.809918
9820.000000;1.809054
9819.000000;1.806738
9818.000000;1.803935
9817.000000;1.801523
9816.000000;1.800021
9815.000000;1.800255
9814.000000;1.802714
9813.000000;1.805410
9812.000000;1.804252
9811.000000;1.797408
9810.000000;1.788468
9809.000000;1.783176
9808.000000;1.783505
9807.000000;1.786291
9806.000000;1.787671
9805.000000;1.787231
9804.000000;1.786660
9803.000000;1.786552
9802.000000;1.786678
9801.000000;1.788031
9800.000000;1.792076
9799.000000;1.797939
9798.000000;1.802072
9797.000000;1.801329
9796.000000;1.795585
9795.000000;1.787301
9794.000000;1.779865
9793.000000;1.776299
9792.000000;1.777946
9791.000000;1.783688
9790.000000;1.790826
9789.000000;1.796904
9788.000000;1.800199
9787.000000;1.799316
9786.000000;1.794076
9785.000000;1.786683
9784.000000;1.780662
9783.000000;1.778237
9782.000000;1.779229
9781.000000;1.782240
9780.000000;1.785884
9779.000000;1.788867
9778.000000;1.790237
9777.000000;1.790349
9776.000000;1.790731
9775.000000;1.792261
9774.000000;1.794002
9773.000000;1.794283
9772.000000;1.792642
9771.000000;1.790390
9770.000000;1.789181
9769.000000;1.789299
9768.000000;1.789606
9767.000000;1.789082
9766.000000;1.788036
9765.000000;1.787236
9764.000000;1.785831
9763.000000;1.781580
9762.000000;1.774131
9761.000000;1.767012
9760.000000;1.764944
9759.000000;1.769418
9758.000000;1.777737
9757.000000;1.786098
9756.000000;1.792210
9755.000000;1.794758
9754.000000;1.792615
9753.000000;1.786338
9752.000000;1.779004
9751.000000;1.773705
9750.000000;1.770903
9749.000000;1.769245
9748.000000;1.768067
9747.000000;1.767923
9746.000000;1.769138
9745.000000;1.771056
9744.000000;1.772797
9743.000000;1.773909
9742.000000;1.774144
9741.000000;1.773269
9740.000000;1.771344
9739.000000;1.769034
9738.000000;1.767482
9737.000000;1.767612
9736.000000;1.769427
9735.000000;1.771705
9734.000000;1.772182
9733.000000;1.769099
9732.000000;1.763234
9731.000000;1.757894
9730.000000;1.756611
9729.000000;1.760626
9728.000000;1.767966
9727.000000;1.774825
9726.000000;1.778424
9725.000000;1.778638
9724.000000;1.776702
9723.000000;1.773312
9722.000000;1.768821
9721.000000;1.764376
9720.000000;1.761359
9719.000000;1.759885
9718.000000;1.758991
9717.000000;1.758098
9716.000000;1.757375
9715.000000;1.756953
9714.000000;1.756787
9713.000000;1.757384
9712.000000;1.759636
9711.000000;1.763458
9710.000000;1.767302
9709.000000;1.769465
9708.000000;1.769261
9707.000000;1.766629
9706.000000;1.761864
9705.000000;1.756344
9704.000000;1.752448
9703.000000;1.752354
9702.000000;1.756447
9701.000000;1.762386
9700.000000;1.766082
9699.000000;1.764753
9698.000000;1.759883
9697.000000;1.756574
9696.000000;1.759342
9695.000000;1.768167
9694.000000;1.778292
9693.000000;1.783998
9692.000000;1.782856
9691.000000;1.776689
9690.000000;1.769429
9689.000000;1.764555
9688.000000;1.763456
9687.000000;1.765127
9686.000000;1.767653
9685.000000;1.769818
9684.000000;1.770633
9683.000000;1.768653
9682.000000;1.763954
9681.000000;1.760041
9680.000000;1.760873
9679.000000;1.765569
9678.000000;1.768507
9677.000000;1.766072
9676.000000;1.760996
9675.000000;1.758208
9674.000000;1.759094
9673.000000;1.761685
9672.000000;1.764089
9671.000000;1.765425
9670.000000;1.764854
9669.000000;1.761799
9668.000000;1.757077
9667.000000;1.752396
9666.000000;1.748232
9665.000000;1.744033
9664.000000;1.740653
9663.000000;1.740475
9662.000000;1.744618
9661.000000;1.751177
9660.000000;1.756881
9659.000000;1.759986
9658.000000;1.760714
9657.000000;1.759105
9656.000000;1.753892
9655.000000;1.744492
9654.000000;1.733743
9653.000000;1.727251
9652.000000;1.729164
9651.000000;1.738634
9650.000000;1.750243
9649.000000;1.758116
9648.000000;1.760109
9647.000000;1.757839
9646.000000;1.753886
9645.000000;1.750263
9644.000000;1.748342
9643.000000;1.748486
9642.000000;1.749681
9641.000000;1.750311
9640.000000;1.749501
9639.000000;1.747717
9638.000000;1.746373
9637.000000;1.746747
9636.000000;1.748589
9635.000000;1.749801
9634.000000;1.748470
9633.000000;1.745324
9632.000000;1.743066
9631.000000;1.743259
9630.000000;1.745019
9629.000000;1.746645
9628.000000;1.747214
9627.000000;1.746503
9626.000000;1.744908
9625.000000;1.743891
9624.000000;1.745319
9623.000000;1.749631
9622.000000;1.755261
9621.000000;1.760109
9620.000000;1.762618
9619.000000;1.761476
9618.000000;1.756387
9617.000000;1.749778
9616.000000;1.745442
9615.000000;1.744153
9614.000000;1.742592
9613.000000;1.738074
9612.000000;1.732233
9611.000000;1.728527
9610.000000;1.728343
9609.000000;1.731004
9608.000000;1.735536
9607.000000;1.740370
9606.000000;1.742809
9605.000000;1.741557
9604.000000;1.738640
9603.000000;1.736261
9602.000000;1.733373
9601.000000;1.727784
9600.000000;1.720493
9599.000000;1.715399
9598.000000;1.715271
9597.000000;1.719907
9596.000000;1.727316
9595.000000;1.734539
9594.000000;1.737996
9593.000000;1.735948
9592.000000;1.731013
9591.000000;1.727789
9590.000000;1.727926
9589.000000;1.729219
9588.000000;1.728676
9587.000000;1.725211
9586.000000;1.719962
9585.000000;1.715028
9584.000000;1.712311
9583.000000;1.712263
9582.000000;1.713095
9581.000000;1.712471
9580.000000;1.710346
9579.000000;1.708960
9578.000000;1.709722
9577.000000;1.711501
9576.000000;1.712256
9575.000000;1.711200
9574.000000;1.708924
9573.000000;1.706421
9572.000000;1.704867
9571.000000;1.705173
9570.000000;1.707253
9569.000000;1.710929
9568.000000;1.716899
9567.000000;1.724935
9566.000000;1.731515
9565.000000;1.731918
9564.000000;1.725750
9563.000000;1.717975
9562.000000;1.713587
9561.000000;1.713264
9560.000000;1.714240
9559.000000;1.713732
9558.000000;1.711151
9557.000000;1.708192
9556.000000;1.707442
9555.000000;1.709947
9554.000000;1.713518
9553.000000;1.714413
9552.000000;1.711296
9551.000000;1.706523
9550.000000;1.703424
9549.000000;1.703690
9548.000000;1.707077
9547.000000;1.711874
9546.000000;1.715144
9545.000000;1.714157
9544.000000;1.709158
9543.000000;1.704007
9542.000000;1.703222
9541.000000;1.708298
9540.000000;1.716028
9539.000000;1.720144
9538.000000;1.716360
9537.000000;1.706948
9536.000000;1.699042
9535.000000;1.697780
9534.000000;1.701961
9533.000000;1.706433
9532.000000;1.707738
9531.000000;1.706158
9530.000000;1.703338
9529.000000;1.700771
9528.000000;1.700256
9527.000000;1.703061
9526.000000;1.707789
9525.000000;1.711307
9524.000000;1.713008
9523.000000;1.715464
9522.000000;1.719537
9521.000000;1.721860
9520.000000;1.719198
9519.000000;1.713336
9518.000000;1.709069
9517.000000;1.709127
9516.000000;1.712906
9515.000000;1.717934
9514.000000;1.720979
9513.000000;1.719531
9512.000000;1.714108
9511.000000;1.708273
9510.000000;1.705237
9509.000000;1.705266
9508.000000;1.706622
9507.000000;1.707584
9506.000000;1.706890
9505.000000;1.703964
9504.000000;1.700176
9503.000000;1.698461
9502.000000;1.700336
9501.000000;1.704435
9500.000000;1.708813
9499.000000;1.712968
9498.000000;1.716295
9497.000000;1.716477
9496.000000;1.711864
9495.000000;1.704650
9494.000000;1.699134
9493.000000;1.697298
9492.000000;1.698023
9491.000000;1.699772
9490.000000;1.702006
9489.000000;1.704336
9488.000000;1.706189
9487.000000;1.707484
9486.000000;1.708371
9485.000000;1.708253
9484.000000;1.706346
9483.000000;1.703148
9482.000000;1.699793
9481.000000;1.696475
9480.000000;1.693029
9479.000000;1.690334
9478.000000;1.689525
9477.000000;1.690194
9476.000000;1.690879
9475.000000;1.691154
9474.000000;1.692070
9473.000000;1.694480
9472.000000;1.698001
9471.000000;1.701547
9470.000000;1.703781
9469.000000;1.703338
9468.000000;1.699644
9467.000000;1.693769
9466.000000;1.687872
9465.000000;1.683573
9464.000000;1.681641
9463.000000;1.682821
9462.000000;1.687442
9461.000000;1.694367
9460.000000;1.701568
9459.000000;1.707627
9458.000000;1.711609
9457.000000;1.712145
9456.000000;1.708521
9455.000000;1.702468
9454.000000;1.696915
9453.000000;1.692903
9452.000000;1.689192
9451.000000;1.684839
9450.000000;1.680690
9449.000000;1.678309
9448.000000;1.678904
9447.000000;1.683122
9446.000000;1.690175
9445.000000;1.697188
9444.000000;1.701352
9443.000000;1.702949
9442.000000;1.704187
9441.000000;1.704905
9440.000000;1.702264
9439.000000;1.695840
9438.000000;1.689883
9437.000000;1.688191
9436.000000;1.689164
9435.000000;1.688371
9434.000000;1.684777
9433.000000;1.681730
9432.000000;1.682224
9431.000000;1.685867
9430.000000;1.690324
9429.000000;1.693362
9428.000000;1.693039
9427.000000;1.688245
9426.000000;1.680639
9425.000000;1.674564
9424.000000;1.673523
9423.000000;1.677118
9422.000000;1.681793
9421.000000;1.684234
9420.000000;1.683766
9419.000000;1.681878
9418.000000;1.680262
9417.000000;1.679470
9416.000000;1.678989
9415.000000;1.678462
9414.000000;1.678676
9413.000000;1.680557
9412.000000;1.682902
9411.000000;1.682136
9410.000000;1.675776
9409.000000;1.666056
9408.000000;1.658636
9407.000000;1.657553
9406.000000;1.661955
9405.000000;1.667388
9404.000000;1.669860
9403.000000;1.668956
9402.000000;1.667446
9401.000000;1.668418
9400.000000;1.672667
9399.000000;1.677908
9398.000000;1.680438
9397.000000;1.678377
9396.000000;1.673433
9395.000000;1.669036
9394.000000;1.667068
9393.000000;1.667058
9392.000000;1.668059
9391.000000;1.670097
9390.000000;1.673261
9389.000000;1.676314
9388.000000;1.677337
9387.000000;1.675888
9386.000000;1.673997
9385.000000;1.674274
9384.000000;1.677084
9383.000000;1.680170
9382.000000;1.681171
9381.000000;1.680130
9380.000000;1.678890
9379.000000;1.678288
9378.000000;1.676901
9377.000000;1.673112
9376.000000;1.667892
9375.000000;1.664418
9374.000000;1.664863
9373.000000;1.668421
9372.000000;1.672811
9371.000000;1.676813
9370.000000;1.680497
9369.000000;1.683428
9368.000000;1.683991
9367.000000;1.681469
9366.000000;1.677903
9365.000000;1.676438
9364.000000;1.678132
9363.000000;1.681016
9362.000000;1.682407
9361.000000;1.681682
9360.000000;1.680078
9359.000000;1.678175
9358.000000;1.675027
9357.000000;1.670249
9356.000000;1.665592
9355.000000;1.663382
9354.000000;1.663922
9353.000000;1.665076
9352.000000;1.664426
9351.000000;1.661433
9350.000000;1.657476
9349.000000;1.654408
9348.000000;1.653232
9347.000000;1.653534
9346.000000;1.654151
9345.000000;1.654869
9344.000000;1.656945
9343.000000;1.661266
9342.000000;1.666617
9341.000000;1.670558
9340.000000;1.671831
9339.000000;1.671054
9338.000000;1.668995
9337.000000;1.665402
9336.000000;1.660283
9335.000000;1.655330
9334.000000;1.652847
9333.000000;1.653732
9332.000000;1.657091
9331.000000;1.661101
9330.000000;1.663878
9329.000000;1.664296
9328.000000;1.662777
9327.000000;1.660993
9326.000000;1.660203
9325.000000;1.659970
9324.000000;1.658679
9323.000000;1.655160
9322.000000;1.649807
9321.000000;1.644602
9320.000000;1.642216
9319.000000;1.644232
9318.000000;1.649414
9317.000000;1.654319
9316.000000;1.656556
9315.000000;1.656811
9314.000000;1.656930
9313.000000;1.657404
9312.000000;1.657806
9311.000000;1.658393
9310.000000;1.659584
9309.000000;1.660420
9308.000000;1.659278
9307.000000;1.656155
9306.000000;1.653008
9305.000000;1.651921
9304.000000;1.653822
9303.000000;1.658347
9302.000000;1.663680
9301.000000;1.667095
9300.000000;1.667165
9299.000000;1.665257
9298.000000;1.663594
9297.000000;1.662212
9296.000000;1.659577
9295.000000;1.655984
9294.000000;1.653839
9293.000000;1.654101
9292.000000;1.654849
9291.000000;1.654431
9290.000000;1.654162
9289.000000;1.656175
9288.000000;1.659964
9287.000000;1.662793
9286.000000;1.662757
9285.000000;1.660038
9284.000000;1.655971
9283.000000;1.652448
9282.000000;1.651290
9281.000000;1.652463
9280.000000;1.653287
9279.000000;1.651075
9278.000000;1.646553
9277.000000;1.642939
9276.000000;1.641956
9275.000000;1.642464
9274.000000;1.642928
9273.000000;1.643822
9272.000000;1.646478
9271.000000;1.650134
9270.000000;1.651915
9269.000000;1.650137
9268.000000;1.646353
9267.000000;1.643583
9266.000000;1.643398
9265.000000;1.645129
9264.000000;1.647358
9263.000000;1.649492
9262.000000;1.651756
9261.000000;1.654111
9260.000000;1.655796
9259.000000;1.655992
9258.000000;1.654571
9257.000000;1.652056
9256.000000;1.649161
9255.000000;1.646470
9254.000000;1.644316
9253.000000;1.642795
9252.000000;1.642104
9251.000000;1.642868
9250.000000;1.645404
9249.000000;1.648351
9248.000000;1.649172
9247.000000;1.647067
9246.000000;1.644461
9245.000000;1.644296
9244.000000;1.646486
9243.000000;1.648232
9242.000000;1.647400
9241.000000;1.644438
9240.000000;1.641223
9239.000000;1.639353
9238.000000;1.639572
9237.000000;1.641445
9236.000000;1.643114
9235.000000;1.642823
9234.000000;1.641284
9233.000000;1.641117
9232.000000;1.643550
9231.000000;1.646906
9230.000000;1.648822
9229.000000;1.648760
9228.000000;1.647573
9227.000000;1.645845
9226.000000;1.643749
9225.000000;1.642052
9224.000000;1.642058
9223.000000;1.644325
9222.000000;1.648210
9221.000000;1.652681
9220.000000;1.656653
9219.000000;1.658561
9218.000000;1.656958
9217.000000;1.652386
9216.000000;1.647808
9215.000000;1.646263
9214.000000;1.648111
9213.000000;1.650689
9212.000000;1.650633
9211.000000;1.646745
9210.000000;1.640848
9209.000000;1.636105
9208.000000;1.634598
9207.000000;1.636170
9206.000000;1.639018
9205.000000;1.641216
9204.000000;1.641915
9203.000000;1.641417
9202.000000;1.640583
9201.000000;1.640072
9200.000000;1.639693
9199.000000;1.639019
9198.000000;1.638643
9197.000000;1.639742
9196.000000;1.642189
9195.000000;1.643895
9194.000000;1.642788
9193.000000;1.639189
9192.000000;1.635355
9191.000000;1.633124
9190.000000;1.632888
9189.000000;1.634385
9188.000000;1.637194
9187.000000;1.640075
9186.000000;1.640957
9185.000000;1.638559
9184.000000;1.633736
9183.000000;1.628836
9182.000000;1.625884
9181.000000;1.625443
9180.000000;1.626713
9179.000000;1.628291
9178.000000;1.629037
9177.000000;1.628575
9176.000000;1.627168
9175.000000;1.625307
9174.000000;1.623539
9173.000000;1.622471
9172.000000;1.622401
9171.000000;1.622984
9170.000000;1.623765
9169.000000;1.625011
9168.000000;1.627228
9167.000000;1.629718
9166.000000;1.630568
9165.000000;1.628893
9164.000000;1.626254
9163.000000;1.624896
9162.000000;1.625395
9161.000000;1.626649
9160.000000;1.627433
9159.000000;1.627289
9158.000000;1.626616
9157.000000;1.626865
9156.000000;1.630039
9155.000000;1.636517
9154.000000;1.643271
9153.000000;1.645793
9152.000000;1.642754
9151.000000;1.637425
9150.000000;1.633712
9149.000000;1.632304
9148.000000;1.631296
9147.000000;1.629179
9146.000000;1.626056
9145.000000;1.622648
9144.000000;1.619502
9143.000000;1.617162
9142.000000;1.616184
9141.000000;1.616659
9140.000000;1.618142
9139.000000;1.620227
9138.000000;1.622583
9137.000000;1.624428
9136.000000;1.624782
9135.000000;1.623669
9134.000000;1.622647
9133.000000;1.623454
9132.000000;1.626064
9131.000000;1.628525
9130.000000;1.628809
9129.000000;1.626610
9128.000000;1.623335
9127.000000;1.620641
9126.000000;1.619426
9125.000000;1.619961
9124.000000;1.622150
9123.000000;1.625369
9122.000000;1.628319
9121.000000;1.629570
9120.000000;1.628707
9119.000000;1.626662
9118.000000;1.624596
9117.000000;1.622879
9116.000000;1.621511
9115.000000;1.621001
9114.000000;1.622021
9113.000000;1.624324
9112.000000;1.626788
9111.000000;1.628603
9110.000000;1.629696
9109.000000;1.629855
9108.000000;1.628317
9107.000000;1.624891
9106.000000;1.620881
9105.000000;1.618122
9104.000000;1.617375
9103.000000;1.618034
9102.000000;1.618893
9101.000000;1.618827
9100.000000;1.617158
9099.000000;1.613991
9098.000000;1.610259
9097.000000;1.607133
9096.000000;1.605402
9095.000000;1.605505
9094.000000;1.607627
9093.000000;1.611135
9092.000000;1.614272
9091.000000;1.615437
9090.000000;1.614910
9089.000000;1.614460
9088.000000;1.615140
9087.000000;1.616247
9086.000000;1.616570
9085.000000;1.615896
9084.000000;1.614880
9083.000000;1.614093
9082.000000;1.613860
9081.000000;1.614416
9080.000000;1.615478
9079.000000;1.616097
9078.000000;1.615650
9077.000000;1.614629
9076.000000;1.613822
9075.000000;1.613147
9074.000000;1.612074
9073.000000;1.610931
9072.000000;1.611017
9071.000000;1.613102
9070.000000;1.616297
9069.000000;1.618858
9068.000000;1.619741
9067.000000;1.619261
9066.000000;1.618798
9065.000000;1.619841
9064.000000;1.622820
9063.000000;1.626698
9062.000000;1.629809
9061.000000;1.631089
9060.000000;1.630322
9059.000000;1.627612
9058.000000;1.623534
9057.000000;1.619662
9056.000000;1.617690
9055.000000;1.617635
9054.000000;1.617766
9053.000000;1.616746
