Criado como novo conjunto de dados;"e0108.spp","-4226381.7 Secs"
cm-1;Abs
10000.000000;1.877457
9999.000000;1.882962
9998.000000;1.895816
9997.000000;1.908770
9996.000000;1.914422
9995.000000;1.915347
9994.000000;1.917296
9993.000000;1.921738
9992.000000;1.922693
9991.000000;1.915263
9990.000000;1.901542
9989.000000;1.887307
9988.000000;1.875481
9987.000000;1.866875
9986.000000;1.863316
9985.000000;1.866265
9984.000000;1.873185
9983.000000;1.877928
9982.000000;1.876473
9981.000000;1.870728
9980.000000;1.864403
9979.000000;1.858890
9978.000000;1.855088
9977.000000;1.854963
9976.000000;1.858753
9975.000000;1.862469
9974.000000;1.861344
9973.000000;1.856060
9972.000000;1.852372
9971.000000;1.854389
9970.000000;1.860838
9969.000000;1.867890
9968.000000;1.873516
9967.000000;1.877778
9966.000000;1.880515
9965.000000;1.881255
9964.000000;1.880838
9963.000000;1.880922
9962.000000;1.881184
9961.000000;1.878564
9960.000000;1.871478
9959.000000;1.863537
9958.000000;1.860191
9957.000000;1.862765
9956.000000;1.867968
9955.000000;1.872526
9954.000000;1.875499
9953.000000;1.875750
9952.000000;1.870368
9951.000000;1.858592
9950.000000;1.846262
9949.000000;1.842018
9948.000000;1.848804
9947.000000;1.860897
9946.000000;1.869809
9945.000000;1.871880
9944.000000;1.868758
9943.000000;1.863967
9942.000000;1.861193
9941.000000;1.862945
9940.000000;1.868249
9939.000000;1.872363
9938.000000;1.871142
9937.000000;1.865838
9936.000000;1.861456
9935.000000;1.861035
9934.000000;1.863953
9933.000000;1.868386
9932.000000;1.872621
9931.000000;1.874518
9930.000000;1.872460
9929.000000;1.867522
9928.000000;1.862694
9927.000000;1.859388
9926.000000;1.856680
9925.000000;1.854265
9924.000000;1.853861
9923.000000;1.856805
9922.000000;1.861976
9921.000000;1.866891
9920.000000;1.869751
9919.000000;1.870030
9918.000000;1.868444
9917.000000;1.867138
9916.000000;1.868508
9915.000000;1.872581
9914.000000;1.876071
9913.000000;1.875126
9912.000000;1.869237
9911.000000;1.861887
9910.000000;1.857239
9909.000000;1.856247
9908.000000;1.855599
9907.000000;1.851202
9906.000000;1.843718
9905.000000;1.838795
9904.000000;1.840471
9903.000000;1.846144
9902.000000;1.849406
9901.000000;1.847363
9900.000000;1.842686
9899.000000;1.838590
9898.000000;1.835494
9897.000000;1.832845
9896.000000;1.830747
9895.000000;1.828575
9894.000000;1.824719
9893.000000;1.819594
9892.000000;1.816467
9891.000000;1.817360
9890.000000;1.820442
9889.000000;1.822947
9888.000000;1.824652
9887.000000;1.826707
9886.000000;1.828586
9885.000000;1.828397
9884.000000;1.825820
9883.000000;1.822653
9882.000000;1.820557
9881.000000;1.819990
9880.000000;1.820977
9879.000000;1.823207
9878.000000;1.825368
9877.000000;1.825536
9876.000000;1.822444
9875.000000;1.816645
9874.000000;1.810979
9873.000000;1.809253
9872.000000;1.813878
9871.000000;1.824198
9870.000000;1.836628
9869.000000;1.847233
9868.000000;1.854369
9867.000000;1.858257
9866.000000;1.858853
9865.000000;1.855375
9864.000000;1.847848
9863.000000;1.838078
9862.000000;1.828647
9861.000000;1.821208
9860.000000;1.815448
9859.000000;1.809694
9858.000000;1.803480
9857.000000;1.799482
9856.000000;1.801204
9855.000000;1.807942
9854.000000;1.813844
9853.000000;1.814281
9852.000000;1.811408
9851.000000;1.810521
9850.000000;1.813196
9849.000000;1.816456
9848.000000;1.817369
9847.000000;1.815824
9846.000000;1.812886
9845.000000;1.809623
9844.000000;1.808071
9843.000000;1.810284
9842.000000;1.815063
9841.000000;1.817815
9840.000000;1.815719
9839.000000;1.811319
9838.000000;1.809029
9837.000000;1.810269
9836.000000;1.813345
9835.000000;1.816177
9834.000000;1.817621
9833.000000;1.817283
9832.000000;1.816120
9831.000000;1.816641
9830.000000;1.820483
9829.000000;1.825834
9828.000000;1.828525
9827.000000;1.826450
9826.000000;1.822395
9825.000000;1.821224
9824.000000;1.824888
9823.000000;1.831231
9822.000000;1.836338
9821.000000;1.837126
9820.000000;1.833077
9819.000000;1.826332
9818.000000;1.820253
9817.000000;1.817592
9816.000000;1.818724
9815.000000;1.820982
9814.000000;1.820416
9813.000000;1.815964
9812.000000;1.811657
9811.000000;1.812692
9810.000000;1.819525
9809.000000;1.826749
9808.000000;1.828541
9807.000000;1.824766
9806.000000;1.819965
9805.000000;1.817613
9804.000000;1.817482
9803.000000;1.817549
9802.000000;1.816476
9801.000000;1.814429
9800.000000;1.812855
9799.000000;1.813283
9798.000000;1.815351
9797.000000;1.816510
9796.000000;1.814843
9795.000000;1.811895
9794.000000;1.811174
9793.000000;1.813530
9792.000000;1.815741
9791.000000;1.814562
9790.000000;1.810455
9789.000000;1.806328
9788.000000;1.804501
9787.000000;1.805710
9786.000000;1.809522
9785.000000;1.814260
9784.000000;1.817058
9783.000000;1.815777
9782.000000;1.811427
9781.000000;1.807698
9780.000000;1.807681
9779.000000;1.811267
9778.000000;1.815674
9777.000000;1.818398
9776.000000;1.819375
9775.000000;1.820387
9774.000000;1.822402
9773.000000;1.823918
9772.000000;1.822759
9771.000000;1.818776
9770.000000;1.813519
9769.000000;1.807821
9768.000000;1.801677
9767.000000;1.796518
9766.000000;1.795085
9765.000000;1.798204
9764.000000;1.803393
9763.000000;1.808081
9762.000000;1.812933
9761.000000;1.819424
9760.000000;1.825229
9759.000000;1.825633
9758.000000;1.820050
9757.000000;1.813500
9756.000000;1.810426
9755.000000;1.809987
9754.000000;1.808414
9753.000000;1.804016
9752.000000;1.798157
9751.000000;1.792437
9750.000000;1.787084
9749.000000;1.781985
9748.000000;1.777933
9747.000000;1.776626
9746.000000;1.779759
9745.000000;1.787443
9744.000000;1.796758
9743.000000;1.802590
9742.000000;1.802046
9741.000000;1.797877
9740.000000;1.794948
9739.000000;1.794267
9738.000000;1.793062
9737.000000;1.790296
9736.000000;1.789126
9735.000000;1.792451
9734.000000;1.798140
9733.000000;1.800917
9732.000000;1.798774
9731.000000;1.794865
9730.000000;1.792447
9729.000000;1.790860
9728.000000;1.787511
9727.000000;1.781915
9726.000000;1.776174
9725.000000;1.772422
9724.000000;1.771445
9723.000000;1.773183
9722.000000;1.776705
9721.000000;1.779517
9720.000000;1.778664
9719.000000;1.773824
9718.000000;1.768495
9717.000000;1.766838
9716.000000;1.769441
9715.000000;1.772964
9714.000000;1.774378
9713.000000;1.774675
9712.000000;1.777063
9711.000000;1.782007
9710.000000;1.785730
9709.000000;1.784655
9708.000000;1.780413
9707.000000;1.778147
9706.000000;1.780220
9705.000000;1.783736
9704.000000;1.784717
9703.000000;1.783095
9702.000000;1.781685
9701.000000;1.781482
9700.000000;1.780815
9699.000000;1.778908
9698.000000;1.777109
9697.000000;1.776131
9696.000000;1.775040
9695.000000;1.773727
9694.000000;1.774281
9693.000000;1.778408
9692.000000;1.784502
9691.000000;1.788776
9690.000000;1.789059
9689.000000;1.786320
9688.000000;1.782521
9687.000000;1.778907
9686.000000;1.776427
9685.000000;1.775517
9684.000000;1.775325
9683.000000;1.774598
9682.000000;1.773407
9681.000000;1.773213
9680.000000;1.775042
9679.000000;1.778195
9678.000000;1.781010
9677.000000;1.782093
9676.000000;1.780794
9675.000000;1.777465
9674.000000;1.773495
9673.000000;1.770406
9672.000000;1.768590
9671.000000;1.767416
9670.000000;1.766421
9669.000000;1.765597
9668.000000;1.764838
9667.000000;1.764077
9666.000000;1.763977
9665.000000;1.765426
9664.000000;1.768046
9663.000000;1.770164
9662.000000;1.770805
9661.000000;1.770970
9660.000000;1.772170
9659.000000;1.774347
9658.000000;1.776126
9657.000000;1.776595
9656.000000;1.775809
9655.000000;1.773875
9654.000000;1.770540
9653.000000;1.765904
9652.000000;1.761125
9651.000000;1.757778
9650.000000;1.756389
9649.000000;1.756074
9648.000000;1.755916
9647.000000;1.756321
9646.000000;1.758185
9645.000000;1.760755
9644.000000;1.761661
9643.000000;1.760166
9642.000000;1.759347
9641.000000;1.763188
9640.000000;1.771298
9639.000000;1.777708
9638.000000;1.776308
9637.000000;1.767471
9636.000000;1.757536
9635.000000;1.752278
9634.000000;1.752443
9633.000000;1.754513
9632.000000;1.754644
9631.000000;1.752128
9630.000000;1.749426
9629.000000;1.749337
9628.000000;1.752593
9627.000000;1.757778
9626.000000;1.762656
9625.000000;1.765113
9624.000000;1.763731
9623.000000;1.758783
9622.000000;1.752687
9621.000000;1.748654
9620.000000;1.748442
9619.000000;1.751182
9618.000000;1.754164
9617.000000;1.754723
9616.000000;1.751949
9615.000000;1.747385
9614.000000;1.743746
9613.000000;1.742113
9612.000000;1.740711
9611.000000;1.737286
9610.000000;1.732592
9609.000000;1.730316
9608.000000;1.733240
9607.000000;1.740264
9606.000000;1.747215
9605.000000;1.750253
9604.000000;1.748827
9603.000000;1.745654
9602.000000;1.744092
9601.000000;1.745512
9600.000000;1.748431
9599.000000;1.749727
9598.000000;1.747142
9597.000000;1.740755
9596.000000;1.732707
9595.000000;1.726490
9594.000000;1.725507
9593.000000;1.730668
9592.000000;1.739023
9591.000000;1.745801
9590.000000;1.748735
9589.000000;1.749542
9588.000000;1.750847
9587.000000;1.753073
9586.000000;1.754612
9585.000000;1.753696
9584.000000;1.749686
9583.000000;1.743807
9582.000000;1.738942
9581.000000;1.737693
9580.000000;1.740133
9579.000000;1.743753
9578.000000;1.745989
9577.000000;1.746191
9576.000000;1.744745
9575.000000;1.741606
9574.000000;1.736879
9573.000000;1.732012
9572.000000;1.729206
9571.000000;1.729479
9570.000000;1.731536
9569.000000;1.732684
9568.000000;1.731140
9567.000000;1.727861
9566.000000;1.725868
9565.000000;1.726907
9564.000000;1.729128
9563.000000;1.729377
9562.000000;1.727754
9561.000000;1.727662
9560.000000;1.730570
9559.000000;1.733492
9558.000000;1.733188
9557.000000;1.730316
9556.000000;1.727741
9555.000000;1.726975
9554.000000;1.727611
9553.000000;1.728988
9552.000000;1.731047
9551.000000;1.733783
9550.000000;1.736706
9549.000000;1.738503
9548.000000;1.736977
9547.000000;1.730838
9546.000000;1.722493
9545.000000;1.717276
9544.000000;1.718658
9543.000000;1.725141
9542.000000;1.732241
9541.000000;1.736626
9540.000000;1.737535
9539.000000;1.735538
9538.000000;1.732023
9537.000000;1.728969
9536.000000;1.727157
9535.000000;1.725180
9534.000000;1.721799
9533.000000;1.718486
9532.000000;1.718078
9531.000000;1.721674
9530.000000;1.727927
9529.000000;1.734190
9528.000000;1.737055
9527.000000;1.733729
9526.000000;1.725808
9525.000000;1.720165
9524.000000;1.722656
9523.000000;1.730952
9522.000000;1.735774
9521.000000;1.731022
9520.000000;1.720579
9519.000000;1.712736
9518.000000;1.711690
9517.000000;1.716146
9516.000000;1.722687
9515.000000;1.728301
9514.000000;1.731016
9513.000000;1.730363
9512.000000;1.727525
9511.000000;1.724221
9510.000000;1.721473
9509.000000;1.719827
9508.000000;1.719975
9507.000000;1.722075
9506.000000;1.724885
9505.000000;1.726651
9504.000000;1.726699
9503.000000;1.725602
9502.000000;1.724196
9501.000000;1.722960
9500.000000;1.721818
9499.000000;1.719984
9498.000000;1.716633
9497.000000;1.712258
9496.000000;1.708766
9495.000000;1.707558
9494.000000;1.707988
9493.000000;1.708047
9492.000000;1.706032
9491.000000;1.702145
9490.000000;1.699041
9489.000000;1.699837
9488.000000;1.704990
9487.000000;1.711284
9486.000000;1.714687
9485.000000;1.714685
9484.000000;1.714600
9483.000000;1.717290
9482.000000;1.721925
9481.000000;1.725278
9480.000000;1.725090
9479.000000;1.721459
9478.000000;1.715799
9477.000000;1.709964
9476.000000;1.706135
9475.000000;1.705816
9474.000000;1.708301
9473.000000;1.710967
9472.000000;1.711910
9471.000000;1.712001
9470.000000;1.713285
9469.000000;1.715282
9468.000000;1.714464
9467.000000;1.708864
9466.000000;1.701914
9465.000000;1.699284
9464.000000;1.702349
9463.000000;1.706367
9462.000000;1.705964
9461.000000;1.701488
9460.000000;1.697646
9459.000000;1.697173
9458.000000;1.698717
9457.000000;1.700236
9456.000000;1.701625
9455.000000;1.703197
9454.000000;1.703914
9453.000000;1.702900
9452.000000;1.701608
9451.000000;1.702647
9450.000000;1.706757
9449.000000;1.711906
9448.000000;1.715095
9447.000000;1.714628
9446.000000;1.710950
9445.000000;1.705849
9444.000000;1.701145
9443.000000;1.698054
9442.000000;1.697099
9441.000000;1.697641
9440.000000;1.697481
9439.000000;1.694472
9438.000000;1.689584
9437.000000;1.687010
9436.000000;1.689747
9435.000000;1.695777
9434.000000;1.700194
9433.000000;1.700860
9432.000000;1.699922
9431.000000;1.699964
9430.000000;1.701530
9429.000000;1.704525
9428.000000;1.708876
9427.000000;1.712437
9426.000000;1.711259
9425.000000;1.704523
9424.000000;1.696892
9423.000000;1.693647
9422.000000;1.695249
9421.000000;1.697857
9420.000000;1.697911
9419.000000;1.694834
9418.000000;1.689991
9417.000000;1.685284
9416.000000;1.682979
9415.000000;1.684851
9414.000000;1.690502
9413.000000;1.697149
9412.000000;1.701576
9411.000000;1.702224
9410.000000;1.699680
9409.000000;1.695865
9408.000000;1.692704
9407.000000;1.690905
9406.000000;1.689909
9405.000000;1.689268
9404.000000;1.689529
9403.000000;1.691068
9402.000000;1.692829
9401.000000;1.693427
9400.000000;1.693151
9399.000000;1.693560
9398.000000;1.695101
9397.000000;1.696414
9396.000000;1.696230
9395.000000;1.694826
9394.000000;1.693115
9393.000000;1.691333
9392.000000;1.689313
9391.000000;1.687425
9390.000000;1.686497
9389.000000;1.686946
9388.000000;1.688188
9387.000000;1.688915
9386.000000;1.688092
9385.000000;1.685856
9384.000000;1.683500
9383.000000;1.682318
9382.000000;1.682336
9381.000000;1.682684
9380.000000;1.683207
9379.000000;1.684744
9378.000000;1.687368
9377.000000;1.689182
9376.000000;1.688089
9375.000000;1.684823
9374.000000;1.683059
9373.000000;1.685892
9372.000000;1.692678
9371.000000;1.699704
9370.000000;1.703780
9369.000000;1.704565
9368.000000;1.703348
9367.000000;1.701002
9366.000000;1.697839
9365.000000;1.694445
9364.000000;1.691433
9363.000000;1.688527
9362.000000;1.684980
9361.000000;1.681082
9360.000000;1.678188
9359.000000;1.676893
9358.000000;1.676078
9357.000000;1.674127
9356.000000;1.670764
9355.000000;1.667569
9354.000000;1.666692
9353.000000;1.669009
9352.000000;1.673202
9351.000000;1.676568
9350.000000;1.677296
9349.000000;1.676022
9348.000000;1.674723
9347.000000;1.674462
9346.000000;1.674852
9345.000000;1.675286
9344.000000;1.675770
9343.000000;1.676617
9342.000000;1.678219
9341.000000;1.680821
9340.000000;1.683590
9339.000000;1.684183
9338.000000;1.680632
9337.000000;1.674240
9336.000000;1.669097
9335.000000;1.668005
9334.000000;1.669964
9333.000000;1.671915
9332.000000;1.672189
9331.000000;1.671482
9330.000000;1.671050
9329.000000;1.671465
9328.000000;1.672848
9327.000000;1.675082
9326.000000;1.677749
9325.000000;1.680407
9324.000000;1.682826
9323.000000;1.684705
9322.000000;1.685574
9321.000000;1.685271
9320.000000;1.683917
9319.000000;1.681270
9318.000000;1.677184
9317.000000;1.673151
9316.000000;1.671978
9315.000000;1.674598
9314.000000;1.677867
9313.000000;1.677332
9312.000000;1.672391
9311.000000;1.666852
9310.000000;1.664228
9309.000000;1.664290
9308.000000;1.664479
9307.000000;1.663398
9306.000000;1.662094
9305.000000;1.662605
9304.000000;1.665991
9303.000000;1.671348
9302.000000;1.676204
9301.000000;1.678146
9300.000000;1.676602
9299.000000;1.673267
9298.000000;1.670746
9297.000000;1.670653
9296.000000;1.672587
9295.000000;1.674629
9294.000000;1.675014
9293.000000;1.673643
9292.000000;1.672118
9291.000000;1.672157
9290.000000;1.673973
9289.000000;1.676292
9288.000000;1.677645
9287.000000;1.677410
9286.000000;1.675922
9285.000000;1.674242
9284.000000;1.673741
9283.000000;1.675075
9282.000000;1.677175
9281.000000;1.677726
9280.000000;1.675076
9279.000000;1.669682
9278.000000;1.663671
9277.000000;1.659128
9276.000000;1.656747
9275.000000;1.655910
9274.000000;1.656029
9273.000000;1.657558
9272.000000;1.661081
9271.000000;1.665421
9270.000000;1.667807
9269.000000;1.666769
9268.000000;1.663939
9267.000000;1.661876
9266.000000;1.660953
9265.000000;1.659646
9264.000000;1.657312
9263.000000;1.655193
9262.000000;1.654751
9261.000000;1.655978
9260.000000;1.657717
9259.000000;1.659208
9258.000000;1.660790
9257.000000;1.663184
9256.000000;1.666220
9255.000000;1.668374
9254.000000;1.668086
9253.000000;1.665706
9252.000000;1.663216
9251.000000;1.661627
9250.000000;1.659796
9249.000000;1.656779
9248.000000;1.654268
9247.000000;1.654868
9246.000000;1.658362
9245.000000;1.661493
9244.000000;1.661823
9243.000000;1.660352
9242.000000;1.659566
9241.000000;1.660500
9240.000000;1.662589
9239.000000;1.665019
9238.000000;1.667051
9237.000000;1.667726
9236.000000;1.666633
9235.000000;1.664590
9234.000000;1.662520
9233.000000;1.660100
9232.000000;1.656781
9231.000000;1.653868
9230.000000;1.653870
9229.000000;1.657525
9228.000000;1.662431
9227.000000;1.665081
9226.000000;1.664157
9225.000000;1.661461
9224.000000;1.659612
9223.000000;1.659254
9222.000000;1.658681
9221.000000;1.656327
9220.000000;1.653239
9219.000000;1.652161
9218.000000;1.654338
9217.000000;1.658023
9216.000000;1.660502
9215.000000;1.661020
9214.000000;1.660724
9213.000000;1.660333
9212.000000;1.659408
9211.000000;1.657791
9210.000000;1.656218
9209.000000;1.654985
9208.000000;1.653205
9207.000000;1.650223
9206.000000;1.647053
9205.000000;1.645513
9204.000000;1.646326
9203.000000;1.648677
9202.000000;1.651211
9201.000000;1.652917
9200.000000;1.653420
9199.000000;1.653034
9198.000000;1.652505
9197.000000;1.652303
9196.000000;1.652397
9195.000000;1.653045
9194.000000;1.654896
9193.000000;1.657502
9192.000000;1.658778
9191.000000;1.657353
9190.000000;1.654862
9189.000000;1.654091
9188.000000;1.654924
9187.000000;1.653976
9186.000000;1.649072
9185.000000;1.642628
9184.000000;1.639157
9183.000000;1.640647
9182.000000;1.645375
9181.000000;1.650222
9180.000000;1.653121
9179.000000;1.653542
9178.000000;1.651840
9177.000000;1.648881
9176.000000;1.645895
9175.000000;1.644131
9174.000000;1.644430
9173.000000;1.646645
9172.000000;1.649191
9171.000000;1.649867
9170.000000;1.647858
9169.000000;1.644480
9168.000000;1.641508
9167.000000;1.639548
9166.000000;1.638510
9165.000000;1.638569
9164.000000;1.639628
9163.000000;1.640609
9162.000000;1.640662
9161.000000;1.640634
9160.000000;1.641766
9159.000000;1.643268
9158.000000;1.642917
9157.000000;1.640122
9156.000000;1.636606
9155.000000;1.633788
9154.000000;1.631570
9153.000000;1.630428
9152.000000;1.632596
9151.000000;1.639279
9150.000000;1.647674
9149.000000;1.652622
9148.000000;1.651544
9147.000000;1.646578
9146.000000;1.641683
9145.000000;1.639078
9144.000000;1.638308
9143.000000;1.637302
9142.000000;1.634361
9141.000000;1.630064
9140.000000;1.627097
9139.000000;1.627563
9138.000000;1.630626
9137.000000;1.633323
9136.000000;1.633704
9135.000000;1.632549
9134.000000;1.632036
9133.000000;1.633615
9132.000000;1.637105
9131.000000;1.640948
9130.000000;1.643225
9129.000000;1.642967
9128.000000;1.640766
9127.000000;1.638074
9126.000000;1.636029
9125.000000;1.635183
9124.000000;1.636020
9123.000000;1.639042
9122.000000;1.644069
9121.000000;1.649623
9120.000000;1.653247
9119.000000;1.652916
9118.000000;1.648840
9117.000000;1.643783
9116.000000;1.640840
9115.000000;1.640521
9114.000000;1.640378
9113.000000;1.638046
9112.000000;1.634239
9111.000000;1.631788
9110.000000;1.632263
9109.000000;1.634521
9108.000000;1.636345
9107.000000;1.636654
9106.000000;1.635786
9105.000000;1.634411
9104.000000;1.632860
9103.000000;1.631495
9102.000000;1.631217
9101.000000;1.632721
9100.000000;1.635328
9099.000000;1.637024
9098.000000;1.636015
9097.000000;1.632731
9096.000000;1.629618
9095.000000;1.628514
9094.000000;1.629096
9093.000000;1.630085
9092.000000;1.631092
9091.000000;1.632543
9090.000000;1.634252
9089.000000;1.635266
9088.000000;1.635357
9087.000000;1.635550
9086.000000;1.636626
9085.000000;1.637900
9084.000000;1.637992
9083.000000;1.636327
9082.000000;1.633434
9081.000000;1.630259
9080.000000;1.627723
9079.000000;1.626597
9078.000000;1.627229
9077.000000;1.629215
9076.000000;1.631397
9075.000000;1.632462
9074.000000;1.631764
9073.000000;1.629774
9072.000000;1.627837
9071.000000;1.627278
9070.000000;1.628549
9069.000000;1.631193
9068.000000;1.634411
9067.000000;1.637378
9066.000000;1.639068
9065.000000;1.638365
9064.000000;1.634935
9063.000000;1.630067
9062.000000;1.626237
9061.000000;1.625437
9060.000000;1.627688
9059.000000;1.630941
9058.000000;1.632425
9057.000000;1.630611
9056.000000;1.626395
9055.000000;1.622343
9054.000000;1.620586
9053.000000;1.621177
