Criado como novo conjunto de dados;"e0108.spp","-4272464.2 Secs"
cm-1;Abs
10000.000000;1.053673
9999.000000;1.052298
9998.000000;1.050377
9997.000000;1.048833
9996.000000;1.048782
9995.000000;1.050107
9994.000000;1.051429
9993.000000;1.051563
9992.000000;1.050637
9991.000000;1.049566
9990.000000;1.048842
9989.000000;1.048242
9988.000000;1.047522
9987.000000;1.046886
9986.000000;1.046614
9985.000000;1.046566
9984.000000;1.046424
9983.000000;1.046320
9982.000000;1.046806
9981.000000;1.048082
9980.000000;1.049589
9979.000000;1.050575
9978.000000;1.050767
9977.000000;1.050222
9976.000000;1.048975
9975.000000;1.047305
9974.000000;1.046020
9973.000000;1.045759
9972.000000;1.046091
9971.000000;1.045963
9970.000000;1.045149
9969.000000;1.044561
9968.000000;1.044867
9967.000000;1.045469
9966.000000;1.045301
9965.000000;1.044140
9964.000000;1.042637
9963.000000;1.041418
9962.000000;1.040728
9961.000000;1.040744
9960.000000;1.041567
9959.000000;1.042777
9958.000000;1.043385
9957.000000;1.042485
9956.000000;1.040026
9955.000000;1.037055
9954.000000;1.035184
9953.000000;1.035479
9952.000000;1.037499
9951.000000;1.039535
9950.000000;1.040103
9949.000000;1.039159
9948.000000;1.037639
9947.000000;1.036161
9946.000000;1.034659
9945.000000;1.033081
9944.000000;1.031817
9943.000000;1.031318
9942.000000;1.031644
9941.000000;1.032458
9940.000000;1.033247
9939.000000;1.033585
9938.000000;1.033428
9937.000000;1.033186
9936.000000;1.033256
9935.000000;1.033489
9934.000000;1.033418
9933.000000;1.032974
9932.000000;1.032583
9931.000000;1.032475
9930.000000;1.032331
9929.000000;1.031846
9928.000000;1.031331
9927.000000;1.031406
9926.000000;1.032184
9925.000000;1.032937
9924.000000;1.032565
9923.000000;1.030496
9922.000000;1.027355
9921.000000;1.024701
9920.000000;1.023680
9919.000000;1.023845
9918.000000;1.023826
9917.000000;1.023215
9916.000000;1.023115
9915.000000;1.024387
9914.000000;1.026045
9913.000000;1.026182
9912.000000;1.024282
9911.000000;1.021745
9910.000000;1.020091
9909.000000;1.019513
9908.000000;1.019371
9907.000000;1.019306
9906.000000;1.019408
9905.000000;1.019721
9904.000000;1.020081
9903.000000;1.020294
9902.000000;1.020154
9901.000000;1.019477
9900.000000;1.018425
9899.000000;1.017514
9898.000000;1.016974
9897.000000;1.016341
9896.000000;1.015151
9895.000000;1.013841
9894.000000;1.013418
9893.000000;1.014264
9892.000000;1.015752
9891.000000;1.017071
9890.000000;1.017927
9889.000000;1.018328
9888.000000;1.018257
9887.000000;1.017871
9886.000000;1.017504
9885.000000;1.017046
9884.000000;1.015753
9883.000000;1.013256
9882.000000;1.010495
9881.000000;1.008991
9880.000000;1.009197
9879.000000;1.010072
9878.000000;1.010347
9877.000000;1.009763
9876.000000;1.008853
9875.000000;1.008035
9874.000000;1.007337
9873.000000;1.006834
9872.000000;1.006872
9871.000000;1.007774
9870.000000;1.009375
9869.000000;1.010880
9868.000000;1.011243
9867.000000;1.009994
9866.000000;1.007825
9865.000000;1.006084
9864.000000;1.005502
9863.000000;1.005566
9862.000000;1.005281
9861.000000;1.004334
9860.000000;1.003249
9859.000000;1.002596
9858.000000;1.002425
9857.000000;1.002472
9856.000000;1.002589
9855.000000;1.002861
9854.000000;1.003421
9853.000000;1.004184
9852.000000;1.004748
9851.000000;1.004696
9850.000000;1.004144
9849.000000;1.003729
9848.000000;1.003795
9847.000000;1.003850
9846.000000;1.003270
9845.000000;1.002309
9844.000000;1.001801
9843.000000;1.001861
9842.000000;1.001571
9841.000000;1.000221
9840.000000;0.998315
9839.000000;0.996921
9838.000000;0.996494
9837.000000;0.996741
9836.000000;0.997264
9835.000000;0.997811
9834.000000;0.998059
9833.000000;0.997698
9832.000000;0.996803
9831.000000;0.995833
9830.000000;0.995226
9829.000000;0.995180
9828.000000;0.995703
9827.000000;0.996510
9826.000000;0.996995
9825.000000;0.996711
9824.000000;0.995895
9823.000000;0.995170
9822.000000;0.994718
9821.000000;0.994140
9820.000000;0.993165
9819.000000;0.992065
9818.000000;0.991280
9817.000000;0.991030
9816.000000;0.991455
9815.000000;0.992668
9814.000000;0.994372
9813.000000;0.995744
9812.000000;0.996051
9811.000000;0.995271
9810.000000;0.993944
9809.000000;0.992659
9808.000000;0.991821
9807.000000;0.991576
9806.000000;0.991625
9805.000000;0.991333
9804.000000;0.990319
9803.000000;0.988857
9802.000000;0.987534
9801.000000;0.986753
9800.000000;0.986690
9799.000000;0.987285
9798.000000;0.987989
9797.000000;0.987880
9796.000000;0.986517
9795.000000;0.984535
9794.000000;0.982976
9793.000000;0.982260
9792.000000;0.982230
9791.000000;0.982870
9790.000000;0.984207
9789.000000;0.985587
9788.000000;0.985918
9787.000000;0.984993
9786.000000;0.983879
9785.000000;0.983556
9784.000000;0.983693
9783.000000;0.983276
9782.000000;0.982101
9781.000000;0.980964
9780.000000;0.980446
9779.000000;0.980142
9778.000000;0.979298
9777.000000;0.977920
9776.000000;0.976924
9775.000000;0.977116
9774.000000;0.978195
9773.000000;0.978956
9772.000000;0.978547
9771.000000;0.977336
9770.000000;0.976390
9769.000000;0.976233
9768.000000;0.976499
9767.000000;0.976781
9766.000000;0.977219
9765.000000;0.977957
9764.000000;0.978448
9763.000000;0.977885
9762.000000;0.976240
9761.000000;0.974422
9760.000000;0.973340
9759.000000;0.973121
9758.000000;0.973311
9757.000000;0.973533
9756.000000;0.973728
9755.000000;0.973844
9754.000000;0.973581
9753.000000;0.972653
9752.000000;0.971280
9751.000000;0.970198
9750.000000;0.969975
9749.000000;0.970395
9748.000000;0.970749
9747.000000;0.970711
9746.000000;0.970656
9745.000000;0.970982
9744.000000;0.971428
9743.000000;0.971380
9742.000000;0.970710
9741.000000;0.969948
9740.000000;0.969614
9739.000000;0.969675
9738.000000;0.969755
9737.000000;0.969628
9736.000000;0.969327
9735.000000;0.968890
9734.000000;0.968260
9733.000000;0.967490
9732.000000;0.966884
9731.000000;0.966712
9730.000000;0.966806
9729.000000;0.966696
9728.000000;0.966242
9727.000000;0.965808
9726.000000;0.965671
9725.000000;0.965525
9724.000000;0.964911
9723.000000;0.963917
9722.000000;0.962977
9721.000000;0.962075
9720.000000;0.960740
9719.000000;0.958963
9718.000000;0.957561
9717.000000;0.957305
9716.000000;0.958032
9715.000000;0.958928
9714.000000;0.959432
9713.000000;0.959610
9712.000000;0.959880
9711.000000;0.960631
9710.000000;0.961840
9709.000000;0.962848
9708.000000;0.962782
9707.000000;0.961530
9706.000000;0.960023
9705.000000;0.959226
9704.000000;0.959134
9703.000000;0.959092
9702.000000;0.958794
9701.000000;0.958444
9700.000000;0.958098
9699.000000;0.957488
9698.000000;0.956559
9697.000000;0.955659
9696.000000;0.955080
9695.000000;0.954796
9694.000000;0.954735
9693.000000;0.954962
9692.000000;0.955448
9691.000000;0.955908
9690.000000;0.956001
9689.000000;0.955559
9688.000000;0.954644
9687.000000;0.953568
9686.000000;0.952786
9685.000000;0.952499
9684.000000;0.952392
9683.000000;0.952046
9682.000000;0.951528
9681.000000;0.951202
9680.000000;0.951030
9679.000000;0.950555
9678.000000;0.949619
9677.000000;0.948681
9676.000000;0.948269
9675.000000;0.948431
9674.000000;0.948844
9673.000000;0.949174
9672.000000;0.949187
9671.000000;0.948810
9670.000000;0.948272
9669.000000;0.947993
9668.000000;0.948198
9667.000000;0.948797
9666.000000;0.949584
9665.000000;0.950256
9664.000000;0.950300
9663.000000;0.949325
9662.000000;0.947631
9661.000000;0.946072
9660.000000;0.945170
9659.000000;0.944676
9658.000000;0.944119
9657.000000;0.943397
9656.000000;0.942651
9655.000000;0.941969
9654.000000;0.941526
9653.000000;0.941663
9652.000000;0.942436
9651.000000;0.943329
9650.000000;0.943733
9649.000000;0.943548
9648.000000;0.943066
9647.000000;0.942450
9646.000000;0.941700
9645.000000;0.940947
9644.000000;0.940438
9643.000000;0.940277
9642.000000;0.940391
9641.000000;0.940657
9640.000000;0.940855
9639.000000;0.940701
9638.000000;0.940208
9637.000000;0.939864
9636.000000;0.940149
9635.000000;0.940986
9634.000000;0.941874
9633.000000;0.942412
9632.000000;0.942454
9631.000000;0.941946
9630.000000;0.940996
9629.000000;0.939971
9628.000000;0.939118
9627.000000;0.938171
9626.000000;0.936780
9625.000000;0.935306
9624.000000;0.934728
9623.000000;0.935576
9622.000000;0.937235
9621.000000;0.938524
9620.000000;0.938826
9619.000000;0.938430
9618.000000;0.937849
9617.000000;0.937150
9616.000000;0.936077
9615.000000;0.934702
9614.000000;0.933606
9613.000000;0.933240
9612.000000;0.933266
9611.000000;0.932884
9610.000000;0.931869
9609.000000;0.930900
9608.000000;0.930666
9607.000000;0.931009
9606.000000;0.931273
9605.000000;0.931186
9604.000000;0.930966
9603.000000;0.930736
9602.000000;0.930297
9601.000000;0.929513
9600.000000;0.928562
9599.000000;0.927767
9598.000000;0.927451
9597.000000;0.927877
9596.000000;0.928929
9595.000000;0.929829
9594.000000;0.929629
9593.000000;0.928195
9592.000000;0.926462
9591.000000;0.925537
9590.000000;0.925724
9589.000000;0.926487
9588.000000;0.927037
9587.000000;0.926859
9586.000000;0.926003
9585.000000;0.925132
9584.000000;0.925081
9583.000000;0.926039
9582.000000;0.927215
9581.000000;0.927539
9580.000000;0.926721
9579.000000;0.925384
9578.000000;0.924221
9577.000000;0.923317
9576.000000;0.922398
9575.000000;0.921440
9574.000000;0.920776
9573.000000;0.920621
9572.000000;0.920787
9571.000000;0.920977
9570.000000;0.921186
9569.000000;0.921606
9568.000000;0.922179
9567.000000;0.922517
9566.000000;0.922359
9565.000000;0.921931
9564.000000;0.921694
9563.000000;0.921825
9562.000000;0.922089
9561.000000;0.922193
9560.000000;0.922101
9559.000000;0.921968
9558.000000;0.921832
9557.000000;0.921430
9556.000000;0.920406
9555.000000;0.918772
9554.000000;0.917068
9553.000000;0.915890
9552.000000;0.915308
9551.000000;0.914956
9550.000000;0.914667
9549.000000;0.914708
9548.000000;0.915247
9547.000000;0.915921
9546.000000;0.916199
9545.000000;0.915974
9544.000000;0.915531
9543.000000;0.915112
9542.000000;0.914786
9541.000000;0.914606
9540.000000;0.914584
9539.000000;0.914613
9538.000000;0.914683
9537.000000;0.915078
9536.000000;0.915972
9535.000000;0.916852
9534.000000;0.916748
9533.000000;0.915205
9532.000000;0.912840
9531.000000;0.910830
9530.000000;0.910027
9529.000000;0.910502
9528.000000;0.911603
9527.000000;0.912374
9526.000000;0.912247
9525.000000;0.911505
9524.000000;0.910890
9523.000000;0.910702
9522.000000;0.910494
9521.000000;0.909774
9520.000000;0.908775
9519.000000;0.908261
9518.000000;0.908632
9517.000000;0.909396
9516.000000;0.909650
9515.000000;0.909027
9514.000000;0.908104
9513.000000;0.907777
9512.000000;0.908221
9511.000000;0.908650
9510.000000;0.908220
9509.000000;0.906979
9508.000000;0.905673
9507.000000;0.904810
9506.000000;0.904321
9505.000000;0.904094
9504.000000;0.904330
9503.000000;0.905124
9502.000000;0.906027
9501.000000;0.906365
9500.000000;0.905927
9499.000000;0.905128
9498.000000;0.904583
9497.000000;0.904638
9496.000000;0.905181
9495.000000;0.905730
9494.000000;0.905744
9493.000000;0.905062
9492.000000;0.904032
9491.000000;0.903149
9490.000000;0.902572
9489.000000;0.902037
9488.000000;0.901227
9487.000000;0.900177
9486.000000;0.899313
9485.000000;0.899083
9484.000000;0.899548
9483.000000;0.900353
9482.000000;0.901136
9481.000000;0.901803
9480.000000;0.902309
9479.000000;0.902401
9478.000000;0.901899
9477.000000;0.901130
9476.000000;0.900705
9475.000000;0.900789
9474.000000;0.900863
9473.000000;0.900372
9472.000000;0.899339
9471.000000;0.898175
9470.000000;0.897110
9469.000000;0.896077
9468.000000;0.895069
9467.000000;0.894359
9466.000000;0.894335
9465.000000;0.895151
9464.000000;0.896496
9463.000000;0.897709
9462.000000;0.898253
9461.000000;0.898167
9460.000000;0.897968
9459.000000;0.898120
9458.000000;0.898659
9457.000000;0.899212
9456.000000;0.899161
9455.000000;0.897959
9454.000000;0.895744
9453.000000;0.893652
9452.000000;0.892990
9451.000000;0.893893
9450.000000;0.895105
9449.000000;0.895369
9448.000000;0.894740
9447.000000;0.894202
9446.000000;0.894321
9445.000000;0.894788
9444.000000;0.895098
9443.000000;0.895130
9442.000000;0.894982
9441.000000;0.894662
9440.000000;0.894150
9439.000000;0.893506
9438.000000;0.892780
9437.000000;0.891985
9436.000000;0.891231
9435.000000;0.890751
9434.000000;0.890694
9433.000000;0.890995
9432.000000;0.891435
9431.000000;0.891747
9430.000000;0.891688
9429.000000;0.891208
9428.000000;0.890585
9427.000000;0.890255
9426.000000;0.890368
9425.000000;0.890625
9424.000000;0.890580
9423.000000;0.890064
9422.000000;0.889275
9421.000000;0.888590
9420.000000;0.888341
9419.000000;0.888634
9418.000000;0.889255
9417.000000;0.889788
9416.000000;0.889961
9415.000000;0.889854
9414.000000;0.889656
9413.000000;0.889279
9412.000000;0.888399
9411.000000;0.886962
9410.000000;0.885468
9409.000000;0.884552
9408.000000;0.884306
9407.000000;0.884246
9406.000000;0.884002
9405.000000;0.883784
9404.000000;0.883919
9403.000000;0.884163
9402.000000;0.883871
9401.000000;0.882831
9400.000000;0.881584
9399.000000;0.880820
9398.000000;0.880750
9397.000000;0.881203
9396.000000;0.881998
9395.000000;0.882969
9394.000000;0.883813
9393.000000;0.884217
9392.000000;0.884113
9391.000000;0.883653
9390.000000;0.883052
9389.000000;0.882522
9388.000000;0.882187
9387.000000;0.881899
9386.000000;0.881345
9385.000000;0.880516
9384.000000;0.879859
9383.000000;0.879689
9382.000000;0.879725
9381.000000;0.879538
9380.000000;0.879272
9379.000000;0.879396
9378.000000;0.879815
9377.000000;0.879802
9376.000000;0.879012
9375.000000;0.878107
9374.000000;0.878082
9373.000000;0.879227
9372.000000;0.880960
9371.000000;0.882428
9370.000000;0.882991
9369.000000;0.882399
9368.000000;0.880869
9367.000000;0.879021
9366.000000;0.877517
9365.000000;0.876686
9364.000000;0.876471
9363.000000;0.876578
9362.000000;0.876620
9361.000000;0.876306
9360.000000;0.875708
9359.000000;0.875218
9358.000000;0.875102
9357.000000;0.875177
9356.000000;0.875105
9355.000000;0.874831
9354.000000;0.874548
9353.000000;0.874337
9352.000000;0.874137
9351.000000;0.873992
9350.000000;0.873999
9349.000000;0.873966
9348.000000;0.873469
9347.000000;0.872442
9346.000000;0.871470
9345.000000;0.871274
9344.000000;0.871992
9343.000000;0.873104
9342.000000;0.873957
9341.000000;0.874198
9340.000000;0.873800
9339.000000;0.872946
9338.000000;0.871965
9337.000000;0.871253
9336.000000;0.871108
9335.000000;0.871559
9334.000000;0.872253
9333.000000;0.872515
9332.000000;0.871769
9331.000000;0.870102
9330.000000;0.868368
9329.000000;0.867516
9328.000000;0.867790
9327.000000;0.868636
9326.000000;0.869316
9325.000000;0.869482
9324.000000;0.869207
9323.000000;0.868733
9322.000000;0.868318
9321.000000;0.868127
9320.000000;0.868109
9319.000000;0.868071
9318.000000;0.867985
9317.000000;0.868063
9316.000000;0.868384
9315.000000;0.868631
9314.000000;0.868445
9313.000000;0.867918
9312.000000;0.867446
9311.000000;0.867168
9310.000000;0.866874
9309.000000;0.866496
9308.000000;0.866317
9307.000000;0.866525
9306.000000;0.866862
9305.000000;0.866934
9304.000000;0.866690
9303.000000;0.866373
9302.000000;0.866112
9301.000000;0.865825
9300.000000;0.865508
9299.000000;0.865352
9298.000000;0.865497
9297.000000;0.865833
9296.000000;0.866153
9295.000000;0.866381
9294.000000;0.866516
9293.000000;0.866408
9292.000000;0.865793
9291.000000;0.864670
9290.000000;0.863555
9289.000000;0.863114
9288.000000;0.863488
9287.000000;0.864125
9286.000000;0.864397
9285.000000;0.864241
9284.000000;0.864009
9283.000000;0.863845
9282.000000;0.863546
9281.000000;0.863023
9280.000000;0.862521
9279.000000;0.862246
9278.000000;0.862108
9277.000000;0.862024
9276.000000;0.862193
9275.000000;0.862743
9274.000000;0.863293
9273.000000;0.863224
9272.000000;0.862404
9271.000000;0.861374
9270.000000;0.860797
9269.000000;0.860899
9268.000000;0.861452
9267.000000;0.862094
9266.000000;0.862588
9265.000000;0.862898
9264.000000;0.863053
9263.000000;0.862930
9262.000000;0.862303
9261.000000;0.861211
9260.000000;0.860132
9259.000000;0.859534
9258.000000;0.859315
9257.000000;0.858935
9256.000000;0.858089
9255.000000;0.857075
9254.000000;0.856459
9253.000000;0.856551
9252.000000;0.857217
9251.000000;0.858005
9250.000000;0.858397
9249.000000;0.858125
9248.000000;0.857332
9247.000000;0.856365
9246.000000;0.855445
9245.000000;0.854695
9244.000000;0.854357
9243.000000;0.854653
9242.000000;0.855383
9241.000000;0.855974
9240.000000;0.856093
9239.000000;0.855981
9238.000000;0.856045
9237.000000;0.856363
9236.000000;0.856731
9235.000000;0.856979
9234.000000;0.857028
9233.000000;0.856839
9232.000000;0.856494
9231.000000;0.856206
9230.000000;0.856061
9229.000000;0.855883
9228.000000;0.855533
9227.000000;0.855165
9226.000000;0.854996
9225.000000;0.854967
9224.000000;0.854856
9223.000000;0.854590
9222.000000;0.854191
9221.000000;0.853572
9220.000000;0.852685
9219.000000;0.851789
9218.000000;0.851246
9217.000000;0.851121
9216.000000;0.851254
9215.000000;0.851639
9214.000000;0.852355
9213.000000;0.853186
9212.000000;0.853705
9211.000000;0.853758
9210.000000;0.853516
9209.000000;0.853048
9208.000000;0.852311
9207.000000;0.851658
9206.000000;0.851766
9205.000000;0.852710
9204.000000;0.853578
9203.000000;0.853454
9202.000000;0.852505
9201.000000;0.851632
9200.000000;0.851296
9199.000000;0.851218
9198.000000;0.851098
9197.000000;0.850976
9196.000000;0.850820
9195.000000;0.850298
9194.000000;0.849303
9193.000000;0.848293
9192.000000;0.847803
9191.000000;0.847812
9190.000000;0.847883
9189.000000;0.847803
9188.000000;0.847799
9187.000000;0.848106
9186.000000;0.848567
9185.000000;0.848760
9184.000000;0.848446
9183.000000;0.847819
9182.000000;0.847294
9181.000000;0.847076
9180.000000;0.846988
9179.000000;0.846772
9178.000000;0.846469
9177.000000;0.846406
9176.000000;0.846787
9175.000000;0.847457
9174.000000;0.848118
9173.000000;0.848622
9172.000000;0.848971
9171.000000;0.849128
9170.000000;0.848930
9169.000000;0.848226
9168.000000;0.847105
9167.000000;0.846019
9166.000000;0.845556
9165.000000;0.845915
9164.000000;0.846566
9163.000000;0.846667
9162.000000;0.845931
9161.000000;0.844942
9160.000000;0.844484
9159.000000;0.844708
9158.000000;0.845126
9157.000000;0.845278
9156.000000;0.845185
9155.000000;0.845123
9154.000000;0.845224
9153.000000;0.845449
9152.000000;0.845815
9151.000000;0.846413
9150.000000;0.847153
9149.000000;0.847632
9148.000000;0.847402
9147.000000;0.846417
9146.000000;0.845137
9145.000000;0.844130
9144.000000;0.843663
9143.000000;0.843712
9142.000000;0.844152
9141.000000;0.844692
9140.000000;0.844771
9139.000000;0.843966
9138.000000;0.842608
9137.000000;0.841645
9136.000000;0.841660
9135.000000;0.842288
9134.000000;0.842785
9133.000000;0.842887
9132.000000;0.842757
9131.000000;0.842380
9130.000000;0.841576
9129.000000;0.840611
9128.000000;0.840204
9127.000000;0.840684
9126.000000;0.841523
9125.000000;0.841981
9124.000000;0.841932
9123.000000;0.841742
9122.000000;0.841595
9121.000000;0.841347
9120.000000;0.840931
9119.000000;0.840497
9118.000000;0.840139
9117.000000;0.839803
9116.000000;0.839502
9115.000000;0.839339
9114.000000;0.839255
9113.000000;0.839062
9112.000000;0.838840
9111.000000;0.838983
9110.000000;0.839661
9109.000000;0.840451
9108.000000;0.840755
9107.000000;0.840396
9106.000000;0.839557
9105.000000;0.838356
9104.000000;0.836921
9103.000000;0.835771
9102.000000;0.835584
9101.000000;0.836384
9100.000000;0.837355
9099.000000;0.837742
9098.000000;0.837692
9097.000000;0.837878
9096.000000;0.838556
9095.000000;0.839374
9094.000000;0.839927
9093.000000;0.840045
9092.000000;0.839563
9091.000000;0.838367
9090.000000;0.836826
9089.000000;0.835766
9088.000000;0.835699
9087.000000;0.836324
9086.000000;0.837028
9085.000000;0.837598
9084.000000;0.838119
9083.000000;0.838456
9082.000000;0.838330
9081.000000;0.837875
9080.000000;0.837664
9079.000000;0.838010
9078.000000;0.838541
9077.000000;0.838636
9076.000000;0.838095
9075.000000;0.837215
9074.000000;0.836397
9073.000000;0.835893
9072.000000;0.835846
9071.000000;0.836329
9070.000000;0.837239
9069.000000;0.838244
9068.000000;0.838927
9067.000000;0.839037
9066.000000;0.838613
9065.000000;0.837887
9064.000000;0.837081
9063.000000;0.836311
9062.000000;0.835661
9061.000000;0.835218
9060.000000;0.834949
9059.000000;0.834619
9058.000000;0.833987
9057.000000;0.833121
9056.000000;0.832409
9055.000000;0.832211
9054.000000;0.832513
9053.000000;0.832975
