Criado como novo conjunto de dados;"e0108.spp","-4272104.3 Secs"
cm-1;Abs
10000.000000;1.041958
9999.000000;1.042427
9998.000000;1.042898
9997.000000;1.043368
9996.000000;1.043840
9995.000000;1.044310
9994.000000;1.044786
9993.000000;1.045250
9992.000000;1.045750
9991.000000;1.045415
9990.000000;1.044943
9989.000000;1.044481
9988.000000;1.043541
9987.000000;1.042146
9986.000000;1.041026
9985.000000;1.040594
9984.000000;1.040278
9983.000000;1.039354
9982.000000;1.038049
9981.000000;1.037316
9980.000000;1.037603
9979.000000;1.038307
9978.000000;1.038571
9977.000000;1.038348
9976.000000;1.038324
9975.000000;1.038856
9974.000000;1.039364
9973.000000;1.039001
9972.000000;1.037735
9971.000000;1.036423
9970.000000;1.035792
9969.000000;1.035673
9968.000000;1.035378
9967.000000;1.034595
9966.000000;1.033669
9965.000000;1.033122
9964.000000;1.033123
9963.000000;1.033360
9962.000000;1.033334
9961.000000;1.032831
9960.000000;1.032127
9959.000000;1.031634
9958.000000;1.031387
9957.000000;1.031122
9956.000000;1.030860
9955.000000;1.031041
9954.000000;1.031836
9953.000000;1.032675
9952.000000;1.032788
9951.000000;1.031966
9950.000000;1.030492
9949.000000;1.028641
9948.000000;1.026759
9947.000000;1.025528
9946.000000;1.025476
9945.000000;1.026221
9944.000000;1.026798
9943.000000;1.026812
9942.000000;1.026695
9941.000000;1.026691
9940.000000;1.026309
9939.000000;1.025151
9938.000000;1.023751
9937.000000;1.023004
9936.000000;1.023072
9935.000000;1.023377
9934.000000;1.023416
9933.000000;1.023029
9932.000000;1.022051
9931.000000;1.020418
9930.000000;1.018671
9929.000000;1.017742
9928.000000;1.018019
9927.000000;1.018914
9926.000000;1.019500
9925.000000;1.019438
9924.000000;1.019140
9923.000000;1.019146
9922.000000;1.019421
9921.000000;1.019168
9920.000000;1.017433
9919.000000;1.014214
9918.000000;1.010983
9917.000000;1.009734
9916.000000;1.011239
9915.000000;1.014277
9914.000000;1.016731
9913.000000;1.017444
9912.000000;1.016904
9911.000000;1.016278
9910.000000;1.016183
9909.000000;1.016424
9908.000000;1.016510
9907.000000;1.016135
9906.000000;1.015243
9905.000000;1.013953
9904.000000;1.012578
9903.000000;1.011589
9902.000000;1.011378
9901.000000;1.011872
9900.000000;1.012409
9899.000000;1.012143
9898.000000;1.010749
9897.000000;1.008780
9896.000000;1.007223
9895.000000;1.006702
9894.000000;1.007111
9893.000000;1.007882
9892.000000;1.008445
9891.000000;1.008457
9890.000000;1.007921
9889.000000;1.007267
9888.000000;1.007115
9887.000000;1.007651
9886.000000;1.008347
9885.000000;1.008568
9884.000000;1.008378
9883.000000;1.008363
9882.000000;1.008636
9881.000000;1.008521
9880.000000;1.007481
9879.000000;1.005955
9878.000000;1.004819
9877.000000;1.004302
9876.000000;1.003914
9875.000000;1.003351
9874.000000;1.002886
9873.000000;1.002772
9872.000000;1.002747
9871.000000;1.002411
9870.000000;1.001726
9869.000000;1.000886
9868.000000;0.999997
9867.000000;0.999206
9866.000000;0.998839
9865.000000;0.998915
9864.000000;0.998771
9863.000000;0.997765
9862.000000;0.996384
9861.000000;0.995991
9860.000000;0.997196
9859.000000;0.998929
9858.000000;0.999533
9857.000000;0.998544
9856.000000;0.996905
9855.000000;0.995653
9854.000000;0.995003
9853.000000;0.994733
9852.000000;0.994804
9851.000000;0.995226
9850.000000;0.995653
9849.000000;0.995567
9848.000000;0.994843
9847.000000;0.993831
9846.000000;0.992940
9845.000000;0.992362
9844.000000;0.992175
9843.000000;0.992416
9842.000000;0.992951
9841.000000;0.993468
9840.000000;0.993742
9839.000000;0.993781
9838.000000;0.993652
9837.000000;0.993323
9836.000000;0.992800
9835.000000;0.992261
9834.000000;0.991819
9833.000000;0.991234
9832.000000;0.990124
9831.000000;0.988552
9830.000000;0.987208
9829.000000;0.986837
9828.000000;0.987511
9827.000000;0.988544
9826.000000;0.989105
9825.000000;0.988867
9824.000000;0.988113
9823.000000;0.987348
9822.000000;0.986845
9821.000000;0.986539
9820.000000;0.986235
9819.000000;0.985839
9818.000000;0.985357
9817.000000;0.984764
9816.000000;0.983971
9815.000000;0.982966
9814.000000;0.981928
9813.000000;0.981108
9812.000000;0.980601
9811.000000;0.980317
9810.000000;0.980192
9809.000000;0.980289
9808.000000;0.980569
9807.000000;0.980718
9806.000000;0.980464
9805.000000;0.980027
9804.000000;0.979919
9803.000000;0.980178
9802.000000;0.980169
9801.000000;0.979427
9800.000000;0.978364
9799.000000;0.977712
9798.000000;0.977518
9797.000000;0.977237
9796.000000;0.976727
9795.000000;0.976524
9794.000000;0.976967
9793.000000;0.977622
9792.000000;0.977874
9791.000000;0.977662
9790.000000;0.977304
9789.000000;0.976970
9788.000000;0.976747
9787.000000;0.976855
9786.000000;0.977256
9785.000000;0.977264
9784.000000;0.976123
9783.000000;0.974021
9782.000000;0.972094
9781.000000;0.971380
9780.000000;0.972005
9779.000000;0.973307
9778.000000;0.974424
9777.000000;0.974892
9776.000000;0.975005
9775.000000;0.975417
9774.000000;0.976043
9773.000000;0.975664
9772.000000;0.973302
9771.000000;0.969832
9770.000000;0.967379
9769.000000;0.966978
9768.000000;0.967582
9767.000000;0.967589
9766.000000;0.966653
9765.000000;0.965553
9764.000000;0.964956
9763.000000;0.965015
9762.000000;0.965742
9761.000000;0.966992
9760.000000;0.968215
9759.000000;0.968867
9758.000000;0.969020
9757.000000;0.969034
9756.000000;0.968779
9755.000000;0.967809
9754.000000;0.966331
9753.000000;0.965341
9752.000000;0.965533
9751.000000;0.966476
9750.000000;0.967049
9749.000000;0.966443
9748.000000;0.964664
9747.000000;0.962430
9746.000000;0.960750
9745.000000;0.960298
9744.000000;0.960946
9743.000000;0.961970
9742.000000;0.962771
9741.000000;0.963270
9740.000000;0.963660
9739.000000;0.964088
9738.000000;0.964601
9737.000000;0.965063
9736.000000;0.965068
9735.000000;0.964308
9734.000000;0.963137
9733.000000;0.962345
9732.000000;0.962197
9731.000000;0.962092
9730.000000;0.961408
9729.000000;0.960307
9728.000000;0.959297
9727.000000;0.958376
9726.000000;0.957175
9725.000000;0.955853
9724.000000;0.955226
9723.000000;0.955824
9722.000000;0.957161
9721.000000;0.958171
9720.000000;0.958237
9719.000000;0.957642
9718.000000;0.957052
9717.000000;0.956713
9716.000000;0.956242
9715.000000;0.955215
9714.000000;0.953845
9713.000000;0.952915
9712.000000;0.952997
9711.000000;0.953874
9710.000000;0.954795
9709.000000;0.955136
9708.000000;0.954760
9707.000000;0.953920
9706.000000;0.953083
9705.000000;0.952720
9704.000000;0.952998
9703.000000;0.953640
9702.000000;0.954212
9701.000000;0.954507
9700.000000;0.954493
9699.000000;0.954029
9698.000000;0.952955
9697.000000;0.951499
9696.000000;0.950308
9695.000000;0.949916
9694.000000;0.950280
9693.000000;0.950886
9692.000000;0.951156
9691.000000;0.950720
9690.000000;0.949523
9689.000000;0.947890
9688.000000;0.946382
9687.000000;0.945403
9686.000000;0.944937
9685.000000;0.944729
9684.000000;0.944676
9683.000000;0.944913
9682.000000;0.945525
9681.000000;0.946272
9680.000000;0.946629
9679.000000;0.946137
9678.000000;0.944847
9677.000000;0.943467
9676.000000;0.942897
9675.000000;0.943398
9674.000000;0.944248
9673.000000;0.944348
9672.000000;0.943252
9671.000000;0.941508
9670.000000;0.940000
9669.000000;0.939196
9668.000000;0.939112
9667.000000;0.939690
9666.000000;0.940817
9665.000000;0.942023
9664.000000;0.942613
9663.000000;0.942318
9662.000000;0.941608
9661.000000;0.941118
9660.000000;0.940927
9659.000000;0.940659
9658.000000;0.940216
9657.000000;0.940031
9656.000000;0.940459
9655.000000;0.941193
9654.000000;0.941492
9653.000000;0.940921
9652.000000;0.939650
9651.000000;0.938116
9650.000000;0.936636
9649.000000;0.935392
9648.000000;0.934553
9647.000000;0.934242
9646.000000;0.934419
9645.000000;0.934904
9644.000000;0.935531
9643.000000;0.936180
9642.000000;0.936646
9641.000000;0.936568
9640.000000;0.935647
9639.000000;0.934007
9638.000000;0.932279
9637.000000;0.931221
9636.000000;0.931156
9635.000000;0.931756
9634.000000;0.932338
9633.000000;0.932369
9632.000000;0.931813
9631.000000;0.931117
9630.000000;0.930806
9629.000000;0.930995
9628.000000;0.931266
9627.000000;0.931104
9626.000000;0.930453
9625.000000;0.929734
9624.000000;0.929319
9623.000000;0.929169
9622.000000;0.929065
9621.000000;0.929032
9620.000000;0.929264
9619.000000;0.929653
9618.000000;0.929661
9617.000000;0.928829
9616.000000;0.927351
9615.000000;0.926000
9614.000000;0.925477
9613.000000;0.925812
9612.000000;0.926384
9611.000000;0.926518
9610.000000;0.926084
9609.000000;0.925490
9608.000000;0.925131
9607.000000;0.924952
9606.000000;0.924644
9605.000000;0.924173
9604.000000;0.923882
9603.000000;0.923997
9602.000000;0.924207
9601.000000;0.923940
9600.000000;0.923002
9599.000000;0.921795
9598.000000;0.920899
9597.000000;0.920558
9596.000000;0.920639
9595.000000;0.920912
9594.000000;0.921255
9593.000000;0.921690
9592.000000;0.922292
9591.000000;0.922995
9590.000000;0.923439
9589.000000;0.923156
9588.000000;0.922100
9587.000000;0.920870
9586.000000;0.920151
9585.000000;0.919959
9584.000000;0.919734
9583.000000;0.919191
9582.000000;0.918705
9581.000000;0.918614
9580.000000;0.918560
9579.000000;0.917957
9578.000000;0.916924
9577.000000;0.916201
9576.000000;0.916075
9575.000000;0.915918
9574.000000;0.915034
9573.000000;0.913637
9572.000000;0.912591
9571.000000;0.912400
9570.000000;0.912847
9569.000000;0.913502
9568.000000;0.914188
9567.000000;0.914825
9566.000000;0.915160
9565.000000;0.914926
9564.000000;0.914221
9563.000000;0.913470
9562.000000;0.912996
9561.000000;0.912773
9560.000000;0.912683
9559.000000;0.912865
9558.000000;0.913655
9557.000000;0.915087
9556.000000;0.916592
9555.000000;0.917344
9554.000000;0.916933
9553.000000;0.915604
9552.000000;0.913907
9551.000000;0.912304
9550.000000;0.911061
9549.000000;0.910235
9548.000000;0.909673
9547.000000;0.909189
9546.000000;0.908878
9545.000000;0.909066
9544.000000;0.909783
9543.000000;0.910491
9542.000000;0.910544
9541.000000;0.909831
9540.000000;0.908733
9539.000000;0.907571
9538.000000;0.906430
9537.000000;0.905462
9536.000000;0.904936
9535.000000;0.904893
9534.000000;0.905036
9533.000000;0.905109
9532.000000;0.905145
9531.000000;0.905168
9530.000000;0.904904
9529.000000;0.904121
9528.000000;0.903156
9527.000000;0.902742
9526.000000;0.903217
9525.000000;0.904116
9524.000000;0.904661
9523.000000;0.904484
9522.000000;0.903774
9521.000000;0.902875
9520.000000;0.902015
9519.000000;0.901397
9518.000000;0.901272
9517.000000;0.901687
9516.000000;0.902244
9515.000000;0.902381
9514.000000;0.901959
9513.000000;0.901386
9512.000000;0.901023
9511.000000;0.900676
9510.000000;0.899918
9509.000000;0.898815
9508.000000;0.898021
9507.000000;0.898011
9506.000000;0.898455
9505.000000;0.898612
9504.000000;0.898255
9503.000000;0.897921
9502.000000;0.898153
9501.000000;0.898726
9500.000000;0.898859
9499.000000;0.898182
9498.000000;0.897235
9497.000000;0.896890
9496.000000;0.897425
9495.000000;0.898330
9494.000000;0.898892
9493.000000;0.898754
9492.000000;0.897946
9491.000000;0.896728
9490.000000;0.895545
9489.000000;0.894891
9488.000000;0.894912
9487.000000;0.895174
9486.000000;0.895076
9485.000000;0.894549
9484.000000;0.894171
9483.000000;0.894503
9482.000000;0.895484
9481.000000;0.896517
9480.000000;0.896965
9479.000000;0.896470
9478.000000;0.894997
9477.000000;0.892847
9476.000000;0.890692
9475.000000;0.889366
9474.000000;0.889362
9473.000000;0.890387
9472.000000;0.891468
9471.000000;0.891688
9470.000000;0.890971
9469.000000;0.890084
9468.000000;0.889793
9467.000000;0.890089
9466.000000;0.890406
9465.000000;0.890421
9464.000000;0.890334
9463.000000;0.890344
9462.000000;0.890266
9461.000000;0.889893
9460.000000;0.889443
9459.000000;0.889289
9458.000000;0.889380
9457.000000;0.889271
9456.000000;0.888727
9455.000000;0.887999
9454.000000;0.887445
9453.000000;0.887158
9452.000000;0.887074
9451.000000;0.887186
9450.000000;0.887448
9449.000000;0.887641
9448.000000;0.887522
9447.000000;0.887053
9446.000000;0.886389
9445.000000;0.885753
9444.000000;0.885434
9443.000000;0.885701
9442.000000;0.886447
9441.000000;0.887019
9440.000000;0.886755
9439.000000;0.885782
9438.000000;0.885017
9437.000000;0.885198
9436.000000;0.886093
9435.000000;0.886802
9434.000000;0.886652
9433.000000;0.885630
9432.000000;0.884137
9431.000000;0.882650
9430.000000;0.881636
9429.000000;0.881407
9428.000000;0.881851
9427.000000;0.882417
9426.000000;0.882557
9425.000000;0.882176
9424.000000;0.881578
9423.000000;0.881086
9422.000000;0.880866
9421.000000;0.881016
9420.000000;0.881534
9419.000000;0.882111
9418.000000;0.882201
9417.000000;0.881570
9416.000000;0.880703
9415.000000;0.880375
9414.000000;0.880769
9413.000000;0.881215
9412.000000;0.880926
9411.000000;0.879871
9410.000000;0.878704
9409.000000;0.877951
9408.000000;0.877596
9407.000000;0.877467
9406.000000;0.877634
9405.000000;0.878183
9404.000000;0.878849
9403.000000;0.879225
9402.000000;0.879257
9401.000000;0.879169
9400.000000;0.878949
9399.000000;0.878265
9398.000000;0.877021
9397.000000;0.875655
9396.000000;0.874660
9395.000000;0.874082
9394.000000;0.873705
9393.000000;0.873550
9392.000000;0.873844
9391.000000;0.874569
9390.000000;0.875312
9389.000000;0.875640
9388.000000;0.875443
9387.000000;0.874904
9386.000000;0.874342
9385.000000;0.874067
9384.000000;0.874171
9383.000000;0.874359
9382.000000;0.874184
9381.000000;0.873588
9380.000000;0.873019
9379.000000;0.872890
9378.000000;0.873066
9377.000000;0.873073
9376.000000;0.872705
9375.000000;0.872227
9374.000000;0.871990
9373.000000;0.872040
9372.000000;0.872144
9371.000000;0.872089
9370.000000;0.871894
9369.000000;0.871749
9368.000000;0.871774
9367.000000;0.871820
9366.000000;0.871565
9365.000000;0.870852
9364.000000;0.869872
9363.000000;0.868966
9362.000000;0.868345
9361.000000;0.868115
9360.000000;0.868430
9359.000000;0.869322
9358.000000;0.870372
9357.000000;0.870856
9356.000000;0.870470
9355.000000;0.869719
9354.000000;0.869354
9353.000000;0.869524
9352.000000;0.869712
9351.000000;0.869456
9350.000000;0.868835
9349.000000;0.868210
9348.000000;0.867747
9347.000000;0.867416
9346.000000;0.867266
9345.000000;0.867456
9344.000000;0.867951
9343.000000;0.868344
9342.000000;0.868100
9341.000000;0.867010
9340.000000;0.865420
9339.000000;0.864010
9338.000000;0.863302
9337.000000;0.863316
9336.000000;0.863643
9335.000000;0.863812
9334.000000;0.863599
9333.000000;0.863116
9332.000000;0.862731
9331.000000;0.862850
9330.000000;0.863589
9329.000000;0.864579
9328.000000;0.865173
9327.000000;0.864958
9326.000000;0.864051
9325.000000;0.862967
9324.000000;0.862286
9323.000000;0.862376
9322.000000;0.863134
9321.000000;0.863920
9320.000000;0.863965
9319.000000;0.863059
9318.000000;0.861740
9317.000000;0.860730
9316.000000;0.860346
9315.000000;0.860521
9314.000000;0.861061
9313.000000;0.861608
9312.000000;0.861612
9311.000000;0.860798
9310.000000;0.859645
9309.000000;0.858987
9308.000000;0.859116
9307.000000;0.859558
9306.000000;0.859724
9305.000000;0.859450
9304.000000;0.858860
9303.000000;0.858144
9302.000000;0.857659
9301.000000;0.857866
9300.000000;0.858798
9299.000000;0.859810
9298.000000;0.860177
9297.000000;0.859867
9296.000000;0.859439
9295.000000;0.859276
9294.000000;0.859185
9293.000000;0.858728
9292.000000;0.857765
9291.000000;0.856649
9290.000000;0.856002
9289.000000;0.856220
9288.000000;0.857059
9287.000000;0.857786
9286.000000;0.857875
9285.000000;0.857452
9284.000000;0.856937
9283.000000;0.856502
9282.000000;0.856143
9281.000000;0.856020
9280.000000;0.856268
9279.000000;0.856532
9278.000000;0.856230
9277.000000;0.855397
9276.000000;0.854772
9275.000000;0.854803
9274.000000;0.854966
9273.000000;0.854434
9272.000000;0.853170
9271.000000;0.851915
9270.000000;0.851258
9269.000000;0.851171
9268.000000;0.851411
9267.000000;0.851923
9266.000000;0.852650
9265.000000;0.853284
9264.000000;0.853495
9263.000000;0.853295
9262.000000;0.852989
9261.000000;0.852813
9260.000000;0.852762
9259.000000;0.852704
9258.000000;0.852539
9257.000000;0.852236
9256.000000;0.851863
9255.000000;0.851584
9254.000000;0.851498
9253.000000;0.851512
9252.000000;0.851460
9251.000000;0.851322
9250.000000;0.851194
9249.000000;0.851039
9248.000000;0.850622
9247.000000;0.849823
9246.000000;0.848910
9245.000000;0.848391
9244.000000;0.848528
9243.000000;0.849060
9242.000000;0.849445
9241.000000;0.849399
9240.000000;0.849170
9239.000000;0.849234
9238.000000;0.849712
9237.000000;0.850202
9236.000000;0.850249
9235.000000;0.849881
9234.000000;0.849518
9233.000000;0.849409
9232.000000;0.849403
9231.000000;0.849287
9230.000000;0.849092
9229.000000;0.848933
9228.000000;0.848776
9227.000000;0.848533
9226.000000;0.848240
9225.000000;0.847966
9224.000000;0.847693
9223.000000;0.847470
9222.000000;0.847504
9221.000000;0.847840
9220.000000;0.848073
9219.000000;0.847687
9218.000000;0.846690
9217.000000;0.845639
9216.000000;0.845026
9215.000000;0.844910
9214.000000;0.845149
9213.000000;0.845656
9212.000000;0.846266
9211.000000;0.846624
9210.000000;0.846458
9209.000000;0.845932
9208.000000;0.845560
9207.000000;0.845800
9206.000000;0.846673
9205.000000;0.847638
9204.000000;0.847888
9203.000000;0.847026
9202.000000;0.845531
9201.000000;0.844312
9200.000000;0.843756
9199.000000;0.843472
9198.000000;0.843082
9197.000000;0.842868
9196.000000;0.843330
9195.000000;0.844351
9194.000000;0.845191
9193.000000;0.845200
9192.000000;0.844289
9191.000000;0.842811
9190.000000;0.841334
9189.000000;0.840477
9188.000000;0.840578
9187.000000;0.841375
9186.000000;0.842201
9185.000000;0.842576
9184.000000;0.842488
9183.000000;0.842126
9182.000000;0.841560
9181.000000;0.840789
9180.000000;0.839910
9179.000000;0.839120
9178.000000;0.838636
9177.000000;0.838615
9176.000000;0.839046
9175.000000;0.839685
9174.000000;0.840217
9173.000000;0.840511
9172.000000;0.840611
9171.000000;0.840503
9170.000000;0.840067
9169.000000;0.839301
9168.000000;0.838460
9167.000000;0.837879
9166.000000;0.837707
9165.000000;0.837852
9164.000000;0.838118
9163.000000;0.838344
9162.000000;0.838474
9161.000000;0.838547
9160.000000;0.838557
9159.000000;0.838352
9158.000000;0.837776
9157.000000;0.836938
9156.000000;0.836213
9155.000000;0.835910
9154.000000;0.836022
9153.000000;0.836396
9152.000000;0.837021
9151.000000;0.837985
9150.000000;0.839155
9149.000000;0.840052
9148.000000;0.840190
9147.000000;0.839533
9146.000000;0.838549
9145.000000;0.837772
9144.000000;0.837319
9143.000000;0.836879
9142.000000;0.836146
9141.000000;0.835220
9140.000000;0.834555
9139.000000;0.834570
9138.000000;0.835287
9137.000000;0.836257
9136.000000;0.836842
9135.000000;0.836696
9134.000000;0.836044
9133.000000;0.835423
9132.000000;0.835105
9131.000000;0.834909
9130.000000;0.834629
9129.000000;0.834456
9128.000000;0.834710
9127.000000;0.835277
9126.000000;0.835610
9125.000000;0.835356
9124.000000;0.834755
9123.000000;0.834304
9122.000000;0.834221
9121.000000;0.834384
9120.000000;0.834654
9119.000000;0.834984
9118.000000;0.835249
9117.000000;0.835192
9116.000000;0.834688
9115.000000;0.833966
9114.000000;0.833427
9113.000000;0.833256
9112.000000;0.833288
9111.000000;0.833244
9110.000000;0.832992
9109.000000;0.832581
9108.000000;0.832120
9107.000000;0.831709
9106.000000;0.831404
9105.000000;0.831147
9104.000000;0.830813
9103.000000;0.830407
9102.000000;0.830154
9101.000000;0.830241
9100.000000;0.830564
9099.000000;0.830894
9098.000000;0.831218
9097.000000;0.831639
9096.000000;0.832016
9095.000000;0.832043
9094.000000;0.831746
9093.000000;0.831525
9092.000000;0.831529
9091.000000;0.831344
9090.000000;0.830599
9089.000000;0.829618
9088.000000;0.829071
9087.000000;0.829161
9086.000000;0.829499
9085.000000;0.829682
9084.000000;0.829610
9083.000000;0.829287
9082.000000;0.828713
9081.000000;0.828093
9080.000000;0.827821
9079.000000;0.828120
9078.000000;0.828838
9077.000000;0.829635
9076.000000;0.830132
9075.000000;0.829957
9074.000000;0.829007
9073.000000;0.827776
9072.000000;0.827084
9071.000000;0.827268
9070.000000;0.827865
9069.000000;0.828253
9068.000000;0.828382
9067.000000;0.828641
9066.000000;0.829168
9065.000000;0.829613
9064.000000;0.829542
9063.000000;0.828900
9062.000000;0.828062
9061.000000;0.827525
9060.000000;0.827529
9059.000000;0.827895
9058.000000;0.828300
9057.000000;0.828695
9056.000000;0.829298
9055.000000;0.830101
9054.000000;0.830628
9053.000000;0.830418
