Criado como novo conjunto de dados;"e0108.spp","-4268503.7 Secs"
cm-1;Abs
10000.000000;1.094922
9999.000000;1.094443
9998.000000;1.093300
9997.000000;1.091134
9996.000000;1.088314
9995.000000;1.086099
9994.000000;1.085776
9993.000000;1.087454
9992.000000;1.089792
9991.000000;1.091203
9990.000000;1.091349
9989.000000;1.091156
9988.000000;1.091342
9987.000000;1.091483
9986.000000;1.090794
9985.000000;1.089391
9984.000000;1.088199
9983.000000;1.087771
9982.000000;1.087793
9981.000000;1.087717
9980.000000;1.087392
9979.000000;1.086966
9978.000000;1.086610
9977.000000;1.086594
9976.000000;1.087233
9975.000000;1.088378
9974.000000;1.089183
9973.000000;1.088844
9972.000000;1.087539
9971.000000;1.086357
9970.000000;1.086254
9969.000000;1.087181
9968.000000;1.088256
9967.000000;1.088645
9966.000000;1.088152
9965.000000;1.086968
9964.000000;1.085207
9963.000000;1.083015
9962.000000;1.081045
9961.000000;1.080213
9960.000000;1.080637
9959.000000;1.081147
9958.000000;1.080396
9957.000000;1.078381
9956.000000;1.076443
9955.000000;1.075799
9954.000000;1.076525
9953.000000;1.077925
9952.000000;1.079342
9951.000000;1.080377
9950.000000;1.080820
9949.000000;1.080765
9948.000000;1.080554
9947.000000;1.080285
9946.000000;1.079510
9945.000000;1.077736
9944.000000;1.075223
9943.000000;1.073024
9942.000000;1.072119
9941.000000;1.072542
9940.000000;1.073353
9939.000000;1.073521
9938.000000;1.072935
9937.000000;1.072513
9936.000000;1.073144
9935.000000;1.074592
9934.000000;1.075654
9933.000000;1.075311
9932.000000;1.073519
9931.000000;1.070962
9930.000000;1.068468
9929.000000;1.066701
9928.000000;1.065973
9927.000000;1.066071
9926.000000;1.066491
9925.000000;1.067037
9924.000000;1.067905
9923.000000;1.068993
9922.000000;1.069542
9921.000000;1.068838
9920.000000;1.067087
9919.000000;1.065216
9918.000000;1.063937
9917.000000;1.063285
9916.000000;1.062927
9915.000000;1.062590
9914.000000;1.062171
9913.000000;1.061693
9912.000000;1.061217
9911.000000;1.060778
9910.000000;1.060521
9909.000000;1.060955
9908.000000;1.062734
9907.000000;1.065753
9906.000000;1.068550
9905.000000;1.069214
9904.000000;1.067153
9903.000000;1.063668
9902.000000;1.060630
9901.000000;1.058960
9900.000000;1.058482
9899.000000;1.058747
9898.000000;1.059467
9897.000000;1.060293
9896.000000;1.060688
9895.000000;1.060340
9894.000000;1.059522
9893.000000;1.058829
9892.000000;1.058596
9891.000000;1.058695
9890.000000;1.058803
9889.000000;1.058645
9888.000000;1.058053
9887.000000;1.057108
9886.000000;1.056263
9885.000000;1.055987
9884.000000;1.056125
9883.000000;1.055956
9882.000000;1.055114
9881.000000;1.054127
9880.000000;1.053660
9879.000000;1.053547
9878.000000;1.053116
9877.000000;1.052266
9876.000000;1.051565
9875.000000;1.051338
9874.000000;1.051336
9873.000000;1.051372
9872.000000;1.051573
9871.000000;1.051753
9870.000000;1.051277
9869.000000;1.050043
9868.000000;1.048979
9867.000000;1.048966
9866.000000;1.049683
9865.000000;1.050105
9864.000000;1.049785
9863.000000;1.049070
9862.000000;1.048345
9861.000000;1.047765
9860.000000;1.047570
9859.000000;1.047918
9858.000000;1.048322
9857.000000;1.047980
9856.000000;1.046891
9855.000000;1.046032
9854.000000;1.046132
9853.000000;1.046771
9852.000000;1.047065
9851.000000;1.046848
9850.000000;1.046715
9849.000000;1.047059
9848.000000;1.047506
9847.000000;1.047325
9846.000000;1.046163
9845.000000;1.044370
9844.000000;1.042764
9843.000000;1.042063
9842.000000;1.042365
9841.000000;1.043067
9840.000000;1.043294
9839.000000;1.042539
9838.000000;1.041078
9837.000000;1.039819
9836.000000;1.039598
9835.000000;1.040409
9834.000000;1.041325
9833.000000;1.041316
9832.000000;1.040149
9831.000000;1.038444
9830.000000;1.037004
9829.000000;1.036263
9828.000000;1.036261
9827.000000;1.036810
9826.000000;1.037594
9825.000000;1.038245
9824.000000;1.038382
9823.000000;1.037619
9822.000000;1.035792
9821.000000;1.033394
9820.000000;1.031544
9819.000000;1.031143
9818.000000;1.031990
9817.000000;1.033004
9816.000000;1.033308
9815.000000;1.032855
9814.000000;1.032095
9813.000000;1.031478
9812.000000;1.031337
9811.000000;1.031805
9810.000000;1.032598
9809.000000;1.033146
9808.000000;1.033173
9807.000000;1.032983
9806.000000;1.033053
9805.000000;1.033537
9804.000000;1.034196
9803.000000;1.034546
9802.000000;1.034058
9801.000000;1.032581
9800.000000;1.030739
9799.000000;1.029536
9798.000000;1.029305
9797.000000;1.029345
9796.000000;1.028835
9795.000000;1.027828
9794.000000;1.027004
9793.000000;1.026714
9792.000000;1.026703
9791.000000;1.026642
9790.000000;1.026458
9789.000000;1.026173
9788.000000;1.025812
9787.000000;1.025556
9786.000000;1.025648
9785.000000;1.025955
9784.000000;1.025859
9783.000000;1.024777
9782.000000;1.022800
9781.000000;1.020717
9780.000000;1.019443
9779.000000;1.019370
9778.000000;1.020122
9777.000000;1.020851
9776.000000;1.020817
9775.000000;1.019878
9774.000000;1.018557
9773.000000;1.017745
9772.000000;1.018208
9771.000000;1.020041
9770.000000;1.022410
9769.000000;1.023998
9768.000000;1.023919
9767.000000;1.022265
9766.000000;1.019827
9765.000000;1.017561
9764.000000;1.016326
9763.000000;1.016587
9762.000000;1.017944
9761.000000;1.019149
9760.000000;1.019077
9759.000000;1.017769
9758.000000;1.016210
9757.000000;1.015180
9756.000000;1.014657
9755.000000;1.014327
9754.000000;1.014205
9753.000000;1.014478
9752.000000;1.014989
9751.000000;1.015267
9750.000000;1.015014
9749.000000;1.014315
9748.000000;1.013345
9747.000000;1.012096
9746.000000;1.010552
9745.000000;1.009001
9744.000000;1.008009
9743.000000;1.007999
9742.000000;1.008885
9741.000000;1.010144
9740.000000;1.011166
9739.000000;1.011533
9738.000000;1.011104
9737.000000;1.010084
9736.000000;1.009048
9735.000000;1.008669
9734.000000;1.009191
9733.000000;1.010183
9732.000000;1.010962
9731.000000;1.011215
9730.000000;1.011147
9729.000000;1.011126
9728.000000;1.011292
9727.000000;1.011441
9726.000000;1.011135
9725.000000;1.009972
9724.000000;1.007968
9723.000000;1.005725
9722.000000;1.004033
9721.000000;1.003179
9720.000000;1.002805
9719.000000;1.002470
9718.000000;1.002174
9717.000000;1.002204
9716.000000;1.002609
9715.000000;1.003019
9714.000000;1.003057
9713.000000;1.002795
9712.000000;1.002653
9711.000000;1.002860
9710.000000;1.003148
9709.000000;1.003090
9708.000000;1.002623
9707.000000;1.002071
9706.000000;1.001625
9705.000000;1.001061
9704.000000;1.000077
9703.000000;0.998741
9702.000000;0.997429
9701.000000;0.996430
9700.000000;0.995865
9699.000000;0.995905
9698.000000;0.996733
9697.000000;0.998175
9696.000000;0.999598
9695.000000;1.000334
9694.000000;1.000181
9693.000000;0.999392
9692.000000;0.998300
9691.000000;0.997118
9690.000000;0.995994
9689.000000;0.995031
9688.000000;0.994202
9687.000000;0.993411
9686.000000;0.992728
9685.000000;0.992438
9684.000000;0.992662
9683.000000;0.993006
9682.000000;0.992878
9681.000000;0.992239
9680.000000;0.991811
9679.000000;0.992328
9678.000000;0.993700
9677.000000;0.995146
9676.000000;0.996026
9675.000000;0.996245
9674.000000;0.995867
9673.000000;0.994817
9672.000000;0.993211
9671.000000;0.991640
9670.000000;0.990724
9669.000000;0.990509
9668.000000;0.990497
9667.000000;0.990167
9666.000000;0.989301
9665.000000;0.988053
9664.000000;0.987019
9663.000000;0.987002
9662.000000;0.988187
9661.000000;0.989551
9660.000000;0.989612
9659.000000;0.988012
9658.000000;0.985983
9657.000000;0.985100
9656.000000;0.985918
9655.000000;0.987858
9654.000000;0.989896
9653.000000;0.991084
9652.000000;0.990837
9651.000000;0.989302
9650.000000;0.987374
9649.000000;0.985940
9648.000000;0.985106
9647.000000;0.984406
9646.000000;0.983618
9645.000000;0.983022
9644.000000;0.982844
9643.000000;0.982822
9642.000000;0.982502
9641.000000;0.981798
9640.000000;0.981106
9639.000000;0.980883
9638.000000;0.981204
9637.000000;0.981736
9636.000000;0.982136
9635.000000;0.982424
9634.000000;0.982831
9633.000000;0.983294
9632.000000;0.983377
9631.000000;0.982904
9630.000000;0.982383
9629.000000;0.982437
9628.000000;0.982903
9627.000000;0.982904
9626.000000;0.981899
9625.000000;0.980345
9624.000000;0.979114
9623.000000;0.978530
9622.000000;0.978206
9621.000000;0.977689
9620.000000;0.976985
9619.000000;0.976423
9618.000000;0.976220
9617.000000;0.976301
9616.000000;0.976469
9615.000000;0.976577
9614.000000;0.976476
9613.000000;0.975906
9612.000000;0.974686
9611.000000;0.973105
9610.000000;0.971969
9609.000000;0.971981
9608.000000;0.973026
9607.000000;0.974167
9606.000000;0.974435
9605.000000;0.973636
9604.000000;0.972410
9603.000000;0.971572
9602.000000;0.971359
9601.000000;0.971243
9600.000000;0.970508
9599.000000;0.969112
9598.000000;0.967927
9597.000000;0.967930
9596.000000;0.969121
9595.000000;0.970439
9594.000000;0.970792
9593.000000;0.970041
9592.000000;0.968862
9591.000000;0.967827
9590.000000;0.966915
9589.000000;0.965946
9588.000000;0.965173
9587.000000;0.965117
9586.000000;0.965821
9585.000000;0.966559
9584.000000;0.966542
9583.000000;0.965824
9582.000000;0.965216
9581.000000;0.965288
9580.000000;0.965737
9579.000000;0.965815
9578.000000;0.965100
9577.000000;0.963681
9576.000000;0.961920
9575.000000;0.960410
9574.000000;0.959914
9573.000000;0.960827
9572.000000;0.962597
9571.000000;0.964023
9570.000000;0.964288
9569.000000;0.963531
9568.000000;0.962401
9567.000000;0.961419
9566.000000;0.960868
9565.000000;0.960870
9564.000000;0.961299
9563.000000;0.961811
9562.000000;0.962128
9561.000000;0.962189
9560.000000;0.961976
9559.000000;0.961399
9558.000000;0.960491
9557.000000;0.959539
9556.000000;0.958844
9555.000000;0.958525
9554.000000;0.958633
9553.000000;0.959178
9552.000000;0.959869
9551.000000;0.960099
9550.000000;0.959460
9549.000000;0.958162
9548.000000;0.956772
9547.000000;0.955677
9546.000000;0.954944
9545.000000;0.954440
9544.000000;0.953898
9543.000000;0.953098
9542.000000;0.952242
9541.000000;0.951879
9540.000000;0.952240
9539.000000;0.952939
9538.000000;0.953651
9537.000000;0.954668
9536.000000;0.956219
9535.000000;0.957597
9534.000000;0.957688
9533.000000;0.956349
9532.000000;0.954568
9531.000000;0.953191
9530.000000;0.952219
9529.000000;0.951505
9528.000000;0.951381
9527.000000;0.952054
9526.000000;0.952927
9525.000000;0.953165
9524.000000;0.952708
9523.000000;0.952148
9522.000000;0.951749
9521.000000;0.951180
9520.000000;0.950252
9519.000000;0.949399
9518.000000;0.949179
9517.000000;0.949584
9516.000000;0.950089
9515.000000;0.950223
9514.000000;0.949891
9513.000000;0.949226
9512.000000;0.948320
9511.000000;0.947182
9510.000000;0.945896
9509.000000;0.944717
9508.000000;0.943951
9507.000000;0.943717
9506.000000;0.943914
9505.000000;0.944452
9504.000000;0.945413
9503.000000;0.946824
9502.000000;0.948291
9501.000000;0.949109
9500.000000;0.948833
9499.000000;0.947675
9498.000000;0.946228
9497.000000;0.944908
9496.000000;0.943792
9495.000000;0.942944
9494.000000;0.942617
9493.000000;0.942976
9492.000000;0.943756
9491.000000;0.944458
9490.000000;0.944821
9489.000000;0.944896
9488.000000;0.944697
9487.000000;0.944134
9486.000000;0.943381
9485.000000;0.942939
9484.000000;0.943076
9483.000000;0.943393
9482.000000;0.943262
9481.000000;0.942569
9480.000000;0.941732
9479.000000;0.941110
9478.000000;0.940740
9477.000000;0.940584
9476.000000;0.940660
9475.000000;0.940865
9474.000000;0.940943
9473.000000;0.940757
9472.000000;0.940373
9471.000000;0.939835
9470.000000;0.939111
9469.000000;0.938356
9468.000000;0.937974
9467.000000;0.938271
9466.000000;0.939149
9465.000000;0.940215
9464.000000;0.941021
9463.000000;0.941212
9462.000000;0.940700
9461.000000;0.939793
9460.000000;0.938986
9459.000000;0.938545
9458.000000;0.938398
9457.000000;0.938411
9456.000000;0.938508
9455.000000;0.938522
9454.000000;0.938231
9453.000000;0.937656
9452.000000;0.937033
9451.000000;0.936373
9450.000000;0.935412
9449.000000;0.934191
9448.000000;0.933288
9447.000000;0.933134
9446.000000;0.933374
9445.000000;0.933286
9444.000000;0.932693
9443.000000;0.932084
9442.000000;0.931928
9441.000000;0.932238
9440.000000;0.932720
9439.000000;0.933063
9438.000000;0.933119
9437.000000;0.933018
9436.000000;0.933046
9435.000000;0.933176
9434.000000;0.932857
9433.000000;0.931601
9432.000000;0.929747
9431.000000;0.928286
9430.000000;0.927921
9429.000000;0.928555
9428.000000;0.929670
9427.000000;0.930780
9426.000000;0.931429
9425.000000;0.931191
9424.000000;0.930030
9423.000000;0.928513
9422.000000;0.927374
9421.000000;0.926885
9420.000000;0.926737
9419.000000;0.926478
9418.000000;0.925971
9417.000000;0.925481
9416.000000;0.925443
9415.000000;0.926087
9414.000000;0.927228
9413.000000;0.928389
9412.000000;0.929166
9411.000000;0.929455
9410.000000;0.929376
9409.000000;0.929092
9408.000000;0.928777
9407.000000;0.928605
9406.000000;0.928630
9405.000000;0.928666
9404.000000;0.928388
9403.000000;0.927571
9402.000000;0.926275
9401.000000;0.924852
9400.000000;0.923774
9399.000000;0.923346
9398.000000;0.923501
9397.000000;0.923892
9396.000000;0.924178
9395.000000;0.924229
9394.000000;0.924066
9393.000000;0.923762
9392.000000;0.923446
9391.000000;0.923238
9390.000000;0.923056
9389.000000;0.922561
9388.000000;0.921472
9387.000000;0.919974
9386.000000;0.918697
9385.000000;0.918201
9384.000000;0.918518
9383.000000;0.919236
9382.000000;0.919942
9381.000000;0.920516
9380.000000;0.921052
9379.000000;0.921589
9378.000000;0.921990
9377.000000;0.922030
9376.000000;0.921551
9375.000000;0.920632
9374.000000;0.919684
9373.000000;0.919218
9372.000000;0.919383
9371.000000;0.919804
9370.000000;0.919965
9369.000000;0.919704
9368.000000;0.919213
9367.000000;0.918666
9366.000000;0.918092
9365.000000;0.917605
9364.000000;0.917438
9363.000000;0.917625
9362.000000;0.917833
9361.000000;0.917724
9360.000000;0.917341
9359.000000;0.916928
9358.000000;0.916502
9357.000000;0.915855
9356.000000;0.914958
9355.000000;0.914145
9354.000000;0.913820
9353.000000;0.914072
9352.000000;0.914647
9351.000000;0.915206
9350.000000;0.915512
9349.000000;0.915380
9348.000000;0.914631
9347.000000;0.913297
9346.000000;0.911920
9345.000000;0.911326
9344.000000;0.911865
9343.000000;0.912969
9342.000000;0.913712
9341.000000;0.913782
9340.000000;0.913624
9339.000000;0.913620
9338.000000;0.913570
9337.000000;0.913190
9336.000000;0.912739
9335.000000;0.912755
9334.000000;0.913331
9333.000000;0.913956
9332.000000;0.914035
9331.000000;0.913351
9330.000000;0.912129
9329.000000;0.910902
9328.000000;0.910191
9327.000000;0.910038
9326.000000;0.909925
9325.000000;0.909429
9324.000000;0.908832
9323.000000;0.908737
9322.000000;0.909186
9321.000000;0.909582
9320.000000;0.909489
9319.000000;0.909104
9318.000000;0.908813
9317.000000;0.908709
9316.000000;0.908725
9315.000000;0.908890
9314.000000;0.909177
9313.000000;0.909383
9312.000000;0.909401
9311.000000;0.909387
9310.000000;0.909375
9309.000000;0.908992
9308.000000;0.907983
9307.000000;0.906915
9306.000000;0.906878
9305.000000;0.908309
9304.000000;0.910364
9303.000000;0.911608
9302.000000;0.911272
9301.000000;0.909716
9300.000000;0.907802
9299.000000;0.906131
9298.000000;0.904915
9297.000000;0.904264
9296.000000;0.904259
9295.000000;0.904663
9294.000000;0.904860
9293.000000;0.904356
9292.000000;0.903300
9291.000000;0.902341
9290.000000;0.902013
9289.000000;0.902369
9288.000000;0.903114
9287.000000;0.903831
9286.000000;0.904131
9285.000000;0.903874
9284.000000;0.903342
9283.000000;0.902961
9282.000000;0.902784
9281.000000;0.902488
9280.000000;0.901967
9279.000000;0.901621
9278.000000;0.901830
9277.000000;0.902400
9276.000000;0.902841
9275.000000;0.902983
9274.000000;0.902997
9273.000000;0.902942
9272.000000;0.902666
9271.000000;0.902131
9270.000000;0.901498
9269.000000;0.900878
9268.000000;0.900305
9267.000000;0.899984
9266.000000;0.900178
9265.000000;0.900707
9264.000000;0.900881
9263.000000;0.900210
9262.000000;0.899054
9261.000000;0.898294
9260.000000;0.898422
9259.000000;0.899116
9258.000000;0.899632
9257.000000;0.899457
9256.000000;0.898648
9255.000000;0.897758
9254.000000;0.897430
9253.000000;0.897860
9252.000000;0.898530
9251.000000;0.898578
9250.000000;0.897534
9249.000000;0.895730
9248.000000;0.893991
9247.000000;0.893016
9246.000000;0.893003
9245.000000;0.893653
9244.000000;0.894446
9243.000000;0.894996
9242.000000;0.895274
9241.000000;0.895508
9240.000000;0.895849
9239.000000;0.896197
9238.000000;0.896377
9237.000000;0.896354
9236.000000;0.896182
9235.000000;0.895863
9234.000000;0.895437
9233.000000;0.895128
9232.000000;0.895147
9231.000000;0.895314
9230.000000;0.895148
9229.000000;0.894439
9228.000000;0.893524
9227.000000;0.892819
9226.000000;0.892321
9225.000000;0.891800
9224.000000;0.891392
9223.000000;0.891616
9222.000000;0.892710
9221.000000;0.894167
9220.000000;0.895101
9219.000000;0.895029
9218.000000;0.894249
9217.000000;0.893506
9216.000000;0.893348
9215.000000;0.893731
9214.000000;0.894194
9213.000000;0.894378
9212.000000;0.894270
9211.000000;0.893899
9210.000000;0.893031
9209.000000;0.891491
9208.000000;0.889784
9207.000000;0.888981
9206.000000;0.889713
9205.000000;0.891443
9204.000000;0.892953
9203.000000;0.893506
9202.000000;0.893304
9201.000000;0.892904
9200.000000;0.892492
9199.000000;0.891867
9198.000000;0.890910
9197.000000;0.889868
9196.000000;0.889170
9195.000000;0.889060
9194.000000;0.889416
9193.000000;0.889871
9192.000000;0.890070
9191.000000;0.889843
9190.000000;0.889247
9189.000000;0.888544
9188.000000;0.888110
9187.000000;0.888187
9186.000000;0.888625
9185.000000;0.888965
9184.000000;0.888916
9183.000000;0.888689
9182.000000;0.888728
9181.000000;0.889108
9180.000000;0.889359
9179.000000;0.888934
9178.000000;0.887773
9177.000000;0.886377
9176.000000;0.885395
9175.000000;0.885169
9174.000000;0.885579
9173.000000;0.886212
9172.000000;0.886692
9171.000000;0.886910
9170.000000;0.886939
9169.000000;0.886797
9168.000000;0.886363
9167.000000;0.885560
9166.000000;0.884568
9165.000000;0.883798
9164.000000;0.883618
9163.000000;0.884104
9162.000000;0.884969
9161.000000;0.885707
9160.000000;0.885880
9159.000000;0.885403
9158.000000;0.884604
9157.000000;0.883996
9156.000000;0.883897
9155.000000;0.884210
9154.000000;0.884562
9153.000000;0.884686
9152.000000;0.884675
9151.000000;0.884824
9150.000000;0.885192
9149.000000;0.885422
9148.000000;0.885114
9147.000000;0.884370
9146.000000;0.883784
9145.000000;0.883793
9144.000000;0.884151
9143.000000;0.884198
9142.000000;0.883599
9141.000000;0.882618
9140.000000;0.881722
9139.000000;0.881178
9138.000000;0.881098
9137.000000;0.881533
9136.000000;0.882257
9135.000000;0.882635
9134.000000;0.882138
9133.000000;0.881056
9132.000000;0.880359
9131.000000;0.880639
9130.000000;0.881436
9129.000000;0.881772
9128.000000;0.881214
9127.000000;0.880198
9126.000000;0.879444
9125.000000;0.879324
9124.000000;0.879746
9123.000000;0.880341
9122.000000;0.880716
9121.000000;0.880708
9120.000000;0.880530
9119.000000;0.880556
9118.000000;0.880908
9117.000000;0.881365
9116.000000;0.881673
9115.000000;0.881773
9114.000000;0.881692
9113.000000;0.881438
9112.000000;0.881108
9111.000000;0.880882
9110.000000;0.880763
9109.000000;0.880514
9108.000000;0.880072
9107.000000;0.879783
9106.000000;0.879951
9105.000000;0.880272
9104.000000;0.880124
9103.000000;0.879434
9102.000000;0.878875
9101.000000;0.879032
9100.000000;0.879662
9099.000000;0.879989
9098.000000;0.879565
9097.000000;0.878636
9096.000000;0.877767
9095.000000;0.877328
9094.000000;0.877272
9093.000000;0.877224
9092.000000;0.876786
9091.000000;0.875902
9090.000000;0.874986
9089.000000;0.874597
9088.000000;0.874976
9087.000000;0.875909
9086.000000;0.876967
9085.000000;0.877772
9084.000000;0.878105
9083.000000;0.877924
9082.000000;0.877358
9081.000000;0.876650
9080.000000;0.876083
9079.000000;0.875930
9078.000000;0.876316
9077.000000;0.877048
9076.000000;0.877671
9075.000000;0.877859
9074.000000;0.877679
9073.000000;0.877328
9072.000000;0.876756
9071.000000;0.875839
9070.000000;0.874873
9069.000000;0.874478
9068.000000;0.874865
9067.000000;0.875474
9066.000000;0.875609
9065.000000;0.875226
9064.000000;0.874811
9063.000000;0.874636
9062.000000;0.874491
9061.000000;0.874159
9060.000000;0.873810
9059.000000;0.873744
9058.000000;0.873949
9057.000000;0.874100
9056.000000;0.873918
9055.000000;0.873396
9054.000000;0.872728
9053.000000;0.872133
