Criado como novo conjunto de dados;"e0108.spp","-4239162.4 Secs"
cm-1;Abs
10000.000000;0.987107
9999.000000;0.987512
9998.000000;0.987918
9997.000000;0.988323
9996.000000;0.988731
9995.000000;0.989135
9994.000000;0.989546
9993.000000;0.989946
9992.000000;0.990378
9991.000000;0.989935
9990.000000;0.988780
9989.000000;0.987452
9988.000000;0.986257
9987.000000;0.985205
9986.000000;0.984324
9985.000000;0.983880
9984.000000;0.984134
9983.000000;0.984912
9982.000000;0.985509
9981.000000;0.985181
9980.000000;0.983817
9979.000000;0.982095
9978.000000;0.980843
9977.000000;0.980289
9976.000000;0.980034
9975.000000;0.979644
9974.000000;0.979076
9973.000000;0.978498
9972.000000;0.977951
9971.000000;0.977393
9970.000000;0.976916
9969.000000;0.976717
9968.000000;0.976879
9967.000000;0.977309
9966.000000;0.977807
9965.000000;0.978037
9964.000000;0.977562
9963.000000;0.976245
9962.000000;0.974749
9961.000000;0.974289
9960.000000;0.975505
9959.000000;0.977582
9958.000000;0.978768
9957.000000;0.977989
9956.000000;0.975903
9955.000000;0.974117
9954.000000;0.973436
9953.000000;0.973182
9952.000000;0.972323
9951.000000;0.970881
9950.000000;0.969817
9949.000000;0.969639
9948.000000;0.969747
9947.000000;0.969331
9946.000000;0.968421
9945.000000;0.967641
9944.000000;0.967284
9943.000000;0.967178
9942.000000;0.967252
9941.000000;0.967583
9940.000000;0.967842
9939.000000;0.967351
9938.000000;0.965991
9937.000000;0.964611
9936.000000;0.964205
9935.000000;0.964944
9934.000000;0.966248
9933.000000;0.967424
9932.000000;0.967926
9931.000000;0.967404
9930.000000;0.965990
9929.000000;0.964433
9928.000000;0.963503
9927.000000;0.963244
9926.000000;0.963056
9925.000000;0.962434
9924.000000;0.961406
9923.000000;0.960307
9922.000000;0.959404
9921.000000;0.958802
9920.000000;0.958456
9919.000000;0.958266
9918.000000;0.958267
9917.000000;0.958626
9916.000000;0.959316
9915.000000;0.959891
9914.000000;0.959839
9913.000000;0.959121
9912.000000;0.958135
9911.000000;0.957193
9910.000000;0.956303
9909.000000;0.955527
9908.000000;0.955290
9907.000000;0.956050
9906.000000;0.957655
9905.000000;0.959165
9904.000000;0.959482
9903.000000;0.958315
9902.000000;0.956451
9901.000000;0.954939
9900.000000;0.954122
9899.000000;0.953640
9898.000000;0.953236
9897.000000;0.953086
9896.000000;0.953189
9895.000000;0.952863
9894.000000;0.951353
9893.000000;0.948884
9892.000000;0.946733
9891.000000;0.946159
9890.000000;0.947374
9889.000000;0.949417
9888.000000;0.950884
9887.000000;0.950917
9886.000000;0.949753
9885.000000;0.948319
9884.000000;0.947277
9883.000000;0.946542
9882.000000;0.945750
9881.000000;0.944886
9880.000000;0.944219
9879.000000;0.943891
9878.000000;0.943912
9877.000000;0.944324
9876.000000;0.945015
9875.000000;0.945507
9874.000000;0.945333
9873.000000;0.944617
9872.000000;0.943937
9871.000000;0.943672
9870.000000;0.943761
9869.000000;0.944011
9868.000000;0.944267
9867.000000;0.944307
9866.000000;0.943922
9865.000000;0.943131
9864.000000;0.942096
9863.000000;0.940899
9862.000000;0.939722
9861.000000;0.939064
9860.000000;0.939294
9859.000000;0.940017
9858.000000;0.940409
9857.000000;0.940232
9856.000000;0.940021
9855.000000;0.940162
9854.000000;0.940330
9853.000000;0.940067
9852.000000;0.939459
9851.000000;0.938896
9850.000000;0.938499
9849.000000;0.938091
9848.000000;0.937516
9847.000000;0.936743
9846.000000;0.935852
9845.000000;0.935154
9844.000000;0.935112
9843.000000;0.935863
9842.000000;0.936888
9841.000000;0.937336
9840.000000;0.936710
9839.000000;0.935274
9838.000000;0.933928
9837.000000;0.933620
9836.000000;0.934522
9835.000000;0.935704
9834.000000;0.935924
9833.000000;0.934847
9832.000000;0.933214
9831.000000;0.931879
9830.000000;0.931145
9829.000000;0.931065
9828.000000;0.931766
9827.000000;0.933063
9826.000000;0.934180
9825.000000;0.934361
9824.000000;0.933576
9823.000000;0.932320
9822.000000;0.930911
9821.000000;0.929388
9820.000000;0.927925
9819.000000;0.926897
9818.000000;0.926473
9817.000000;0.926374
9816.000000;0.926045
9815.000000;0.925027
9814.000000;0.923393
9813.000000;0.921935
9812.000000;0.921636
9811.000000;0.922723
9810.000000;0.924405
9809.000000;0.925724
9808.000000;0.926406
9807.000000;0.926670
9806.000000;0.926577
9805.000000;0.926037
9804.000000;0.925213
9803.000000;0.924379
9802.000000;0.923477
9801.000000;0.922293
9800.000000;0.921034
9799.000000;0.920236
9798.000000;0.920056
9797.000000;0.920110
9796.000000;0.920107
9795.000000;0.920240
9794.000000;0.920717
9793.000000;0.921262
9792.000000;0.921377
9791.000000;0.920907
9790.000000;0.920119
9789.000000;0.919355
9788.000000;0.918784
9787.000000;0.918392
9786.000000;0.918017
9785.000000;0.917405
9784.000000;0.916358
9783.000000;0.914906
9782.000000;0.913388
9781.000000;0.912351
9780.000000;0.912184
9779.000000;0.912745
9778.000000;0.913410
9777.000000;0.913654
9776.000000;0.913572
9775.000000;0.913680
9774.000000;0.914212
9773.000000;0.914853
9772.000000;0.915212
9771.000000;0.915277
9770.000000;0.915256
9769.000000;0.915094
9768.000000;0.914392
9767.000000;0.912929
9766.000000;0.911161
9765.000000;0.909986
9764.000000;0.909891
9763.000000;0.910379
9762.000000;0.910403
9761.000000;0.909416
9760.000000;0.907857
9759.000000;0.906556
9758.000000;0.905902
9757.000000;0.905709
9756.000000;0.905657
9755.000000;0.905587
9754.000000;0.905446
9753.000000;0.905222
9752.000000;0.905044
9751.000000;0.905226
9750.000000;0.906069
9749.000000;0.907479
9748.000000;0.908738
9747.000000;0.908849
9746.000000;0.907456
9745.000000;0.905415
9744.000000;0.904161
9743.000000;0.904439
9742.000000;0.905767
9741.000000;0.907075
9740.000000;0.907555
9739.000000;0.906848
9738.000000;0.904958
9737.000000;0.902429
9736.000000;0.900311
9735.000000;0.899402
9734.000000;0.899580
9733.000000;0.900190
9732.000000;0.900902
9731.000000;0.901737
9730.000000;0.902427
9729.000000;0.902418
9728.000000;0.901618
9727.000000;0.900574
9726.000000;0.899722
9725.000000;0.898937
9724.000000;0.898087
9723.000000;0.897548
9722.000000;0.897732
9721.000000;0.898383
9720.000000;0.898773
9719.000000;0.898513
9718.000000;0.897905
9717.000000;0.897528
9716.000000;0.897710
9715.000000;0.898273
9714.000000;0.898614
9713.000000;0.898171
9712.000000;0.897038
9711.000000;0.896015
9710.000000;0.895838
9709.000000;0.896423
9708.000000;0.897044
9707.000000;0.897148
9706.000000;0.896760
9705.000000;0.896185
9704.000000;0.895622
9703.000000;0.895079
9702.000000;0.894457
9701.000000;0.893652
9700.000000;0.892729
9699.000000;0.891990
9698.000000;0.891671
9697.000000;0.891564
9696.000000;0.891245
9695.000000;0.890782
9694.000000;0.890885
9693.000000;0.892055
9692.000000;0.893721
9691.000000;0.894545
9690.000000;0.893665
9689.000000;0.891539
9688.000000;0.889511
9687.000000;0.888665
9686.000000;0.889111
9685.000000;0.890144
9684.000000;0.890929
9683.000000;0.891074
9682.000000;0.890705
9681.000000;0.890069
9680.000000;0.889193
9679.000000;0.887994
9678.000000;0.886663
9677.000000;0.885747
9676.000000;0.885712
9675.000000;0.886448
9674.000000;0.887281
9673.000000;0.887518
9672.000000;0.886976
9671.000000;0.886049
9670.000000;0.885329
9669.000000;0.885106
9668.000000;0.885207
9667.000000;0.885291
9666.000000;0.885261
9665.000000;0.885266
9664.000000;0.885290
9663.000000;0.884926
9662.000000;0.883755
9661.000000;0.881920
9660.000000;0.880151
9659.000000;0.879148
9658.000000;0.879018
9657.000000;0.879350
9656.000000;0.879683
9655.000000;0.879825
9654.000000;0.879822
9653.000000;0.879763
9652.000000;0.879691
9651.000000;0.879602
9650.000000;0.879437
9649.000000;0.879071
9648.000000;0.878392
9647.000000;0.877451
9646.000000;0.876505
9645.000000;0.875850
9644.000000;0.875605
9643.000000;0.875712
9642.000000;0.876081
9641.000000;0.876579
9640.000000;0.876909
9639.000000;0.876759
9638.000000;0.876192
9637.000000;0.875674
9636.000000;0.875520
9635.000000;0.875458
9634.000000;0.874950
9633.000000;0.873846
9632.000000;0.872491
9631.000000;0.871272
9630.000000;0.870400
9629.000000;0.870095
9628.000000;0.870569
9627.000000;0.871633
9626.000000;0.872621
9625.000000;0.873006
9624.000000;0.872968
9623.000000;0.873070
9622.000000;0.873437
9621.000000;0.873557
9620.000000;0.872928
9619.000000;0.871697
9618.000000;0.870545
9617.000000;0.870037
9616.000000;0.870121
9615.000000;0.870240
9614.000000;0.869862
9613.000000;0.868936
9612.000000;0.867826
9611.000000;0.866811
9610.000000;0.865793
9609.000000;0.864615
9608.000000;0.863553
9607.000000;0.863277
9606.000000;0.864282
9605.000000;0.866374
9604.000000;0.868712
9603.000000;0.870301
9602.000000;0.870539
9601.000000;0.869471
9600.000000;0.867700
9599.000000;0.866063
9598.000000;0.865228
9597.000000;0.865341
9596.000000;0.865913
9595.000000;0.866102
9594.000000;0.865333
9593.000000;0.863809
9592.000000;0.862401
9591.000000;0.861921
9590.000000;0.862423
9589.000000;0.863184
9588.000000;0.863348
9587.000000;0.862596
9586.000000;0.861276
9585.000000;0.860045
9584.000000;0.859467
9583.000000;0.859806
9582.000000;0.860908
9581.000000;0.862138
9580.000000;0.862680
9579.000000;0.862183
9578.000000;0.861122
9577.000000;0.860283
9576.000000;0.859887
9575.000000;0.859469
9574.000000;0.858698
9573.000000;0.858001
9572.000000;0.858069
9571.000000;0.858941
9570.000000;0.859914
9569.000000;0.860314
9568.000000;0.860025
9567.000000;0.859242
9566.000000;0.858041
9565.000000;0.856462
9564.000000;0.854843
9563.000000;0.853811
9562.000000;0.853847
9561.000000;0.854839
9560.000000;0.856039
9559.000000;0.856559
9558.000000;0.856058
9557.000000;0.854956
9556.000000;0.853913
9555.000000;0.853207
9554.000000;0.852709
9553.000000;0.852306
9552.000000;0.852095
9551.000000;0.852174
9550.000000;0.852500
9549.000000;0.852954
9548.000000;0.853328
9547.000000;0.853275
9546.000000;0.852584
9545.000000;0.851531
9544.000000;0.850665
9543.000000;0.850169
9542.000000;0.849735
9541.000000;0.849145
9540.000000;0.848619
9539.000000;0.848395
9538.000000;0.848345
9537.000000;0.848302
9536.000000;0.848459
9535.000000;0.849069
9534.000000;0.849946
9533.000000;0.850607
9532.000000;0.850801
9531.000000;0.850550
9530.000000;0.849823
9529.000000;0.848612
9528.000000;0.847294
9527.000000;0.846472
9526.000000;0.846322
9525.000000;0.846401
9524.000000;0.846247
9523.000000;0.845871
9522.000000;0.845491
9521.000000;0.845055
9520.000000;0.844298
9519.000000;0.843159
9518.000000;0.841956
9517.000000;0.841185
9516.000000;0.841248
9515.000000;0.842237
9514.000000;0.843767
9513.000000;0.845075
9512.000000;0.845525
9511.000000;0.845087
9510.000000;0.844278
9509.000000;0.843640
9508.000000;0.843343
9507.000000;0.843215
9506.000000;0.843020
9505.000000;0.842680
9504.000000;0.842315
9503.000000;0.842093
9502.000000;0.842031
9501.000000;0.841987
9500.000000;0.841881
9499.000000;0.841829
9498.000000;0.841909
9497.000000;0.841836
9496.000000;0.841093
9495.000000;0.839514
9494.000000;0.837622
9493.000000;0.836217
9492.000000;0.835681
9491.000000;0.835825
9490.000000;0.836332
9489.000000;0.837061
9488.000000;0.837847
9487.000000;0.838314
9486.000000;0.838222
9485.000000;0.837894
9484.000000;0.837967
9483.000000;0.838635
9482.000000;0.839353
9481.000000;0.839436
9480.000000;0.838776
9479.000000;0.837832
9478.000000;0.837011
9477.000000;0.836278
9476.000000;0.835388
9475.000000;0.834331
9474.000000;0.833425
9473.000000;0.832972
9472.000000;0.832888
9471.000000;0.832761
9470.000000;0.832292
9469.000000;0.831609
9468.000000;0.831117
9467.000000;0.831088
9466.000000;0.831488
9465.000000;0.832108
9464.000000;0.832726
9463.000000;0.833125
9462.000000;0.833181
9461.000000;0.833029
9460.000000;0.833018
9459.000000;0.833369
9458.000000;0.833927
9457.000000;0.834314
9456.000000;0.834255
9455.000000;0.833709
9454.000000;0.832813
9453.000000;0.831845
9452.000000;0.831158
9451.000000;0.830927
9450.000000;0.830925
9449.000000;0.830736
9448.000000;0.830280
9447.000000;0.829959
9446.000000;0.830090
9445.000000;0.830367
9444.000000;0.830161
9443.000000;0.829365
9442.000000;0.828549
9441.000000;0.828152
9440.000000;0.827862
9439.000000;0.827152
9438.000000;0.826188
9437.000000;0.825711
9436.000000;0.826022
9435.000000;0.826615
9434.000000;0.826906
9433.000000;0.826845
9432.000000;0.826564
9431.000000;0.825944
9430.000000;0.824964
9429.000000;0.824106
9428.000000;0.823835
9427.000000;0.823921
9426.000000;0.823828
9425.000000;0.823616
9424.000000;0.823795
9423.000000;0.824312
9422.000000;0.824373
9421.000000;0.823512
9420.000000;0.822260
9419.000000;0.821440
9418.000000;0.821227
9417.000000;0.821265
9416.000000;0.821341
9415.000000;0.821493
9414.000000;0.821672
9413.000000;0.821699
9412.000000;0.821509
9411.000000;0.821171
9410.000000;0.820735
9409.000000;0.820261
9408.000000;0.819903
9407.000000;0.819842
9406.000000;0.820167
9405.000000;0.820851
9404.000000;0.821672
9403.000000;0.822126
9402.000000;0.821733
9401.000000;0.820598
9400.000000;0.819445
9399.000000;0.818870
9398.000000;0.818763
9397.000000;0.818627
9396.000000;0.818247
9395.000000;0.817807
9394.000000;0.817602
9393.000000;0.817860
9392.000000;0.818621
9391.000000;0.819502
9390.000000;0.819830
9389.000000;0.819347
9388.000000;0.818616
9387.000000;0.818367
9386.000000;0.818636
9385.000000;0.818870
9384.000000;0.818704
9383.000000;0.818197
9382.000000;0.817453
9381.000000;0.816542
9380.000000;0.815823
9379.000000;0.815782
9378.000000;0.816380
9377.000000;0.816932
9376.000000;0.816864
9375.000000;0.816321
9374.000000;0.815849
9373.000000;0.815721
9372.000000;0.815787
9371.000000;0.815771
9370.000000;0.815534
9369.000000;0.815150
9368.000000;0.814876
9367.000000;0.814915
9366.000000;0.815108
9365.000000;0.815000
9364.000000;0.814312
9363.000000;0.813281
9362.000000;0.812407
9361.000000;0.811981
9360.000000;0.811892
9359.000000;0.811824
9358.000000;0.811529
9357.000000;0.811014
9356.000000;0.810512
9355.000000;0.810264
9354.000000;0.810339
9353.000000;0.810683
9352.000000;0.811223
9351.000000;0.811748
9350.000000;0.811807
9349.000000;0.811025
9348.000000;0.809572
9347.000000;0.808074
9346.000000;0.806992
9345.000000;0.806335
9344.000000;0.806045
9343.000000;0.806296
9342.000000;0.807121
9341.000000;0.807988
9340.000000;0.808138
9339.000000;0.807376
9338.000000;0.806263
9337.000000;0.805470
9336.000000;0.805174
9335.000000;0.805154
9334.000000;0.805246
9333.000000;0.805498
9332.000000;0.805936
9331.000000;0.806391
9330.000000;0.806657
9329.000000;0.806745
9328.000000;0.806838
9327.000000;0.806968
9326.000000;0.806860
9325.000000;0.806236
9324.000000;0.805226
9323.000000;0.804346
9322.000000;0.804014
9321.000000;0.804153
9320.000000;0.804317
9319.000000;0.804154
9318.000000;0.803718
9317.000000;0.803344
9316.000000;0.803275
9315.000000;0.803397
9314.000000;0.803314
9313.000000;0.802702
9312.000000;0.801629
9311.000000;0.800545
9310.000000;0.799933
9309.000000;0.799943
9308.000000;0.800337
9307.000000;0.800796
9306.000000;0.801265
9305.000000;0.801953
9304.000000;0.802951
9303.000000;0.803907
9302.000000;0.804235
9301.000000;0.803651
9300.000000;0.802437
9299.000000;0.801138
9298.000000;0.800140
9297.000000;0.799540
9296.000000;0.799287
9295.000000;0.799306
9294.000000;0.799538
9293.000000;0.799928
9292.000000;0.800314
9291.000000;0.800324
9290.000000;0.799582
9289.000000;0.798165
9288.000000;0.796727
9287.000000;0.795999
9286.000000;0.796189
9285.000000;0.796951
9284.000000;0.797795
9283.000000;0.798413
9282.000000;0.798713
9281.000000;0.798724
9280.000000;0.798449
9279.000000;0.797757
9278.000000;0.796521
9277.000000;0.795004
9276.000000;0.793886
9275.000000;0.793652
9274.000000;0.794061
9273.000000;0.794494
9272.000000;0.794757
9271.000000;0.795172
9270.000000;0.795888
9269.000000;0.796530
9268.000000;0.796685
9267.000000;0.796374
9266.000000;0.795778
9265.000000;0.794812
9264.000000;0.793377
9263.000000;0.791916
9262.000000;0.791295
9261.000000;0.791962
9260.000000;0.793429
9259.000000;0.794710
9258.000000;0.795188
9257.000000;0.794968
9256.000000;0.794478
9255.000000;0.793949
9254.000000;0.793334
9253.000000;0.792591
9252.000000;0.791825
9251.000000;0.791158
9250.000000;0.790632
9249.000000;0.790298
9248.000000;0.790221
9247.000000;0.790243
9246.000000;0.789964
9245.000000;0.789217
9244.000000;0.788504
9243.000000;0.788621
9242.000000;0.789786
9241.000000;0.791359
9240.000000;0.792495
9239.000000;0.792862
9238.000000;0.792695
9237.000000;0.792385
9236.000000;0.792210
9235.000000;0.792267
9234.000000;0.792430
9233.000000;0.792430
9232.000000;0.792097
9231.000000;0.791538
9230.000000;0.791003
9229.000000;0.790650
9228.000000;0.790441
9227.000000;0.790210
9226.000000;0.789792
9225.000000;0.789181
9224.000000;0.788607
9223.000000;0.788337
9222.000000;0.788365
9221.000000;0.788438
9220.000000;0.788382
9219.000000;0.788263
9218.000000;0.788186
9217.000000;0.788157
9216.000000;0.788244
9215.000000;0.788628
9214.000000;0.789294
9213.000000;0.789820
9212.000000;0.789738
9211.000000;0.789029
9210.000000;0.788090
9209.000000;0.787287
9208.000000;0.786718
9207.000000;0.786331
9206.000000;0.786042
9205.000000;0.785753
9204.000000;0.785454
9203.000000;0.785316
9202.000000;0.785533
9201.000000;0.786033
9200.000000;0.786495
9199.000000;0.786679
9198.000000;0.786610
9197.000000;0.786403
9196.000000;0.786074
9195.000000;0.785618
9194.000000;0.785193
9193.000000;0.785074
9192.000000;0.785397
9191.000000;0.785982
9190.000000;0.786446
9189.000000;0.786539
9188.000000;0.786312
9187.000000;0.785890
9186.000000;0.785148
9185.000000;0.783861
9184.000000;0.782231
9183.000000;0.780999
9182.000000;0.780763
9181.000000;0.781290
9180.000000;0.781782
9179.000000;0.781753
9178.000000;0.781403
9177.000000;0.781137
9176.000000;0.781065
9175.000000;0.781115
9174.000000;0.781374
9173.000000;0.782026
9172.000000;0.783003
9171.000000;0.783877
9170.000000;0.784139
9169.000000;0.783566
9168.000000;0.782384
9167.000000;0.781158
9166.000000;0.780449
9165.000000;0.780478
9164.000000;0.781066
9163.000000;0.781863
9162.000000;0.782591
9161.000000;0.783074
9160.000000;0.783203
9159.000000;0.782962
9158.000000;0.782476
9157.000000;0.781905
9156.000000;0.781337
9155.000000;0.780794
9154.000000;0.780349
9153.000000;0.780114
9152.000000;0.780111
9151.000000;0.780198
9150.000000;0.780201
9149.000000;0.780122
9148.000000;0.780139
9147.000000;0.780340
9146.000000;0.780526
9145.000000;0.780428
9144.000000;0.780123
9143.000000;0.780000
9142.000000;0.780220
9141.000000;0.780403
9140.000000;0.780124
9139.000000;0.779569
9138.000000;0.779342
9137.000000;0.779612
9136.000000;0.779833
9135.000000;0.779480
9134.000000;0.778751
9133.000000;0.778249
9132.000000;0.778154
9131.000000;0.778031
9130.000000;0.777404
9129.000000;0.776284
9128.000000;0.775115
9127.000000;0.774404
9126.000000;0.774399
9125.000000;0.774920
9124.000000;0.775457
9123.000000;0.775592
9122.000000;0.775394
9121.000000;0.775287
9120.000000;0.775519
9119.000000;0.775895
9118.000000;0.776041
9117.000000;0.775809
9116.000000;0.775344
9115.000000;0.774926
9114.000000;0.774815
9113.000000;0.775132
9112.000000;0.775727
9111.000000;0.776191
9110.000000;0.776114
9109.000000;0.775396
9108.000000;0.774315
9107.000000;0.773321
9106.000000;0.772748
9105.000000;0.772629
9104.000000;0.772717
9103.000000;0.772746
9102.000000;0.772684
9101.000000;0.772676
9100.000000;0.772775
9099.000000;0.772883
9098.000000;0.772976
9097.000000;0.773193
9096.000000;0.773564
9095.000000;0.773807
9094.000000;0.773577
9093.000000;0.772869
9092.000000;0.771997
9091.000000;0.771254
9090.000000;0.770726
9089.000000;0.770417
9088.000000;0.770358
9087.000000;0.770545
9086.000000;0.770903
9085.000000;0.771326
9084.000000;0.771654
9083.000000;0.771658
9082.000000;0.771213
9081.000000;0.770533
9080.000000;0.770065
9079.000000;0.770080
9078.000000;0.770473
9077.000000;0.771029
9076.000000;0.771649
9075.000000;0.772218
9074.000000;0.772450
9073.000000;0.772141
9072.000000;0.771533
9071.000000;0.771161
9070.000000;0.771298
9069.000000;0.771705
9068.000000;0.771949
9067.000000;0.771830
9066.000000;0.771431
9065.000000;0.770897
9064.000000;0.770317
9063.000000;0.769762
9062.000000;0.769314
9061.000000;0.769021
9060.000000;0.768863
9059.000000;0.768784
9058.000000;0.768764
9057.000000;0.768881
9056.000000;0.769231
9055.000000;0.769724
9054.000000;0.770014
9053.000000;0.769762
