Criado como novo conjunto de dados;"e0108.spp","-4291545.1 Secs"
cm-1;Abs
10000.000000;0.413079
9999.000000;0.413001
9998.000000;0.412924
9997.000000;0.412846
9996.000000;0.412769
9995.000000;0.412690
9994.000000;0.412614
9993.000000;0.412533
9992.000000;0.412467
9991.000000;0.411983
9990.000000;0.411134
9989.000000;0.410182
9988.000000;0.409450
9987.000000;0.409184
9986.000000;0.409266
9985.000000;0.409228
9984.000000;0.408750
9983.000000;0.408023
9982.000000;0.407441
9981.000000;0.407116
9980.000000;0.406921
9979.000000;0.406829
9978.000000;0.406909
9977.000000;0.407079
9976.000000;0.407171
9975.000000;0.407219
9974.000000;0.407383
9973.000000;0.407564
9972.000000;0.407380
9971.000000;0.406626
9970.000000;0.405573
9969.000000;0.404698
9968.000000;0.404247
9967.000000;0.404145
9966.000000;0.404188
9965.000000;0.404216
9964.000000;0.404169
9963.000000;0.404083
9962.000000;0.404024
9961.000000;0.403976
9960.000000;0.403800
9959.000000;0.403310
9958.000000;0.402417
9957.000000;0.401260
9956.000000;0.400246
9955.000000;0.399811
9954.000000;0.399981
9953.000000;0.400205
9952.000000;0.399803
9951.000000;0.398647
9950.000000;0.397299
9949.000000;0.396473
9948.000000;0.396408
9947.000000;0.396772
9946.000000;0.397039
9945.000000;0.396895
9944.000000;0.396410
9943.000000;0.395908
9942.000000;0.395652
9941.000000;0.395571
9940.000000;0.395339
9939.000000;0.394777
9938.000000;0.394153
9937.000000;0.393970
9936.000000;0.394431
9935.000000;0.395178
9934.000000;0.395585
9933.000000;0.395298
9932.000000;0.394483
9931.000000;0.393600
9930.000000;0.392991
9929.000000;0.392642
9928.000000;0.392297
9927.000000;0.391788
9926.000000;0.391211
9925.000000;0.390765
9924.000000;0.390420
9923.000000;0.389888
9922.000000;0.389017
9921.000000;0.388106
9920.000000;0.387632
9919.000000;0.387697
9918.000000;0.387957
9917.000000;0.388154
9916.000000;0.388466
9915.000000;0.389139
9914.000000;0.389954
9913.000000;0.390293
9912.000000;0.389723
9911.000000;0.388346
9910.000000;0.386601
9909.000000;0.384940
9908.000000;0.383709
9907.000000;0.383107
9906.000000;0.383097
9905.000000;0.383403
9904.000000;0.383678
9903.000000;0.383694
9902.000000;0.383376
9901.000000;0.382771
9900.000000;0.382031
9899.000000;0.381398
9898.000000;0.381110
9897.000000;0.381235
9896.000000;0.381561
9895.000000;0.381694
9894.000000;0.381362
9893.000000;0.380656
9892.000000;0.379915
9891.000000;0.379351
9890.000000;0.378917
9889.000000;0.378552
9888.000000;0.378350
9887.000000;0.378377
9886.000000;0.378436
9885.000000;0.378215
9884.000000;0.377614
9883.000000;0.376798
9882.000000;0.376003
9881.000000;0.375397
9880.000000;0.375040
9879.000000;0.374820
9878.000000;0.374511
9877.000000;0.374069
9876.000000;0.373748
9875.000000;0.373766
9874.000000;0.373939
9873.000000;0.373890
9872.000000;0.373563
9871.000000;0.373255
9870.000000;0.373141
9869.000000;0.373035
9868.000000;0.372650
9867.000000;0.371884
9866.000000;0.370869
9865.000000;0.369930
9864.000000;0.369469
9863.000000;0.369622
9862.000000;0.369992
9861.000000;0.370001
9860.000000;0.369523
9859.000000;0.368923
9858.000000;0.368466
9857.000000;0.368049
9856.000000;0.367593
9855.000000;0.367295
9854.000000;0.367254
9853.000000;0.367189
9852.000000;0.366840
9851.000000;0.366397
9850.000000;0.366200
9849.000000;0.366208
9848.000000;0.366094
9847.000000;0.365758
9846.000000;0.365380
9845.000000;0.365024
9844.000000;0.364548
9843.000000;0.363937
9842.000000;0.363425
9841.000000;0.363137
9840.000000;0.362890
9839.000000;0.362476
9838.000000;0.361981
9837.000000;0.361685
9836.000000;0.361740
9835.000000;0.362035
9834.000000;0.362276
9833.000000;0.362117
9832.000000;0.361319
9831.000000;0.360025
9830.000000;0.358868
9829.000000;0.358582
9828.000000;0.359298
9827.000000;0.360308
9826.000000;0.360667
9825.000000;0.360089
9824.000000;0.359116
9823.000000;0.358406
9822.000000;0.358051
9821.000000;0.357721
9820.000000;0.357236
9819.000000;0.356736
9818.000000;0.356348
9817.000000;0.356010
9816.000000;0.355677
9815.000000;0.355428
9814.000000;0.355288
9813.000000;0.355140
9812.000000;0.354933
9811.000000;0.354773
9810.000000;0.354699
9809.000000;0.354544
9808.000000;0.354197
9807.000000;0.353829
9806.000000;0.353666
9805.000000;0.353645
9804.000000;0.353472
9803.000000;0.352972
9802.000000;0.352220
9801.000000;0.351383
9800.000000;0.350598
9799.000000;0.349967
9798.000000;0.349494
9797.000000;0.349066
9796.000000;0.348634
9795.000000;0.348393
9794.000000;0.348581
9793.000000;0.349079
9792.000000;0.349383
9791.000000;0.349090
9790.000000;0.348331
9789.000000;0.347656
9788.000000;0.347516
9787.000000;0.347890
9786.000000;0.348368
9785.000000;0.348527
9784.000000;0.348212
9783.000000;0.347531
9782.000000;0.346672
9781.000000;0.345825
9780.000000;0.345165
9779.000000;0.344769
9778.000000;0.344517
9777.000000;0.344217
9776.000000;0.343868
9775.000000;0.343679
9774.000000;0.343759
9773.000000;0.343917
9772.000000;0.343908
9771.000000;0.343729
9770.000000;0.343505
9769.000000;0.343183
9768.000000;0.342581
9767.000000;0.341731
9766.000000;0.340971
9765.000000;0.340589
9764.000000;0.340521
9763.000000;0.340499
9762.000000;0.340360
9761.000000;0.340105
9760.000000;0.339754
9759.000000;0.339310
9758.000000;0.338865
9757.000000;0.338580
9756.000000;0.338459
9755.000000;0.338276
9754.000000;0.337827
9753.000000;0.337220
9752.000000;0.336761
9751.000000;0.336561
9750.000000;0.336378
9749.000000;0.335906
9748.000000;0.335137
9747.000000;0.334338
9746.000000;0.333761
9745.000000;0.333466
9744.000000;0.333362
9743.000000;0.333314
9742.000000;0.333262
9741.000000;0.333292
9740.000000;0.333524
9739.000000;0.333849
9738.000000;0.333891
9737.000000;0.333406
9736.000000;0.332623
9735.000000;0.332002
9734.000000;0.331688
9733.000000;0.331441
9732.000000;0.331071
9731.000000;0.330673
9730.000000;0.330378
9729.000000;0.330144
9728.000000;0.329910
9727.000000;0.329719
9726.000000;0.329542
9725.000000;0.329192
9724.000000;0.328571
9723.000000;0.327843
9722.000000;0.327176
9721.000000;0.326507
9720.000000;0.325789
9719.000000;0.325314
9718.000000;0.325487
9717.000000;0.326274
9716.000000;0.327119
9715.000000;0.327435
9714.000000;0.327042
9713.000000;0.326185
9712.000000;0.325316
9711.000000;0.324866
9710.000000;0.324990
9709.000000;0.325419
9708.000000;0.325695
9707.000000;0.325607
9706.000000;0.325329
9705.000000;0.325103
9704.000000;0.324912
9703.000000;0.324522
9702.000000;0.323778
9701.000000;0.322843
9700.000000;0.322151
9699.000000;0.322075
9698.000000;0.322530
9697.000000;0.322951
9696.000000;0.322836
9695.000000;0.322311
9694.000000;0.321960
9693.000000;0.322078
9692.000000;0.322300
9691.000000;0.322078
9690.000000;0.321326
9689.000000;0.320387
9688.000000;0.319514
9687.000000;0.318666
9686.000000;0.317815
9685.000000;0.317171
9684.000000;0.316943
9683.000000;0.317026
9682.000000;0.317118
9681.000000;0.317082
9680.000000;0.317021
9679.000000;0.317002
9678.000000;0.316905
9677.000000;0.316616
9676.000000;0.316231
9675.000000;0.315895
9674.000000;0.315549
9673.000000;0.315020
9672.000000;0.314369
9671.000000;0.313952
9670.000000;0.314030
9669.000000;0.314422
9668.000000;0.314675
9667.000000;0.314539
9666.000000;0.314153
9665.000000;0.313782
9664.000000;0.313482
9663.000000;0.313104
9662.000000;0.312531
9661.000000;0.311838
9660.000000;0.311184
9659.000000;0.310626
9658.000000;0.310104
9657.000000;0.309622
9656.000000;0.309320
9655.000000;0.309288
9654.000000;0.309377
9653.000000;0.309350
9652.000000;0.309183
9651.000000;0.309057
9650.000000;0.309004
9649.000000;0.308779
9648.000000;0.308221
9647.000000;0.307600
9646.000000;0.307373
9645.000000;0.307631
9644.000000;0.307989
9643.000000;0.308036
9642.000000;0.307719
9641.000000;0.307227
9640.000000;0.306678
9639.000000;0.306079
9638.000000;0.305508
9637.000000;0.305134
9636.000000;0.305022
9635.000000;0.305033
9634.000000;0.304944
9633.000000;0.304643
9632.000000;0.304160
9631.000000;0.303609
9630.000000;0.303122
9629.000000;0.302801
9628.000000;0.302619
9627.000000;0.302382
9626.000000;0.301899
9625.000000;0.301208
9624.000000;0.300586
9623.000000;0.300268
9622.000000;0.300223
9621.000000;0.300266
9620.000000;0.300310
9619.000000;0.300398
9618.000000;0.300523
9617.000000;0.300557
9616.000000;0.300411
9615.000000;0.300143
9614.000000;0.299841
9613.000000;0.299494
9612.000000;0.299045
9611.000000;0.298520
9610.000000;0.298009
9609.000000;0.297569
9608.000000;0.297253
9607.000000;0.297214
9606.000000;0.297639
9605.000000;0.298474
9604.000000;0.299269
9603.000000;0.299404
9602.000000;0.298563
9601.000000;0.297010
9600.000000;0.295400
9599.000000;0.294320
9598.000000;0.293974
9597.000000;0.294187
9596.000000;0.294588
9595.000000;0.294812
9594.000000;0.294659
9593.000000;0.294201
9592.000000;0.293706
9591.000000;0.293390
9590.000000;0.293238
9589.000000;0.293099
9588.000000;0.292874
9587.000000;0.292548
9586.000000;0.292123
9585.000000;0.291650
9584.000000;0.291292
9583.000000;0.291194
9582.000000;0.291257
9581.000000;0.291207
9580.000000;0.290941
9579.000000;0.290665
9578.000000;0.290602
9577.000000;0.290683
9576.000000;0.290625
9575.000000;0.290263
9574.000000;0.289692
9573.000000;0.289140
9572.000000;0.288795
9571.000000;0.288692
9570.000000;0.288669
9569.000000;0.288458
9568.000000;0.287902
9567.000000;0.287109
9566.000000;0.286355
9565.000000;0.285883
9564.000000;0.285825
9563.000000;0.286178
9562.000000;0.286742
9561.000000;0.287134
9560.000000;0.287029
9559.000000;0.286401
9558.000000;0.285466
9557.000000;0.284467
9556.000000;0.283631
9555.000000;0.283229
9554.000000;0.283401
9553.000000;0.283854
9552.000000;0.284002
9551.000000;0.283576
9550.000000;0.282947
9549.000000;0.282676
9548.000000;0.282872
9547.000000;0.283159
9546.000000;0.283183
9545.000000;0.282889
9544.000000;0.282334
9543.000000;0.281539
9542.000000;0.280641
9541.000000;0.279950
9540.000000;0.279679
9539.000000;0.279728
9538.000000;0.279889
9537.000000;0.280122
9536.000000;0.280468
9535.000000;0.280766
9534.000000;0.280730
9533.000000;0.280317
9532.000000;0.279799
9531.000000;0.279404
9530.000000;0.279049
9529.000000;0.278531
9528.000000;0.277847
9527.000000;0.277204
9526.000000;0.276808
9525.000000;0.276747
9524.000000;0.276969
9523.000000;0.277217
9522.000000;0.277087
9521.000000;0.276383
9520.000000;0.275446
9519.000000;0.274934
9518.000000;0.275144
9517.000000;0.275676
9516.000000;0.275896
9515.000000;0.275654
9514.000000;0.275363
9513.000000;0.275369
9512.000000;0.275448
9511.000000;0.275085
9510.000000;0.274190
9509.000000;0.273319
9508.000000;0.273065
9507.000000;0.273385
9506.000000;0.273676
9505.000000;0.273489
9504.000000;0.272969
9503.000000;0.272567
9502.000000;0.272475
9501.000000;0.272489
9500.000000;0.272347
9499.000000;0.272039
9498.000000;0.271749
9497.000000;0.271617
9496.000000;0.271604
9495.000000;0.271590
9494.000000;0.271511
9493.000000;0.271376
9492.000000;0.271143
9491.000000;0.270708
9490.000000;0.270064
9489.000000;0.269419
9488.000000;0.269003
9487.000000;0.268801
9486.000000;0.268587
9485.000000;0.268241
9484.000000;0.267882
9483.000000;0.267664
9482.000000;0.267612
9481.000000;0.267689
9480.000000;0.267854
9479.000000;0.267950
9478.000000;0.267728
9477.000000;0.267126
9476.000000;0.266429
9475.000000;0.266004
9474.000000;0.265933
9473.000000;0.266000
9472.000000;0.265920
9471.000000;0.265488
9470.000000;0.264689
9469.000000;0.263840
9468.000000;0.263452
9467.000000;0.263746
9466.000000;0.264379
9465.000000;0.264817
9464.000000;0.264845
9463.000000;0.264510
9462.000000;0.263801
9461.000000;0.262759
9460.000000;0.261806
9459.000000;0.261526
9458.000000;0.262021
9457.000000;0.262774
9456.000000;0.263233
9455.000000;0.263268
9454.000000;0.263034
9453.000000;0.262702
9452.000000;0.262464
9451.000000;0.262474
9450.000000;0.262590
9449.000000;0.262423
9448.000000;0.261855
9447.000000;0.261304
9446.000000;0.261245
9445.000000;0.261639
9444.000000;0.262053
9443.000000;0.262189
9442.000000;0.262011
9441.000000;0.261490
9440.000000;0.260569
9439.000000;0.259427
9438.000000;0.258498
9437.000000;0.258105
9436.000000;0.258163
9435.000000;0.258327
9434.000000;0.258308
9433.000000;0.258041
9432.000000;0.257649
9431.000000;0.257332
9430.000000;0.257241
9429.000000;0.257391
9428.000000;0.257667
9427.000000;0.257918
9426.000000;0.258049
9425.000000;0.258051
9424.000000;0.257946
9423.000000;0.257678
9422.000000;0.257100
9421.000000;0.256162
9420.000000;0.255115
9419.000000;0.254391
9418.000000;0.254238
9417.000000;0.254536
9416.000000;0.254989
9415.000000;0.255343
9414.000000;0.255402
9413.000000;0.255024
9412.000000;0.254275
9411.000000;0.253488
9410.000000;0.252974
9409.000000;0.252702
9408.000000;0.252404
9407.000000;0.251982
9406.000000;0.251652
9405.000000;0.251650
9404.000000;0.251896
9403.000000;0.252033
9402.000000;0.251771
9401.000000;0.251161
9400.000000;0.250535
9399.000000;0.250188
9398.000000;0.250142
9397.000000;0.250203
9396.000000;0.250207
9395.000000;0.250120
9394.000000;0.249969
9393.000000;0.249801
9392.000000;0.249691
9391.000000;0.249687
9390.000000;0.249697
9389.000000;0.249580
9388.000000;0.249349
9387.000000;0.249180
9386.000000;0.249150
9385.000000;0.249148
9384.000000;0.249087
9383.000000;0.249040
9382.000000;0.249045
9381.000000;0.248956
9380.000000;0.248647
9379.000000;0.248229
9378.000000;0.247900
9377.000000;0.247667
9376.000000;0.247423
9375.000000;0.247200
9374.000000;0.247137
9373.000000;0.247224
9372.000000;0.247281
9371.000000;0.247201
9370.000000;0.247071
9369.000000;0.247021
9368.000000;0.247084
9367.000000;0.247174
9366.000000;0.247075
9365.000000;0.246519
9364.000000;0.245460
9363.000000;0.244308
9362.000000;0.243673
9361.000000;0.243820
9360.000000;0.244443
9359.000000;0.244995
9358.000000;0.245112
9357.000000;0.244720
9356.000000;0.243977
9355.000000;0.243225
9354.000000;0.242846
9353.000000;0.242954
9352.000000;0.243255
9351.000000;0.243305
9350.000000;0.242902
9349.000000;0.242169
9348.000000;0.241367
9347.000000;0.240708
9346.000000;0.240308
9345.000000;0.240167
9344.000000;0.240172
9343.000000;0.240180
9342.000000;0.240141
9341.000000;0.240124
9340.000000;0.240204
9339.000000;0.240351
9338.000000;0.240436
9337.000000;0.240367
9336.000000;0.240197
9335.000000;0.240078
9334.000000;0.240076
9333.000000;0.240075
9332.000000;0.239906
9331.000000;0.239540
9330.000000;0.239109
9329.000000;0.238751
9328.000000;0.238524
9327.000000;0.238420
9326.000000;0.238388
9325.000000;0.238336
9324.000000;0.238225
9323.000000;0.238153
9322.000000;0.238235
9321.000000;0.238372
9320.000000;0.238294
9319.000000;0.237897
9318.000000;0.237415
9317.000000;0.237127
9316.000000;0.237008
9315.000000;0.236821
9314.000000;0.236464
9313.000000;0.236040
9312.000000;0.235609
9311.000000;0.235092
9310.000000;0.234483
9309.000000;0.233986
9308.000000;0.233820
9307.000000;0.233989
9306.000000;0.234356
9305.000000;0.234817
9304.000000;0.235292
9303.000000;0.235628
9302.000000;0.235691
9301.000000;0.235569
9300.000000;0.235504
9299.000000;0.235581
9298.000000;0.235616
9297.000000;0.235413
9296.000000;0.235029
9295.000000;0.234684
9294.000000;0.234460
9293.000000;0.234224
9292.000000;0.233836
9291.000000;0.233355
9290.000000;0.233003
9289.000000;0.232921
9288.000000;0.232989
9287.000000;0.232898
9286.000000;0.232463
9285.000000;0.231859
9284.000000;0.231467
9283.000000;0.231495
9282.000000;0.231818
9281.000000;0.232178
9280.000000;0.232403
9279.000000;0.232378
9278.000000;0.232010
9277.000000;0.231374
9276.000000;0.230788
9275.000000;0.230536
9274.000000;0.230553
9273.000000;0.230542
9272.000000;0.230362
9271.000000;0.230105
9270.000000;0.229855
9269.000000;0.229615
9268.000000;0.229486
9267.000000;0.229645
9266.000000;0.230019
9265.000000;0.230191
9264.000000;0.229823
9263.000000;0.229058
9262.000000;0.228355
9261.000000;0.228034
9260.000000;0.228091
9259.000000;0.228332
9258.000000;0.228522
9257.000000;0.228466
9256.000000;0.228117
9255.000000;0.227632
9254.000000;0.227220
9253.000000;0.226965
9252.000000;0.226863
9251.000000;0.226945
9250.000000;0.227209
9249.000000;0.227453
9248.000000;0.227340
9247.000000;0.226692
9246.000000;0.225681
9245.000000;0.224733
9244.000000;0.224273
9243.000000;0.224465
9242.000000;0.225091
9241.000000;0.225700
9240.000000;0.225992
9239.000000;0.226054
9238.000000;0.226135
9237.000000;0.226244
9236.000000;0.226129
9235.000000;0.225657
9234.000000;0.225047
9233.000000;0.224640
9232.000000;0.224546
9231.000000;0.224621
9230.000000;0.224705
9229.000000;0.224770
9228.000000;0.224843
9227.000000;0.224884
9226.000000;0.224791
9225.000000;0.224507
9224.000000;0.224102
9223.000000;0.223746
9222.000000;0.223574
9221.000000;0.223559
9220.000000;0.223502
9219.000000;0.223179
9218.000000;0.222548
9217.000000;0.221857
9216.000000;0.221495
9215.000000;0.221668
9214.000000;0.222232
9213.000000;0.222852
9212.000000;0.223309
9211.000000;0.223542
9210.000000;0.223465
9209.000000;0.222956
9208.000000;0.222146
9207.000000;0.221519
9206.000000;0.221500
9205.000000;0.221941
9204.000000;0.222225
9203.000000;0.221916
9202.000000;0.221172
9201.000000;0.220487
9200.000000;0.220143
9199.000000;0.220026
9198.000000;0.219879
9197.000000;0.219606
9196.000000;0.219315
9195.000000;0.219169
9194.000000;0.219246
9193.000000;0.219510
9192.000000;0.219838
9191.000000;0.220056
9190.000000;0.220031
9189.000000;0.219807
9188.000000;0.219585
9187.000000;0.219464
9186.000000;0.219240
9185.000000;0.218609
9184.000000;0.217646
9183.000000;0.216881
9182.000000;0.216760
9181.000000;0.217114
9180.000000;0.217343
9179.000000;0.217096
9178.000000;0.216604
9177.000000;0.216304
9176.000000;0.216328
9175.000000;0.216449
9174.000000;0.216448
9173.000000;0.216391
9172.000000;0.216490
9171.000000;0.216746
9170.000000;0.216841
9169.000000;0.216451
9168.000000;0.215660
9167.000000;0.214974
9166.000000;0.214853
9165.000000;0.215299
9164.000000;0.215925
9163.000000;0.216335
9162.000000;0.216364
9161.000000;0.216059
9160.000000;0.215606
9159.000000;0.215255
9158.000000;0.215156
9157.000000;0.215225
9156.000000;0.215244
9155.000000;0.215096
9154.000000;0.214834
9153.000000;0.214570
9152.000000;0.214406
9151.000000;0.214437
9150.000000;0.214681
9149.000000;0.214967
9148.000000;0.215021
9147.000000;0.214718
9146.000000;0.214182
9145.000000;0.213655
9144.000000;0.213338
9143.000000;0.213352
9142.000000;0.213655
9141.000000;0.213986
9140.000000;0.214036
9139.000000;0.213789
9138.000000;0.213553
9137.000000;0.213561
9136.000000;0.213678
9135.000000;0.213616
9134.000000;0.213348
9133.000000;0.213128
9132.000000;0.213132
9131.000000;0.213249
9130.000000;0.213243
9129.000000;0.213034
9128.000000;0.212742
9127.000000;0.212527
9126.000000;0.212443
9125.000000;0.212457
9124.000000;0.212527
9123.000000;0.212614
9122.000000;0.212611
9121.000000;0.212372
9120.000000;0.211892
9119.000000;0.211411
9118.000000;0.211217
9117.000000;0.211354
9116.000000;0.211597
9115.000000;0.211729
9114.000000;0.211713
9113.000000;0.211605
9112.000000;0.211439
9111.000000;0.211266
9110.000000;0.211162
9109.000000;0.211079
9108.000000;0.210808
9107.000000;0.210233
9106.000000;0.209553
9105.000000;0.209121
9104.000000;0.209091
9103.000000;0.209334
9102.000000;0.209668
9101.000000;0.210025
9100.000000;0.210385
9099.000000;0.210668
9098.000000;0.210776
9097.000000;0.210675
9096.000000;0.210424
9095.000000;0.210141
9094.000000;0.209951
9093.000000;0.209899
9092.000000;0.209891
9091.000000;0.209752
9090.000000;0.209381
9089.000000;0.208840
9088.000000;0.208319
9087.000000;0.208023
9086.000000;0.208057
9085.000000;0.208330
9084.000000;0.208590
9083.000000;0.208596
9082.000000;0.208287
9081.000000;0.207794
9080.000000;0.207308
9079.000000;0.206986
9078.000000;0.206917
9077.000000;0.207075
9076.000000;0.207303
9075.000000;0.207433
9074.000000;0.207441
9073.000000;0.207425
9072.000000;0.207416
9071.000000;0.207325
9070.000000;0.207124
9069.000000;0.206994
9068.000000;0.207154
9067.000000;0.207578
9066.000000;0.207973
9065.000000;0.208065
9064.000000;0.207833
9063.000000;0.207453
9062.000000;0.207065
9061.000000;0.206682
9060.000000;0.206282
9059.000000;0.205925
9058.000000;0.205738
9057.000000;0.205809
9056.000000;0.206104
9055.000000;0.206454
9054.000000;0.206620
9053.000000;0.206431
