Criado como novo conjunto de dados;"e0108.spp","-4279124.7 Secs"
cm-1;Abs
10000.000000;1.103695
9999.000000;1.106574
9998.000000;1.109482
9997.000000;1.110535
9996.000000;1.109125
9995.000000;1.106217
9994.000000;1.103466
9993.000000;1.102202
9992.000000;1.102800
9991.000000;1.104455
9990.000000;1.105488
9989.000000;1.104412
9988.000000;1.101166
9987.000000;1.097324
9986.000000;1.094882
9985.000000;1.094730
9984.000000;1.096134
9983.000000;1.097592
9982.000000;1.098131
9981.000000;1.097834
9980.000000;1.097236
9979.000000;1.096501
9978.000000;1.095455
9977.000000;1.094283
9976.000000;1.093765
9975.000000;1.094465
9974.000000;1.095825
9973.000000;1.096476
9972.000000;1.095639
9971.000000;1.093959
9970.000000;1.092795
9969.000000;1.092833
9968.000000;1.093538
9967.000000;1.093870
9966.000000;1.093335
9965.000000;1.092311
9964.000000;1.091536
9963.000000;1.091389
9962.000000;1.091661
9961.000000;1.091910
9960.000000;1.091898
9959.000000;1.091609
9958.000000;1.091013
9957.000000;1.090076
9956.000000;1.089032
9955.000000;1.088315
9954.000000;1.088044
9953.000000;1.087815
9952.000000;1.087247
9951.000000;1.086521
9950.000000;1.086059
9949.000000;1.085829
9948.000000;1.085451
9947.000000;1.084885
9946.000000;1.084493
9945.000000;1.084362
9944.000000;1.084116
9943.000000;1.083576
9942.000000;1.083100
9941.000000;1.082852
9940.000000;1.082198
9939.000000;1.080513
9938.000000;1.078350
9937.000000;1.077044
9936.000000;1.077094
9935.000000;1.077678
9934.000000;1.077953
9933.000000;1.078122
9932.000000;1.078764
9931.000000;1.079693
9930.000000;1.080196
9929.000000;1.080160
9928.000000;1.080239
9927.000000;1.080885
9926.000000;1.081805
9925.000000;1.082402
9924.000000;1.082281
9923.000000;1.081266
9922.000000;1.079486
9921.000000;1.077691
9920.000000;1.076976
9919.000000;1.077759
9918.000000;1.079283
9917.000000;1.080447
9916.000000;1.080914
9915.000000;1.081064
9914.000000;1.081034
9913.000000;1.080308
9912.000000;1.078391
9911.000000;1.075647
9910.000000;1.073312
9909.000000;1.072617
9908.000000;1.073683
9907.000000;1.075123
9906.000000;1.074991
9905.000000;1.072559
9904.000000;1.069156
9903.000000;1.067002
9902.000000;1.067196
9901.000000;1.068931
9900.000000;1.070524
9899.000000;1.070965
9898.000000;1.070413
9897.000000;1.069495
9896.000000;1.068534
9895.000000;1.067570
9894.000000;1.066806
9893.000000;1.066625
9892.000000;1.067073
9891.000000;1.067604
9890.000000;1.067629
9889.000000;1.067179
9888.000000;1.066707
9887.000000;1.066305
9886.000000;1.065528
9885.000000;1.064098
9884.000000;1.062413
9883.000000;1.061122
9882.000000;1.060505
9881.000000;1.060516
9880.000000;1.061070
9879.000000;1.061882
9878.000000;1.062277
9877.000000;1.061700
9876.000000;1.060534
9875.000000;1.059961
9874.000000;1.060789
9873.000000;1.062587
9872.000000;1.064099
9871.000000;1.064410
9870.000000;1.063684
9869.000000;1.062852
9868.000000;1.062684
9867.000000;1.063127
9866.000000;1.063476
9865.000000;1.063151
9864.000000;1.062185
9863.000000;1.060898
9862.000000;1.059372
9861.000000;1.057574
9860.000000;1.055795
9859.000000;1.054505
9858.000000;1.053867
9857.000000;1.053736
9856.000000;1.054000
9855.000000;1.054554
9854.000000;1.054959
9853.000000;1.054687
9852.000000;1.053913
9851.000000;1.053529
9850.000000;1.053983
9849.000000;1.054535
9848.000000;1.054152
9847.000000;1.052923
9846.000000;1.051954
9845.000000;1.051897
9844.000000;1.052244
9843.000000;1.052186
9842.000000;1.051627
9841.000000;1.051028
9840.000000;1.050655
9839.000000;1.050379
9838.000000;1.049980
9837.000000;1.049317
9836.000000;1.048395
9835.000000;1.047565
9834.000000;1.047414
9833.000000;1.048031
9832.000000;1.048561
9831.000000;1.048052
9830.000000;1.046773
9829.000000;1.046089
9828.000000;1.046763
9827.000000;1.047950
9826.000000;1.048273
9825.000000;1.047487
9824.000000;1.046544
9823.000000;1.046250
9822.000000;1.046482
9821.000000;1.046689
9820.000000;1.046537
9819.000000;1.045884
9818.000000;1.044655
9817.000000;1.043095
9816.000000;1.041750
9815.000000;1.040868
9814.000000;1.040062
9813.000000;1.038961
9812.000000;1.038022
9811.000000;1.038266
9810.000000;1.040186
9809.000000;1.043112
9808.000000;1.045623
9807.000000;1.046410
9806.000000;1.044914
9805.000000;1.041592
9804.000000;1.037777
9803.000000;1.035002
9802.000000;1.034081
9801.000000;1.034715
9800.000000;1.035909
9799.000000;1.036749
9798.000000;1.036821
9797.000000;1.036147
9796.000000;1.034961
9795.000000;1.033603
9794.000000;1.032476
9793.000000;1.031898
9792.000000;1.031905
9791.000000;1.032221
9790.000000;1.032541
9789.000000;1.032838
9788.000000;1.033305
9787.000000;1.033975
9786.000000;1.034573
9785.000000;1.034835
9784.000000;1.034824
9783.000000;1.034748
9782.000000;1.034588
9781.000000;1.034127
9780.000000;1.033298
9779.000000;1.032288
9778.000000;1.031361
9777.000000;1.030819
9776.000000;1.030970
9775.000000;1.031775
9774.000000;1.032565
9773.000000;1.032532
9772.000000;1.031631
9771.000000;1.030636
9770.000000;1.030154
9769.000000;1.029934
9768.000000;1.029389
9767.000000;1.028462
9766.000000;1.027531
9765.000000;1.026684
9764.000000;1.025619
9763.000000;1.024347
9762.000000;1.023523
9761.000000;1.023792
9760.000000;1.024972
9759.000000;1.026131
9758.000000;1.026479
9757.000000;1.026083
9756.000000;1.025669
9755.000000;1.025787
9754.000000;1.026289
9753.000000;1.026598
9752.000000;1.026323
9751.000000;1.025445
9750.000000;1.024044
9749.000000;1.022229
9748.000000;1.020452
9747.000000;1.019483
9746.000000;1.019671
9745.000000;1.020378
9744.000000;1.020528
9743.000000;1.019744
9742.000000;1.018621
9741.000000;1.017913
9740.000000;1.017791
9739.000000;1.017993
9738.000000;1.018245
9737.000000;1.018303
9736.000000;1.017889
9735.000000;1.016994
9734.000000;1.016082
9733.000000;1.015705
9732.000000;1.015963
9731.000000;1.016493
9730.000000;1.016911
9729.000000;1.017064
9728.000000;1.016955
9727.000000;1.016648
9726.000000;1.016266
9725.000000;1.015880
9724.000000;1.015403
9723.000000;1.014695
9722.000000;1.013720
9721.000000;1.012489
9720.000000;1.011022
9719.000000;1.009674
9718.000000;1.009261
9717.000000;1.010397
9716.000000;1.012603
9715.000000;1.014474
9714.000000;1.014913
9713.000000;1.013985
9712.000000;1.012484
9711.000000;1.011079
9710.000000;1.010157
9709.000000;1.010024
9708.000000;1.010704
9707.000000;1.011648
9706.000000;1.012103
9705.000000;1.011799
9704.000000;1.011003
9703.000000;1.010034
9702.000000;1.009112
9701.000000;1.008655
9700.000000;1.009131
9699.000000;1.010317
9698.000000;1.011124
9697.000000;1.010587
9696.000000;1.008896
9695.000000;1.007128
9694.000000;1.006112
9693.000000;1.005872
9692.000000;1.005993
9691.000000;1.006026
9690.000000;1.005485
9689.000000;1.003943
9688.000000;1.001548
9687.000000;0.999266
9686.000000;0.998176
9685.000000;0.998465
9684.000000;0.999370
9683.000000;1.000124
9682.000000;1.000671
9681.000000;1.001269
9680.000000;1.001723
9679.000000;1.001468
9678.000000;1.000425
9677.000000;0.999415
9676.000000;0.999423
9675.000000;1.000546
9674.000000;1.001839
9673.000000;1.002236
9672.000000;1.001542
9671.000000;1.000483
9670.000000;0.999808
9669.000000;0.999477
9668.000000;0.998864
9667.000000;0.997694
9666.000000;0.996458
9665.000000;0.995709
9664.000000;0.995298
9663.000000;0.994729
9662.000000;0.994093
9661.000000;0.994031
9660.000000;0.994633
9659.000000;0.994997
9658.000000;0.994357
9657.000000;0.993233
9656.000000;0.992867
9655.000000;0.993668
9654.000000;0.994778
9653.000000;0.995212
9652.000000;0.994920
9651.000000;0.994467
9650.000000;0.994056
9649.000000;0.993304
9648.000000;0.991906
9647.000000;0.990159
9646.000000;0.988654
9645.000000;0.987665
9644.000000;0.987083
9643.000000;0.986880
9642.000000;0.987283
9641.000000;0.988283
9640.000000;0.989211
9639.000000;0.989260
9638.000000;0.988427
9637.000000;0.987510
9636.000000;0.987097
9635.000000;0.987008
9634.000000;0.986907
9633.000000;0.986919
9632.000000;0.987270
9631.000000;0.987788
9630.000000;0.988223
9629.000000;0.988705
9628.000000;0.989342
9627.000000;0.989654
9626.000000;0.989063
9625.000000;0.987768
9624.000000;0.986478
9623.000000;0.985396
9622.000000;0.984236
9621.000000;0.983194
9620.000000;0.983066
9619.000000;0.984125
9618.000000;0.985568
9617.000000;0.986452
9616.000000;0.986637
9615.000000;0.986441
9614.000000;0.985921
9613.000000;0.985036
9612.000000;0.984086
9611.000000;0.983379
9610.000000;0.982692
9609.000000;0.981614
9608.000000;0.980308
9607.000000;0.979478
9606.000000;0.979635
9605.000000;0.980731
9604.000000;0.982406
9603.000000;0.984200
9602.000000;0.985503
9601.000000;0.985724
9600.000000;0.984795
9599.000000;0.983350
9598.000000;0.982241
9597.000000;0.981863
9596.000000;0.981948
9595.000000;0.981913
9594.000000;0.981425
9593.000000;0.980632
9592.000000;0.979777
9591.000000;0.978789
9590.000000;0.977525
9589.000000;0.976309
9588.000000;0.975794
9587.000000;0.976180
9586.000000;0.976919
9585.000000;0.977368
9584.000000;0.977401
9583.000000;0.977146
9582.000000;0.976544
9581.000000;0.975554
9580.000000;0.974516
9579.000000;0.973883
9578.000000;0.973700
9577.000000;0.973695
9576.000000;0.973718
9575.000000;0.973726
9574.000000;0.973512
9573.000000;0.972931
9572.000000;0.972366
9571.000000;0.972427
9570.000000;0.973031
9569.000000;0.973147
9568.000000;0.971768
9567.000000;0.969057
9566.000000;0.966342
9565.000000;0.965073
9564.000000;0.965802
9563.000000;0.967966
9562.000000;0.970390
9561.000000;0.972042
9560.000000;0.972501
9559.000000;0.971925
9558.000000;0.970772
9557.000000;0.969568
9556.000000;0.968735
9555.000000;0.968434
9554.000000;0.968543
9553.000000;0.968822
9552.000000;0.969006
9551.000000;0.968786
9550.000000;0.967937
9549.000000;0.966619
9548.000000;0.965432
9547.000000;0.965008
9546.000000;0.965466
9545.000000;0.966261
9544.000000;0.966553
9543.000000;0.965853
9542.000000;0.964547
9541.000000;0.963737
9540.000000;0.964258
9539.000000;0.965754
9538.000000;0.966918
9537.000000;0.966756
9536.000000;0.965439
9535.000000;0.963863
9534.000000;0.962703
9533.000000;0.962094
9532.000000;0.961920
9531.000000;0.962038
9530.000000;0.962267
9529.000000;0.962408
9528.000000;0.962365
9527.000000;0.962213
9526.000000;0.962186
9525.000000;0.962538
9524.000000;0.963156
9523.000000;0.963308
9522.000000;0.962186
9521.000000;0.959921
9520.000000;0.957750
9519.000000;0.956935
9518.000000;0.957662
9517.000000;0.959078
9516.000000;0.960179
9515.000000;0.960493
9514.000000;0.960205
9513.000000;0.959836
9512.000000;0.959669
9511.000000;0.959369
9510.000000;0.958451
9509.000000;0.957169
9508.000000;0.956442
9507.000000;0.956616
9506.000000;0.956861
9505.000000;0.956260
9504.000000;0.955080
9503.000000;0.954406
9502.000000;0.954757
9501.000000;0.955592
9500.000000;0.956038
9499.000000;0.955670
9498.000000;0.954705
9497.000000;0.953828
9496.000000;0.953721
9495.000000;0.954387
9494.000000;0.955048
9493.000000;0.955044
9492.000000;0.954585
9491.000000;0.954247
9490.000000;0.954058
9489.000000;0.953654
9488.000000;0.953050
9487.000000;0.952569
9486.000000;0.952152
9485.000000;0.951502
9484.000000;0.950881
9483.000000;0.951003
9482.000000;0.951971
9481.000000;0.952932
9480.000000;0.953012
9479.000000;0.952125
9478.000000;0.950694
9477.000000;0.949152
9476.000000;0.948011
9475.000000;0.947848
9474.000000;0.948736
9473.000000;0.949919
9472.000000;0.950373
9471.000000;0.949663
9470.000000;0.948221
9469.000000;0.947012
9468.000000;0.946915
9467.000000;0.948023
9466.000000;0.949404
9465.000000;0.949877
9464.000000;0.949117
9463.000000;0.947778
9462.000000;0.946557
9461.000000;0.945591
9460.000000;0.944802
9459.000000;0.944315
9458.000000;0.944289
9457.000000;0.944646
9456.000000;0.945165
9455.000000;0.945588
9454.000000;0.945570
9453.000000;0.944898
9452.000000;0.943818
9451.000000;0.942802
9450.000000;0.941922
9449.000000;0.940919
9448.000000;0.939964
9447.000000;0.939803
9446.000000;0.940816
9445.000000;0.942386
9444.000000;0.943581
9443.000000;0.944111
9442.000000;0.944236
9441.000000;0.944076
9440.000000;0.943552
9439.000000;0.942803
9438.000000;0.942165
9437.000000;0.941742
9436.000000;0.941341
9435.000000;0.940761
9434.000000;0.939929
9433.000000;0.938866
9432.000000;0.937793
9431.000000;0.937144
9430.000000;0.937195
9429.000000;0.937694
9428.000000;0.938117
9427.000000;0.938238
9426.000000;0.938217
9425.000000;0.938148
9424.000000;0.937813
9423.000000;0.937026
9422.000000;0.936022
9421.000000;0.935319
9420.000000;0.935182
9419.000000;0.935331
9418.000000;0.935279
9417.000000;0.934972
9416.000000;0.934889
9415.000000;0.935385
9414.000000;0.936116
9413.000000;0.936377
9412.000000;0.935924
9411.000000;0.935167
9410.000000;0.934567
9409.000000;0.934165
9408.000000;0.933765
9407.000000;0.933330
9406.000000;0.933053
9405.000000;0.933195
9404.000000;0.933838
9403.000000;0.934610
9402.000000;0.934739
9401.000000;0.933743
9400.000000;0.932142
9399.000000;0.931105
9398.000000;0.931283
9397.000000;0.932259
9396.000000;0.933159
9395.000000;0.933408
9394.000000;0.932837
9393.000000;0.931541
9392.000000;0.929973
9391.000000;0.928859
9390.000000;0.928576
9389.000000;0.928781
9388.000000;0.928899
9387.000000;0.928836
9386.000000;0.928951
9385.000000;0.929461
9384.000000;0.930152
9383.000000;0.930631
9382.000000;0.930722
9381.000000;0.930590
9380.000000;0.930534
9379.000000;0.930581
9378.000000;0.930354
9377.000000;0.929570
9376.000000;0.928593
9375.000000;0.928108
9374.000000;0.928239
9373.000000;0.928424
9372.000000;0.928289
9371.000000;0.928141
9370.000000;0.928338
9369.000000;0.928610
9368.000000;0.928407
9367.000000;0.927609
9366.000000;0.926529
9365.000000;0.925486
9364.000000;0.924684
9363.000000;0.924239
9362.000000;0.923996
9361.000000;0.923589
9360.000000;0.923043
9359.000000;0.922956
9358.000000;0.923663
9357.000000;0.924549
9356.000000;0.924766
9355.000000;0.924429
9354.000000;0.924470
9353.000000;0.925314
9352.000000;0.926289
9351.000000;0.926480
9350.000000;0.925703
9349.000000;0.924472
9348.000000;0.923356
9347.000000;0.922555
9346.000000;0.921895
9345.000000;0.921104
9344.000000;0.920221
9343.000000;0.919688
9342.000000;0.919854
9341.000000;0.920481
9340.000000;0.921021
9339.000000;0.921336
9338.000000;0.921804
9337.000000;0.922623
9336.000000;0.923373
9335.000000;0.923451
9334.000000;0.922773
9333.000000;0.921868
9332.000000;0.921358
9331.000000;0.921369
9330.000000;0.921420
9329.000000;0.920924
9328.000000;0.919857
9327.000000;0.918821
9326.000000;0.918355
9325.000000;0.918385
9324.000000;0.918557
9323.000000;0.918806
9322.000000;0.919222
9321.000000;0.919552
9320.000000;0.919369
9319.000000;0.918712
9318.000000;0.918080
9317.000000;0.917664
9316.000000;0.917069
9315.000000;0.916024
9314.000000;0.914975
9313.000000;0.914633
9312.000000;0.915107
9311.000000;0.915786
9310.000000;0.915964
9309.000000;0.915413
9308.000000;0.914447
9307.000000;0.913664
9306.000000;0.913584
9305.000000;0.914302
9304.000000;0.915409
9303.000000;0.916313
9302.000000;0.916676
9301.000000;0.916529
9300.000000;0.916071
9299.000000;0.915459
9298.000000;0.914803
9297.000000;0.914241
9296.000000;0.913924
9295.000000;0.913864
9294.000000;0.913845
9293.000000;0.913576
9292.000000;0.913006
9291.000000;0.912401
9290.000000;0.912035
9289.000000;0.911887
9288.000000;0.911731
9287.000000;0.911466
9286.000000;0.911230
9285.000000;0.911213
9284.000000;0.911466
9283.000000;0.911870
9282.000000;0.912188
9281.000000;0.912181
9280.000000;0.911787
9279.000000;0.911201
9278.000000;0.910669
9277.000000;0.910249
9276.000000;0.909860
9275.000000;0.909488
9274.000000;0.909235
9273.000000;0.909179
9272.000000;0.909263
9271.000000;0.909266
9270.000000;0.908885
9269.000000;0.907996
9268.000000;0.906956
9267.000000;0.906461
9266.000000;0.906860
9265.000000;0.907721
9264.000000;0.908245
9263.000000;0.908071
9262.000000;0.907550
9261.000000;0.907268
9260.000000;0.907470
9259.000000;0.907935
9258.000000;0.908226
9257.000000;0.908033
9256.000000;0.907430
9255.000000;0.906844
9254.000000;0.906635
9253.000000;0.906744
9252.000000;0.906849
9251.000000;0.906798
9250.000000;0.906701
9249.000000;0.906655
9248.000000;0.906582
9247.000000;0.906312
9246.000000;0.905661
9245.000000;0.904507
9244.000000;0.903066
9243.000000;0.901986
9242.000000;0.901819
9241.000000;0.902358
9240.000000;0.902837
9239.000000;0.902896
9238.000000;0.903036
9237.000000;0.903857
9236.000000;0.905102
9235.000000;0.905751
9234.000000;0.905064
9233.000000;0.903331
9232.000000;0.901599
9231.000000;0.900780
9230.000000;0.901021
9229.000000;0.901781
9228.000000;0.902419
9227.000000;0.902668
9226.000000;0.902593
9225.000000;0.902257
9224.000000;0.901665
9223.000000;0.901001
9222.000000;0.900604
9221.000000;0.900601
9220.000000;0.900743
9219.000000;0.900748
9218.000000;0.900648
9217.000000;0.900643
9216.000000;0.900709
9215.000000;0.900589
9214.000000;0.900183
9213.000000;0.899780
9212.000000;0.899752
9211.000000;0.900081
9210.000000;0.900323
9209.000000;0.900133
9208.000000;0.899733
9207.000000;0.899698
9206.000000;0.900263
9205.000000;0.901031
9204.000000;0.901455
9203.000000;0.901391
9202.000000;0.901025
9201.000000;0.900476
9200.000000;0.899784
9199.000000;0.899153
9198.000000;0.898821
9197.000000;0.898683
9196.000000;0.898366
9195.000000;0.897768
9194.000000;0.897237
9193.000000;0.897098
9192.000000;0.897259
9191.000000;0.897421
9190.000000;0.897459
9189.000000;0.897409
9188.000000;0.897282
9187.000000;0.897095
9186.000000;0.896930
9185.000000;0.896780
9184.000000;0.896452
9183.000000;0.895797
9182.000000;0.894978
9181.000000;0.894357
9180.000000;0.894187
9179.000000;0.894504
9178.000000;0.895193
9177.000000;0.896002
9176.000000;0.896555
9175.000000;0.896562
9174.000000;0.896046
9173.000000;0.895295
9172.000000;0.894665
9171.000000;0.894460
9170.000000;0.894847
9169.000000;0.895691
9168.000000;0.896517
9167.000000;0.896835
9166.000000;0.896544
9165.000000;0.895908
9164.000000;0.895174
9163.000000;0.894354
9162.000000;0.893448
9161.000000;0.892718
9160.000000;0.892596
9159.000000;0.893259
9158.000000;0.894287
9157.000000;0.894840
9156.000000;0.894342
9155.000000;0.893081
9154.000000;0.892023
9153.000000;0.891984
9152.000000;0.892971
9151.000000;0.894304
9150.000000;0.895241
9149.000000;0.895438
9148.000000;0.894928
9147.000000;0.893927
9146.000000;0.892735
9145.000000;0.891687
9144.000000;0.891053
9143.000000;0.890881
9142.000000;0.890928
9141.000000;0.890824
9140.000000;0.890439
9139.000000;0.890050
9138.000000;0.890023
9137.000000;0.890289
9136.000000;0.890344
9135.000000;0.889912
9134.000000;0.889409
9133.000000;0.889544
9132.000000;0.890479
9131.000000;0.891585
9130.000000;0.892024
9129.000000;0.891472
9128.000000;0.890271
9127.000000;0.889049
9126.000000;0.888308
9125.000000;0.888242
9124.000000;0.888760
9123.000000;0.889553
9122.000000;0.890176
9121.000000;0.890211
9120.000000;0.889517
9119.000000;0.888406
9118.000000;0.887526
9117.000000;0.887435
9116.000000;0.888201
9115.000000;0.889345
9114.000000;0.890164
9113.000000;0.890143
9112.000000;0.889197
9111.000000;0.887678
9110.000000;0.886175
9109.000000;0.885238
9108.000000;0.885105
9107.000000;0.885576
9106.000000;0.886113
9105.000000;0.886196
9104.000000;0.885727
9103.000000;0.885074
9102.000000;0.884666
9101.000000;0.884643
9100.000000;0.884947
9099.000000;0.885605
9098.000000;0.886607
9097.000000;0.887533
9096.000000;0.887675
9095.000000;0.886785
9094.000000;0.885506
9093.000000;0.884763
9092.000000;0.884872
9091.000000;0.885439
9090.000000;0.886003
9089.000000;0.886441
9088.000000;0.886733
9087.000000;0.886660
9086.000000;0.886001
9085.000000;0.884911
9084.000000;0.883929
9083.000000;0.883578
9082.000000;0.883987
9081.000000;0.884836
9080.000000;0.885610
9079.000000;0.885945
9078.000000;0.885780
9077.000000;0.885250
9076.000000;0.884544
9075.000000;0.883952
9074.000000;0.883823
9073.000000;0.884228
9072.000000;0.884684
9071.000000;0.884537
9070.000000;0.883742
9069.000000;0.883015
9068.000000;0.883007
9067.000000;0.883510
9066.000000;0.883742
9065.000000;0.883296
9064.000000;0.882490
9063.000000;0.881789
9062.000000;0.881297
9061.000000;0.880950
9060.000000;0.880907
9059.000000;0.881387
9058.000000;0.882218
9057.000000;0.882872
9056.000000;0.883008
9055.000000;0.882790
9054.000000;0.882599
9053.000000;0.882608
