Criado como novo conjunto de dados;"e0108.spp","-4247983.1 Secs"
cm-1;Abs
10000.000000;1.001085
9999.000000;1.001268
9998.000000;1.001447
9997.000000;1.001633
9996.000000;1.001807
9995.000000;1.002007
9994.000000;1.002122
9993.000000;1.001758
9992.000000;1.000675
9991.000000;0.998978
9990.000000;0.997280
9989.000000;0.995876
9988.000000;0.994523
9987.000000;0.993203
9986.000000;0.992602
9985.000000;0.993254
9984.000000;0.994497
9983.000000;0.994899
9982.000000;0.993836
9981.000000;0.992222
9980.000000;0.991431
9979.000000;0.991795
9978.000000;0.992447
9977.000000;0.992497
9976.000000;0.992007
9975.000000;0.991678
9974.000000;0.991854
9973.000000;0.992142
9972.000000;0.991910
9971.000000;0.990924
9970.000000;0.989503
9969.000000;0.988259
9968.000000;0.987713
9967.000000;0.988016
9966.000000;0.988801
9965.000000;0.989355
9964.000000;0.989162
9963.000000;0.988398
9962.000000;0.987772
9961.000000;0.987774
9960.000000;0.988130
9959.000000;0.988069
9958.000000;0.987117
9957.000000;0.985579
9956.000000;0.984202
9955.000000;0.983441
9954.000000;0.983155
9953.000000;0.982964
9952.000000;0.982725
9951.000000;0.982521
9950.000000;0.982346
9949.000000;0.982006
9948.000000;0.981384
9947.000000;0.980673
9946.000000;0.980201
9945.000000;0.980069
9944.000000;0.980044
9943.000000;0.979822
9942.000000;0.979298
9941.000000;0.978517
9940.000000;0.977433
9939.000000;0.975949
9938.000000;0.974298
9937.000000;0.973211
9936.000000;0.973373
9935.000000;0.974641
9934.000000;0.976003
9933.000000;0.976463
9932.000000;0.975887
9931.000000;0.974908
9930.000000;0.974190
9929.000000;0.973980
9928.000000;0.974209
9927.000000;0.974689
9926.000000;0.975131
9925.000000;0.975164
9924.000000;0.974513
9923.000000;0.973198
9922.000000;0.971587
9921.000000;0.970321
9920.000000;0.969966
9919.000000;0.970558
9918.000000;0.971547
9917.000000;0.972304
9916.000000;0.972562
9915.000000;0.972316
9914.000000;0.971556
9913.000000;0.970388
9912.000000;0.969175
9911.000000;0.968230
9910.000000;0.967409
9909.000000;0.966405
9908.000000;0.965455
9907.000000;0.965225
9906.000000;0.965855
9905.000000;0.966658
9904.000000;0.966964
9903.000000;0.966750
9902.000000;0.966157
9901.000000;0.965022
9900.000000;0.963460
9899.000000;0.962414
9898.000000;0.962780
9897.000000;0.964119
9896.000000;0.964998
9895.000000;0.964695
9894.000000;0.963884
9893.000000;0.963456
9892.000000;0.963400
9891.000000;0.963229
9890.000000;0.962870
9889.000000;0.962586
9888.000000;0.962386
9887.000000;0.962082
9886.000000;0.961735
9885.000000;0.961527
9884.000000;0.961307
9883.000000;0.960817
9882.000000;0.960342
9881.000000;0.960511
9880.000000;0.961312
9879.000000;0.961881
9878.000000;0.961520
9877.000000;0.960475
9876.000000;0.959333
9875.000000;0.958149
9874.000000;0.956714
9873.000000;0.955400
9872.000000;0.955044
9871.000000;0.955953
9870.000000;0.957449
9869.000000;0.958429
9868.000000;0.958100
9867.000000;0.956290
9866.000000;0.953555
9865.000000;0.951093
9864.000000;0.949997
9863.000000;0.950264
9862.000000;0.950845
9861.000000;0.950929
9860.000000;0.950814
9859.000000;0.951167
9858.000000;0.951850
9857.000000;0.952079
9856.000000;0.951550
9855.000000;0.950741
9854.000000;0.950061
9853.000000;0.949331
9852.000000;0.948357
9851.000000;0.947531
9850.000000;0.947438
9849.000000;0.948084
9848.000000;0.948842
9847.000000;0.949059
9846.000000;0.948435
9845.000000;0.947038
9844.000000;0.945326
9843.000000;0.944120
9842.000000;0.944091
9841.000000;0.945104
9840.000000;0.946260
9839.000000;0.946727
9838.000000;0.946423
9837.000000;0.945822
9836.000000;0.945277
9835.000000;0.944751
9834.000000;0.944135
9833.000000;0.943493
9832.000000;0.942904
9831.000000;0.942295
9830.000000;0.941648
9829.000000;0.941237
9828.000000;0.941362
9827.000000;0.941858
9826.000000;0.942153
9825.000000;0.941958
9824.000000;0.941664
9823.000000;0.941806
9822.000000;0.942251
9821.000000;0.942192
9820.000000;0.941013
9819.000000;0.938999
9818.000000;0.937148
9817.000000;0.936385
9816.000000;0.936910
9815.000000;0.938051
9814.000000;0.938702
9813.000000;0.938178
9812.000000;0.936763
9811.000000;0.935397
9810.000000;0.934795
9809.000000;0.934921
9808.000000;0.935309
9807.000000;0.935671
9806.000000;0.936075
9805.000000;0.936572
9804.000000;0.936838
9803.000000;0.936356
9802.000000;0.935015
9801.000000;0.933484
9800.000000;0.932719
9799.000000;0.932940
9798.000000;0.933252
9797.000000;0.932608
9796.000000;0.931163
9795.000000;0.930257
9794.000000;0.930865
9793.000000;0.932387
9792.000000;0.933317
9791.000000;0.932945
9790.000000;0.932000
9789.000000;0.931547
9788.000000;0.931711
9787.000000;0.931711
9786.000000;0.930889
9785.000000;0.929378
9784.000000;0.927838
9783.000000;0.926859
9782.000000;0.926697
9781.000000;0.927260
9780.000000;0.928047
9779.000000;0.928231
9778.000000;0.927250
9777.000000;0.925480
9776.000000;0.924044
9775.000000;0.923714
9774.000000;0.924146
9773.000000;0.924429
9772.000000;0.924240
9771.000000;0.924095
9770.000000;0.924458
9769.000000;0.925020
9768.000000;0.925101
9767.000000;0.924480
9766.000000;0.923509
9765.000000;0.922535
9764.000000;0.921566
9763.000000;0.920554
9762.000000;0.919766
9761.000000;0.919632
9760.000000;0.920234
9759.000000;0.920968
9758.000000;0.920895
9757.000000;0.919629
9756.000000;0.917930
9755.000000;0.917140
9754.000000;0.917865
9753.000000;0.919310
9752.000000;0.920100
9751.000000;0.919709
9750.000000;0.918832
9749.000000;0.918361
9748.000000;0.918340
9747.000000;0.918092
9746.000000;0.917090
9745.000000;0.915454
9744.000000;0.913702
9743.000000;0.912338
9742.000000;0.911685
9741.000000;0.911817
9740.000000;0.912414
9739.000000;0.912882
9738.000000;0.912874
9737.000000;0.912655
9736.000000;0.912702
9735.000000;0.912931
9734.000000;0.912627
9733.000000;0.911369
9732.000000;0.909794
9731.000000;0.909080
9730.000000;0.909734
9729.000000;0.911132
9728.000000;0.912269
9727.000000;0.912620
9726.000000;0.912226
9725.000000;0.911337
9724.000000;0.910294
9723.000000;0.909471
9722.000000;0.908973
9721.000000;0.908470
9720.000000;0.907705
9719.000000;0.907100
9718.000000;0.907443
9717.000000;0.908858
9716.000000;0.910377
9715.000000;0.910827
9714.000000;0.909983
9713.000000;0.908653
9712.000000;0.907768
9711.000000;0.907605
9710.000000;0.907796
9709.000000;0.907858
9708.000000;0.907663
9707.000000;0.907464
9706.000000;0.907441
9705.000000;0.907256
9704.000000;0.906260
9703.000000;0.904316
9702.000000;0.902223
9701.000000;0.901002
9700.000000;0.900807
9699.000000;0.900833
9698.000000;0.900371
9697.000000;0.899690
9696.000000;0.899686
9695.000000;0.900823
9694.000000;0.902645
9693.000000;0.904209
9692.000000;0.904817
9691.000000;0.904335
9690.000000;0.903046
9689.000000;0.901363
9688.000000;0.899643
9687.000000;0.898162
9686.000000;0.897196
9685.000000;0.896991
9684.000000;0.897540
9683.000000;0.898393
9682.000000;0.898849
9681.000000;0.898465
9680.000000;0.897411
9679.000000;0.896315
9678.000000;0.895774
9677.000000;0.895956
9676.000000;0.896546
9675.000000;0.897033
9674.000000;0.897126
9673.000000;0.896956
9672.000000;0.896841
9671.000000;0.896847
9670.000000;0.896642
9669.000000;0.895822
9668.000000;0.894363
9667.000000;0.892747
9666.000000;0.891654
9665.000000;0.891496
9664.000000;0.892105
9663.000000;0.892811
9662.000000;0.892975
9661.000000;0.892590
9660.000000;0.892294
9659.000000;0.892614
9658.000000;0.893217
9657.000000;0.893129
9656.000000;0.891756
9655.000000;0.889589
9654.000000;0.887795
9653.000000;0.887228
9652.000000;0.887898
9651.000000;0.889197
9650.000000;0.890392
9649.000000;0.891020
9648.000000;0.891079
9647.000000;0.890906
9646.000000;0.890741
9645.000000;0.890407
9644.000000;0.889589
9643.000000;0.888428
9642.000000;0.887576
9641.000000;0.887516
9640.000000;0.888036
9639.000000;0.888532
9638.000000;0.888630
9637.000000;0.888304
9636.000000;0.887556
9635.000000;0.886379
9634.000000;0.885039
9633.000000;0.884068
9632.000000;0.883812
9631.000000;0.884130
9630.000000;0.884581
9629.000000;0.884771
9628.000000;0.884512
9627.000000;0.883897
9626.000000;0.883322
9625.000000;0.883249
9624.000000;0.883775
9623.000000;0.884509
9622.000000;0.884933
9621.000000;0.884821
9620.000000;0.884315
9619.000000;0.883786
9618.000000;0.883622
9617.000000;0.883881
9616.000000;0.884011
9615.000000;0.883230
9614.000000;0.881436
9613.000000;0.879497
9612.000000;0.878348
9611.000000;0.877997
9610.000000;0.877721
9609.000000;0.877092
9608.000000;0.876466
9607.000000;0.876444
9606.000000;0.877175
9605.000000;0.878211
9604.000000;0.878825
9603.000000;0.878451
9602.000000;0.877107
9601.000000;0.875468
9600.000000;0.874378
9599.000000;0.874224
9598.000000;0.874816
9597.000000;0.875709
9596.000000;0.876475
9595.000000;0.876803
9594.000000;0.876642
9593.000000;0.876198
9592.000000;0.875571
9591.000000;0.874550
9590.000000;0.873065
9589.000000;0.871628
9588.000000;0.870850
9587.000000;0.870599
9586.000000;0.870167
9585.000000;0.869325
9584.000000;0.868667
9583.000000;0.868766
9582.000000;0.869520
9581.000000;0.870529
9580.000000;0.871541
9579.000000;0.872205
9578.000000;0.872003
9577.000000;0.870938
9576.000000;0.869845
9575.000000;0.869419
9574.000000;0.869300
9573.000000;0.868711
9572.000000;0.867727
9571.000000;0.867132
9570.000000;0.867139
9569.000000;0.867077
9568.000000;0.866477
9567.000000;0.865776
9566.000000;0.865599
9565.000000;0.865896
9564.000000;0.866167
9563.000000;0.866190
9562.000000;0.866074
9561.000000;0.865825
9560.000000;0.865294
9559.000000;0.864491
9558.000000;0.863625
9557.000000;0.862862
9556.000000;0.862246
9555.000000;0.861864
9554.000000;0.861885
9553.000000;0.862356
9552.000000;0.863034
9551.000000;0.863486
9550.000000;0.863397
9549.000000;0.862847
9548.000000;0.862250
9547.000000;0.861935
9546.000000;0.861787
9545.000000;0.861407
9544.000000;0.860585
9543.000000;0.859492
9542.000000;0.858402
9541.000000;0.857449
9540.000000;0.856759
9539.000000;0.856603
9538.000000;0.857178
9537.000000;0.858283
9536.000000;0.859381
9535.000000;0.860020
9534.000000;0.860167
9533.000000;0.860070
9532.000000;0.859893
9531.000000;0.859554
9530.000000;0.858965
9529.000000;0.858338
9528.000000;0.858074
9527.000000;0.858280
9526.000000;0.858561
9525.000000;0.858475
9524.000000;0.858072
9523.000000;0.857696
9522.000000;0.857362
9521.000000;0.856695
9520.000000;0.855616
9519.000000;0.854703
9518.000000;0.854542
9517.000000;0.854899
9516.000000;0.854916
9515.000000;0.854140
9514.000000;0.853063
9513.000000;0.852539
9512.000000;0.852831
9511.000000;0.853430
9510.000000;0.853725
9509.000000;0.853651
9508.000000;0.853580
9507.000000;0.853675
9506.000000;0.853521
9505.000000;0.852565
9504.000000;0.850870
9503.000000;0.849256
9502.000000;0.848531
9501.000000;0.848704
9500.000000;0.849109
9499.000000;0.849252
9498.000000;0.849295
9497.000000;0.849604
9496.000000;0.850074
9495.000000;0.850184
9494.000000;0.849655
9493.000000;0.848794
9492.000000;0.848129
9491.000000;0.847911
9490.000000;0.848017
9489.000000;0.848117
9488.000000;0.847814
9487.000000;0.846867
9486.000000;0.845569
9485.000000;0.844758
9484.000000;0.845091
9483.000000;0.846261
9482.000000;0.847224
9481.000000;0.847292
9480.000000;0.846776
9479.000000;0.846419
9478.000000;0.846540
9477.000000;0.846947
9476.000000;0.847424
9475.000000;0.847923
9474.000000;0.848326
9473.000000;0.848352
9472.000000;0.847757
9471.000000;0.846504
9470.000000;0.844797
9469.000000;0.843132
9468.000000;0.842189
9467.000000;0.842340
9466.000000;0.843172
9465.000000;0.843754
9464.000000;0.843495
9463.000000;0.842578
9462.000000;0.841517
9461.000000;0.840601
9460.000000;0.839962
9459.000000;0.839867
9458.000000;0.840541
9457.000000;0.841696
9456.000000;0.842583
9455.000000;0.842674
9454.000000;0.842178
9453.000000;0.841775
9452.000000;0.841935
9451.000000;0.842580
9450.000000;0.843270
9449.000000;0.843551
9448.000000;0.843167
9447.000000;0.842158
9446.000000;0.840855
9445.000000;0.839662
9444.000000;0.838732
9443.000000;0.837902
9442.000000;0.836977
9441.000000;0.835985
9440.000000;0.835097
9439.000000;0.834404
9438.000000;0.833955
9437.000000;0.833919
9436.000000;0.834489
9435.000000;0.835581
9434.000000;0.836770
9433.000000;0.837581
9432.000000;0.837742
9431.000000;0.837195
9430.000000;0.836090
9429.000000;0.834840
9428.000000;0.833937
9427.000000;0.833544
9426.000000;0.833398
9425.000000;0.833233
9424.000000;0.833102
9423.000000;0.833143
9422.000000;0.833232
9421.000000;0.833146
9420.000000;0.832934
9419.000000;0.832809
9418.000000;0.832704
9417.000000;0.832252
9416.000000;0.831307
9415.000000;0.830276
9414.000000;0.829817
9413.000000;0.830255
9412.000000;0.831258
9411.000000;0.831996
9410.000000;0.831697
9409.000000;0.830306
9408.000000;0.828595
9407.000000;0.827535
9406.000000;0.827507
9405.000000;0.828091
9404.000000;0.828538
9403.000000;0.828379
9402.000000;0.827729
9401.000000;0.827167
9400.000000;0.827246
9399.000000;0.827921
9398.000000;0.828517
9397.000000;0.828434
9396.000000;0.827817
9395.000000;0.827348
9394.000000;0.827459
9393.000000;0.827984
9392.000000;0.828517
9391.000000;0.828783
9390.000000;0.828677
9389.000000;0.828259
9388.000000;0.827781
9387.000000;0.827426
9386.000000;0.826984
9385.000000;0.826074
9384.000000;0.824774
9383.000000;0.823750
9382.000000;0.823607
9381.000000;0.824332
9380.000000;0.825392
9379.000000;0.826131
9378.000000;0.826048
9377.000000;0.825074
9376.000000;0.823755
9375.000000;0.822887
9374.000000;0.822786
9373.000000;0.823106
9372.000000;0.823493
9371.000000;0.824011
9370.000000;0.824695
9369.000000;0.825097
9368.000000;0.824696
9367.000000;0.823557
9366.000000;0.822191
9365.000000;0.820970
9364.000000;0.820033
9363.000000;0.819553
9362.000000;0.819585
9361.000000;0.819741
9360.000000;0.819518
9359.000000;0.818981
9358.000000;0.818672
9357.000000;0.818758
9356.000000;0.818782
9355.000000;0.818431
9354.000000;0.818102
9353.000000;0.818342
9352.000000;0.819044
9351.000000;0.819569
9350.000000;0.819523
9349.000000;0.819061
9348.000000;0.818498
9347.000000;0.817998
9346.000000;0.817686
9345.000000;0.817759
9344.000000;0.818234
9343.000000;0.818730
9342.000000;0.818732
9341.000000;0.818149
9340.000000;0.817483
9339.000000;0.817304
9338.000000;0.817600
9337.000000;0.817782
9336.000000;0.817397
9335.000000;0.816649
9334.000000;0.816141
9333.000000;0.816215
9332.000000;0.816692
9331.000000;0.817124
9330.000000;0.817117
9329.000000;0.816504
9328.000000;0.815452
9327.000000;0.814446
9326.000000;0.813946
9325.000000;0.813991
9324.000000;0.814260
9323.000000;0.814509
9322.000000;0.814773
9321.000000;0.815103
9320.000000;0.815383
9319.000000;0.815518
9318.000000;0.815590
9317.000000;0.815635
9316.000000;0.815443
9315.000000;0.814793
9314.000000;0.813788
9313.000000;0.812737
9312.000000;0.811797
9311.000000;0.810962
9310.000000;0.810328
9309.000000;0.810074
9308.000000;0.810127
9307.000000;0.810111
9306.000000;0.809799
9305.000000;0.809450
9304.000000;0.809552
9303.000000;0.810260
9302.000000;0.811243
9301.000000;0.811997
9300.000000;0.812176
9299.000000;0.811668
9298.000000;0.810575
9297.000000;0.809266
9296.000000;0.808294
9295.000000;0.808069
9294.000000;0.808495
9293.000000;0.808987
9292.000000;0.808945
9291.000000;0.808286
9290.000000;0.807481
9289.000000;0.807061
9288.000000;0.807112
9287.000000;0.807308
9286.000000;0.807337
9285.000000;0.807197
9284.000000;0.807062
9283.000000;0.806995
9282.000000;0.806968
9281.000000;0.807080
9280.000000;0.807494
9279.000000;0.808106
9278.000000;0.808498
9277.000000;0.808376
9276.000000;0.807915
9275.000000;0.807463
9274.000000;0.807000
9273.000000;0.806173
9272.000000;0.804891
9271.000000;0.803646
9270.000000;0.803086
9269.000000;0.803368
9268.000000;0.804032
9267.000000;0.804433
9266.000000;0.804270
9265.000000;0.803759
9264.000000;0.803383
9263.000000;0.803423
9262.000000;0.803754
9261.000000;0.804110
9260.000000;0.804504
9259.000000;0.805152
9258.000000;0.805947
9257.000000;0.806311
9256.000000;0.805783
9255.000000;0.804632
9254.000000;0.803603
9253.000000;0.803133
9252.000000;0.803044
9251.000000;0.802939
9250.000000;0.802649
9249.000000;0.802219
9248.000000;0.801697
9247.000000;0.801120
9246.000000;0.800608
9245.000000;0.800302
9244.000000;0.800210
9243.000000;0.800211
9242.000000;0.800258
9241.000000;0.800541
9240.000000;0.801356
9239.000000;0.802711
9238.000000;0.804067
9237.000000;0.804654
9236.000000;0.804193
9235.000000;0.803173
9234.000000;0.802308
9233.000000;0.801869
9232.000000;0.801704
9231.000000;0.801712
9230.000000;0.801896
9229.000000;0.802030
9228.000000;0.801714
9227.000000;0.800917
9226.000000;0.800120
9225.000000;0.799701
9224.000000;0.799486
9223.000000;0.799140
9222.000000;0.798748
9221.000000;0.798669
9220.000000;0.798915
9219.000000;0.799055
9218.000000;0.798759
9217.000000;0.798198
9216.000000;0.797804
9215.000000;0.797799
9214.000000;0.798024
9213.000000;0.798121
9212.000000;0.797832
9211.000000;0.797218
9210.000000;0.796575
9209.000000;0.796115
9208.000000;0.795813
9207.000000;0.795642
9206.000000;0.795786
9205.000000;0.796347
9204.000000;0.796931
9203.000000;0.796875
9202.000000;0.795998
9201.000000;0.794834
9200.000000;0.793985
9199.000000;0.793495
9198.000000;0.793117
9197.000000;0.792919
9196.000000;0.793261
9195.000000;0.794189
9194.000000;0.795205
9193.000000;0.795697
9192.000000;0.795422
9191.000000;0.794552
9190.000000;0.793464
9189.000000;0.792582
9188.000000;0.792157
9187.000000;0.792010
9186.000000;0.791652
9185.000000;0.790872
9184.000000;0.790083
9183.000000;0.789871
9182.000000;0.790268
9181.000000;0.790705
9180.000000;0.790661
9179.000000;0.790156
9178.000000;0.789583
9177.000000;0.789291
9176.000000;0.789382
9175.000000;0.789703
9174.000000;0.789888
9173.000000;0.789599
9172.000000;0.788876
9171.000000;0.788150
9170.000000;0.787773
9169.000000;0.787684
9168.000000;0.787672
9167.000000;0.787795
9166.000000;0.788247
9165.000000;0.788916
9164.000000;0.789372
9163.000000;0.789371
9162.000000;0.789088
9161.000000;0.788797
9160.000000;0.788562
9159.000000;0.788388
9158.000000;0.788415
9157.000000;0.788717
9156.000000;0.789059
9155.000000;0.789081
9154.000000;0.788756
9153.000000;0.788476
9152.000000;0.788656
9151.000000;0.789304
9150.000000;0.790006
9149.000000;0.790272
9148.000000;0.789932
9147.000000;0.789258
9146.000000;0.788669
9145.000000;0.788306
9144.000000;0.787957
9143.000000;0.787415
9142.000000;0.786761
9141.000000;0.786178
9140.000000;0.785669
9139.000000;0.785129
9138.000000;0.784631
9137.000000;0.784374
9136.000000;0.784357
9135.000000;0.784347
9134.000000;0.784263
9133.000000;0.784371
9132.000000;0.784919
9131.000000;0.785684
9130.000000;0.786097
9129.000000;0.785812
9128.000000;0.785046
9127.000000;0.784316
9126.000000;0.783960
9125.000000;0.783965
9124.000000;0.784164
9123.000000;0.784443
9122.000000;0.784735
9121.000000;0.784929
9120.000000;0.784963
9119.000000;0.784972
9118.000000;0.785162
9117.000000;0.785472
9116.000000;0.785532
9115.000000;0.785105
9114.000000;0.784436
9113.000000;0.783987
9112.000000;0.783894
9111.000000;0.783885
9110.000000;0.783657
9109.000000;0.783120
9108.000000;0.782294
9107.000000;0.781271
9106.000000;0.780348
9105.000000;0.779951
9104.000000;0.780233
9103.000000;0.780935
9102.000000;0.781779
9101.000000;0.782765
9100.000000;0.783865
9099.000000;0.784624
9098.000000;0.784466
9097.000000;0.783382
9096.000000;0.782015
9095.000000;0.781026
9094.000000;0.780620
9093.000000;0.780665
9092.000000;0.780963
9091.000000;0.781293
9090.000000;0.781433
9089.000000;0.781351
9088.000000;0.781229
9087.000000;0.781200
9086.000000;0.781179
9085.000000;0.781061
9084.000000;0.780888
9083.000000;0.780699
9082.000000;0.780392
9081.000000;0.779907
9080.000000;0.779402
9079.000000;0.779041
9078.000000;0.778773
9077.000000;0.778533
9076.000000;0.778513
9075.000000;0.778895
9074.000000;0.779415
9073.000000;0.779529
9072.000000;0.779100
9071.000000;0.778572
9070.000000;0.778361
9069.000000;0.778354
9068.000000;0.778206
9067.000000;0.777893
9066.000000;0.777727
9065.000000;0.777908
9064.000000;0.778277
9063.000000;0.778491
9062.000000;0.778350
9061.000000;0.777966
9060.000000;0.777645
9059.000000;0.777546
9058.000000;0.777457
9057.000000;0.777041
9056.000000;0.776319
9055.000000;0.775711
9054.000000;0.775548
9053.000000;0.775762
