Criado como novo conjunto de dados;"e0108.spp","-4294245.3 Secs"
cm-1;Abs
10000.000000;-0.159701
9999.000000;-0.159905
9998.000000;-0.160092
9997.000000;-0.160356
9996.000000;-0.160821
9995.000000;-0.161392
9994.000000;-0.161839
9993.000000;-0.162112
9992.000000;-0.162387
9991.000000;-0.162799
9990.000000;-0.163279
9989.000000;-0.163721
9988.000000;-0.164149
9987.000000;-0.164616
9986.000000;-0.165071
9985.000000;-0.165449
9984.000000;-0.165839
9983.000000;-0.166394
9982.000000;-0.167090
9981.000000;-0.167690
9980.000000;-0.167975
9979.000000;-0.167946
9978.000000;-0.167754
9977.000000;-0.167509
9976.000000;-0.167207
9975.000000;-0.166842
9974.000000;-0.166536
9973.000000;-0.166546
9972.000000;-0.167090
9971.000000;-0.168137
9970.000000;-0.169366
9969.000000;-0.170371
9968.000000;-0.170937
9967.000000;-0.171131
9966.000000;-0.171170
9965.000000;-0.171239
9964.000000;-0.171416
9963.000000;-0.171663
9962.000000;-0.171849
9961.000000;-0.171874
9960.000000;-0.171825
9959.000000;-0.171989
9958.000000;-0.172600
9957.000000;-0.173575
9956.000000;-0.174524
9955.000000;-0.175071
9954.000000;-0.175183
9953.000000;-0.175167
9952.000000;-0.175374
9951.000000;-0.175908
9950.000000;-0.176600
9949.000000;-0.177207
9948.000000;-0.177578
9947.000000;-0.177684
9946.000000;-0.177595
9945.000000;-0.177507
9944.000000;-0.177687
9943.000000;-0.178256
9942.000000;-0.179034
9941.000000;-0.179745
9940.000000;-0.180322
9939.000000;-0.180879
9938.000000;-0.181370
9937.000000;-0.181494
9936.000000;-0.181084
9935.000000;-0.180455
9934.000000;-0.180177
9933.000000;-0.180553
9932.000000;-0.181404
9931.000000;-0.182319
9930.000000;-0.182974
9929.000000;-0.183272
9928.000000;-0.183329
9927.000000;-0.183356
9926.000000;-0.183470
9925.000000;-0.183619
9924.000000;-0.183755
9923.000000;-0.184013
9922.000000;-0.184573
9921.000000;-0.185376
9920.000000;-0.186114
9919.000000;-0.186549
9918.000000;-0.186683
9917.000000;-0.186623
9916.000000;-0.186438
9915.000000;-0.186200
9914.000000;-0.186058
9913.000000;-0.186171
9912.000000;-0.186619
9911.000000;-0.187386
9910.000000;-0.188338
9909.000000;-0.189212
9908.000000;-0.189777
9907.000000;-0.190072
9906.000000;-0.190355
9905.000000;-0.190754
9904.000000;-0.191096
9903.000000;-0.191183
9902.000000;-0.191108
9901.000000;-0.191148
9900.000000;-0.191432
9899.000000;-0.191847
9898.000000;-0.192239
9897.000000;-0.192578
9896.000000;-0.192910
9895.000000;-0.193253
9894.000000;-0.193570
9893.000000;-0.193804
9892.000000;-0.193938
9891.000000;-0.194045
9890.000000;-0.194245
9889.000000;-0.194570
9888.000000;-0.194913
9887.000000;-0.195147
9886.000000;-0.195279
9885.000000;-0.195447
9884.000000;-0.195814
9883.000000;-0.196450
9882.000000;-0.197266
9881.000000;-0.198037
9880.000000;-0.198575
9879.000000;-0.198897
9878.000000;-0.199187
9877.000000;-0.199557
9876.000000;-0.199950
9875.000000;-0.200287
9874.000000;-0.200589
9873.000000;-0.200866
9872.000000;-0.201014
9871.000000;-0.200935
9870.000000;-0.200727
9869.000000;-0.200649
9868.000000;-0.200929
9867.000000;-0.201609
9866.000000;-0.202522
9865.000000;-0.203357
9864.000000;-0.203857
9863.000000;-0.204043
9862.000000;-0.204165
9861.000000;-0.204376
9860.000000;-0.204559
9859.000000;-0.204559
9858.000000;-0.204449
9857.000000;-0.204404
9856.000000;-0.204413
9855.000000;-0.204340
9854.000000;-0.204230
9853.000000;-0.204347
9852.000000;-0.204821
9851.000000;-0.205441
9850.000000;-0.205885
9849.000000;-0.206074
9848.000000;-0.206220
9847.000000;-0.206581
9846.000000;-0.207226
9845.000000;-0.208020
9844.000000;-0.208758
9843.000000;-0.209327
9842.000000;-0.209754
9841.000000;-0.210159
9840.000000;-0.210661
9839.000000;-0.211266
9838.000000;-0.211798
9837.000000;-0.211972
9836.000000;-0.211666
9835.000000;-0.211159
9834.000000;-0.210964
9833.000000;-0.211382
9832.000000;-0.212254
9831.000000;-0.213169
9830.000000;-0.213781
9829.000000;-0.213943
9828.000000;-0.213744
9827.000000;-0.213525
9826.000000;-0.213680
9825.000000;-0.214255
9824.000000;-0.214876
9823.000000;-0.215224
9822.000000;-0.215449
9821.000000;-0.215910
9820.000000;-0.216645
9819.000000;-0.217368
9818.000000;-0.217888
9817.000000;-0.218268
9816.000000;-0.218576
9815.000000;-0.218778
9814.000000;-0.218896
9813.000000;-0.219034
9812.000000;-0.219196
9811.000000;-0.219286
9810.000000;-0.219337
9809.000000;-0.219518
9808.000000;-0.219848
9807.000000;-0.220121
9806.000000;-0.220198
9805.000000;-0.220181
9804.000000;-0.220243
9803.000000;-0.220446
9802.000000;-0.220822
9801.000000;-0.221398
9800.000000;-0.222038
9799.000000;-0.222484
9798.000000;-0.222703
9797.000000;-0.222986
9796.000000;-0.223506
9795.000000;-0.223980
9794.000000;-0.224026
9793.000000;-0.223731
9792.000000;-0.223603
9791.000000;-0.223970
9790.000000;-0.224654
9789.000000;-0.225250
9788.000000;-0.225527
9787.000000;-0.225544
9786.000000;-0.225524
9785.000000;-0.225680
9784.000000;-0.226066
9783.000000;-0.226550
9782.000000;-0.226947
9781.000000;-0.227202
9780.000000;-0.227417
9779.000000;-0.227742
9778.000000;-0.228251
9777.000000;-0.228864
9776.000000;-0.229345
9775.000000;-0.229472
9774.000000;-0.229296
9773.000000;-0.229145
9772.000000;-0.229254
9771.000000;-0.229512
9770.000000;-0.229733
9769.000000;-0.230037
9768.000000;-0.230725
9767.000000;-0.231772
9766.000000;-0.232722
9765.000000;-0.233192
9764.000000;-0.233270
9763.000000;-0.233294
9762.000000;-0.233410
9761.000000;-0.233529
9760.000000;-0.233603
9759.000000;-0.233710
9758.000000;-0.233887
9757.000000;-0.234063
9756.000000;-0.234224
9755.000000;-0.234485
9754.000000;-0.234914
9753.000000;-0.235367
9752.000000;-0.235634
9751.000000;-0.235701
9750.000000;-0.235765
9749.000000;-0.235997
9748.000000;-0.236376
9747.000000;-0.236760
9746.000000;-0.237046
9745.000000;-0.237230
9744.000000;-0.237407
9743.000000;-0.237727
9742.000000;-0.238265
9741.000000;-0.238873
9740.000000;-0.239266
9739.000000;-0.239352
9738.000000;-0.239385
9737.000000;-0.239684
9736.000000;-0.240246
9735.000000;-0.240776
9734.000000;-0.241050
9733.000000;-0.241115
9732.000000;-0.241120
9731.000000;-0.241147
9730.000000;-0.241220
9729.000000;-0.241358
9728.000000;-0.241545
9727.000000;-0.241774
9726.000000;-0.242146
9725.000000;-0.242782
9724.000000;-0.243572
9723.000000;-0.244198
9722.000000;-0.244521
9721.000000;-0.244783
9720.000000;-0.245253
9719.000000;-0.245816
9718.000000;-0.246091
9717.000000;-0.245924
9716.000000;-0.245570
9715.000000;-0.245399
9714.000000;-0.245577
9713.000000;-0.246004
9712.000000;-0.246408
9711.000000;-0.246494
9710.000000;-0.246182
9709.000000;-0.245748
9708.000000;-0.245617
9707.000000;-0.245958
9706.000000;-0.246571
9705.000000;-0.247175
9704.000000;-0.247694
9703.000000;-0.248220
9702.000000;-0.248798
9701.000000;-0.249351
9700.000000;-0.249766
9699.000000;-0.249981
9698.000000;-0.250034
9697.000000;-0.250054
9696.000000;-0.250135
9695.000000;-0.250192
9694.000000;-0.250044
9693.000000;-0.249704
9692.000000;-0.249503
9691.000000;-0.249821
9690.000000;-0.250703
9689.000000;-0.251833
9688.000000;-0.252861
9687.000000;-0.253669
9686.000000;-0.254286
9685.000000;-0.254680
9684.000000;-0.254751
9683.000000;-0.254531
9682.000000;-0.254257
9681.000000;-0.254195
9680.000000;-0.254416
9679.000000;-0.254775
9678.000000;-0.255070
9677.000000;-0.255164
9676.000000;-0.254997
9675.000000;-0.254640
9674.000000;-0.254358
9673.000000;-0.254493
9672.000000;-0.255148
9671.000000;-0.256049
9670.000000;-0.256815
9669.000000;-0.257329
9668.000000;-0.257758
9667.000000;-0.258238
9666.000000;-0.258687
9665.000000;-0.258958
9664.000000;-0.259056
9663.000000;-0.259116
9662.000000;-0.259238
9661.000000;-0.259433
9660.000000;-0.259692
9659.000000;-0.260042
9658.000000;-0.260499
9657.000000;-0.261003
9656.000000;-0.261423
9655.000000;-0.261674
9654.000000;-0.261805
9653.000000;-0.261923
9652.000000;-0.262041
9651.000000;-0.262086
9650.000000;-0.262104
9649.000000;-0.262326
9648.000000;-0.262899
9647.000000;-0.263625
9646.000000;-0.264138
9645.000000;-0.264310
9644.000000;-0.264311
9643.000000;-0.264300
9642.000000;-0.264269
9641.000000;-0.264247
9640.000000;-0.264423
9639.000000;-0.264909
9638.000000;-0.265533
9637.000000;-0.266024
9636.000000;-0.266296
9635.000000;-0.266421
9634.000000;-0.266448
9633.000000;-0.266445
9632.000000;-0.266610
9631.000000;-0.267094
9630.000000;-0.267736
9629.000000;-0.268161
9628.000000;-0.268210
9627.000000;-0.268087
9626.000000;-0.268075
9625.000000;-0.268261
9624.000000;-0.268613
9623.000000;-0.269128
9622.000000;-0.269768
9621.000000;-0.270356
9620.000000;-0.270669
9619.000000;-0.270638
9618.000000;-0.270392
9617.000000;-0.270140
9616.000000;-0.270059
9615.000000;-0.270243
9614.000000;-0.270668
9613.000000;-0.271224
9612.000000;-0.271821
9611.000000;-0.272421
9610.000000;-0.272968
9609.000000;-0.273334
9608.000000;-0.273417
9607.000000;-0.273260
9606.000000;-0.273009
9605.000000;-0.272780
9604.000000;-0.272633
9603.000000;-0.272660
9602.000000;-0.272996
9601.000000;-0.273700
9600.000000;-0.274621
9599.000000;-0.275407
9598.000000;-0.275722
9597.000000;-0.275535
9596.000000;-0.275211
9595.000000;-0.275239
9594.000000;-0.275800
9593.000000;-0.276621
9592.000000;-0.277278
9591.000000;-0.277590
9590.000000;-0.277684
9589.000000;-0.277771
9588.000000;-0.277955
9587.000000;-0.278245
9586.000000;-0.278597
9585.000000;-0.278918
9584.000000;-0.279100
9583.000000;-0.279107
9582.000000;-0.279017
9581.000000;-0.278953
9580.000000;-0.279013
9579.000000;-0.279254
9578.000000;-0.279686
9577.000000;-0.280258
9576.000000;-0.280863
9575.000000;-0.281408
9574.000000;-0.281857
9573.000000;-0.282202
9572.000000;-0.282433
9571.000000;-0.282555
9570.000000;-0.282629
9569.000000;-0.282763
9568.000000;-0.283048
9567.000000;-0.283490
9566.000000;-0.284001
9565.000000;-0.284440
9564.000000;-0.284666
9563.000000;-0.284590
9562.000000;-0.284238
9561.000000;-0.283801
9560.000000;-0.283589
9559.000000;-0.283859
9558.000000;-0.284618
9557.000000;-0.285589
9556.000000;-0.286392
9555.000000;-0.286773
9554.000000;-0.286736
9553.000000;-0.286530
9552.000000;-0.286492
9551.000000;-0.286801
9550.000000;-0.287322
9549.000000;-0.287725
9548.000000;-0.287802
9547.000000;-0.287666
9546.000000;-0.287630
9545.000000;-0.287929
9544.000000;-0.288578
9543.000000;-0.289394
9542.000000;-0.290087
9541.000000;-0.290419
9540.000000;-0.290368
9539.000000;-0.290103
9538.000000;-0.289768
9537.000000;-0.289343
9536.000000;-0.288813
9535.000000;-0.288360
9534.000000;-0.288248
9533.000000;-0.288538
9532.000000;-0.289079
9531.000000;-0.289761
9530.000000;-0.290607
9529.000000;-0.291556
9528.000000;-0.292338
9527.000000;-0.292677
9526.000000;-0.292556
9525.000000;-0.292194
9524.000000;-0.291853
9523.000000;-0.291755
9522.000000;-0.292082
9521.000000;-0.292874
9520.000000;-0.293873
9519.000000;-0.294610
9518.000000;-0.294771
9517.000000;-0.294474
9516.000000;-0.294136
9515.000000;-0.294058
9514.000000;-0.294193
9513.000000;-0.294336
9512.000000;-0.294436
9511.000000;-0.294629
9510.000000;-0.294947
9509.000000;-0.295181
9508.000000;-0.295158
9507.000000;-0.295054
9506.000000;-0.295249
9505.000000;-0.295839
9504.000000;-0.296469
9503.000000;-0.296723
9502.000000;-0.296587
9501.000000;-0.296416
9500.000000;-0.296517
9499.000000;-0.296870
9498.000000;-0.297237
9497.000000;-0.297465
9496.000000;-0.297622
9495.000000;-0.297865
9494.000000;-0.298216
9493.000000;-0.298522
9492.000000;-0.298670
9491.000000;-0.298758
9490.000000;-0.298969
9489.000000;-0.299320
9488.000000;-0.299662
9487.000000;-0.299947
9486.000000;-0.300306
9485.000000;-0.300810
9484.000000;-0.301265
9483.000000;-0.301389
9482.000000;-0.301145
9481.000000;-0.300802
9480.000000;-0.300700
9479.000000;-0.301000
9478.000000;-0.301634
9477.000000;-0.302391
9476.000000;-0.303044
9475.000000;-0.303448
9474.000000;-0.303564
9473.000000;-0.303458
9472.000000;-0.303318
9471.000000;-0.303416
9470.000000;-0.303894
9469.000000;-0.304540
9468.000000;-0.304914
9467.000000;-0.304780
9466.000000;-0.304351
9465.000000;-0.304042
9464.000000;-0.304090
9463.000000;-0.304497
9462.000000;-0.305166
9461.000000;-0.305930
9460.000000;-0.306510
9459.000000;-0.306666
9458.000000;-0.306434
9457.000000;-0.306092
9456.000000;-0.305907
9455.000000;-0.305966
9454.000000;-0.306204
9453.000000;-0.306458
9452.000000;-0.306541
9451.000000;-0.306415
9450.000000;-0.306316
9449.000000;-0.306532
9448.000000;-0.307048
9447.000000;-0.307532
9446.000000;-0.307709
9445.000000;-0.307620
9444.000000;-0.307462
9443.000000;-0.307355
9442.000000;-0.307377
9441.000000;-0.307699
9440.000000;-0.308457
9439.000000;-0.309510
9438.000000;-0.310430
9437.000000;-0.310838
9436.000000;-0.310716
9435.000000;-0.310403
9434.000000;-0.310296
9433.000000;-0.310564
9432.000000;-0.311089
9431.000000;-0.311621
9430.000000;-0.311982
9429.000000;-0.312126
9428.000000;-0.312090
9427.000000;-0.311947
9426.000000;-0.311774
9425.000000;-0.311626
9424.000000;-0.311539
9423.000000;-0.311603
9422.000000;-0.311960
9421.000000;-0.312656
9420.000000;-0.313500
9419.000000;-0.314158
9418.000000;-0.314415
9417.000000;-0.314266
9416.000000;-0.313827
9415.000000;-0.313274
9414.000000;-0.312885
9413.000000;-0.312951
9412.000000;-0.313513
9411.000000;-0.314269
9410.000000;-0.314859
9409.000000;-0.315202
9408.000000;-0.315472
9407.000000;-0.315783
9406.000000;-0.316021
9405.000000;-0.316006
9404.000000;-0.315752
9403.000000;-0.315489
9402.000000;-0.315461
9401.000000;-0.315750
9400.000000;-0.316267
9399.000000;-0.316874
9398.000000;-0.317449
9397.000000;-0.317888
9396.000000;-0.318130
9395.000000;-0.318218
9394.000000;-0.318280
9393.000000;-0.318358
9392.000000;-0.318349
9391.000000;-0.318171
9390.000000;-0.317964
9389.000000;-0.317967
9388.000000;-0.318242
9387.000000;-0.318614
9386.000000;-0.318910
9385.000000;-0.319103
9384.000000;-0.319237
9383.000000;-0.319346
9382.000000;-0.319507
9381.000000;-0.319812
9380.000000;-0.320217
9379.000000;-0.320551
9378.000000;-0.320757
9377.000000;-0.320978
9376.000000;-0.321282
9375.000000;-0.321467
9374.000000;-0.321317
9373.000000;-0.320926
9372.000000;-0.320590
9371.000000;-0.320432
9370.000000;-0.320345
9369.000000;-0.320275
9368.000000;-0.320336
9367.000000;-0.320624
9366.000000;-0.321096
9365.000000;-0.321694
9364.000000;-0.322403
9363.000000;-0.323134
9362.000000;-0.323674
9361.000000;-0.323858
9360.000000;-0.323704
9359.000000;-0.323350
9358.000000;-0.322982
9357.000000;-0.322837
9356.000000;-0.323091
9355.000000;-0.323631
9354.000000;-0.324086
9353.000000;-0.324218
9352.000000;-0.324182
9351.000000;-0.324267
9350.000000;-0.324532
9349.000000;-0.324862
9348.000000;-0.325257
9347.000000;-0.325808
9346.000000;-0.326405
9345.000000;-0.326730
9344.000000;-0.326639
9343.000000;-0.326373
9342.000000;-0.326263
9341.000000;-0.326367
9340.000000;-0.326502
9339.000000;-0.326530
9338.000000;-0.326491
9337.000000;-0.326478
9336.000000;-0.326526
9335.000000;-0.326623
9334.000000;-0.326755
9333.000000;-0.326924
9332.000000;-0.327150
9331.000000;-0.327465
9330.000000;-0.327858
9329.000000;-0.328244
9328.000000;-0.328510
9327.000000;-0.328630
9326.000000;-0.328682
9325.000000;-0.328768
9324.000000;-0.328925
9323.000000;-0.329102
9322.000000;-0.329233
9321.000000;-0.329316
9320.000000;-0.329413
9319.000000;-0.329569
9318.000000;-0.329750
9317.000000;-0.329897
9316.000000;-0.330022
9315.000000;-0.330198
9314.000000;-0.330447
9313.000000;-0.330721
9312.000000;-0.330998
9311.000000;-0.331318
9310.000000;-0.331679
9309.000000;-0.331991
9308.000000;-0.332189
9307.000000;-0.332311
9306.000000;-0.332392
9305.000000;-0.332357
9304.000000;-0.332126
9303.000000;-0.331779
9302.000000;-0.331507
9301.000000;-0.331426
9300.000000;-0.331538
9299.000000;-0.331843
9298.000000;-0.332317
9297.000000;-0.332785
9296.000000;-0.332992
9295.000000;-0.332881
9294.000000;-0.332701
9293.000000;-0.332753
9292.000000;-0.333098
9291.000000;-0.333563
9290.000000;-0.333939
9289.000000;-0.334115
9288.000000;-0.334114
9287.000000;-0.334086
9286.000000;-0.334186
9285.000000;-0.334393
9284.000000;-0.334512
9283.000000;-0.334428
9282.000000;-0.334278
9281.000000;-0.334273
9280.000000;-0.334449
9279.000000;-0.334709
9278.000000;-0.335018
9277.000000;-0.335369
9276.000000;-0.335644
9275.000000;-0.335699
9274.000000;-0.335605
9273.000000;-0.335615
9272.000000;-0.335863
9271.000000;-0.336238
9270.000000;-0.336585
9269.000000;-0.336856
9268.000000;-0.337007
9267.000000;-0.336943
9266.000000;-0.336719
9265.000000;-0.336635
9264.000000;-0.336944
9263.000000;-0.337518
9262.000000;-0.337953
9261.000000;-0.337981
9260.000000;-0.337694
9259.000000;-0.337395
9258.000000;-0.337366
9257.000000;-0.337745
9256.000000;-0.338459
9255.000000;-0.339227
9254.000000;-0.339733
9253.000000;-0.339872
9252.000000;-0.339799
9251.000000;-0.339727
9250.000000;-0.339749
9249.000000;-0.339874
9248.000000;-0.340128
9247.000000;-0.340536
9246.000000;-0.341032
9245.000000;-0.341445
9244.000000;-0.341591
9243.000000;-0.341384
9242.000000;-0.340884
9241.000000;-0.340267
9240.000000;-0.339735
9239.000000;-0.339423
9238.000000;-0.339369
9237.000000;-0.339536
9236.000000;-0.339829
9235.000000;-0.340130
9234.000000;-0.340357
9233.000000;-0.340523
9232.000000;-0.340702
9231.000000;-0.340948
9230.000000;-0.341239
9229.000000;-0.341525
9228.000000;-0.341779
9227.000000;-0.342008
9226.000000;-0.342240
9225.000000;-0.342495
9224.000000;-0.342752
9223.000000;-0.342922
9222.000000;-0.342915
9221.000000;-0.342758
9220.000000;-0.342621
9219.000000;-0.342685
9218.000000;-0.342979
9217.000000;-0.343355
9216.000000;-0.343603
9215.000000;-0.343599
9214.000000;-0.343365
9213.000000;-0.343020
9212.000000;-0.342711
9211.000000;-0.342565
9210.000000;-0.342673
9209.000000;-0.343036
9208.000000;-0.343497
9207.000000;-0.343788
9206.000000;-0.343739
9205.000000;-0.343483
9204.000000;-0.343381
9203.000000;-0.343692
9202.000000;-0.344334
9201.000000;-0.345005
9200.000000;-0.345483
9199.000000;-0.345756
9198.000000;-0.345899
9197.000000;-0.345932
9196.000000;-0.345857
9195.000000;-0.345726
9194.000000;-0.345600
9193.000000;-0.345480
9192.000000;-0.345358
9191.000000;-0.345327
9190.000000;-0.345497
9189.000000;-0.345801
9188.000000;-0.345992
9187.000000;-0.345931
9186.000000;-0.345807
9185.000000;-0.345955
9184.000000;-0.346460
9183.000000;-0.347064
9182.000000;-0.347480
9181.000000;-0.347688
9180.000000;-0.347873
9179.000000;-0.348146
9178.000000;-0.348434
9177.000000;-0.348623
9176.000000;-0.348694
9175.000000;-0.348706
9174.000000;-0.348691
9173.000000;-0.348600
9172.000000;-0.348385
9171.000000;-0.348111
9170.000000;-0.347987
9169.000000;-0.348216
9168.000000;-0.348777
9167.000000;-0.349382
9166.000000;-0.349698
9165.000000;-0.349627
9164.000000;-0.349339
9163.000000;-0.349077
9162.000000;-0.348969
9161.000000;-0.349009
9160.000000;-0.349139
9159.000000;-0.349286
9158.000000;-0.349385
9157.000000;-0.349413
9156.000000;-0.349434
9155.000000;-0.349575
9154.000000;-0.349916
9153.000000;-0.350364
9152.000000;-0.350659
9151.000000;-0.350585
9150.000000;-0.350206
9149.000000;-0.349839
9148.000000;-0.349761
9147.000000;-0.349977
9146.000000;-0.350321
9145.000000;-0.350672
9144.000000;-0.350993
9143.000000;-0.351225
9142.000000;-0.351318
9141.000000;-0.351365
9140.000000;-0.351540
9139.000000;-0.351835
9138.000000;-0.352012
9137.000000;-0.351922
9136.000000;-0.351750
9135.000000;-0.351787
9134.000000;-0.352036
9133.000000;-0.352213
9132.000000;-0.352133
9131.000000;-0.351939
9130.000000;-0.351885
9129.000000;-0.352026
9128.000000;-0.352213
9127.000000;-0.352311
9126.000000;-0.352307
9125.000000;-0.352230
9124.000000;-0.352090
9123.000000;-0.351949
9122.000000;-0.351957
9121.000000;-0.352246
9120.000000;-0.352756
9119.000000;-0.353244
9118.000000;-0.353487
9117.000000;-0.353470
9116.000000;-0.353340
9115.000000;-0.353221
9114.000000;-0.353128
9113.000000;-0.353060
9112.000000;-0.353083
9111.000000;-0.353270
9110.000000;-0.353592
9109.000000;-0.353941
9108.000000;-0.354253
9107.000000;-0.354529
9106.000000;-0.354762
9105.000000;-0.354898
9104.000000;-0.354908
9103.000000;-0.354836
9102.000000;-0.354746
9101.000000;-0.354653
9100.000000;-0.354546
9099.000000;-0.354443
9098.000000;-0.354386
9097.000000;-0.354402
9096.000000;-0.354500
