Criado como novo conjunto de dados;"e0108.spp","-4294065.3 Secs"
cm-1;Abs
10000.000000;-0.107512
9999.000000;-0.107837
9998.000000;-0.108155
9997.000000;-0.108396
9996.000000;-0.108649
9995.000000;-0.108979
9994.000000;-0.109387
9993.000000;-0.109879
9992.000000;-0.110425
9991.000000;-0.110887
9990.000000;-0.111161
9989.000000;-0.111378
9988.000000;-0.111812
9987.000000;-0.112566
9986.000000;-0.113479
9985.000000;-0.114326
9984.000000;-0.114982
9983.000000;-0.115397
9982.000000;-0.115568
9981.000000;-0.115580
9980.000000;-0.115563
9979.000000;-0.115545
9978.000000;-0.115411
9977.000000;-0.115069
9976.000000;-0.114577
9975.000000;-0.114090
9974.000000;-0.113788
9973.000000;-0.113874
9972.000000;-0.114505
9971.000000;-0.115633
9970.000000;-0.116945
9969.000000;-0.118048
9968.000000;-0.118702
9967.000000;-0.118884
9966.000000;-0.118752
9965.000000;-0.118603
9964.000000;-0.118739
9963.000000;-0.119226
9962.000000;-0.119778
9961.000000;-0.120027
9960.000000;-0.119907
9959.000000;-0.119753
9958.000000;-0.119986
9957.000000;-0.120734
9956.000000;-0.121737
9955.000000;-0.122577
9954.000000;-0.123012
9953.000000;-0.123144
9952.000000;-0.123266
9951.000000;-0.123566
9950.000000;-0.124013
9949.000000;-0.124501
9948.000000;-0.125002
9947.000000;-0.125547
9946.000000;-0.126137
9945.000000;-0.126736
9944.000000;-0.127288
9943.000000;-0.127668
9942.000000;-0.127762
9941.000000;-0.127696
9940.000000;-0.127853
9939.000000;-0.128444
9938.000000;-0.129097
9937.000000;-0.129143
9936.000000;-0.128398
9935.000000;-0.127482
9934.000000;-0.127254
9933.000000;-0.128011
9932.000000;-0.129324
9931.000000;-0.130501
9930.000000;-0.131114
9929.000000;-0.131186
9928.000000;-0.131073
9927.000000;-0.131156
9926.000000;-0.131551
9925.000000;-0.132085
9924.000000;-0.132561
9923.000000;-0.132980
9922.000000;-0.133450
9921.000000;-0.133969
9920.000000;-0.134419
9919.000000;-0.134722
9918.000000;-0.134877
9917.000000;-0.134880
9916.000000;-0.134742
9915.000000;-0.134589
9914.000000;-0.134617
9913.000000;-0.134942
9912.000000;-0.135543
9911.000000;-0.136349
9910.000000;-0.137233
9909.000000;-0.137952
9908.000000;-0.138276
9907.000000;-0.138267
9906.000000;-0.138297
9905.000000;-0.138637
9904.000000;-0.139121
9903.000000;-0.139369
9902.000000;-0.139302
9901.000000;-0.139257
9900.000000;-0.139543
9899.000000;-0.140056
9898.000000;-0.140459
9897.000000;-0.140625
9896.000000;-0.140748
9895.000000;-0.141040
9894.000000;-0.141478
9893.000000;-0.141902
9892.000000;-0.142226
9891.000000;-0.142443
9890.000000;-0.142541
9889.000000;-0.142536
9888.000000;-0.142557
9887.000000;-0.142735
9886.000000;-0.143030
9885.000000;-0.143335
9884.000000;-0.143733
9883.000000;-0.144451
9882.000000;-0.145473
9881.000000;-0.146394
9880.000000;-0.146834
9879.000000;-0.146849
9878.000000;-0.146793
9877.000000;-0.146869
9876.000000;-0.147046
9875.000000;-0.147312
9874.000000;-0.147736
9873.000000;-0.148236
9872.000000;-0.148521
9871.000000;-0.148434
9870.000000;-0.148212
9869.000000;-0.148285
9868.000000;-0.148856
9867.000000;-0.149740
9866.000000;-0.150558
9865.000000;-0.151037
9864.000000;-0.151194
9863.000000;-0.151277
9862.000000;-0.151516
9861.000000;-0.151876
9860.000000;-0.152132
9859.000000;-0.152166
9858.000000;-0.152111
9857.000000;-0.152142
9856.000000;-0.152259
9855.000000;-0.152376
9854.000000;-0.152542
9853.000000;-0.152920
9852.000000;-0.153538
9851.000000;-0.154179
9850.000000;-0.154596
9849.000000;-0.154783
9848.000000;-0.154987
9847.000000;-0.155436
9846.000000;-0.156108
9845.000000;-0.156774
9844.000000;-0.157225
9843.000000;-0.157434
9842.000000;-0.157509
9841.000000;-0.157599
9840.000000;-0.157849
9839.000000;-0.158338
9838.000000;-0.158970
9837.000000;-0.159485
9836.000000;-0.159687
9835.000000;-0.159668
9834.000000;-0.159716
9833.000000;-0.160053
9832.000000;-0.160693
9831.000000;-0.161471
9830.000000;-0.162086
9829.000000;-0.162223
9828.000000;-0.161853
9827.000000;-0.161396
9826.000000;-0.161375
9825.000000;-0.161866
9824.000000;-0.162478
9823.000000;-0.162904
9822.000000;-0.163247
9821.000000;-0.163719
9820.000000;-0.164272
9819.000000;-0.164741
9818.000000;-0.165156
9817.000000;-0.165649
9816.000000;-0.166167
9815.000000;-0.166542
9814.000000;-0.166785
9813.000000;-0.167074
9812.000000;-0.167442
9811.000000;-0.167712
9810.000000;-0.167778
9809.000000;-0.167748
9808.000000;-0.167755
9807.000000;-0.167802
9806.000000;-0.167852
9805.000000;-0.167938
9804.000000;-0.168116
9803.000000;-0.168408
9802.000000;-0.168849
9801.000000;-0.169473
9800.000000;-0.170189
9799.000000;-0.170817
9798.000000;-0.171303
9797.000000;-0.171773
9796.000000;-0.172263
9795.000000;-0.172556
9794.000000;-0.172439
9793.000000;-0.172071
9792.000000;-0.171890
9791.000000;-0.172164
9790.000000;-0.172750
9789.000000;-0.173281
9788.000000;-0.173515
9787.000000;-0.173474
9786.000000;-0.173363
9785.000000;-0.173408
9784.000000;-0.173712
9783.000000;-0.174204
9782.000000;-0.174714
9781.000000;-0.175139
9780.000000;-0.175535
9779.000000;-0.176043
9778.000000;-0.176724
9777.000000;-0.177435
9776.000000;-0.177894
9775.000000;-0.177899
9774.000000;-0.177551
9773.000000;-0.177194
9772.000000;-0.177091
9771.000000;-0.177199
9770.000000;-0.177351
9769.000000;-0.177580
9768.000000;-0.178108
9767.000000;-0.178994
9766.000000;-0.179958
9765.000000;-0.180683
9764.000000;-0.181144
9763.000000;-0.181500
9762.000000;-0.181767
9761.000000;-0.181816
9760.000000;-0.181673
9759.000000;-0.181588
9758.000000;-0.181734
9757.000000;-0.182004
9756.000000;-0.182238
9755.000000;-0.182487
9754.000000;-0.182883
9753.000000;-0.183352
9752.000000;-0.183668
9751.000000;-0.183770
9750.000000;-0.183835
9749.000000;-0.184026
9748.000000;-0.184327
9747.000000;-0.184654
9746.000000;-0.184995
9745.000000;-0.185369
9744.000000;-0.185771
9743.000000;-0.186206
9742.000000;-0.186665
9741.000000;-0.187011
9740.000000;-0.187061
9739.000000;-0.186876
9738.000000;-0.186817
9737.000000;-0.187184
9736.000000;-0.187868
9735.000000;-0.188519
9734.000000;-0.188936
9733.000000;-0.189159
9732.000000;-0.189240
9731.000000;-0.189165
9730.000000;-0.189000
9729.000000;-0.188900
9728.000000;-0.188953
9727.000000;-0.189162
9726.000000;-0.189609
9725.000000;-0.190415
9724.000000;-0.191462
9723.000000;-0.192336
9722.000000;-0.192741
9721.000000;-0.192842
9720.000000;-0.193035
9719.000000;-0.193424
9718.000000;-0.193736
9717.000000;-0.193718
9716.000000;-0.193467
9715.000000;-0.193303
9714.000000;-0.193448
9713.000000;-0.193857
9712.000000;-0.194270
9711.000000;-0.194380
9710.000000;-0.194055
9709.000000;-0.193507
9708.000000;-0.193190
9707.000000;-0.193431
9706.000000;-0.194134
9705.000000;-0.194908
9704.000000;-0.195465
9703.000000;-0.195845
9702.000000;-0.196269
9701.000000;-0.196836
9700.000000;-0.197414
9699.000000;-0.197813
9698.000000;-0.197990
9697.000000;-0.198063
9696.000000;-0.198124
9695.000000;-0.198092
9694.000000;-0.197838
9693.000000;-0.197440
9692.000000;-0.197240
9691.000000;-0.197563
9690.000000;-0.198409
9689.000000;-0.199477
9688.000000;-0.200471
9687.000000;-0.201304
9686.000000;-0.201977
9685.000000;-0.202438
9684.000000;-0.202647
9683.000000;-0.202713
9682.000000;-0.202811
9681.000000;-0.202962
9680.000000;-0.203041
9679.000000;-0.203014
9678.000000;-0.203039
9677.000000;-0.203249
9676.000000;-0.203540
9675.000000;-0.203709
9674.000000;-0.203755
9673.000000;-0.203891
9672.000000;-0.204257
9671.000000;-0.204741
9670.000000;-0.205142
9669.000000;-0.205434
9668.000000;-0.205764
9667.000000;-0.206223
9666.000000;-0.206704
9665.000000;-0.207012
9664.000000;-0.207069
9663.000000;-0.207005
9662.000000;-0.207047
9661.000000;-0.207330
9660.000000;-0.207783
9659.000000;-0.208218
9658.000000;-0.208540
9657.000000;-0.208837
9656.000000;-0.209224
9655.000000;-0.209658
9654.000000;-0.209969
9653.000000;-0.210069
9652.000000;-0.210060
9651.000000;-0.210106
9650.000000;-0.210305
9649.000000;-0.210669
9648.000000;-0.211154
9647.000000;-0.211630
9646.000000;-0.211913
9645.000000;-0.211932
9644.000000;-0.211820
9643.000000;-0.211777
9642.000000;-0.211890
9641.000000;-0.212148
9640.000000;-0.212580
9639.000000;-0.213225
9638.000000;-0.213983
9637.000000;-0.214630
9636.000000;-0.215007
9635.000000;-0.215131
9634.000000;-0.215114
9633.000000;-0.215076
9632.000000;-0.215135
9631.000000;-0.215357
9630.000000;-0.215641
9629.000000;-0.215791
9628.000000;-0.215756
9627.000000;-0.215726
9626.000000;-0.215917
9625.000000;-0.216371
9624.000000;-0.216996
9623.000000;-0.217685
9622.000000;-0.218283
9621.000000;-0.218584
9620.000000;-0.218495
9619.000000;-0.218190
9618.000000;-0.217959
9617.000000;-0.217938
9616.000000;-0.218085
9615.000000;-0.218344
9614.000000;-0.218711
9613.000000;-0.219162
9612.000000;-0.219662
9611.000000;-0.220235
9610.000000;-0.220890
9609.000000;-0.221496
9608.000000;-0.221847
9607.000000;-0.221886
9606.000000;-0.221736
9605.000000;-0.221518
9604.000000;-0.221289
9603.000000;-0.221178
9602.000000;-0.221413
9601.000000;-0.222091
9600.000000;-0.222995
9599.000000;-0.223738
9598.000000;-0.224070
9597.000000;-0.224050
9596.000000;-0.223969
9595.000000;-0.224136
9594.000000;-0.224640
9593.000000;-0.225273
9592.000000;-0.225747
9591.000000;-0.225975
9590.000000;-0.226102
9589.000000;-0.226255
9588.000000;-0.226419
9587.000000;-0.226564
9586.000000;-0.226748
9585.000000;-0.227000
9584.000000;-0.227205
9583.000000;-0.227226
9582.000000;-0.227097
9581.000000;-0.226996
9580.000000;-0.227091
9579.000000;-0.227435
9578.000000;-0.227978
9577.000000;-0.228574
9576.000000;-0.229054
9575.000000;-0.229357
9574.000000;-0.229574
9573.000000;-0.229808
9572.000000;-0.230044
9571.000000;-0.230234
9570.000000;-0.230426
9569.000000;-0.230727
9568.000000;-0.231137
9567.000000;-0.231540
9566.000000;-0.231834
9565.000000;-0.232015
9564.000000;-0.232122
9563.000000;-0.232176
9562.000000;-0.232188
9561.000000;-0.232192
9560.000000;-0.232246
9559.000000;-0.232426
9558.000000;-0.232785
9557.000000;-0.233278
9556.000000;-0.233746
9555.000000;-0.234022
9554.000000;-0.234090
9553.000000;-0.234102
9552.000000;-0.234242
9551.000000;-0.234581
9550.000000;-0.235046
9549.000000;-0.235491
9548.000000;-0.235800
9547.000000;-0.235960
9546.000000;-0.236068
9545.000000;-0.236271
9544.000000;-0.236660
9543.000000;-0.237185
9542.000000;-0.237677
9541.000000;-0.237991
9540.000000;-0.238138
9539.000000;-0.238235
9538.000000;-0.238298
9537.000000;-0.238188
9536.000000;-0.237836
9535.000000;-0.237444
9534.000000;-0.237312
9533.000000;-0.237500
9532.000000;-0.237818
9531.000000;-0.238155
9530.000000;-0.238614
9529.000000;-0.239261
9528.000000;-0.239921
9527.000000;-0.240368
9526.000000;-0.240578
9525.000000;-0.240652
9524.000000;-0.240609
9523.000000;-0.240475
9522.000000;-0.240502
9521.000000;-0.241011
9520.000000;-0.241951
9519.000000;-0.242804
9518.000000;-0.243083
9517.000000;-0.242844
9516.000000;-0.242553
9515.000000;-0.242511
9514.000000;-0.242587
9513.000000;-0.242527
9512.000000;-0.242372
9511.000000;-0.242420
9510.000000;-0.242809
9509.000000;-0.243307
9508.000000;-0.243610
9507.000000;-0.243736
9506.000000;-0.243983
9505.000000;-0.244507
9504.000000;-0.245089
9503.000000;-0.245388
9502.000000;-0.245323
9501.000000;-0.245108
9500.000000;-0.244980
9499.000000;-0.244989
9498.000000;-0.245063
9497.000000;-0.245185
9496.000000;-0.245434
9495.000000;-0.245853
9494.000000;-0.246321
9493.000000;-0.246631
9492.000000;-0.246719
9491.000000;-0.246750
9490.000000;-0.246915
9489.000000;-0.247205
9488.000000;-0.247493
9487.000000;-0.247787
9486.000000;-0.248235
9485.000000;-0.248830
9484.000000;-0.249288
9483.000000;-0.249335
9482.000000;-0.249033
9481.000000;-0.248729
9480.000000;-0.248743
9479.000000;-0.249174
9478.000000;-0.249905
9477.000000;-0.250690
9476.000000;-0.251262
9475.000000;-0.251468
9474.000000;-0.251358
9473.000000;-0.251137
9472.000000;-0.251087
9471.000000;-0.251464
9470.000000;-0.252313
9469.000000;-0.253301
9468.000000;-0.253872
9467.000000;-0.253723
9466.000000;-0.253084
9465.000000;-0.252464
9464.000000;-0.252216
9463.000000;-0.252397
9462.000000;-0.252894
9461.000000;-0.253505
9460.000000;-0.253992
9459.000000;-0.254229
9458.000000;-0.254304
9457.000000;-0.254370
9456.000000;-0.254444
9455.000000;-0.254473
9454.000000;-0.254511
9453.000000;-0.254637
9452.000000;-0.254785
9451.000000;-0.254837
9450.000000;-0.254871
9449.000000;-0.255099
9448.000000;-0.255527
9447.000000;-0.255877
9446.000000;-0.255920
9445.000000;-0.255714
9444.000000;-0.255460
9443.000000;-0.255289
9442.000000;-0.255306
9441.000000;-0.255689
9440.000000;-0.256532
9439.000000;-0.257613
9438.000000;-0.258479
9437.000000;-0.258813
9436.000000;-0.258691
9435.000000;-0.258483
9434.000000;-0.258531
9433.000000;-0.258905
9432.000000;-0.259405
9431.000000;-0.259769
9430.000000;-0.259883
9429.000000;-0.259805
9428.000000;-0.259671
9427.000000;-0.259583
9426.000000;-0.259581
9425.000000;-0.259636
9424.000000;-0.259706
9423.000000;-0.259823
9422.000000;-0.260088
9421.000000;-0.260535
9420.000000;-0.261060
9419.000000;-0.261525
9418.000000;-0.261875
9417.000000;-0.262076
9416.000000;-0.262025
9415.000000;-0.261694
9414.000000;-0.261315
9413.000000;-0.261225
9412.000000;-0.261516
9411.000000;-0.261979
9410.000000;-0.262423
9409.000000;-0.262886
9408.000000;-0.263445
9407.000000;-0.263961
9406.000000;-0.264162
9405.000000;-0.263954
9404.000000;-0.263562
9403.000000;-0.263365
9402.000000;-0.263597
9401.000000;-0.264180
9400.000000;-0.264821
9399.000000;-0.265289
9398.000000;-0.265592
9397.000000;-0.265843
9396.000000;-0.266057
9395.000000;-0.266169
9394.000000;-0.266190
9393.000000;-0.266185
9392.000000;-0.266131
9391.000000;-0.265961
9390.000000;-0.265768
9389.000000;-0.265766
9388.000000;-0.266015
9387.000000;-0.266330
9386.000000;-0.266532
9385.000000;-0.266653
9384.000000;-0.266816
9383.000000;-0.267069
9382.000000;-0.267393
9381.000000;-0.267749
9380.000000;-0.268028
9379.000000;-0.268127
9378.000000;-0.268155
9377.000000;-0.268376
9376.000000;-0.268819
9375.000000;-0.269137
9374.000000;-0.269026
9373.000000;-0.268640
9372.000000;-0.268393
9371.000000;-0.268455
9370.000000;-0.268662
9369.000000;-0.268850
9368.000000;-0.269021
9367.000000;-0.269228
9366.000000;-0.269518
9365.000000;-0.269994
9364.000000;-0.270717
9363.000000;-0.271494
9362.000000;-0.271971
9361.000000;-0.271977
9360.000000;-0.271651
9359.000000;-0.271233
9358.000000;-0.270901
9357.000000;-0.270831
9356.000000;-0.271144
9355.000000;-0.271685
9354.000000;-0.272052
9353.000000;-0.272017
9352.000000;-0.271818
9351.000000;-0.271868
9350.000000;-0.272312
9349.000000;-0.272992
9348.000000;-0.273725
9347.000000;-0.274413
9346.000000;-0.274910
9345.000000;-0.275035
9344.000000;-0.274792
9343.000000;-0.274453
9342.000000;-0.274318
9341.000000;-0.274434
9340.000000;-0.274609
9339.000000;-0.274657
9338.000000;-0.274588
9337.000000;-0.274554
9336.000000;-0.274659
9335.000000;-0.274846
9334.000000;-0.274975
9333.000000;-0.275005
9332.000000;-0.275059
9331.000000;-0.275300
9330.000000;-0.275753
9329.000000;-0.276268
9328.000000;-0.276644
9327.000000;-0.276788
9326.000000;-0.276786
9325.000000;-0.276813
9324.000000;-0.276969
9323.000000;-0.277170
9322.000000;-0.277269
9321.000000;-0.277248
9320.000000;-0.277254
9319.000000;-0.277405
9318.000000;-0.277654
9317.000000;-0.277897
9316.000000;-0.278155
9315.000000;-0.278521
9314.000000;-0.278974
9313.000000;-0.279358
9312.000000;-0.279569
9311.000000;-0.279671
9310.000000;-0.279773
9309.000000;-0.279905
9308.000000;-0.280046
9307.000000;-0.280184
9306.000000;-0.280290
9305.000000;-0.280277
9304.000000;-0.280093
9303.000000;-0.279818
9302.000000;-0.279600
9301.000000;-0.279520
9300.000000;-0.279591
9299.000000;-0.279828
9298.000000;-0.280204
9297.000000;-0.280550
9296.000000;-0.280634
9295.000000;-0.280432
9294.000000;-0.280228
9293.000000;-0.280372
9292.000000;-0.280953
9291.000000;-0.281729
9290.000000;-0.282337
9289.000000;-0.282548
9288.000000;-0.282421
9287.000000;-0.282243
9286.000000;-0.282280
9285.000000;-0.282527
9284.000000;-0.282741
9283.000000;-0.282749
9282.000000;-0.282636
9281.000000;-0.282580
9280.000000;-0.282635
9279.000000;-0.282776
9278.000000;-0.283044
9277.000000;-0.283471
9276.000000;-0.283901
9275.000000;-0.284091
9274.000000;-0.284021
9273.000000;-0.283938
9272.000000;-0.284046
9271.000000;-0.284304
9270.000000;-0.284576
9269.000000;-0.284829
9268.000000;-0.285065
9267.000000;-0.285220
9266.000000;-0.285272
9265.000000;-0.285369
9264.000000;-0.285678
9263.000000;-0.286128
9262.000000;-0.286439
9261.000000;-0.286408
9260.000000;-0.286086
9259.000000;-0.285703
9258.000000;-0.285518
9257.000000;-0.285706
9256.000000;-0.286250
9255.000000;-0.286911
9254.000000;-0.287393
9253.000000;-0.287579
9252.000000;-0.287569
9251.000000;-0.287521
9250.000000;-0.287533
9249.000000;-0.287686
9248.000000;-0.288054
9247.000000;-0.288620
9246.000000;-0.289229
9245.000000;-0.289678
9244.000000;-0.289823
9243.000000;-0.289619
9242.000000;-0.289142
9241.000000;-0.288586
9240.000000;-0.288166
9239.000000;-0.287962
9238.000000;-0.287909
9237.000000;-0.287938
9236.000000;-0.288070
9235.000000;-0.288311
9234.000000;-0.288551
9233.000000;-0.288661
9232.000000;-0.288656
9231.000000;-0.288692
9230.000000;-0.288890
9229.000000;-0.289241
9228.000000;-0.289666
9227.000000;-0.290098
9226.000000;-0.290491
9225.000000;-0.290796
9224.000000;-0.290957
9223.000000;-0.290944
9222.000000;-0.290780
9221.000000;-0.290575
9220.000000;-0.290508
9219.000000;-0.290720
9218.000000;-0.291165
9217.000000;-0.291604
9216.000000;-0.291790
9215.000000;-0.291664
9214.000000;-0.291350
9213.000000;-0.290999
9212.000000;-0.290697
9211.000000;-0.290542
9210.000000;-0.290696
9209.000000;-0.291234
9208.000000;-0.291945
9207.000000;-0.292400
9206.000000;-0.292342
9205.000000;-0.291968
9204.000000;-0.291770
9203.000000;-0.292057
9202.000000;-0.292698
9201.000000;-0.293321
9200.000000;-0.293698
9199.000000;-0.293882
9198.000000;-0.294018
9197.000000;-0.294128
9196.000000;-0.294132
9195.000000;-0.294012
9194.000000;-0.293857
9193.000000;-0.293733
9192.000000;-0.293622
9191.000000;-0.293519
9190.000000;-0.293515
9189.000000;-0.293680
9188.000000;-0.293912
9187.000000;-0.294048
9186.000000;-0.294126
9185.000000;-0.294381
9184.000000;-0.294913
9183.000000;-0.295489
9182.000000;-0.295812
9181.000000;-0.295891
9180.000000;-0.296002
9179.000000;-0.296317
9178.000000;-0.296719
9177.000000;-0.297008
9176.000000;-0.297128
9175.000000;-0.297130
9174.000000;-0.297029
9173.000000;-0.296792
9172.000000;-0.296446
9171.000000;-0.296125
9170.000000;-0.296021
9169.000000;-0.296276
9168.000000;-0.296846
9167.000000;-0.297465
9166.000000;-0.297803
9165.000000;-0.297739
9164.000000;-0.297453
9163.000000;-0.297212
9162.000000;-0.297125
9161.000000;-0.297130
9160.000000;-0.297145
9159.000000;-0.297144
9158.000000;-0.297129
9157.000000;-0.297125
9156.000000;-0.297205
9155.000000;-0.297455
9154.000000;-0.297850
9153.000000;-0.298201
9152.000000;-0.298283
9151.000000;-0.298034
9150.000000;-0.297651
9149.000000;-0.297459
9148.000000;-0.297648
9147.000000;-0.298126
9146.000000;-0.298633
9145.000000;-0.298976
9144.000000;-0.299124
9143.000000;-0.299129
9142.000000;-0.299065
9141.000000;-0.299046
9140.000000;-0.299183
9139.000000;-0.299447
9138.000000;-0.299651
9137.000000;-0.299683
9136.000000;-0.299663
9135.000000;-0.299773
9134.000000;-0.299979
9133.000000;-0.300073
9132.000000;-0.300002
9131.000000;-0.299971
9130.000000;-0.300169
9129.000000;-0.300511
9128.000000;-0.300749
9127.000000;-0.300769
9126.000000;-0.300647
9125.000000;-0.300482
9124.000000;-0.300307
9123.000000;-0.300183
9122.000000;-0.300257
9121.000000;-0.300604
9120.000000;-0.301075
9119.000000;-0.301400
9118.000000;-0.301449
9117.000000;-0.301332
9116.000000;-0.301232
9115.000000;-0.301214
9114.000000;-0.301230
9113.000000;-0.301278
9112.000000;-0.301438
9111.000000;-0.301750
9110.000000;-0.302135
9109.000000;-0.302471
9108.000000;-0.302717
9107.000000;-0.302897
9106.000000;-0.303017
9105.000000;-0.303059
9104.000000;-0.303039
9103.000000;-0.302987
9102.000000;-0.302879
9101.000000;-0.302665
9100.000000;-0.302400
9099.000000;-0.302265
9098.000000;-0.302411
9097.000000;-0.302802
9096.000000;-0.303249
