Criado como novo conjunto de dados;"e0108.spp","-4275164.2 Secs"
cm-1;Abs
10000.000000;1.054495
9999.000000;1.052912
9998.000000;1.051421
9997.000000;1.049748
9996.000000;1.049087
9995.000000;1.050046
9994.000000;1.051862
9993.000000;1.053916
9992.000000;1.055401
9991.000000;1.055870
9990.000000;1.055431
9989.000000;1.054682
9988.000000;1.054176
9987.000000;1.053948
9986.000000;1.053468
9985.000000;1.052114
9984.000000;1.049940
9983.000000;1.047970
9982.000000;1.047424
9981.000000;1.048525
9980.000000;1.050246
9979.000000;1.051353
9978.000000;1.051475
9977.000000;1.051050
9976.000000;1.050614
9975.000000;1.050437
9974.000000;1.050461
9973.000000;1.050192
9972.000000;1.048970
9971.000000;1.046841
9970.000000;1.044902
9969.000000;1.044221
9968.000000;1.044582
9967.000000;1.044802
9966.000000;1.044185
9965.000000;1.043083
9964.000000;1.042107
9963.000000;1.041519
9962.000000;1.041495
9961.000000;1.042233
9960.000000;1.043417
9959.000000;1.044093
9958.000000;1.043518
9957.000000;1.041878
9956.000000;1.039943
9955.000000;1.038349
9954.000000;1.037462
9953.000000;1.037482
9952.000000;1.038247
9951.000000;1.039180
9950.000000;1.039811
9949.000000;1.040121
9948.000000;1.040131
9947.000000;1.039467
9946.000000;1.037831
9945.000000;1.035732
9944.000000;1.034221
9943.000000;1.033900
9942.000000;1.034477
9941.000000;1.035232
9940.000000;1.035580
9939.000000;1.035307
9938.000000;1.034657
9937.000000;1.034285
9936.000000;1.034729
9935.000000;1.035734
9934.000000;1.036276
9933.000000;1.035436
9932.000000;1.033242
9931.000000;1.030728
9930.000000;1.029172
9929.000000;1.029103
9928.000000;1.029828
9927.000000;1.030038
9926.000000;1.029117
9925.000000;1.027732
9924.000000;1.026887
9923.000000;1.026641
9922.000000;1.026240
9921.000000;1.025421
9920.000000;1.024952
9919.000000;1.025631
9918.000000;1.027255
9917.000000;1.028923
9916.000000;1.030021
9915.000000;1.030439
9914.000000;1.030039
9913.000000;1.028602
9912.000000;1.026502
9911.000000;1.024922
9910.000000;1.024889
9909.000000;1.026090
9908.000000;1.026945
9907.000000;1.026090
9906.000000;1.023755
9905.000000;1.021507
9904.000000;1.020744
9903.000000;1.021597
9902.000000;1.023155
9901.000000;1.024405
9900.000000;1.024843
9899.000000;1.024485
9898.000000;1.023660
9897.000000;1.022793
9896.000000;1.022155
9895.000000;1.021758
9894.000000;1.021535
9893.000000;1.021499
9892.000000;1.021549
9891.000000;1.021267
9890.000000;1.020236
9889.000000;1.018598
9888.000000;1.017032
9887.000000;1.016143
9886.000000;1.016065
9885.000000;1.016606
9884.000000;1.017451
9883.000000;1.018099
9882.000000;1.017958
9881.000000;1.016861
9880.000000;1.015384
9879.000000;1.014348
9878.000000;1.013975
9877.000000;1.013759
9876.000000;1.013219
9875.000000;1.012623
9874.000000;1.012740
9873.000000;1.013829
9872.000000;1.015089
9871.000000;1.015383
9870.000000;1.014467
9869.000000;1.013185
9868.000000;1.012362
9867.000000;1.011918
9866.000000;1.011281
9865.000000;1.010311
9864.000000;1.009353
9863.000000;1.008558
9862.000000;1.007764
9861.000000;1.007086
9860.000000;1.007050
9859.000000;1.007880
9858.000000;1.009001
9857.000000;1.009532
9856.000000;1.009079
9855.000000;1.007869
9854.000000;1.006367
9853.000000;1.004997
9852.000000;1.004079
9851.000000;1.003730
9850.000000;1.003834
9849.000000;1.004188
9848.000000;1.004587
9847.000000;1.004721
9846.000000;1.004220
9845.000000;1.003011
9844.000000;1.001575
9843.000000;1.000687
9842.000000;1.000869
9841.000000;1.002076
9840.000000;1.003692
9839.000000;1.004773
9838.000000;1.004616
9837.000000;1.003405
9836.000000;1.002115
9835.000000;1.001556
9834.000000;1.001620
9833.000000;1.001597
9832.000000;1.001048
9831.000000;1.000157
9830.000000;0.999392
9829.000000;0.999070
9828.000000;0.999161
9827.000000;0.999294
9826.000000;0.999034
9825.000000;0.998322
9824.000000;0.997554
9823.000000;0.997036
9822.000000;0.996573
9821.000000;0.995818
9820.000000;0.994853
9819.000000;0.994094
9818.000000;0.993722
9817.000000;0.993549
9816.000000;0.993436
9815.000000;0.993480
9814.000000;0.993699
9813.000000;0.993866
9812.000000;0.993747
9811.000000;0.993286
9810.000000;0.992552
9809.000000;0.991735
9808.000000;0.991213
9807.000000;0.991288
9806.000000;0.991741
9805.000000;0.991927
9804.000000;0.991475
9803.000000;0.990672
9802.000000;0.990016
9801.000000;0.989604
9800.000000;0.989173
9799.000000;0.988493
9798.000000;0.987535
9797.000000;0.986403
9796.000000;0.985396
9795.000000;0.984976
9794.000000;0.985405
9793.000000;0.986386
9792.000000;0.987262
9791.000000;0.987559
9790.000000;0.987204
9789.000000;0.986391
9788.000000;0.985500
9787.000000;0.985089
9786.000000;0.985570
9785.000000;0.986667
9784.000000;0.987401
9783.000000;0.986895
9782.000000;0.985240
9781.000000;0.983427
9780.000000;0.982419
9779.000000;0.982341
9778.000000;0.982530
9777.000000;0.982246
9776.000000;0.981357
9775.000000;0.980428
9774.000000;0.980198
9773.000000;0.980963
9772.000000;0.982320
9771.000000;0.983418
9770.000000;0.983476
9769.000000;0.982256
9768.000000;0.980214
9767.000000;0.978255
9766.000000;0.977169
9765.000000;0.977065
9764.000000;0.977314
9763.000000;0.977189
9762.000000;0.976629
9761.000000;0.976200
9760.000000;0.976273
9759.000000;0.976470
9758.000000;0.976157
9757.000000;0.975371
9756.000000;0.974851
9755.000000;0.975084
9754.000000;0.975717
9753.000000;0.976085
9752.000000;0.976001
9751.000000;0.975699
9750.000000;0.975250
9749.000000;0.974530
9748.000000;0.973714
9747.000000;0.973282
9746.000000;0.973370
9745.000000;0.973479
9744.000000;0.973078
9743.000000;0.972252
9742.000000;0.971492
9741.000000;0.971095
9740.000000;0.971033
9739.000000;0.971232
9738.000000;0.971602
9737.000000;0.971825
9736.000000;0.971475
9735.000000;0.970501
9734.000000;0.969421
9733.000000;0.968914
9732.000000;0.969251
9731.000000;0.970138
9730.000000;0.970973
9729.000000;0.971233
9728.000000;0.970746
9727.000000;0.969687
9726.000000;0.968351
9725.000000;0.967043
9724.000000;0.966171
9723.000000;0.966168
9722.000000;0.966990
9721.000000;0.967814
9720.000000;0.967677
9719.000000;0.966508
9718.000000;0.965213
9717.000000;0.964640
9716.000000;0.964770
9715.000000;0.965051
9714.000000;0.965157
9713.000000;0.965119
9712.000000;0.965008
9711.000000;0.964873
9710.000000;0.964857
9709.000000;0.964989
9708.000000;0.964912
9707.000000;0.964173
9706.000000;0.962811
9705.000000;0.961328
9704.000000;0.960055
9703.000000;0.958947
9702.000000;0.958107
9701.000000;0.958076
9700.000000;0.959205
9699.000000;0.960917
9698.000000;0.962008
9697.000000;0.961781
9696.000000;0.960696
9695.000000;0.959823
9694.000000;0.959778
9693.000000;0.960269
9692.000000;0.960585
9691.000000;0.960354
9690.000000;0.959710
9689.000000;0.958805
9688.000000;0.957486
9687.000000;0.955721
9686.000000;0.954152
9685.000000;0.953740
9684.000000;0.954697
9683.000000;0.956056
9682.000000;0.956572
9681.000000;0.955955
9680.000000;0.954976
9679.000000;0.954484
9678.000000;0.954581
9677.000000;0.954752
9676.000000;0.954558
9675.000000;0.954066
9674.000000;0.953712
9673.000000;0.953796
9672.000000;0.954119
9671.000000;0.954177
9670.000000;0.953701
9669.000000;0.952892
9668.000000;0.952088
9667.000000;0.951448
9666.000000;0.951066
9665.000000;0.951156
9664.000000;0.951850
9663.000000;0.952913
9662.000000;0.953909
9661.000000;0.954560
9660.000000;0.954767
9659.000000;0.954356
9658.000000;0.953149
9657.000000;0.951342
9656.000000;0.949528
9655.000000;0.948243
9654.000000;0.947622
9653.000000;0.947505
9652.000000;0.947625
9651.000000;0.947621
9650.000000;0.947116
9649.000000;0.945983
9648.000000;0.944456
9647.000000;0.942911
9646.000000;0.941695
9645.000000;0.941212
9644.000000;0.941857
9643.000000;0.943582
9642.000000;0.945648
9641.000000;0.947077
9640.000000;0.947391
9639.000000;0.946752
9638.000000;0.945483
9637.000000;0.943792
9636.000000;0.942008
9635.000000;0.940708
9634.000000;0.940310
9633.000000;0.940637
9632.000000;0.941088
9631.000000;0.941238
9630.000000;0.941122
9629.000000;0.940951
9628.000000;0.940766
9627.000000;0.940486
9626.000000;0.940138
9625.000000;0.939828
9624.000000;0.939539
9623.000000;0.939143
9622.000000;0.938570
9621.000000;0.937810
9620.000000;0.936801
9619.000000;0.935626
9618.000000;0.934825
9617.000000;0.935112
9616.000000;0.936488
9615.000000;0.937868
9614.000000;0.938002
9613.000000;0.936774
9612.000000;0.935225
9611.000000;0.934319
9610.000000;0.934105
9609.000000;0.934170
9608.000000;0.934447
9607.000000;0.935221
9606.000000;0.936552
9605.000000;0.938028
9604.000000;0.939068
9603.000000;0.939253
9602.000000;0.938457
9601.000000;0.936945
9600.000000;0.935386
9599.000000;0.934513
9598.000000;0.934590
9597.000000;0.935235
9596.000000;0.935811
9595.000000;0.935888
9594.000000;0.935332
9593.000000;0.934167
9592.000000;0.932576
9591.000000;0.930959
9590.000000;0.929736
9589.000000;0.928977
9588.000000;0.928360
9587.000000;0.927588
9586.000000;0.926799
9585.000000;0.926419
9584.000000;0.926679
9583.000000;0.927387
9582.000000;0.928147
9581.000000;0.928637
9580.000000;0.928702
9579.000000;0.928393
9578.000000;0.927981
9577.000000;0.927743
9576.000000;0.927595
9575.000000;0.927121
9574.000000;0.926137
9573.000000;0.925097
9572.000000;0.924735
9571.000000;0.925331
9570.000000;0.926456
9569.000000;0.927318
9568.000000;0.927247
9567.000000;0.926041
9566.000000;0.924154
9565.000000;0.922524
9564.000000;0.921896
9563.000000;0.922208
9562.000000;0.922757
9561.000000;0.922988
9560.000000;0.922957
9559.000000;0.922975
9558.000000;0.923059
9557.000000;0.922881
9556.000000;0.922153
9555.000000;0.920919
9554.000000;0.919574
9553.000000;0.918656
9552.000000;0.918525
9551.000000;0.919102
9550.000000;0.919916
9549.000000;0.920465
9548.000000;0.920568
9547.000000;0.920376
9546.000000;0.920123
9545.000000;0.919881
9544.000000;0.919525
9543.000000;0.918894
9542.000000;0.917995
9541.000000;0.916992
9540.000000;0.916007
9539.000000;0.915100
9538.000000;0.914510
9537.000000;0.914627
9536.000000;0.915480
9535.000000;0.916463
9534.000000;0.916895
9533.000000;0.916724
9532.000000;0.916366
9531.000000;0.915999
9530.000000;0.915520
9529.000000;0.915116
9528.000000;0.915217
9527.000000;0.915711
9526.000000;0.915774
9525.000000;0.914910
9524.000000;0.913716
9523.000000;0.913108
9522.000000;0.913121
9521.000000;0.912992
9520.000000;0.912308
9519.000000;0.911518
9518.000000;0.911228
9517.000000;0.911423
9516.000000;0.911648
9515.000000;0.911662
9514.000000;0.911653
9513.000000;0.911873
9512.000000;0.912271
9511.000000;0.912574
9510.000000;0.912656
9509.000000;0.912661
9508.000000;0.912678
9507.000000;0.912462
9506.000000;0.911749
9505.000000;0.910809
9504.000000;0.910323
9503.000000;0.910548
9502.000000;0.910887
9501.000000;0.910543
9500.000000;0.909430
9499.000000;0.908179
9498.000000;0.907352
9497.000000;0.906932
9496.000000;0.906545
9495.000000;0.905969
9494.000000;0.905404
9493.000000;0.905346
9492.000000;0.906093
9491.000000;0.907251
9490.000000;0.907895
9489.000000;0.907436
9488.000000;0.906226
9487.000000;0.905106
9486.000000;0.904494
9485.000000;0.904206
9484.000000;0.904001
9483.000000;0.903893
9482.000000;0.903903
9481.000000;0.903882
9480.000000;0.903706
9479.000000;0.903404
9478.000000;0.902973
9477.000000;0.902336
9476.000000;0.901581
9475.000000;0.901019
9474.000000;0.900809
9473.000000;0.900666
9472.000000;0.900163
9471.000000;0.899242
9470.000000;0.898278
9469.000000;0.897723
9468.000000;0.897822
9467.000000;0.898586
9466.000000;0.899825
9465.000000;0.901115
9464.000000;0.901850
9463.000000;0.901583
9462.000000;0.900460
9461.000000;0.899231
9460.000000;0.898637
9459.000000;0.898732
9458.000000;0.898956
9457.000000;0.898864
9456.000000;0.898553
9455.000000;0.898275
9454.000000;0.897967
9453.000000;0.897472
9452.000000;0.897023
9451.000000;0.897046
9450.000000;0.897492
9449.000000;0.897742
9448.000000;0.897292
9447.000000;0.896277
9446.000000;0.895240
9445.000000;0.894647
9444.000000;0.894704
9443.000000;0.895336
9442.000000;0.896089
9441.000000;0.896263
9440.000000;0.895485
9439.000000;0.894178
9438.000000;0.893298
9437.000000;0.893540
9436.000000;0.894790
9435.000000;0.896235
9434.000000;0.896945
9433.000000;0.896490
9432.000000;0.895182
9431.000000;0.893746
9430.000000;0.892708
9429.000000;0.892070
9428.000000;0.891523
9427.000000;0.890865
9426.000000;0.890222
9425.000000;0.889975
9424.000000;0.890425
9423.000000;0.891384
9422.000000;0.892110
9421.000000;0.891919
9420.000000;0.890956
9419.000000;0.890094
9418.000000;0.889954
9417.000000;0.890239
9416.000000;0.890225
9415.000000;0.889671
9414.000000;0.888917
9413.000000;0.888253
9412.000000;0.887617
9411.000000;0.886972
9410.000000;0.886626
9409.000000;0.886970
9408.000000;0.887988
9407.000000;0.889170
9406.000000;0.889875
9405.000000;0.889758
9404.000000;0.888971
9403.000000;0.888039
9402.000000;0.887473
9401.000000;0.887409
9400.000000;0.887581
9399.000000;0.887629
9398.000000;0.887388
9397.000000;0.886885
9396.000000;0.886176
9395.000000;0.885319
9394.000000;0.884509
9393.000000;0.884146
9392.000000;0.884582
9391.000000;0.885732
9390.000000;0.886954
9389.000000;0.887479
9388.000000;0.887014
9387.000000;0.885918
9386.000000;0.884815
9385.000000;0.884085
9384.000000;0.883704
9383.000000;0.883445
9382.000000;0.883120
9381.000000;0.882695
9380.000000;0.882220
9379.000000;0.881680
9378.000000;0.880956
9377.000000;0.880047
9376.000000;0.879296
9375.000000;0.879186
9374.000000;0.879832
9373.000000;0.880870
9372.000000;0.881924
9371.000000;0.882935
9370.000000;0.883805
9369.000000;0.884055
9368.000000;0.883295
9367.000000;0.881958
9366.000000;0.881027
9365.000000;0.880925
9364.000000;0.881074
9363.000000;0.880704
9362.000000;0.879759
9361.000000;0.878726
9360.000000;0.877899
9359.000000;0.877227
9358.000000;0.876733
9357.000000;0.876608
9356.000000;0.876866
9355.000000;0.877284
9354.000000;0.877744
9353.000000;0.878332
9352.000000;0.879014
9351.000000;0.879471
9350.000000;0.879436
9349.000000;0.878987
9348.000000;0.878365
9347.000000;0.877639
9346.000000;0.876768
9345.000000;0.875880
9344.000000;0.875240
9343.000000;0.874937
9342.000000;0.874816
9341.000000;0.874774
9340.000000;0.874976
9339.000000;0.875638
9338.000000;0.876656
9337.000000;0.877572
9336.000000;0.877953
9335.000000;0.877727
9334.000000;0.877113
9333.000000;0.876328
9332.000000;0.875502
9331.000000;0.874810
9330.000000;0.874424
9329.000000;0.874246
9328.000000;0.873861
9327.000000;0.872973
9326.000000;0.871778
9325.000000;0.870739
9324.000000;0.870121
9323.000000;0.869944
9322.000000;0.870250
9321.000000;0.871047
9320.000000;0.871977
9319.000000;0.872382
9318.000000;0.871928
9317.000000;0.870943
9316.000000;0.870019
9315.000000;0.869501
9314.000000;0.869486
9313.000000;0.869964
9312.000000;0.870643
9311.000000;0.870864
9310.000000;0.870102
9309.000000;0.868553
9308.000000;0.866961
9307.000000;0.865896
9306.000000;0.865438
9305.000000;0.865474
9304.000000;0.865990
9303.000000;0.866976
9302.000000;0.868262
9301.000000;0.869466
9300.000000;0.870012
9299.000000;0.869377
9298.000000;0.867710
9297.000000;0.866196
9296.000000;0.866295
9295.000000;0.868297
9294.000000;0.870811
9293.000000;0.871945
9292.000000;0.870956
9291.000000;0.868646
9290.000000;0.866367
9289.000000;0.864945
9288.000000;0.864411
9287.000000;0.864335
9286.000000;0.864261
9285.000000;0.864015
9284.000000;0.863714
9283.000000;0.863517
9282.000000;0.863413
9281.000000;0.863310
9280.000000;0.863219
9279.000000;0.863201
9278.000000;0.863196
9277.000000;0.863091
9276.000000;0.862944
9275.000000;0.862951
9274.000000;0.863158
9273.000000;0.863353
9272.000000;0.863334
9271.000000;0.863151
9270.000000;0.863026
9269.000000;0.863100
9268.000000;0.863345
9267.000000;0.863612
9266.000000;0.863655
9265.000000;0.863223
9264.000000;0.862319
9263.000000;0.861356
9262.000000;0.860883
9261.000000;0.861046
9260.000000;0.861429
9259.000000;0.861528
9258.000000;0.861263
9257.000000;0.860887
9256.000000;0.860489
9255.000000;0.859867
9254.000000;0.858962
9253.000000;0.858128
9252.000000;0.857760
9251.000000;0.857760
9250.000000;0.857656
9249.000000;0.857252
9248.000000;0.856919
9247.000000;0.857100
9246.000000;0.857700
9245.000000;0.858171
9244.000000;0.858164
9243.000000;0.857918
9242.000000;0.857877
9241.000000;0.858098
9240.000000;0.858251
9239.000000;0.858209
9238.000000;0.858335
9237.000000;0.858983
9236.000000;0.859846
9235.000000;0.860146
9234.000000;0.859503
9233.000000;0.858358
9232.000000;0.857424
9231.000000;0.857013
9230.000000;0.857054
9229.000000;0.857443
9228.000000;0.857989
9227.000000;0.858209
9226.000000;0.857665
9225.000000;0.856573
9224.000000;0.855742
9223.000000;0.855752
9222.000000;0.856377
9221.000000;0.856839
9220.000000;0.856477
9219.000000;0.855197
9218.000000;0.853587
9217.000000;0.852617
9216.000000;0.852915
9215.000000;0.854165
9214.000000;0.855412
9213.000000;0.856040
9212.000000;0.856165
9211.000000;0.856013
9210.000000;0.855412
9209.000000;0.854270
9208.000000;0.853162
9207.000000;0.852878
9206.000000;0.853456
9205.000000;0.854124
9204.000000;0.854279
9203.000000;0.854113
9202.000000;0.854164
9201.000000;0.854557
9200.000000;0.854921
9199.000000;0.854834
9198.000000;0.854154
9197.000000;0.853000
9196.000000;0.851648
9195.000000;0.850471
9194.000000;0.849844
9193.000000;0.849954
9192.000000;0.850615
9191.000000;0.851297
9190.000000;0.851502
9189.000000;0.851227
9188.000000;0.850977
9187.000000;0.851168
9186.000000;0.851595
9185.000000;0.851653
9184.000000;0.851074
9183.000000;0.850219
9182.000000;0.849607
9181.000000;0.849334
9180.000000;0.849138
9179.000000;0.848857
9178.000000;0.848623
9177.000000;0.848588
9176.000000;0.848648
9175.000000;0.848556
9174.000000;0.848233
9173.000000;0.847851
9172.000000;0.847600
9171.000000;0.847484
9170.000000;0.847418
9169.000000;0.847399
9168.000000;0.847477
9167.000000;0.847589
9166.000000;0.847607
9165.000000;0.847549
9164.000000;0.847587
9163.000000;0.847824
9162.000000;0.848220
9161.000000;0.848720
9160.000000;0.849251
9159.000000;0.849546
9158.000000;0.849228
9157.000000;0.848262
9156.000000;0.847153
9155.000000;0.846513
9154.000000;0.846557
9153.000000;0.847114
9152.000000;0.847902
9151.000000;0.848566
9150.000000;0.848676
9149.000000;0.848072
9148.000000;0.847165
9147.000000;0.846551
9146.000000;0.846309
9145.000000;0.846002
9144.000000;0.845408
9143.000000;0.844901
9142.000000;0.844925
9141.000000;0.845379
9140.000000;0.845723
9139.000000;0.845573
9138.000000;0.845018
9137.000000;0.844479
9136.000000;0.844397
9135.000000;0.844941
9134.000000;0.845861
9133.000000;0.846656
9132.000000;0.846980
9131.000000;0.846813
9130.000000;0.846262
9129.000000;0.845390
9128.000000;0.844403
9127.000000;0.843769
9126.000000;0.843852
9125.000000;0.844464
9124.000000;0.845007
9123.000000;0.845063
9122.000000;0.844671
9121.000000;0.844068
9120.000000;0.843399
9119.000000;0.842801
9118.000000;0.842532
9117.000000;0.842797
9116.000000;0.843472
9115.000000;0.844181
9114.000000;0.844621
9113.000000;0.844728
9112.000000;0.844517
9111.000000;0.843937
9110.000000;0.842982
9109.000000;0.841857
9108.000000;0.840925
9107.000000;0.840472
9106.000000;0.840544
9105.000000;0.840952
9104.000000;0.841370
9103.000000;0.841526
9102.000000;0.841414
9101.000000;0.841289
9100.000000;0.841313
9099.000000;0.841269
9098.000000;0.840824
9097.000000;0.840073
9096.000000;0.839577
9095.000000;0.839762
9094.000000;0.840465
9093.000000;0.841172
9092.000000;0.841509
9091.000000;0.841323
9090.000000;0.840541
9089.000000;0.839321
9088.000000;0.838260
9087.000000;0.838046
9086.000000;0.838778
9085.000000;0.839823
9084.000000;0.840433
9083.000000;0.840344
9082.000000;0.839727
9081.000000;0.838838
9080.000000;0.837872
9079.000000;0.837032
9078.000000;0.836506
9077.000000;0.836385
9076.000000;0.836664
9075.000000;0.837248
9074.000000;0.837923
9073.000000;0.838385
9072.000000;0.838410
9071.000000;0.838001
9070.000000;0.837426
9069.000000;0.837127
9068.000000;0.837452
9067.000000;0.838277
9066.000000;0.838909
9065.000000;0.838655
9064.000000;0.837600
9063.000000;0.836611
9062.000000;0.836440
9061.000000;0.836974
9060.000000;0.837500
9059.000000;0.837531
9058.000000;0.837173
9057.000000;0.836786
9056.000000;0.836530
9055.000000;0.836320
9054.000000;0.836050
9053.000000;0.835742
