Criado como novo conjunto de dados;"e0108.spp","-4292625.5 Secs"
cm-1;Abs
10000.000000;0.186484
9999.000000;0.185863
9998.000000;0.185227
9997.000000;0.184622
9996.000000;0.183895
9995.000000;0.183207
9994.000000;0.182828
9993.000000;0.182588
9992.000000;0.182216
9991.000000;0.181663
9990.000000;0.181153
9989.000000;0.180875
9988.000000;0.180789
9987.000000;0.180694
9986.000000;0.180407
9985.000000;0.179919
9984.000000;0.179417
9983.000000;0.179100
9982.000000;0.178959
9981.000000;0.178811
9980.000000;0.178578
9979.000000;0.178411
9978.000000;0.178470
9977.000000;0.178692
9976.000000;0.178892
9975.000000;0.178994
9974.000000;0.179010
9973.000000;0.178823
9972.000000;0.178162
9971.000000;0.176893
9970.000000;0.175280
9969.000000;0.173881
9968.000000;0.173146
9967.000000;0.173119
9966.000000;0.173473
9965.000000;0.173803
9964.000000;0.173879
9963.000000;0.173729
9962.000000;0.173552
9961.000000;0.173531
9960.000000;0.173630
9959.000000;0.173550
9958.000000;0.172992
9957.000000;0.172010
9956.000000;0.171019
9955.000000;0.170393
9954.000000;0.170120
9953.000000;0.169915
9952.000000;0.169559
9951.000000;0.169009
9950.000000;0.168298
9949.000000;0.167504
9948.000000;0.166804
9947.000000;0.166364
9946.000000;0.166171
9945.000000;0.166093
9944.000000;0.166104
9943.000000;0.166281
9942.000000;0.166518
9941.000000;0.166428
9940.000000;0.165713
9939.000000;0.164587
9938.000000;0.163717
9937.000000;0.163656
9936.000000;0.164339
9935.000000;0.165098
9934.000000;0.165209
9933.000000;0.164478
9932.000000;0.163355
9931.000000;0.162478
9930.000000;0.162107
9929.000000;0.161999
9928.000000;0.161761
9927.000000;0.161265
9926.000000;0.160695
9925.000000;0.160282
9924.000000;0.160048
9923.000000;0.159819
9922.000000;0.159456
9921.000000;0.159005
9920.000000;0.158597
9919.000000;0.158264
9918.000000;0.157985
9917.000000;0.157866
9916.000000;0.158082
9915.000000;0.158575
9914.000000;0.158952
9913.000000;0.158802
9912.000000;0.158019
9911.000000;0.156798
9910.000000;0.155478
9909.000000;0.154486
9908.000000;0.154167
9907.000000;0.154427
9906.000000;0.154663
9905.000000;0.154336
9904.000000;0.153573
9903.000000;0.152981
9902.000000;0.152868
9901.000000;0.152931
9900.000000;0.152725
9899.000000;0.152201
9898.000000;0.151633
9897.000000;0.151214
9896.000000;0.150904
9895.000000;0.150578
9894.000000;0.150189
9893.000000;0.149790
9892.000000;0.149469
9891.000000;0.149276
9890.000000;0.149178
9889.000000;0.149106
9888.000000;0.149027
9887.000000;0.148940
9886.000000;0.148808
9885.000000;0.148547
9884.000000;0.148088
9883.000000;0.147430
9882.000000;0.146705
9881.000000;0.146159
9880.000000;0.145968
9879.000000;0.145970
9878.000000;0.145735
9877.000000;0.145035
9876.000000;0.144158
9875.000000;0.143600
9874.000000;0.143523
9873.000000;0.143692
9872.000000;0.143848
9871.000000;0.143904
9870.000000;0.143771
9869.000000;0.143294
9868.000000;0.142464
9867.000000;0.141533
9866.000000;0.140796
9865.000000;0.140351
9864.000000;0.140121
9863.000000;0.139981
9862.000000;0.139820
9861.000000;0.139588
9860.000000;0.139346
9859.000000;0.139175
9858.000000;0.139032
9857.000000;0.138807
9856.000000;0.138545
9855.000000;0.138415
9854.000000;0.138412
9853.000000;0.138272
9852.000000;0.137836
9851.000000;0.137342
9850.000000;0.137177
9849.000000;0.137374
9848.000000;0.137519
9847.000000;0.137185
9846.000000;0.136355
9845.000000;0.135407
9844.000000;0.134766
9843.000000;0.134574
9842.000000;0.134641
9841.000000;0.134629
9840.000000;0.134274
9839.000000;0.133519
9838.000000;0.132555
9837.000000;0.131770
9836.000000;0.131513
9835.000000;0.131744
9834.000000;0.131948
9833.000000;0.131552
9832.000000;0.130478
9831.000000;0.129261
9830.000000;0.128591
9829.000000;0.128749
9828.000000;0.129410
9827.000000;0.129913
9826.000000;0.129761
9825.000000;0.128980
9824.000000;0.128044
9823.000000;0.127391
9822.000000;0.127060
9821.000000;0.126834
9820.000000;0.126593
9819.000000;0.126369
9818.000000;0.126146
9817.000000;0.125824
9816.000000;0.125395
9815.000000;0.124954
9814.000000;0.124518
9813.000000;0.124018
9812.000000;0.123519
9811.000000;0.123237
9810.000000;0.123249
9809.000000;0.123358
9808.000000;0.123351
9807.000000;0.123239
9806.000000;0.123140
9805.000000;0.123033
9804.000000;0.122781
9803.000000;0.122318
9802.000000;0.121717
9801.000000;0.121116
9800.000000;0.120649
9799.000000;0.120391
9798.000000;0.120256
9797.000000;0.120031
9796.000000;0.119612
9795.000000;0.119148
9794.000000;0.118852
9793.000000;0.118701
9792.000000;0.118450
9791.000000;0.117945
9790.000000;0.117330
9789.000000;0.116907
9788.000000;0.116831
9787.000000;0.116987
9786.000000;0.117138
9785.000000;0.117171
9784.000000;0.117145
9783.000000;0.117121
9782.000000;0.117009
9781.000000;0.116676
9780.000000;0.116120
9779.000000;0.115447
9778.000000;0.114730
9777.000000;0.114033
9776.000000;0.113536
9775.000000;0.113445
9774.000000;0.113695
9773.000000;0.113917
9772.000000;0.113822
9771.000000;0.113511
9770.000000;0.113248
9769.000000;0.113028
9768.000000;0.112545
9767.000000;0.111610
9766.000000;0.110441
9765.000000;0.109475
9764.000000;0.108973
9763.000000;0.108882
9762.000000;0.109024
9761.000000;0.109284
9760.000000;0.109588
9759.000000;0.109793
9758.000000;0.109744
9757.000000;0.109410
9756.000000;0.108899
9755.000000;0.108309
9754.000000;0.107670
9753.000000;0.107070
9752.000000;0.106698
9751.000000;0.106635
9750.000000;0.106680
9749.000000;0.106541
9748.000000;0.106177
9747.000000;0.105829
9746.000000;0.105707
9745.000000;0.105745
9744.000000;0.105691
9743.000000;0.105364
9742.000000;0.104811
9741.000000;0.104270
9740.000000;0.103939
9739.000000;0.103757
9738.000000;0.103443
9737.000000;0.102831
9736.000000;0.102092
9735.000000;0.101511
9734.000000;0.101141
9733.000000;0.100844
9732.000000;0.100591
9731.000000;0.100477
9730.000000;0.100449
9729.000000;0.100291
9728.000000;0.099934
9727.000000;0.099554
9726.000000;0.099270
9725.000000;0.098965
9724.000000;0.098551
9723.000000;0.098188
9722.000000;0.098058
9721.000000;0.098051
9720.000000;0.097918
9719.000000;0.097613
9718.000000;0.097305
9717.000000;0.097076
9716.000000;0.096825
9715.000000;0.096440
9714.000000;0.095927
9713.000000;0.095385
9712.000000;0.095005
9711.000000;0.095027
9710.000000;0.095513
9709.000000;0.096112
9708.000000;0.096274
9707.000000;0.095777
9706.000000;0.094958
9705.000000;0.094307
9704.000000;0.093948
9703.000000;0.093607
9702.000000;0.093054
9701.000000;0.092418
9700.000000;0.092028
9699.000000;0.092003
9698.000000;0.092114
9697.000000;0.092076
9696.000000;0.091904
9695.000000;0.091899
9694.000000;0.092239
9693.000000;0.092691
9692.000000;0.092793
9691.000000;0.092277
9690.000000;0.091259
9689.000000;0.090051
9688.000000;0.088914
9687.000000;0.088002
9686.000000;0.087435
9685.000000;0.087297
9684.000000;0.087546
9683.000000;0.087975
9682.000000;0.088314
9681.000000;0.088393
9680.000000;0.088210
9679.000000;0.087865
9678.000000;0.087459
9677.000000;0.087058
9676.000000;0.086702
9675.000000;0.086373
9674.000000;0.085974
9673.000000;0.085408
9672.000000;0.084707
9671.000000;0.084040
9670.000000;0.083556
9669.000000;0.083254
9668.000000;0.083029
9667.000000;0.082807
9666.000000;0.082608
9665.000000;0.082492
9664.000000;0.082478
9663.000000;0.082500
9662.000000;0.082433
9661.000000;0.082173
9660.000000;0.081712
9659.000000;0.081132
9658.000000;0.080529
9657.000000;0.079969
9656.000000;0.079533
9655.000000;0.079312
9654.000000;0.079328
9653.000000;0.079483
9652.000000;0.079623
9651.000000;0.079624
9650.000000;0.079399
9649.000000;0.078913
9648.000000;0.078257
9647.000000;0.077639
9646.000000;0.077211
9645.000000;0.076948
9644.000000;0.076767
9643.000000;0.076704
9642.000000;0.076838
9641.000000;0.077057
9640.000000;0.077048
9639.000000;0.076620
9638.000000;0.075917
9637.000000;0.075250
9636.000000;0.074804
9635.000000;0.074577
9634.000000;0.074511
9633.000000;0.074530
9632.000000;0.074483
9631.000000;0.074227
9630.000000;0.073781
9629.000000;0.073318
9628.000000;0.072944
9627.000000;0.072605
9626.000000;0.072217
9625.000000;0.071814
9624.000000;0.071473
9623.000000;0.071201
9622.000000;0.070966
9621.000000;0.070822
9620.000000;0.070880
9619.000000;0.071155
9618.000000;0.071487
9617.000000;0.071628
9616.000000;0.071386
9615.000000;0.070745
9614.000000;0.069893
9613.000000;0.069126
9612.000000;0.068633
9611.000000;0.068369
9610.000000;0.068133
9609.000000;0.067777
9608.000000;0.067312
9607.000000;0.066878
9606.000000;0.066658
9605.000000;0.066757
9604.000000;0.067072
9603.000000;0.067287
9602.000000;0.067099
9601.000000;0.066464
9600.000000;0.065620
9599.000000;0.064885
9598.000000;0.064482
9597.000000;0.064455
9596.000000;0.064626
9595.000000;0.064659
9594.000000;0.064334
9593.000000;0.063776
9592.000000;0.063315
9591.000000;0.063111
9590.000000;0.063028
9589.000000;0.062876
9588.000000;0.062626
9587.000000;0.062345
9586.000000;0.062045
9585.000000;0.061709
9584.000000;0.061353
9583.000000;0.061019
9582.000000;0.060740
9581.000000;0.060579
9580.000000;0.060575
9579.000000;0.060618
9578.000000;0.060497
9577.000000;0.060139
9576.000000;0.059691
9575.000000;0.059301
9574.000000;0.058941
9573.000000;0.058553
9572.000000;0.058209
9571.000000;0.057988
9570.000000;0.057776
9569.000000;0.057391
9568.000000;0.056854
9567.000000;0.056368
9566.000000;0.056041
9565.000000;0.055799
9564.000000;0.055582
9563.000000;0.055494
9562.000000;0.055672
9561.000000;0.056078
9560.000000;0.056459
9559.000000;0.056484
9558.000000;0.055968
9557.000000;0.055038
9556.000000;0.054105
9555.000000;0.053583
9554.000000;0.053566
9553.000000;0.053794
9552.000000;0.053904
9551.000000;0.053696
9550.000000;0.053208
9549.000000;0.052637
9548.000000;0.052195
9547.000000;0.051949
9546.000000;0.051753
9545.000000;0.051380
9544.000000;0.050752
9543.000000;0.050044
9542.000000;0.049539
9541.000000;0.049390
9540.000000;0.049491
9539.000000;0.049609
9538.000000;0.049632
9537.000000;0.049668
9536.000000;0.049862
9535.000000;0.050165
9534.000000;0.050385
9533.000000;0.050420
9532.000000;0.050304
9531.000000;0.050002
9530.000000;0.049359
9529.000000;0.048355
9528.000000;0.047310
9527.000000;0.046666
9526.000000;0.046628
9525.000000;0.047067
9524.000000;0.047668
9523.000000;0.048034
9522.000000;0.047779
9521.000000;0.046796
9520.000000;0.045494
9519.000000;0.044598
9518.000000;0.044573
9517.000000;0.045251
9516.000000;0.046037
9515.000000;0.046424
9514.000000;0.046291
9513.000000;0.045813
9512.000000;0.045182
9511.000000;0.044482
9510.000000;0.043803
9509.000000;0.043367
9508.000000;0.043361
9507.000000;0.043610
9506.000000;0.043605
9505.000000;0.043018
9504.000000;0.042124
9503.000000;0.041543
9502.000000;0.041558
9501.000000;0.041854
9500.000000;0.041935
9499.000000;0.041663
9498.000000;0.041271
9497.000000;0.040995
9496.000000;0.040827
9495.000000;0.040655
9494.000000;0.040487
9493.000000;0.040407
9492.000000;0.040356
9491.000000;0.040114
9490.000000;0.039586
9489.000000;0.039007
9488.000000;0.038703
9487.000000;0.038699
9486.000000;0.038726
9485.000000;0.038608
9484.000000;0.038457
9483.000000;0.038436
9482.000000;0.038496
9481.000000;0.038462
9480.000000;0.038234
9479.000000;0.037790
9478.000000;0.037134
9477.000000;0.036376
9476.000000;0.035763
9475.000000;0.035492
9474.000000;0.035522
9473.000000;0.035652
9472.000000;0.035684
9471.000000;0.035457
9470.000000;0.034885
9469.000000;0.034131
9468.000000;0.033617
9467.000000;0.033641
9466.000000;0.034052
9465.000000;0.034416
9464.000000;0.034439
9463.000000;0.034089
9462.000000;0.033449
9461.000000;0.032709
9460.000000;0.032205
9459.000000;0.032180
9458.000000;0.032491
9457.000000;0.032738
9456.000000;0.032709
9455.000000;0.032514
9454.000000;0.032322
9453.000000;0.032187
9452.000000;0.032161
9451.000000;0.032317
9450.000000;0.032569
9449.000000;0.032641
9448.000000;0.032362
9447.000000;0.031872
9446.000000;0.031471
9445.000000;0.031361
9444.000000;0.031543
9443.000000;0.031813
9442.000000;0.031821
9441.000000;0.031288
9440.000000;0.030302
9439.000000;0.029311
9438.000000;0.028740
9437.000000;0.028668
9436.000000;0.028849
9435.000000;0.028945
9434.000000;0.028700
9433.000000;0.028073
9432.000000;0.027311
9431.000000;0.026795
9430.000000;0.026710
9429.000000;0.026893
9428.000000;0.027048
9427.000000;0.027021
9426.000000;0.026864
9425.000000;0.026715
9424.000000;0.026672
9423.000000;0.026689
9422.000000;0.026561
9421.000000;0.026115
9420.000000;0.025437
9419.000000;0.024833
9418.000000;0.024524
9417.000000;0.024503
9416.000000;0.024680
9415.000000;0.024982
9414.000000;0.025249
9413.000000;0.025222
9412.000000;0.024806
9411.000000;0.024199
9410.000000;0.023621
9409.000000;0.023027
9408.000000;0.022268
9407.000000;0.021471
9406.000000;0.021034
9405.000000;0.021189
9404.000000;0.021705
9403.000000;0.022096
9402.000000;0.022050
9401.000000;0.021637
9400.000000;0.021160
9399.000000;0.020846
9398.000000;0.020676
9397.000000;0.020459
9396.000000;0.020053
9395.000000;0.019510
9394.000000;0.019053
9393.000000;0.018931
9392.000000;0.019236
9391.000000;0.019766
9390.000000;0.020095
9389.000000;0.019915
9388.000000;0.019342
9387.000000;0.018790
9386.000000;0.018553
9385.000000;0.018578
9384.000000;0.018659
9383.000000;0.018671
9382.000000;0.018563
9381.000000;0.018265
9380.000000;0.017770
9379.000000;0.017202
9378.000000;0.016710
9377.000000;0.016338
9376.000000;0.016101
9375.000000;0.016097
9374.000000;0.016395
9373.000000;0.016861
9372.000000;0.017224
9371.000000;0.017308
9370.000000;0.017127
9369.000000;0.016804
9368.000000;0.016481
9367.000000;0.016263
9366.000000;0.016110
9365.000000;0.015804
9364.000000;0.015175
9363.000000;0.014361
9362.000000;0.013728
9361.000000;0.013517
9360.000000;0.013680
9359.000000;0.014042
9358.000000;0.014458
9357.000000;0.014756
9356.000000;0.014729
9355.000000;0.014346
9354.000000;0.013854
9353.000000;0.013514
9352.000000;0.013292
9351.000000;0.012954
9350.000000;0.012436
9349.000000;0.011931
9348.000000;0.011599
9347.000000;0.011381
9346.000000;0.011187
9345.000000;0.011114
9344.000000;0.011287
9343.000000;0.011564
9342.000000;0.011593
9341.000000;0.011221
9340.000000;0.010712
9339.000000;0.010472
9338.000000;0.010615
9337.000000;0.010871
9336.000000;0.010886
9335.000000;0.010560
9334.000000;0.010098
9333.000000;0.009780
9332.000000;0.009684
9331.000000;0.009639
9330.000000;0.009439
9329.000000;0.009094
9328.000000;0.008811
9327.000000;0.008728
9326.000000;0.008737
9325.000000;0.008628
9324.000000;0.008343
9323.000000;0.008009
9322.000000;0.007731
9321.000000;0.007493
9320.000000;0.007263
9319.000000;0.007111
9318.000000;0.007110
9317.000000;0.007178
9316.000000;0.007114
9315.000000;0.006823
9314.000000;0.006419
9313.000000;0.006049
9312.000000;0.005692
9311.000000;0.005242
9310.000000;0.004751
9309.000000;0.004441
9308.000000;0.004404
9307.000000;0.004445
9306.000000;0.004354
9305.000000;0.004218
9304.000000;0.004301
9303.000000;0.004645
9302.000000;0.004994
9301.000000;0.005118
9300.000000;0.005009
9299.000000;0.004746
9298.000000;0.004356
9297.000000;0.003947
9296.000000;0.003753
9295.000000;0.003887
9294.000000;0.004120
9293.000000;0.004073
9292.000000;0.003606
9291.000000;0.002912
9290.000000;0.002310
9289.000000;0.002024
9288.000000;0.002080
9287.000000;0.002286
9286.000000;0.002358
9285.000000;0.002185
9284.000000;0.001926
9283.000000;0.001775
9282.000000;0.001715
9281.000000;0.001625
9280.000000;0.001479
9279.000000;0.001304
9278.000000;0.001044
9277.000000;0.000669
9276.000000;0.000350
9275.000000;0.000275
9274.000000;0.000332
9273.000000;0.000213
9272.000000;-0.000175
9271.000000;-0.000627
9270.000000;-0.000982
9269.000000;-0.001293
9268.000000;-0.001574
9267.000000;-0.001646
9266.000000;-0.001413
9265.000000;-0.001094
9264.000000;-0.001010
9263.000000;-0.001229
9262.000000;-0.001557
9261.000000;-0.001763
9260.000000;-0.001740
9259.000000;-0.001552
9258.000000;-0.001461
9257.000000;-0.001783
9256.000000;-0.002574
9255.000000;-0.003495
9254.000000;-0.004119
9253.000000;-0.004304
9252.000000;-0.004192
9251.000000;-0.003969
9250.000000;-0.003783
9249.000000;-0.003810
9248.000000;-0.004172
9247.000000;-0.004762
9246.000000;-0.005292
9245.000000;-0.005526
9244.000000;-0.005421
9243.000000;-0.005068
9242.000000;-0.004618
9241.000000;-0.004234
9240.000000;-0.004001
9239.000000;-0.003854
9238.000000;-0.003700
9237.000000;-0.003607
9236.000000;-0.003758
9235.000000;-0.004194
9234.000000;-0.004710
9233.000000;-0.005065
9232.000000;-0.005216
9231.000000;-0.005298
9230.000000;-0.005435
9229.000000;-0.005643
9228.000000;-0.005883
9227.000000;-0.006129
9226.000000;-0.006383
9225.000000;-0.006629
9224.000000;-0.006815
9223.000000;-0.006868
9222.000000;-0.006760
9221.000000;-0.006568
9220.000000;-0.006449
9219.000000;-0.006542
9218.000000;-0.006876
9217.000000;-0.007349
9216.000000;-0.007758
9215.000000;-0.007894
9214.000000;-0.007681
9213.000000;-0.007257
9212.000000;-0.006911
9211.000000;-0.006903
9210.000000;-0.007303
9209.000000;-0.007947
9208.000000;-0.008507
9207.000000;-0.008678
9206.000000;-0.008405
9205.000000;-0.007986
9204.000000;-0.007877
9203.000000;-0.008286
9202.000000;-0.008977
9201.000000;-0.009537
9200.000000;-0.009808
9199.000000;-0.009981
9198.000000;-0.010259
9197.000000;-0.010568
9196.000000;-0.010691
9195.000000;-0.010599
9194.000000;-0.010476
9193.000000;-0.010439
9192.000000;-0.010412
9191.000000;-0.010336
9190.000000;-0.010319
9189.000000;-0.010463
9188.000000;-0.010651
9187.000000;-0.010701
9186.000000;-0.010670
9185.000000;-0.010820
9184.000000;-0.011273
9183.000000;-0.011853
9182.000000;-0.012332
9181.000000;-0.012689
9180.000000;-0.013027
9179.000000;-0.013366
9178.000000;-0.013626
9177.000000;-0.013780
9176.000000;-0.013891
9175.000000;-0.013985
9174.000000;-0.013980
9173.000000;-0.013765
9172.000000;-0.013349
9171.000000;-0.012919
9170.000000;-0.012756
9169.000000;-0.013043
9168.000000;-0.013693
9167.000000;-0.014369
9166.000000;-0.014728
9165.000000;-0.014677
9164.000000;-0.014410
9163.000000;-0.014197
9162.000000;-0.014151
9161.000000;-0.014178
9160.000000;-0.014121
9159.000000;-0.013951
9158.000000;-0.013796
9157.000000;-0.013809
9156.000000;-0.014036
9155.000000;-0.014415
9154.000000;-0.014843
9153.000000;-0.015179
9152.000000;-0.015266
9151.000000;-0.015063
9150.000000;-0.014776
9149.000000;-0.014729
9148.000000;-0.015067
9147.000000;-0.015618
9146.000000;-0.016092
9145.000000;-0.016334
9144.000000;-0.016344
9143.000000;-0.016200
9142.000000;-0.016041
9141.000000;-0.016068
9140.000000;-0.016384
9139.000000;-0.016829
9138.000000;-0.017116
9137.000000;-0.017147
9136.000000;-0.017110
9135.000000;-0.017193
9134.000000;-0.017319
9133.000000;-0.017272
9132.000000;-0.017041
9131.000000;-0.016906
9130.000000;-0.017127
9129.000000;-0.017643
9128.000000;-0.018130
9127.000000;-0.018317
9126.000000;-0.018176
9125.000000;-0.017848
9124.000000;-0.017498
9123.000000;-0.017286
9122.000000;-0.017343
9121.000000;-0.017670
9120.000000;-0.018079
9119.000000;-0.018339
9118.000000;-0.018414
9117.000000;-0.018483
9116.000000;-0.018697
9115.000000;-0.018977
9114.000000;-0.019135
9113.000000;-0.019138
9112.000000;-0.019154
9111.000000;-0.019330
9110.000000;-0.019610
9109.000000;-0.019836
9108.000000;-0.019968
9107.000000;-0.020130
9106.000000;-0.020412
9105.000000;-0.020728
9104.000000;-0.020912
9103.000000;-0.020890
9102.000000;-0.020690
9101.000000;-0.020359
9100.000000;-0.019966
9099.000000;-0.019688
9098.000000;-0.019726
9097.000000;-0.020083
9096.000000;-0.020503
9095.000000;-0.020713
9094.000000;-0.020662
9093.000000;-0.020507
9092.000000;-0.020444
9091.000000;-0.020623
9090.000000;-0.021104
9089.000000;-0.021759
9088.000000;-0.022270
9087.000000;-0.022389
9086.000000;-0.022190
9085.000000;-0.021975
9084.000000;-0.021960
9083.000000;-0.022137
9082.000000;-0.022400
9081.000000;-0.022650
9080.000000;-0.022776
9079.000000;-0.022688
9078.000000;-0.022435
9077.000000;-0.022186
9076.000000;-0.022061
9075.000000;-0.022061
9074.000000;-0.022190
9073.000000;-0.022489
9072.000000;-0.022921
9071.000000;-0.023307
9070.000000;-0.023483
9069.000000;-0.023439
9068.000000;-0.023270
9067.000000;-0.023096
9066.000000;-0.023050
9065.000000;-0.023232
9064.000000;-0.023588
9063.000000;-0.023916
