Criado como novo conjunto de dados;"e0108.spp","-4225481.8 Secs"
cm-1;Abs
10000.000000;1.964141
9999.000000;1.956689
9998.000000;1.949362
9997.000000;1.942156
9996.000000;1.935077
9995.000000;1.928084
9994.000000;1.921258
9993.000000;1.914427
9992.000000;1.907894
9991.000000;1.901117
9990.000000;1.895138
9989.000000;1.886277
9988.000000;1.873762
9987.000000;1.861440
9986.000000;1.852465
9985.000000;1.850693
9984.000000;1.856629
9983.000000;1.867305
9982.000000;1.877704
9981.000000;1.883653
9980.000000;1.883471
9979.000000;1.878627
9978.000000;1.873159
9977.000000;1.871344
9976.000000;1.874901
9975.000000;1.881591
9974.000000;1.886516
9973.000000;1.885931
9972.000000;1.880418
9971.000000;1.873979
9970.000000;1.870055
9969.000000;1.868931
9968.000000;1.869159
9967.000000;1.870756
9966.000000;1.875231
9965.000000;1.882051
9964.000000;1.887242
9963.000000;1.887324
9962.000000;1.883273
9961.000000;1.878217
9960.000000;1.872655
9959.000000;1.865355
9958.000000;1.858011
9957.000000;1.854498
9956.000000;1.854949
9955.000000;1.854340
9954.000000;1.849310
9953.000000;1.843834
9952.000000;1.844708
9951.000000;1.853378
9950.000000;1.864578
9949.000000;1.872321
9948.000000;1.874762
9947.000000;1.872670
9946.000000;1.867262
9945.000000;1.861185
9944.000000;1.858430
9943.000000;1.861249
9942.000000;1.867487
9941.000000;1.871635
9940.000000;1.869275
9939.000000;1.860703
9938.000000;1.850203
9937.000000;1.842663
9936.000000;1.840614
9935.000000;1.843214
9934.000000;1.847476
9933.000000;1.849475
9932.000000;1.845624
9931.000000;1.836564
9930.000000;1.828326
9929.000000;1.827047
9928.000000;1.834127
9927.000000;1.846264
9926.000000;1.858662
9925.000000;1.867502
9924.000000;1.870144
9923.000000;1.865756
9922.000000;1.857054
9921.000000;1.849663
9920.000000;1.848387
9919.000000;1.854057
9918.000000;1.863472
9917.000000;1.870882
9916.000000;1.870272
9915.000000;1.859958
9914.000000;1.845343
9913.000000;1.834675
9912.000000;1.831811
9911.000000;1.833951
9910.000000;1.836326
9909.000000;1.837348
9908.000000;1.837736
9907.000000;1.837012
9906.000000;1.834115
9905.000000;1.830463
9904.000000;1.829092
9903.000000;1.830635
9902.000000;1.832310
9901.000000;1.831420
9900.000000;1.828525
9899.000000;1.826704
9898.000000;1.828842
9897.000000;1.835457
9896.000000;1.843710
9895.000000;1.848842
9894.000000;1.848122
9893.000000;1.843296
9892.000000;1.838227
9891.000000;1.835145
9890.000000;1.834287
9889.000000;1.835662
9888.000000;1.838665
9887.000000;1.840581
9886.000000;1.838651
9885.000000;1.834280
9884.000000;1.832194
9883.000000;1.834356
9882.000000;1.837049
9881.000000;1.835334
9880.000000;1.829369
9879.000000;1.824059
9878.000000;1.823035
9877.000000;1.825013
9876.000000;1.825965
9875.000000;1.824124
9874.000000;1.821980
9873.000000;1.823131
9872.000000;1.828073
9871.000000;1.833405
9870.000000;1.835490
9869.000000;1.834275
9868.000000;1.832205
9867.000000;1.830336
9866.000000;1.827561
9865.000000;1.823762
9864.000000;1.821617
9863.000000;1.823853
9862.000000;1.829897
9861.000000;1.836280
9860.000000;1.840287
9859.000000;1.842364
9858.000000;1.843963
9857.000000;1.844231
9856.000000;1.840637
9855.000000;1.833032
9854.000000;1.825595
9853.000000;1.823325
9852.000000;1.826878
9851.000000;1.831823
9850.000000;1.833195
9849.000000;1.829884
9848.000000;1.824065
9847.000000;1.818049
9846.000000;1.813633
9845.000000;1.812968
9844.000000;1.816977
9843.000000;1.823487
9842.000000;1.828494
9841.000000;1.829250
9840.000000;1.826390
9839.000000;1.822907
9838.000000;1.821373
9837.000000;1.822107
9836.000000;1.823263
9835.000000;1.822760
9834.000000;1.820574
9833.000000;1.818853
9832.000000;1.819152
9831.000000;1.820440
9830.000000;1.820740
9829.000000;1.819787
9828.000000;1.818751
9827.000000;1.818072
9826.000000;1.816942
9825.000000;1.814405
9824.000000;1.810015
9823.000000;1.804251
9822.000000;1.799425
9821.000000;1.799224
9820.000000;1.805297
9819.000000;1.814135
9818.000000;1.819481
9817.000000;1.819036
9816.000000;1.816384
9815.000000;1.815172
9814.000000;1.814383
9813.000000;1.810683
9812.000000;1.803541
9811.000000;1.796327
9810.000000;1.793516
9809.000000;1.797920
9808.000000;1.808763
9807.000000;1.820741
9806.000000;1.826692
9805.000000;1.823916
9804.000000;1.816787
9803.000000;1.811364
9802.000000;1.809494
9801.000000;1.809217
9800.000000;1.808603
9799.000000;1.807129
9798.000000;1.804432
9797.000000;1.800505
9796.000000;1.796946
9795.000000;1.795828
9794.000000;1.797596
9793.000000;1.801256
9792.000000;1.806313
9791.000000;1.813326
9790.000000;1.821489
9789.000000;1.827078
9788.000000;1.826852
9787.000000;1.822291
9786.000000;1.817894
9785.000000;1.815687
9784.000000;1.813404
9783.000000;1.808212
9782.000000;1.800987
9781.000000;1.795707
9780.000000;1.795206
9779.000000;1.798737
9778.000000;1.803411
9777.000000;1.807125
9776.000000;1.809385
9775.000000;1.809808
9774.000000;1.807601
9773.000000;1.802703
9772.000000;1.796403
9771.000000;1.790624
9770.000000;1.786929
9769.000000;1.786350
9768.000000;1.789489
9767.000000;1.795746
9766.000000;1.802362
9765.000000;1.805512
9764.000000;1.803666
9763.000000;1.799358
9762.000000;1.796486
9761.000000;1.796402
9760.000000;1.797093
9759.000000;1.795471
9758.000000;1.790756
9757.000000;1.785731
9756.000000;1.783667
9755.000000;1.784969
9754.000000;1.787320
9753.000000;1.787951
9752.000000;1.786234
9751.000000;1.784507
9750.000000;1.785595
9749.000000;1.789655
9748.000000;1.793859
9747.000000;1.795032
9746.000000;1.792300
9745.000000;1.787056
9744.000000;1.781296
9743.000000;1.776909
9742.000000;1.775739
9741.000000;1.778509
9740.000000;1.783180
9739.000000;1.785765
9738.000000;1.784263
9737.000000;1.781298
9736.000000;1.781502
9735.000000;1.786625
9734.000000;1.793987
9733.000000;1.799527
9732.000000;1.801505
9731.000000;1.800826
9730.000000;1.799097
9729.000000;1.797579
9728.000000;1.797058
9727.000000;1.797162
9726.000000;1.795990
9725.000000;1.791839
9724.000000;1.785704
9723.000000;1.780982
9722.000000;1.780179
9721.000000;1.782421
9720.000000;1.784526
9719.000000;1.784317
9718.000000;1.782530
9717.000000;1.781453
9716.000000;1.782165
9715.000000;1.783216
9714.000000;1.781867
9713.000000;1.777013
9712.000000;1.770733
9711.000000;1.766444
9710.000000;1.766018
9709.000000;1.768423
9708.000000;1.770547
9707.000000;1.769972
9706.000000;1.767419
9705.000000;1.766379
9704.000000;1.770095
9703.000000;1.778299
9702.000000;1.786350
9701.000000;1.788300
9700.000000;1.782442
9699.000000;1.773435
9698.000000;1.767730
9697.000000;1.767794
9696.000000;1.770829
9695.000000;1.772206
9694.000000;1.770306
9693.000000;1.767911
9692.000000;1.768661
9691.000000;1.772823
9690.000000;1.777031
9689.000000;1.778057
9688.000000;1.775935
9687.000000;1.773249
9686.000000;1.772466
9685.000000;1.774175
9684.000000;1.777187
9683.000000;1.779712
9682.000000;1.780550
9681.000000;1.779608
9680.000000;1.777439
9679.000000;1.774321
9678.000000;1.770142
9677.000000;1.765445
9676.000000;1.761994
9675.000000;1.761477
9674.000000;1.763656
9673.000000;1.766533
9672.000000;1.768742
9671.000000;1.771114
9670.000000;1.774855
9669.000000;1.778448
9668.000000;1.777896
9667.000000;1.771036
9666.000000;1.760634
9665.000000;1.752026
9664.000000;1.748550
9663.000000;1.749780
9662.000000;1.752977
9661.000000;1.755447
9660.000000;1.755828
9659.000000;1.754021
9658.000000;1.750700
9657.000000;1.747185
9656.000000;1.745347
9655.000000;1.746758
9654.000000;1.751128
9653.000000;1.755650
9652.000000;1.756955
9651.000000;1.754620
9650.000000;1.752173
9649.000000;1.753645
9648.000000;1.759358
9647.000000;1.765539
9646.000000;1.767945
9645.000000;1.765431
9644.000000;1.759949
9643.000000;1.754365
9642.000000;1.750997
9641.000000;1.750632
9640.000000;1.751665
9639.000000;1.751488
9638.000000;1.749718
9637.000000;1.748866
9636.000000;1.750995
9635.000000;1.754567
9634.000000;1.756061
9633.000000;1.754654
9632.000000;1.753136
9631.000000;1.753813
9630.000000;1.755755
9629.000000;1.756862
9628.000000;1.756981
9627.000000;1.757703
9626.000000;1.759760
9625.000000;1.761872
9624.000000;1.762001
9623.000000;1.759030
9622.000000;1.753580
9621.000000;1.747840
9620.000000;1.744367
9619.000000;1.744406
9618.000000;1.747184
9617.000000;1.750888
9616.000000;1.754097
9615.000000;1.756194
9614.000000;1.756987
9613.000000;1.756414
9612.000000;1.754200
9611.000000;1.749599
9610.000000;1.742565
9609.000000;1.735623
9608.000000;1.732776
9607.000000;1.735415
9606.000000;1.740585
9605.000000;1.744175
9604.000000;1.744676
9603.000000;1.743020
9602.000000;1.740333
9601.000000;1.737423
9600.000000;1.735952
9599.000000;1.737655
9598.000000;1.741299
9597.000000;1.742580
9596.000000;1.739065
9595.000000;1.733699
9594.000000;1.731150
9593.000000;1.732576
9592.000000;1.736153
9591.000000;1.740461
9590.000000;1.744565
9589.000000;1.746299
9588.000000;1.743568
9587.000000;1.737642
9586.000000;1.733018
9585.000000;1.733184
9584.000000;1.737701
9583.000000;1.743380
9582.000000;1.747096
9581.000000;1.747405
9580.000000;1.744642
9579.000000;1.740758
9578.000000;1.738659
9577.000000;1.739869
9576.000000;1.742551
9575.000000;1.743000
9574.000000;1.739484
9573.000000;1.733949
9572.000000;1.729824
9571.000000;1.728998
9570.000000;1.730882
9569.000000;1.733222
9568.000000;1.733506
9567.000000;1.730764
9566.000000;1.726611
9565.000000;1.724007
9564.000000;1.724647
9563.000000;1.727698
9562.000000;1.730993
9561.000000;1.733296
9560.000000;1.735278
9559.000000;1.738166
9558.000000;1.741467
9557.000000;1.742413
9556.000000;1.738307
9555.000000;1.729720
9554.000000;1.720687
9553.000000;1.715373
9552.000000;1.715049
9551.000000;1.718150
9550.000000;1.722197
9549.000000;1.725212
9548.000000;1.726049
9547.000000;1.724573
9546.000000;1.721713
9545.000000;1.718743
9544.000000;1.716402
9543.000000;1.715100
9542.000000;1.715633
9541.000000;1.718716
9540.000000;1.723544
9539.000000;1.727700
9538.000000;1.729081
9537.000000;1.727461
9536.000000;1.724173
9535.000000;1.720868
9534.000000;1.718643
9533.000000;1.717497
9532.000000;1.716102
9531.000000;1.713179
9530.000000;1.709676
9529.000000;1.708416
9528.000000;1.710974
9527.000000;1.715676
9526.000000;1.719310
9525.000000;1.720199
9524.000000;1.718727
9523.000000;1.715810
9522.000000;1.712407
9521.000000;1.709849
9520.000000;1.709088
9519.000000;1.709451
9518.000000;1.709342
9517.000000;1.708731
9516.000000;1.709566
9515.000000;1.713158
9514.000000;1.718458
9513.000000;1.723362
9512.000000;1.726619
9511.000000;1.727876
9510.000000;1.727017
9509.000000;1.724598
9508.000000;1.722130
9507.000000;1.720495
9506.000000;1.718457
9505.000000;1.714607
9504.000000;1.710651
9503.000000;1.710279
9502.000000;1.714310
9501.000000;1.718928
9500.000000;1.719790
9499.000000;1.717050
9498.000000;1.714413
9497.000000;1.713827
9496.000000;1.713688
9495.000000;1.712203
9494.000000;1.709995
9493.000000;1.708451
9492.000000;1.707679
9491.000000;1.707652
9490.000000;1.709724
9489.000000;1.714982
9488.000000;1.721470
9487.000000;1.725317
9486.000000;1.725161
9485.000000;1.723092
9484.000000;1.720917
9483.000000;1.717954
9482.000000;1.713278
9481.000000;1.708137
9480.000000;1.704529
9479.000000;1.702571
9478.000000;1.700734
9477.000000;1.698310
9476.000000;1.696364
9475.000000;1.696207
9474.000000;1.698137
9473.000000;1.701711
9472.000000;1.706131
9471.000000;1.709866
9470.000000;1.710932
9469.000000;1.708518
9468.000000;1.704116
9467.000000;1.700476
9466.000000;1.699301
9465.000000;1.700354
9464.000000;1.702564
9463.000000;1.705114
9462.000000;1.707601
9461.000000;1.709828
9460.000000;1.711452
9459.000000;1.711718
9458.000000;1.709793
9457.000000;1.705748
9456.000000;1.701058
9455.000000;1.697712
9454.000000;1.696920
9453.000000;1.698718
9452.000000;1.702282
9451.000000;1.706248
9450.000000;1.708803
9449.000000;1.708148
9448.000000;1.704016
9447.000000;1.698931
9446.000000;1.696819
9445.000000;1.699438
9444.000000;1.704396
9443.000000;1.707025
9442.000000;1.704539
9441.000000;1.698852
9440.000000;1.694621
9439.000000;1.694676
9438.000000;1.697936
9437.000000;1.700650
9436.000000;1.699633
9435.000000;1.694973
9434.000000;1.689781
9433.000000;1.687525
9432.000000;1.689488
9431.000000;1.694190
9430.000000;1.698608
9429.000000;1.700192
9428.000000;1.698563
9427.000000;1.695911
9426.000000;1.695439
9425.000000;1.698532
9424.000000;1.703249
9423.000000;1.705901
9422.000000;1.704098
9421.000000;1.698320
9420.000000;1.691195
9419.000000;1.685812
9418.000000;1.684221
9417.000000;1.686421
9416.000000;1.690246
9415.000000;1.692825
9414.000000;1.693111
9413.000000;1.692734
9412.000000;1.694084
9411.000000;1.697675
9410.000000;1.701322
9409.000000;1.702164
9408.000000;1.699664
9407.000000;1.696126
9406.000000;1.694003
9405.000000;1.693404
9404.000000;1.692787
9403.000000;1.691509
9402.000000;1.690686
9401.000000;1.691379
9400.000000;1.692963
9399.000000;1.694066
9398.000000;1.694257
9397.000000;1.693638
9396.000000;1.691726
9395.000000;1.688301
9394.000000;1.684769
9393.000000;1.683051
9392.000000;1.683221
9391.000000;1.683535
9390.000000;1.682826
9389.000000;1.681523
9388.000000;1.680177
9387.000000;1.678622
9386.000000;1.677137
9385.000000;1.676993
9384.000000;1.678966
9383.000000;1.682319
9382.000000;1.685875
9381.000000;1.689014
9380.000000;1.690701
9379.000000;1.689007
9378.000000;1.683557
9377.000000;1.677463
9376.000000;1.674958
9375.000000;1.677534
9374.000000;1.683042
9373.000000;1.687913
9372.000000;1.689841
9371.000000;1.688836
9370.000000;1.686516
9369.000000;1.684597
9368.000000;1.683587
9367.000000;1.682825
9366.000000;1.681776
9365.000000;1.680920
9364.000000;1.681144
9363.000000;1.682749
9362.000000;1.685469
9361.000000;1.688721
9360.000000;1.691094
9359.000000;1.690512
9358.000000;1.686272
9357.000000;1.680418
9356.000000;1.676046
9355.000000;1.674582
9354.000000;1.675286
9353.000000;1.676836
9352.000000;1.678343
9351.000000;1.679122
9350.000000;1.678845
9349.000000;1.678083
9348.000000;1.677545
9347.000000;1.676545
9346.000000;1.673527
9345.000000;1.668681
9344.000000;1.664801
9343.000000;1.664733
9342.000000;1.668729
9341.000000;1.674448
9340.000000;1.678696
9339.000000;1.679149
9338.000000;1.675800
9337.000000;1.671672
9336.000000;1.671127
9335.000000;1.676245
9334.000000;1.684576
9333.000000;1.690949
9332.000000;1.692164
9331.000000;1.689532
9330.000000;1.686567
9329.000000;1.685403
9328.000000;1.685677
9327.000000;1.685702
9326.000000;1.684104
9325.000000;1.680676
9324.000000;1.676243
9323.000000;1.671983
9322.000000;1.668784
9321.000000;1.667114
9320.000000;1.667305
9319.000000;1.669678
9318.000000;1.674022
9317.000000;1.678743
9316.000000;1.681047
9315.000000;1.679048
9314.000000;1.673834
9313.000000;1.668663
9312.000000;1.665868
9311.000000;1.665092
9310.000000;1.664642
9309.000000;1.663926
9308.000000;1.663803
9307.000000;1.664726
9306.000000;1.665701
9305.000000;1.665430
9304.000000;1.663780
9303.000000;1.662099
9302.000000;1.662596
9301.000000;1.666981
9300.000000;1.674585
9299.000000;1.681574
9298.000000;1.683488
9297.000000;1.679680
9296.000000;1.673906
9295.000000;1.669937
9294.000000;1.668115
9293.000000;1.666579
9292.000000;1.664462
9291.000000;1.662477
9290.000000;1.661023
9289.000000;1.659749
9288.000000;1.659072
9287.000000;1.660328
9286.000000;1.663670
9285.000000;1.667060
9284.000000;1.668389
9283.000000;1.667811
9282.000000;1.666800
9281.000000;1.665567
9280.000000;1.663075
9279.000000;1.659528
9278.000000;1.657046
9277.000000;1.657192
9276.000000;1.658851
9275.000000;1.659337
9274.000000;1.657505
9273.000000;1.655047
9272.000000;1.654479
9271.000000;1.656549
9270.000000;1.659933
9269.000000;1.662939
9268.000000;1.664880
9267.000000;1.665786
9266.000000;1.665378
9265.000000;1.663158
9264.000000;1.659500
9263.000000;1.655888
9262.000000;1.653852
9261.000000;1.654051
9260.000000;1.656267
9259.000000;1.659469
9258.000000;1.661654
9257.000000;1.660720
9256.000000;1.656615
9255.000000;1.652195
9254.000000;1.650938
9253.000000;1.653820
9252.000000;1.658820
9251.000000;1.663299
9250.000000;1.665995
9249.000000;1.666693
9248.000000;1.665354
9247.000000;1.662127
9246.000000;1.657463
9245.000000;1.652032
9244.000000;1.646891
9243.000000;1.643679
9242.000000;1.643923
9241.000000;1.647668
9240.000000;1.653189
9239.000000;1.658301
9238.000000;1.661502
9237.000000;1.661752
9236.000000;1.658461
9235.000000;1.653029
9234.000000;1.649282
9233.000000;1.650435
9232.000000;1.655570
9231.000000;1.659996
9230.000000;1.659674
9229.000000;1.655022
9228.000000;1.649933
9227.000000;1.647969
9226.000000;1.649923
9225.000000;1.653975
9224.000000;1.657656
9223.000000;1.660023
9222.000000;1.661872
9221.000000;1.663640
9220.000000;1.663898
9219.000000;1.660960
9218.000000;1.655710
9217.000000;1.651436
9216.000000;1.650576
9215.000000;1.652552
9214.000000;1.654956
9213.000000;1.655950
9212.000000;1.655212
9211.000000;1.653394
9210.000000;1.651424
9209.000000;1.649898
9208.000000;1.648700
9207.000000;1.647689
9206.000000;1.647598
9205.000000;1.649080
9204.000000;1.650869
9203.000000;1.650411
9202.000000;1.646950
9201.000000;1.642850
9200.000000;1.641092
9199.000000;1.642495
9198.000000;1.645934
9197.000000;1.650016
9196.000000;1.653397
9195.000000;1.654694
9194.000000;1.653929
9193.000000;1.653393
9192.000000;1.655137
9191.000000;1.657854
9190.000000;1.658061
9189.000000;1.654651
9188.000000;1.650376
9187.000000;1.648182
9186.000000;1.648086
9185.000000;1.648423
9184.000000;1.648393
9183.000000;1.647910
9182.000000;1.646098
9181.000000;1.642105
9180.000000;1.637404
9179.000000;1.635388
9178.000000;1.637889
9177.000000;1.642754
9176.000000;1.645383
9175.000000;1.643162
9174.000000;1.638233
9173.000000;1.635263
9172.000000;1.636712
9171.000000;1.640579
9170.000000;1.642689
9169.000000;1.641081
9168.000000;1.637683
9167.000000;1.635899
9166.000000;1.637488
9165.000000;1.641582
9164.000000;1.645528
9163.000000;1.646553
9162.000000;1.643841
9161.000000;1.639405
9160.000000;1.636322
9159.000000;1.635762
9158.000000;1.636095
9157.000000;1.635369
9156.000000;1.634006
9155.000000;1.633878
9154.000000;1.635244
9153.000000;1.636101
9152.000000;1.634716
9151.000000;1.631720
9150.000000;1.629101
9149.000000;1.627962
9148.000000;1.627936
9147.000000;1.628132
9146.000000;1.627938
9145.000000;1.627469
9144.000000;1.627909
9143.000000;1.630859
9142.000000;1.636425
9141.000000;1.642006
9140.000000;1.643996
9139.000000;1.641476
9138.000000;1.637607
9137.000000;1.636681
9136.000000;1.640135
9135.000000;1.645514
9134.000000;1.648892
9133.000000;1.648292
9132.000000;1.644846
9131.000000;1.640848
9130.000000;1.637552
9129.000000;1.635339
9128.000000;1.635135
9127.000000;1.638076
9126.000000;1.643190
9125.000000;1.646592
9124.000000;1.644801
9123.000000;1.638854
9122.000000;1.633318
9121.000000;1.631056
9120.000000;1.630686
9119.000000;1.629507
9118.000000;1.627297
9117.000000;1.625888
9116.000000;1.626109
9115.000000;1.626963
9114.000000;1.627462
9113.000000;1.627644
9112.000000;1.627677
9111.000000;1.627426
9110.000000;1.627340
9109.000000;1.628377
9108.000000;1.630260
9107.000000;1.630827
9106.000000;1.628166
9105.000000;1.623038
9104.000000;1.618524
9103.000000;1.617348
9102.000000;1.619854
9101.000000;1.624460
9100.000000;1.629223
9099.000000;1.632779
9098.000000;1.634703
9097.000000;1.635286
9096.000000;1.635011
9095.000000;1.634556
9094.000000;1.634907
9093.000000;1.636527
9092.000000;1.638324
9091.000000;1.638332
9090.000000;1.635697
9089.000000;1.631394
9088.000000;1.627137
9087.000000;1.624416
9086.000000;1.624329
9085.000000;1.627014
9084.000000;1.630778
9083.000000;1.632998
9082.000000;1.632693
9081.000000;1.631088
9080.000000;1.629213
9079.000000;1.626579
9078.000000;1.623182
9077.000000;1.621156
9076.000000;1.622622
9075.000000;1.626595
9074.000000;1.629647
9073.000000;1.629618
9072.000000;1.627276
9071.000000;1.624419
9070.000000;1.622162
9069.000000;1.621350
9068.000000;1.622904
9067.000000;1.626659
9066.000000;1.630590
9065.000000;1.632265
9064.000000;1.631057
9063.000000;1.628547
9062.000000;1.626992
9061.000000;1.627456
9060.000000;1.629028
9059.000000;1.629836
9058.000000;1.629203
9057.000000;1.628503
9056.000000;1.629334
9055.000000;1.631321
9054.000000;1.632627
9053.000000;1.632441
