Criado como novo conjunto de dados;"e0108.spp","-4248343.1 Secs"
cm-1;Abs
10000.000000;0.994343
9999.000000;0.994796
9998.000000;0.995247
9997.000000;0.995703
9996.000000;0.996151
9995.000000;0.996620
9994.000000;0.997003
9993.000000;0.996675
9992.000000;0.995533
9991.000000;0.994524
9990.000000;0.994262
9989.000000;0.994334
9988.000000;0.994029
9987.000000;0.993336
9986.000000;0.992790
9985.000000;0.992666
9984.000000;0.992737
9983.000000;0.992706
9982.000000;0.992496
9981.000000;0.992153
9980.000000;0.991805
9979.000000;0.991726
9978.000000;0.992145
9977.000000;0.992923
9976.000000;0.993634
9975.000000;0.994012
9974.000000;0.994061
9973.000000;0.993723
9972.000000;0.992797
9971.000000;0.991375
9970.000000;0.989987
9969.000000;0.988998
9968.000000;0.988104
9967.000000;0.986894
9966.000000;0.985732
9965.000000;0.985470
9964.000000;0.986232
9963.000000;0.987075
9962.000000;0.987182
9961.000000;0.986916
9960.000000;0.987155
9959.000000;0.987927
9958.000000;0.988378
9957.000000;0.988042
9956.000000;0.987462
9955.000000;0.987307
9954.000000;0.987387
9953.000000;0.986969
9952.000000;0.985761
9951.000000;0.984176
9950.000000;0.982729
9949.000000;0.981602
9948.000000;0.980793
9947.000000;0.980352
9946.000000;0.980315
9945.000000;0.980543
9944.000000;0.980784
9943.000000;0.980861
9942.000000;0.980766
9941.000000;0.980613
9940.000000;0.980536
9939.000000;0.980625
9938.000000;0.980906
9937.000000;0.981308
9936.000000;0.981593
9935.000000;0.981365
9934.000000;0.980327
9933.000000;0.978602
9932.000000;0.976811
9931.000000;0.975780
9930.000000;0.976028
9929.000000;0.977394
9928.000000;0.979016
9927.000000;0.979744
9926.000000;0.978891
9925.000000;0.976788
9924.000000;0.974528
9923.000000;0.972982
9922.000000;0.972170
9921.000000;0.971639
9920.000000;0.971233
9919.000000;0.971184
9918.000000;0.971559
9917.000000;0.971980
9916.000000;0.972074
9915.000000;0.971991
9914.000000;0.972203
9913.000000;0.972819
9912.000000;0.973315
9911.000000;0.973019
9910.000000;0.971789
9909.000000;0.970128
9908.000000;0.968670
9907.000000;0.967668
9906.000000;0.967040
9905.000000;0.966790
9904.000000;0.967154
9903.000000;0.968236
9902.000000;0.969587
9901.000000;0.970330
9900.000000;0.969797
9899.000000;0.968095
9898.000000;0.966078
9897.000000;0.964749
9896.000000;0.964555
9895.000000;0.965145
9894.000000;0.965789
9893.000000;0.966030
9892.000000;0.965886
9891.000000;0.965482
9890.000000;0.964727
9889.000000;0.963519
9888.000000;0.962131
9887.000000;0.961039
9886.000000;0.960370
9885.000000;0.959799
9884.000000;0.959108
9883.000000;0.958557
9882.000000;0.958471
9881.000000;0.958681
9880.000000;0.958717
9879.000000;0.958478
9878.000000;0.958304
9877.000000;0.958339
9876.000000;0.958282
9875.000000;0.957986
9874.000000;0.957880
9873.000000;0.958342
9872.000000;0.958855
9871.000000;0.958328
9870.000000;0.956365
9869.000000;0.953810
9868.000000;0.951920
9867.000000;0.951300
9866.000000;0.951696
9865.000000;0.952436
9864.000000;0.952876
9863.000000;0.952717
9862.000000;0.952163
9861.000000;0.951687
9860.000000;0.951514
9859.000000;0.951447
9858.000000;0.951266
9857.000000;0.951033
9856.000000;0.950838
9855.000000;0.950545
9854.000000;0.950083
9853.000000;0.949714
9852.000000;0.949702
9851.000000;0.949908
9850.000000;0.950069
9849.000000;0.950241
9848.000000;0.950522
9847.000000;0.950523
9846.000000;0.949724
9845.000000;0.948320
9844.000000;0.947117
9843.000000;0.946499
9842.000000;0.946080
9841.000000;0.945570
9840.000000;0.945390
9839.000000;0.946003
9838.000000;0.947035
9837.000000;0.947558
9836.000000;0.947095
9835.000000;0.945999
9834.000000;0.944964
9833.000000;0.944478
9832.000000;0.944614
9831.000000;0.945042
9830.000000;0.945303
9829.000000;0.945255
9828.000000;0.945137
9827.000000;0.945037
9826.000000;0.944619
9825.000000;0.943627
9824.000000;0.942386
9823.000000;0.941429
9822.000000;0.940812
9821.000000;0.940210
9820.000000;0.939568
9819.000000;0.939167
9818.000000;0.939085
9817.000000;0.939046
9816.000000;0.938895
9815.000000;0.938808
9814.000000;0.938855
9813.000000;0.938719
9812.000000;0.938069
9811.000000;0.937035
9810.000000;0.936098
9809.000000;0.935623
9808.000000;0.935613
9807.000000;0.935790
9806.000000;0.935790
9805.000000;0.935359
9804.000000;0.934482
9803.000000;0.933340
9802.000000;0.932213
9801.000000;0.931512
9800.000000;0.931711
9799.000000;0.932845
9798.000000;0.934066
9797.000000;0.934126
9796.000000;0.932660
9795.000000;0.930742
9794.000000;0.929844
9793.000000;0.930353
9792.000000;0.931406
9791.000000;0.932045
9790.000000;0.932198
9789.000000;0.932412
9788.000000;0.932930
9787.000000;0.933280
9786.000000;0.932821
9785.000000;0.931487
9784.000000;0.929896
9783.000000;0.928756
9782.000000;0.928262
9781.000000;0.928045
9780.000000;0.927635
9779.000000;0.926869
9778.000000;0.925921
9777.000000;0.925098
9776.000000;0.924681
9775.000000;0.924823
9774.000000;0.925421
9773.000000;0.926096
9772.000000;0.926477
9771.000000;0.926586
9770.000000;0.926806
9769.000000;0.927304
9768.000000;0.927606
9767.000000;0.927014
9766.000000;0.925475
9765.000000;0.923801
9764.000000;0.922879
9763.000000;0.922867
9762.000000;0.923268
9761.000000;0.923558
9760.000000;0.923467
9759.000000;0.922847
9758.000000;0.921673
9757.000000;0.920245
9756.000000;0.919092
9755.000000;0.918486
9754.000000;0.918223
9753.000000;0.917934
9752.000000;0.917479
9751.000000;0.917027
9750.000000;0.916913
9749.000000;0.917424
9748.000000;0.918506
9747.000000;0.919595
9746.000000;0.919982
9745.000000;0.919456
9744.000000;0.918397
9743.000000;0.917265
9742.000000;0.916320
9741.000000;0.915887
9740.000000;0.916338
9739.000000;0.917421
9738.000000;0.918037
9737.000000;0.917206
9736.000000;0.915140
9735.000000;0.912997
9734.000000;0.911713
9733.000000;0.911457
9732.000000;0.911965
9731.000000;0.912793
9730.000000;0.913291
9729.000000;0.912930
9728.000000;0.911886
9727.000000;0.910868
9726.000000;0.910230
9725.000000;0.909614
9724.000000;0.908669
9723.000000;0.907707
9722.000000;0.907377
9721.000000;0.907906
9720.000000;0.908888
9719.000000;0.909676
9718.000000;0.909836
9717.000000;0.909457
9716.000000;0.909106
9715.000000;0.909192
9714.000000;0.909332
9713.000000;0.908727
9712.000000;0.907366
9711.000000;0.906381
9710.000000;0.906767
9709.000000;0.908061
9708.000000;0.908824
9707.000000;0.908324
9706.000000;0.907185
9705.000000;0.906340
9704.000000;0.905936
9703.000000;0.905509
9702.000000;0.904798
9701.000000;0.903999
9700.000000;0.903390
9699.000000;0.903059
9698.000000;0.902910
9697.000000;0.902741
9696.000000;0.902372
9695.000000;0.901931
9694.000000;0.901913
9693.000000;0.902653
9692.000000;0.903748
9691.000000;0.904233
9690.000000;0.903482
9689.000000;0.901824
9688.000000;0.900173
9687.000000;0.899214
9686.000000;0.899046
9685.000000;0.899390
9684.000000;0.899887
9683.000000;0.900241
9682.000000;0.900334
9681.000000;0.900256
9680.000000;0.900132
9679.000000;0.899925
9678.000000;0.899584
9677.000000;0.899306
9676.000000;0.899383
9675.000000;0.899673
9674.000000;0.899542
9673.000000;0.898545
9672.000000;0.896980
9671.000000;0.895561
9670.000000;0.894720
9669.000000;0.894421
9668.000000;0.894493
9667.000000;0.894794
9666.000000;0.895087
9665.000000;0.895053
9664.000000;0.894544
9663.000000;0.893657
9662.000000;0.892568
9661.000000;0.891506
9660.000000;0.890872
9659.000000;0.891001
9658.000000;0.891689
9657.000000;0.892268
9656.000000;0.892310
9655.000000;0.892008
9654.000000;0.891648
9653.000000;0.891034
9652.000000;0.889843
9651.000000;0.888383
9650.000000;0.887501
9649.000000;0.887660
9648.000000;0.888415
9647.000000;0.888920
9646.000000;0.888733
9645.000000;0.887991
9644.000000;0.887050
9643.000000;0.886261
9642.000000;0.885958
9641.000000;0.886284
9640.000000;0.886911
9639.000000;0.887156
9638.000000;0.886603
9637.000000;0.885556
9636.000000;0.884719
9635.000000;0.884411
9634.000000;0.884273
9633.000000;0.883800
9632.000000;0.882980
9631.000000;0.882273
9630.000000;0.882090
9629.000000;0.882430
9628.000000;0.883003
9627.000000;0.883492
9626.000000;0.883704
9625.000000;0.883627
9624.000000;0.883476
9623.000000;0.883539
9622.000000;0.883877
9621.000000;0.884242
9620.000000;0.884351
9619.000000;0.884143
9618.000000;0.883707
9617.000000;0.883113
9616.000000;0.882438
9615.000000;0.881807
9614.000000;0.881240
9613.000000;0.880563
9612.000000;0.879641
9611.000000;0.878621
9610.000000;0.877764
9609.000000;0.877111
9608.000000;0.876584
9607.000000;0.876380
9606.000000;0.876907
9605.000000;0.878159
9604.000000;0.879457
9603.000000;0.880026
9602.000000;0.879673
9601.000000;0.878680
9600.000000;0.877297
9599.000000;0.875699
9598.000000;0.874296
9597.000000;0.873587
9596.000000;0.873572
9595.000000;0.873652
9594.000000;0.873318
9593.000000;0.872757
9592.000000;0.872533
9591.000000;0.872837
9590.000000;0.873287
9589.000000;0.873377
9588.000000;0.872867
9587.000000;0.871791
9586.000000;0.870354
9585.000000;0.868922
9584.000000;0.867911
9583.000000;0.867566
9582.000000;0.867900
9581.000000;0.868799
9580.000000;0.870006
9579.000000;0.870997
9578.000000;0.871157
9577.000000;0.870292
9576.000000;0.868853
9575.000000;0.867537
9574.000000;0.866782
9573.000000;0.866709
9572.000000;0.867276
9571.000000;0.868174
9570.000000;0.868724
9569.000000;0.868303
9568.000000;0.867033
9567.000000;0.865822
9566.000000;0.865566
9565.000000;0.866406
9564.000000;0.867756
9563.000000;0.868862
9562.000000;0.869261
9561.000000;0.868868
9560.000000;0.867900
9559.000000;0.866714
9558.000000;0.865620
9557.000000;0.864808
9556.000000;0.864417
9555.000000;0.864467
9554.000000;0.864590
9553.000000;0.864147
9552.000000;0.862889
9551.000000;0.861416
9550.000000;0.860650
9549.000000;0.860838
9548.000000;0.861321
9547.000000;0.861369
9546.000000;0.860957
9545.000000;0.860521
9544.000000;0.860282
9543.000000;0.860164
9542.000000;0.860223
9541.000000;0.860669
9540.000000;0.861414
9539.000000;0.861968
9538.000000;0.861979
9537.000000;0.861598
9536.000000;0.861096
9535.000000;0.860399
9534.000000;0.859308
9533.000000;0.858029
9532.000000;0.857118
9531.000000;0.856896
9530.000000;0.857152
9529.000000;0.857444
9528.000000;0.857460
9527.000000;0.857130
9526.000000;0.856689
9525.000000;0.856694
9524.000000;0.857604
9523.000000;0.859090
9522.000000;0.860036
9521.000000;0.859593
9520.000000;0.858127
9519.000000;0.856793
9518.000000;0.856214
9517.000000;0.855922
9516.000000;0.855165
9515.000000;0.853940
9514.000000;0.852989
9513.000000;0.852889
9512.000000;0.853370
9511.000000;0.853591
9510.000000;0.852993
9509.000000;0.851835
9508.000000;0.850887
9507.000000;0.850626
9506.000000;0.850809
9505.000000;0.850887
9504.000000;0.850702
9503.000000;0.850612
9502.000000;0.850929
9501.000000;0.851427
9500.000000;0.851569
9499.000000;0.851146
9498.000000;0.850515
9497.000000;0.850158
9496.000000;0.850168
9495.000000;0.850257
9494.000000;0.850137
9493.000000;0.849732
9492.000000;0.849054
9491.000000;0.848152
9490.000000;0.847315
9489.000000;0.847096
9488.000000;0.847789
9487.000000;0.848904
9486.000000;0.849491
9485.000000;0.849154
9484.000000;0.848529
9483.000000;0.848574
9482.000000;0.849508
9481.000000;0.850574
9480.000000;0.850778
9479.000000;0.849714
9478.000000;0.847758
9477.000000;0.845727
9476.000000;0.844400
9475.000000;0.844140
9474.000000;0.844748
9473.000000;0.845604
9472.000000;0.846005
9471.000000;0.845528
9470.000000;0.844277
9469.000000;0.842859
9468.000000;0.841983
9467.000000;0.841897
9466.000000;0.842230
9465.000000;0.842426
9464.000000;0.842255
9463.000000;0.841843
9462.000000;0.841387
9461.000000;0.841027
9460.000000;0.840917
9459.000000;0.841183
9458.000000;0.841776
9457.000000;0.842457
9456.000000;0.842945
9455.000000;0.843019
9454.000000;0.842607
9453.000000;0.841900
9452.000000;0.841255
9451.000000;0.840818
9450.000000;0.840373
9449.000000;0.839758
9448.000000;0.839275
9447.000000;0.839335
9446.000000;0.839807
9445.000000;0.840186
9444.000000;0.840422
9443.000000;0.841030
9442.000000;0.842096
9441.000000;0.842697
9440.000000;0.841828
9439.000000;0.839720
9438.000000;0.837714
9437.000000;0.836823
9436.000000;0.836834
9435.000000;0.836828
9434.000000;0.836178
9433.000000;0.834937
9432.000000;0.833595
9431.000000;0.832736
9430.000000;0.832729
9429.000000;0.833453
9428.000000;0.834351
9427.000000;0.834923
9426.000000;0.835169
9425.000000;0.835398
9424.000000;0.835685
9423.000000;0.835728
9422.000000;0.835269
9421.000000;0.834449
9420.000000;0.833616
9419.000000;0.832918
9418.000000;0.832243
9417.000000;0.831563
9416.000000;0.831153
9415.000000;0.831354
9414.000000;0.832144
9413.000000;0.833022
9412.000000;0.833371
9411.000000;0.832922
9410.000000;0.831867
9409.000000;0.830604
9408.000000;0.829510
9407.000000;0.828936
9406.000000;0.829177
9405.000000;0.830182
9404.000000;0.831339
9403.000000;0.831845
9402.000000;0.831421
9401.000000;0.830552
9400.000000;0.829888
9399.000000;0.829583
9398.000000;0.829394
9397.000000;0.829209
9396.000000;0.829134
9395.000000;0.829146
9394.000000;0.829066
9393.000000;0.828954
9392.000000;0.829119
9391.000000;0.829508
9390.000000;0.829457
9389.000000;0.828403
9388.000000;0.826663
9387.000000;0.825130
9386.000000;0.824346
9385.000000;0.824212
9384.000000;0.824492
9383.000000;0.825106
9382.000000;0.825803
9381.000000;0.826017
9380.000000;0.825355
9379.000000;0.824059
9378.000000;0.822761
9377.000000;0.821932
9376.000000;0.821700
9375.000000;0.822010
9374.000000;0.822698
9373.000000;0.823513
9372.000000;0.824243
9371.000000;0.824753
9370.000000;0.824813
9369.000000;0.824113
9368.000000;0.822711
9367.000000;0.821322
9366.000000;0.820799
9365.000000;0.821285
9364.000000;0.822105
9363.000000;0.822552
9362.000000;0.822559
9361.000000;0.822502
9360.000000;0.822608
9359.000000;0.822784
9358.000000;0.822899
9357.000000;0.822964
9356.000000;0.823074
9355.000000;0.823335
9354.000000;0.823823
9353.000000;0.824442
9352.000000;0.824835
9351.000000;0.824602
9350.000000;0.823639
9349.000000;0.822173
9348.000000;0.820520
9347.000000;0.818979
9346.000000;0.817907
9345.000000;0.817590
9344.000000;0.817895
9343.000000;0.818305
9342.000000;0.818503
9341.000000;0.818692
9340.000000;0.819116
9339.000000;0.819509
9338.000000;0.819386
9337.000000;0.818776
9336.000000;0.818211
9335.000000;0.817970
9334.000000;0.817794
9333.000000;0.817463
9332.000000;0.817166
9331.000000;0.817012
9330.000000;0.816624
9329.000000;0.815706
9328.000000;0.814762
9327.000000;0.814631
9326.000000;0.815335
9325.000000;0.815944
9324.000000;0.815715
9323.000000;0.814972
9322.000000;0.814592
9321.000000;0.814908
9320.000000;0.815455
9319.000000;0.815618
9318.000000;0.815263
9317.000000;0.814722
9316.000000;0.814340
9315.000000;0.814096
9314.000000;0.813618
9313.000000;0.812624
9312.000000;0.811348
9311.000000;0.810387
9310.000000;0.810065
9309.000000;0.810128
9308.000000;0.810218
9307.000000;0.810414
9306.000000;0.811018
9305.000000;0.811892
9304.000000;0.812408
9303.000000;0.812173
9302.000000;0.811517
9301.000000;0.811000
9300.000000;0.810698
9299.000000;0.810243
9298.000000;0.809475
9297.000000;0.808703
9296.000000;0.808299
9295.000000;0.808333
9294.000000;0.808685
9293.000000;0.809252
9292.000000;0.809801
9291.000000;0.809872
9290.000000;0.809177
9289.000000;0.808061
9288.000000;0.807275
9287.000000;0.807272
9286.000000;0.807949
9285.000000;0.808990
9284.000000;0.810155
9283.000000;0.811157
9282.000000;0.811585
9281.000000;0.811164
9280.000000;0.809987
9279.000000;0.808441
9278.000000;0.807070
9277.000000;0.806459
9276.000000;0.806826
9275.000000;0.807549
9274.000000;0.807523
9273.000000;0.806373
9272.000000;0.805012
9271.000000;0.804591
9270.000000;0.805135
9269.000000;0.805675
9268.000000;0.805571
9267.000000;0.805142
9266.000000;0.804921
9265.000000;0.804874
9264.000000;0.804621
9263.000000;0.804071
9262.000000;0.803500
9261.000000;0.803175
9260.000000;0.803152
9259.000000;0.803328
9258.000000;0.803517
9257.000000;0.803505
9256.000000;0.803184
9255.000000;0.802605
9254.000000;0.801937
9253.000000;0.801447
9252.000000;0.801428
9251.000000;0.801941
9250.000000;0.802629
9249.000000;0.803003
9248.000000;0.802908
9247.000000;0.802478
9246.000000;0.801702
9245.000000;0.800422
9244.000000;0.798835
9243.000000;0.797584
9242.000000;0.797126
9241.000000;0.797344
9240.000000;0.797941
9239.000000;0.798868
9238.000000;0.800075
9237.000000;0.801181
9236.000000;0.801750
9235.000000;0.801749
9234.000000;0.801390
9233.000000;0.800728
9232.000000;0.799787
9231.000000;0.798936
9230.000000;0.798689
9229.000000;0.799128
9228.000000;0.799818
9227.000000;0.800272
9226.000000;0.800245
9225.000000;0.799646
9224.000000;0.798577
9223.000000;0.797469
9222.000000;0.796804
9221.000000;0.796570
9220.000000;0.796276
9219.000000;0.795625
9218.000000;0.794912
9217.000000;0.794657
9216.000000;0.795080
9215.000000;0.796060
9214.000000;0.797354
9213.000000;0.798630
9212.000000;0.799471
9211.000000;0.799582
9210.000000;0.798964
9209.000000;0.797853
9208.000000;0.796632
9207.000000;0.795809
9206.000000;0.795770
9205.000000;0.796316
9204.000000;0.796689
9203.000000;0.796337
9202.000000;0.795530
9201.000000;0.794943
9200.000000;0.794782
9199.000000;0.794694
9198.000000;0.794484
9197.000000;0.794447
9196.000000;0.794844
9195.000000;0.795377
9194.000000;0.795481
9193.000000;0.794976
9192.000000;0.794178
9191.000000;0.793480
9190.000000;0.793085
9189.000000;0.793068
9188.000000;0.793357
9187.000000;0.793596
9186.000000;0.793312
9185.000000;0.792446
9184.000000;0.791541
9183.000000;0.791195
9182.000000;0.791371
9181.000000;0.791443
9180.000000;0.790940
9179.000000;0.790055
9178.000000;0.789375
9177.000000;0.789222
9176.000000;0.789397
9175.000000;0.789516
9174.000000;0.789469
9173.000000;0.789493
9172.000000;0.789817
9171.000000;0.790286
9170.000000;0.790424
9169.000000;0.789929
9168.000000;0.789051
9167.000000;0.788388
9166.000000;0.788338
9165.000000;0.788827
9164.000000;0.789537
9163.000000;0.790209
9162.000000;0.790673
9161.000000;0.790776
9160.000000;0.790456
9159.000000;0.789889
9158.000000;0.789435
9157.000000;0.789374
9156.000000;0.789674
9155.000000;0.789962
9154.000000;0.789782
9153.000000;0.789040
9152.000000;0.788208
9151.000000;0.787950
9150.000000;0.788441
9149.000000;0.789168
9148.000000;0.789471
9147.000000;0.789181
9146.000000;0.788619
9145.000000;0.788115
9144.000000;0.787738
9143.000000;0.787431
9142.000000;0.787147
9141.000000;0.786812
9140.000000;0.786372
9139.000000;0.785983
9138.000000;0.785990
9137.000000;0.786542
9136.000000;0.787303
9135.000000;0.787712
9134.000000;0.787553
9133.000000;0.787130
9132.000000;0.786836
9131.000000;0.786689
9130.000000;0.786411
9129.000000;0.785880
9128.000000;0.785338
9127.000000;0.785099
9126.000000;0.785229
9125.000000;0.785605
9124.000000;0.786152
9123.000000;0.786778
9122.000000;0.787159
9121.000000;0.786897
9120.000000;0.786029
9119.000000;0.785129
9118.000000;0.784729
9117.000000;0.784751
9116.000000;0.784699
9115.000000;0.784297
9114.000000;0.783736
9113.000000;0.783357
9112.000000;0.783315
9111.000000;0.783569
9110.000000;0.783934
9109.000000;0.784083
9108.000000;0.783712
9107.000000;0.782866
9106.000000;0.781988
9105.000000;0.781513
9104.000000;0.781502
9103.000000;0.781775
9102.000000;0.782266
9101.000000;0.783008
9100.000000;0.783829
9099.000000;0.784329
9098.000000;0.784282
9097.000000;0.783868
9096.000000;0.783363
9095.000000;0.782796
9094.000000;0.782116
9093.000000;0.781559
9092.000000;0.781487
9091.000000;0.781817
9090.000000;0.781944
9089.000000;0.781423
9088.000000;0.780578
9087.000000;0.780154
9086.000000;0.780486
9085.000000;0.781205
9084.000000;0.781715
9083.000000;0.781728
9082.000000;0.781325
9081.000000;0.780745
9080.000000;0.780195
9079.000000;0.779765
9078.000000;0.779441
9077.000000;0.779243
9076.000000;0.779289
9075.000000;0.779581
9074.000000;0.779797
9073.000000;0.779555
9072.000000;0.778913
9071.000000;0.778361
9070.000000;0.778260
9069.000000;0.778504
9068.000000;0.778824
9067.000000;0.779155
9066.000000;0.779546
9065.000000;0.779926
9064.000000;0.780185
9063.000000;0.780335
9062.000000;0.780385
9061.000000;0.780190
9060.000000;0.779657
9059.000000;0.778998
9058.000000;0.778543
9057.000000;0.778350
9056.000000;0.778192
9055.000000;0.777878
9054.000000;0.777400
9053.000000;0.776855
