Criado como novo conjunto de dados;"e0108.spp","-4290645.3 Secs"
cm-1;Abs
10000.000000;0.447841
9999.000000;0.447547
9998.000000;0.447254
9997.000000;0.446960
9996.000000;0.446667
9995.000000;0.446373
9994.000000;0.446082
9993.000000;0.445785
9992.000000;0.445499
9991.000000;0.445195
9990.000000;0.444927
9989.000000;0.444499
9988.000000;0.443816
9987.000000;0.443053
9986.000000;0.442340
9985.000000;0.441821
9984.000000;0.441562
9983.000000;0.441522
9982.000000;0.441514
9981.000000;0.441346
9980.000000;0.440970
9979.000000;0.440483
9978.000000;0.439997
9977.000000;0.439641
9976.000000;0.439627
9975.000000;0.440093
9974.000000;0.440804
9973.000000;0.441179
9972.000000;0.440767
9971.000000;0.439653
9970.000000;0.438369
9969.000000;0.437462
9968.000000;0.437144
9967.000000;0.437192
9966.000000;0.437112
9965.000000;0.436537
9964.000000;0.435579
9963.000000;0.434734
9962.000000;0.434426
9961.000000;0.434682
9960.000000;0.435217
9959.000000;0.435635
9958.000000;0.435550
9957.000000;0.434759
9956.000000;0.433457
9955.000000;0.432143
9954.000000;0.431165
9953.000000;0.430503
9952.000000;0.430049
9951.000000;0.429847
9950.000000;0.429877
9949.000000;0.429852
9948.000000;0.429516
9947.000000;0.429033
9946.000000;0.428776
9945.000000;0.428802
9944.000000;0.428786
9943.000000;0.428444
9942.000000;0.427776
9941.000000;0.426908
9940.000000;0.425975
9939.000000;0.425226
9938.000000;0.425006
9937.000000;0.425458
9936.000000;0.426344
9935.000000;0.427222
9934.000000;0.427691
9933.000000;0.427504
9932.000000;0.426665
9931.000000;0.425517
9930.000000;0.424570
9929.000000;0.424081
9928.000000;0.423905
9927.000000;0.423824
9926.000000;0.423836
9925.000000;0.423945
9924.000000;0.423853
9923.000000;0.423146
9922.000000;0.421841
9921.000000;0.420479
9920.000000;0.419603
9919.000000;0.419305
9918.000000;0.419385
9917.000000;0.419742
9916.000000;0.420367
9915.000000;0.421027
9914.000000;0.421272
9913.000000;0.420847
9912.000000;0.419950
9911.000000;0.418966
9910.000000;0.418098
9909.000000;0.417383
9908.000000;0.416919
9907.000000;0.416823
9906.000000;0.416961
9905.000000;0.416984
9904.000000;0.416705
9903.000000;0.416285
9902.000000;0.415928
9901.000000;0.415545
9900.000000;0.414907
9899.000000;0.414041
9898.000000;0.413284
9897.000000;0.412911
9896.000000;0.412855
9895.000000;0.412839
9894.000000;0.412692
9893.000000;0.412460
9892.000000;0.412270
9891.000000;0.412190
9890.000000;0.412195
9889.000000;0.412208
9888.000000;0.412149
9887.000000;0.411972
9886.000000;0.411688
9885.000000;0.411302
9884.000000;0.410759
9883.000000;0.409976
9882.000000;0.408964
9881.000000;0.407873
9880.000000;0.406906
9879.000000;0.406215
9878.000000;0.405872
9877.000000;0.405885
9876.000000;0.406151
9875.000000;0.406454
9874.000000;0.406616
9873.000000;0.406655
9872.000000;0.406728
9871.000000;0.406911
9870.000000;0.407109
9869.000000;0.407150
9868.000000;0.406875
9867.000000;0.406170
9866.000000;0.405072
9865.000000;0.403892
9864.000000;0.403061
9863.000000;0.402746
9862.000000;0.402723
9861.000000;0.402680
9860.000000;0.402530
9859.000000;0.402337
9858.000000;0.402104
9857.000000;0.401803
9856.000000;0.401529
9855.000000;0.401428
9854.000000;0.401491
9853.000000;0.401569
9852.000000;0.401592
9851.000000;0.401585
9850.000000;0.401487
9849.000000;0.401097
9848.000000;0.400293
9847.000000;0.399200
9846.000000;0.398083
9845.000000;0.397155
9844.000000;0.396509
9843.000000;0.396180
9842.000000;0.396142
9841.000000;0.396257
9840.000000;0.396267
9839.000000;0.395927
9838.000000;0.395231
9837.000000;0.394471
9836.000000;0.393984
9835.000000;0.393823
9834.000000;0.393761
9833.000000;0.393611
9832.000000;0.393402
9831.000000;0.393226
9830.000000;0.393091
9829.000000;0.393003
9828.000000;0.393000
9827.000000;0.392957
9826.000000;0.392570
9825.000000;0.391744
9824.000000;0.390838
9823.000000;0.390280
9822.000000;0.390088
9821.000000;0.390030
9820.000000;0.390097
9819.000000;0.390415
9818.000000;0.390731
9817.000000;0.390466
9816.000000;0.389422
9815.000000;0.388133
9814.000000;0.387284
9813.000000;0.387034
9812.000000;0.387060
9811.000000;0.387036
9810.000000;0.386853
9809.000000;0.386543
9808.000000;0.386205
9807.000000;0.385966
9806.000000;0.385860
9805.000000;0.385772
9804.000000;0.385562
9803.000000;0.385188
9802.000000;0.384679
9801.000000;0.384136
9800.000000;0.383781
9799.000000;0.383768
9798.000000;0.383849
9797.000000;0.383496
9796.000000;0.382589
9795.000000;0.381751
9794.000000;0.381668
9793.000000;0.382203
9792.000000;0.382524
9791.000000;0.382114
9790.000000;0.381296
9789.000000;0.380701
9788.000000;0.380508
9787.000000;0.380414
9786.000000;0.380147
9785.000000;0.379756
9784.000000;0.379454
9783.000000;0.379355
9782.000000;0.379395
9781.000000;0.379389
9780.000000;0.379151
9779.000000;0.378631
9778.000000;0.377982
9777.000000;0.377457
9776.000000;0.377201
9775.000000;0.377114
9774.000000;0.376955
9773.000000;0.376586
9772.000000;0.376139
9771.000000;0.375880
9770.000000;0.375889
9769.000000;0.375865
9768.000000;0.375361
9767.000000;0.374247
9766.000000;0.372937
9765.000000;0.372088
9764.000000;0.372042
9763.000000;0.372573
9762.000000;0.373109
9761.000000;0.373177
9760.000000;0.372684
9759.000000;0.371926
9758.000000;0.371385
9757.000000;0.371417
9756.000000;0.371951
9755.000000;0.372474
9754.000000;0.372418
9753.000000;0.371646
9752.000000;0.370528
9751.000000;0.369541
9750.000000;0.368893
9749.000000;0.368535
9748.000000;0.368349
9747.000000;0.368230
9746.000000;0.368069
9745.000000;0.367817
9744.000000;0.367534
9743.000000;0.367308
9742.000000;0.367171
9741.000000;0.367136
9740.000000;0.367197
9739.000000;0.367200
9738.000000;0.366853
9737.000000;0.366056
9736.000000;0.365182
9735.000000;0.364772
9734.000000;0.364941
9733.000000;0.365229
9732.000000;0.365125
9731.000000;0.364550
9730.000000;0.363800
9729.000000;0.363169
9728.000000;0.362744
9727.000000;0.362429
9726.000000;0.362042
9725.000000;0.361464
9724.000000;0.360809
9723.000000;0.360373
9722.000000;0.360331
9721.000000;0.360543
9720.000000;0.360726
9719.000000;0.360751
9718.000000;0.360694
9717.000000;0.360649
9716.000000;0.360603
9715.000000;0.360447
9714.000000;0.360064
9713.000000;0.359440
9712.000000;0.358766
9711.000000;0.358360
9710.000000;0.358373
9709.000000;0.358589
9708.000000;0.358614
9707.000000;0.358260
9706.000000;0.357687
9705.000000;0.357186
9704.000000;0.356901
9703.000000;0.356761
9702.000000;0.356586
9701.000000;0.356234
9700.000000;0.355669
9699.000000;0.354950
9698.000000;0.354141
9697.000000;0.353304
9696.000000;0.352632
9695.000000;0.352488
9694.000000;0.353124
9693.000000;0.354274
9692.000000;0.355190
9691.000000;0.355238
9690.000000;0.354455
9689.000000;0.353406
9688.000000;0.352537
9687.000000;0.351837
9686.000000;0.351144
9685.000000;0.350531
9684.000000;0.350197
9683.000000;0.350121
9682.000000;0.350080
9681.000000;0.349986
9680.000000;0.349970
9679.000000;0.350059
9678.000000;0.350019
9677.000000;0.349699
9676.000000;0.349353
9675.000000;0.349351
9674.000000;0.349629
9673.000000;0.349663
9672.000000;0.349052
9671.000000;0.347954
9670.000000;0.346870
9669.000000;0.346124
9668.000000;0.345696
9667.000000;0.345484
9666.000000;0.345508
9665.000000;0.345796
9664.000000;0.346158
9663.000000;0.346240
9662.000000;0.345840
9661.000000;0.345103
9660.000000;0.344333
9659.000000;0.343658
9658.000000;0.342992
9657.000000;0.342304
9656.000000;0.341775
9655.000000;0.341610
9654.000000;0.341797
9653.000000;0.342174
9652.000000;0.342626
9651.000000;0.343057
9650.000000;0.343245
9649.000000;0.342945
9648.000000;0.342181
9647.000000;0.341295
9646.000000;0.340609
9645.000000;0.340151
9644.000000;0.339776
9643.000000;0.339440
9642.000000;0.339232
9641.000000;0.339178
9640.000000;0.339155
9639.000000;0.339014
9638.000000;0.338719
9637.000000;0.338331
9636.000000;0.337910
9635.000000;0.337460
9634.000000;0.336981
9633.000000;0.336525
9632.000000;0.336175
9631.000000;0.335965
9630.000000;0.335851
9629.000000;0.335767
9628.000000;0.335689
9627.000000;0.335607
9626.000000;0.335486
9625.000000;0.335289
9624.000000;0.335026
9623.000000;0.334734
9622.000000;0.334410
9621.000000;0.334055
9620.000000;0.333798
9619.000000;0.333855
9618.000000;0.334280
9617.000000;0.334816
9616.000000;0.335059
9615.000000;0.334780
9614.000000;0.334065
9613.000000;0.333194
9612.000000;0.332428
9611.000000;0.331861
9610.000000;0.331398
9609.000000;0.330858
9608.000000;0.330193
9607.000000;0.329646
9606.000000;0.329629
9605.000000;0.330335
9604.000000;0.331425
9603.000000;0.332160
9602.000000;0.331947
9601.000000;0.330797
9600.000000;0.329262
9599.000000;0.327984
9598.000000;0.327293
9597.000000;0.327140
9596.000000;0.327243
9595.000000;0.327281
9594.000000;0.327055
9593.000000;0.326595
9592.000000;0.326123
9591.000000;0.325882
9590.000000;0.325954
9589.000000;0.326201
9588.000000;0.326321
9587.000000;0.326009
9586.000000;0.325194
9585.000000;0.324165
9584.000000;0.323399
9583.000000;0.323200
9582.000000;0.323510
9581.000000;0.324051
9580.000000;0.324518
9579.000000;0.324644
9578.000000;0.324242
9577.000000;0.323359
9576.000000;0.322345
9575.000000;0.321584
9574.000000;0.321159
9573.000000;0.320852
9572.000000;0.320488
9571.000000;0.320142
9570.000000;0.319970
9569.000000;0.319938
9568.000000;0.319827
9567.000000;0.319488
9566.000000;0.319026
9565.000000;0.318703
9564.000000;0.318678
9563.000000;0.318873
9562.000000;0.319060
9561.000000;0.319047
9560.000000;0.318765
9559.000000;0.318250
9558.000000;0.317619
9557.000000;0.317039
9556.000000;0.316648
9555.000000;0.316492
9554.000000;0.316558
9553.000000;0.316818
9552.000000;0.317144
9551.000000;0.317260
9550.000000;0.316951
9549.000000;0.316375
9548.000000;0.315974
9547.000000;0.315961
9546.000000;0.316023
9545.000000;0.315665
9544.000000;0.314768
9543.000000;0.313703
9542.000000;0.312942
9541.000000;0.312686
9540.000000;0.312819
9539.000000;0.313082
9538.000000;0.313254
9537.000000;0.313260
9536.000000;0.313156
9535.000000;0.313035
9534.000000;0.312957
9533.000000;0.312962
9532.000000;0.313032
9531.000000;0.313016
9530.000000;0.312693
9529.000000;0.312017
9528.000000;0.311206
9527.000000;0.310531
9526.000000;0.310085
9525.000000;0.309870
9524.000000;0.309929
9523.000000;0.310190
9522.000000;0.310275
9521.000000;0.309775
9520.000000;0.308815
9519.000000;0.308127
9518.000000;0.308342
9517.000000;0.309283
9516.000000;0.310113
9515.000000;0.310150
9514.000000;0.309447
9513.000000;0.308551
9512.000000;0.307867
9511.000000;0.307371
9510.000000;0.306901
9509.000000;0.306529
9508.000000;0.306445
9507.000000;0.306559
9506.000000;0.306452
9505.000000;0.305856
9504.000000;0.305060
9503.000000;0.304645
9502.000000;0.304860
9501.000000;0.305395
9500.000000;0.305760
9499.000000;0.305753
9498.000000;0.305496
9497.000000;0.305158
9496.000000;0.304769
9495.000000;0.304307
9494.000000;0.303854
9493.000000;0.303582
9492.000000;0.303568
9491.000000;0.303707
9490.000000;0.303845
9489.000000;0.303929
9488.000000;0.303937
9487.000000;0.303714
9486.000000;0.303072
9485.000000;0.302112
9484.000000;0.301280
9483.000000;0.300952
9482.000000;0.301047
9481.000000;0.301161
9480.000000;0.301020
9479.000000;0.300665
9478.000000;0.300258
9477.000000;0.299871
9476.000000;0.299494
9475.000000;0.299138
9474.000000;0.298841
9473.000000;0.298600
9472.000000;0.298313
9471.000000;0.297823
9470.000000;0.297115
9469.000000;0.296479
9468.000000;0.296349
9467.000000;0.296870
9466.000000;0.297682
9465.000000;0.298242
9464.000000;0.298287
9463.000000;0.297890
9462.000000;0.297188
9461.000000;0.296294
9460.000000;0.295445
9459.000000;0.295002
9458.000000;0.295147
9457.000000;0.295662
9456.000000;0.296100
9455.000000;0.296165
9454.000000;0.295921
9453.000000;0.295676
9452.000000;0.295664
9451.000000;0.295805
9450.000000;0.295758
9449.000000;0.295276
9448.000000;0.294490
9447.000000;0.293810
9446.000000;0.293563
9445.000000;0.293769
9444.000000;0.294234
9443.000000;0.294725
9442.000000;0.295019
9441.000000;0.294904
9440.000000;0.294283
9439.000000;0.293325
9438.000000;0.292434
9437.000000;0.291948
9436.000000;0.291831
9435.000000;0.291726
9434.000000;0.291352
9433.000000;0.290807
9432.000000;0.290402
9431.000000;0.290286
9430.000000;0.290373
9429.000000;0.290561
9428.000000;0.290805
9427.000000;0.290970
9426.000000;0.290866
9425.000000;0.290527
9424.000000;0.290247
9423.000000;0.290167
9422.000000;0.290024
9421.000000;0.289490
9420.000000;0.288634
9419.000000;0.287845
9418.000000;0.287429
9417.000000;0.287462
9416.000000;0.287909
9415.000000;0.288593
9414.000000;0.289081
9413.000000;0.288937
9412.000000;0.288166
9411.000000;0.287225
9410.000000;0.286506
9409.000000;0.285990
9408.000000;0.285475
9407.000000;0.284984
9406.000000;0.284770
9405.000000;0.284982
9404.000000;0.285432
9403.000000;0.285729
9402.000000;0.285624
9401.000000;0.285206
9400.000000;0.284737
9399.000000;0.284319
9398.000000;0.283844
9397.000000;0.283288
9396.000000;0.282848
9395.000000;0.282664
9394.000000;0.282617
9393.000000;0.282584
9392.000000;0.282735
9391.000000;0.283244
9390.000000;0.283829
9389.000000;0.283924
9388.000000;0.283358
9387.000000;0.282564
9386.000000;0.282058
9385.000000;0.281946
9384.000000;0.282022
9383.000000;0.282068
9382.000000;0.281928
9381.000000;0.281531
9380.000000;0.281009
9379.000000;0.280627
9378.000000;0.280455
9377.000000;0.280310
9376.000000;0.280125
9375.000000;0.280170
9374.000000;0.280669
9373.000000;0.281403
9372.000000;0.281906
9371.000000;0.281981
9370.000000;0.281772
9369.000000;0.281439
9368.000000;0.280991
9367.000000;0.280424
9366.000000;0.279786
9365.000000;0.279076
9364.000000;0.278258
9363.000000;0.277425
9362.000000;0.276807
9361.000000;0.276576
9360.000000;0.276728
9359.000000;0.277144
9358.000000;0.277630
9357.000000;0.277905
9356.000000;0.277726
9355.000000;0.277130
9354.000000;0.276437
9353.000000;0.275933
9352.000000;0.275636
9351.000000;0.275425
9350.000000;0.275249
9349.000000;0.275086
9348.000000;0.274804
9347.000000;0.274273
9346.000000;0.273617
9345.000000;0.273189
9344.000000;0.273213
9343.000000;0.273562
9342.000000;0.273931
9341.000000;0.274155
9340.000000;0.274268
9339.000000;0.274336
9338.000000;0.274358
9337.000000;0.274285
9336.000000;0.274062
9335.000000;0.273643
9334.000000;0.273084
9333.000000;0.272600
9332.000000;0.272407
9331.000000;0.272465
9330.000000;0.272487
9329.000000;0.272276
9328.000000;0.271950
9327.000000;0.271755
9326.000000;0.271739
9325.000000;0.271734
9324.000000;0.271604
9323.000000;0.271404
9322.000000;0.271287
9321.000000;0.271312
9320.000000;0.271368
9319.000000;0.271249
9318.000000;0.270842
9317.000000;0.270257
9316.000000;0.269728
9315.000000;0.269362
9314.000000;0.269047
9313.000000;0.268641
9312.000000;0.268168
9311.000000;0.267768
9310.000000;0.267527
9309.000000;0.267450
9308.000000;0.267521
9307.000000;0.267677
9306.000000;0.267790
9305.000000;0.267794
9304.000000;0.267805
9303.000000;0.267985
9302.000000;0.268323
9301.000000;0.268646
9300.000000;0.268814
9299.000000;0.268777
9298.000000;0.268500
9297.000000;0.268003
9296.000000;0.267472
9295.000000;0.267170
9294.000000;0.267140
9293.000000;0.267117
9292.000000;0.266799
9291.000000;0.266158
9290.000000;0.265450
9289.000000;0.264984
9288.000000;0.264871
9287.000000;0.264957
9286.000000;0.264973
9285.000000;0.264808
9284.000000;0.264633
9283.000000;0.264698
9282.000000;0.265045
9281.000000;0.265467
9280.000000;0.265693
9279.000000;0.265545
9278.000000;0.264991
9277.000000;0.264206
9276.000000;0.263539
9275.000000;0.263256
9274.000000;0.263280
9273.000000;0.263307
9272.000000;0.263139
9271.000000;0.262786
9270.000000;0.262307
9269.000000;0.261766
9268.000000;0.261369
9267.000000;0.261375
9266.000000;0.261743
9265.000000;0.262065
9264.000000;0.261998
9263.000000;0.261650
9262.000000;0.261421
9261.000000;0.261556
9260.000000;0.261951
9259.000000;0.262311
9258.000000;0.262349
9257.000000;0.261928
9256.000000;0.261155
9255.000000;0.260330
9254.000000;0.259736
9253.000000;0.259467
9252.000000;0.259456
9251.000000;0.259569
9250.000000;0.259628
9249.000000;0.259474
9248.000000;0.259114
9247.000000;0.258734
9246.000000;0.258497
9245.000000;0.258397
9244.000000;0.258368
9243.000000;0.258426
9242.000000;0.258609
9241.000000;0.258875
9240.000000;0.259190
9239.000000;0.259605
9238.000000;0.260101
9237.000000;0.260436
9236.000000;0.260335
9235.000000;0.259827
9234.000000;0.259226
9233.000000;0.258757
9232.000000;0.258342
9231.000000;0.257820
9230.000000;0.257225
9229.000000;0.256758
9228.000000;0.256565
9227.000000;0.256613
9226.000000;0.256754
9225.000000;0.256843
9224.000000;0.256822
9223.000000;0.256755
9222.000000;0.256752
9221.000000;0.256811
9220.000000;0.256753
9219.000000;0.256383
9218.000000;0.255738
9217.000000;0.255143
9216.000000;0.254962
9215.000000;0.255273
9214.000000;0.255801
9213.000000;0.256172
9212.000000;0.256204
9211.000000;0.255955
9210.000000;0.255569
9209.000000;0.255191
9208.000000;0.254988
9207.000000;0.255102
9206.000000;0.255477
9205.000000;0.255794
9204.000000;0.255691
9203.000000;0.255095
9202.000000;0.254303
9201.000000;0.253697
9200.000000;0.253391
9199.000000;0.253191
9198.000000;0.252893
9197.000000;0.252565
9196.000000;0.252453
9195.000000;0.252650
9194.000000;0.252966
9193.000000;0.253168
9192.000000;0.253218
9191.000000;0.253211
9190.000000;0.253179
9189.000000;0.253097
9188.000000;0.253004
9187.000000;0.252956
9186.000000;0.252864
9185.000000;0.252554
9184.000000;0.252013
9183.000000;0.251439
9182.000000;0.250985
9181.000000;0.250594
9180.000000;0.250162
9179.000000;0.249723
9178.000000;0.249367
9177.000000;0.249087
9176.000000;0.248822
9175.000000;0.248633
9174.000000;0.248707
9173.000000;0.249162
9172.000000;0.249869
9171.000000;0.250457
9170.000000;0.250520
9169.000000;0.249923
9168.000000;0.248971
9167.000000;0.248222
9166.000000;0.248050
9165.000000;0.248393
9164.000000;0.248925
9163.000000;0.249388
9162.000000;0.249688
9161.000000;0.249806
9160.000000;0.249727
9159.000000;0.249467
9158.000000;0.249096
9157.000000;0.248708
9156.000000;0.248403
9155.000000;0.248225
9154.000000;0.248117
9153.000000;0.247996
9152.000000;0.247893
9151.000000;0.247928
9150.000000;0.248088
9149.000000;0.248154
9148.000000;0.247941
9147.000000;0.247541
9146.000000;0.247201
9145.000000;0.247033
9144.000000;0.246963
9143.000000;0.246909
9142.000000;0.246871
9141.000000;0.246836
9140.000000;0.246761
9139.000000;0.246673
9138.000000;0.246661
9137.000000;0.246717
9136.000000;0.246679
9135.000000;0.246436
9134.000000;0.246103
9133.000000;0.245940
9132.000000;0.246063
9131.000000;0.246311
9130.000000;0.246372
9129.000000;0.246061
9128.000000;0.245478
9127.000000;0.244927
9126.000000;0.244690
9125.000000;0.244860
9124.000000;0.245309
9123.000000;0.245764
9122.000000;0.245934
9121.000000;0.245682
9120.000000;0.245160
9119.000000;0.244705
9118.000000;0.244533
9117.000000;0.244556
9116.000000;0.244544
9115.000000;0.244413
9114.000000;0.244259
9113.000000;0.244156
9112.000000;0.244064
9111.000000;0.243950
9110.000000;0.243868
9109.000000;0.243838
9108.000000;0.243755
9107.000000;0.243494
9106.000000;0.243095
9105.000000;0.242737
9104.000000;0.242536
9103.000000;0.242452
9102.000000;0.242412
9101.000000;0.242452
9100.000000;0.242665
9099.000000;0.243022
9098.000000;0.243345
9097.000000;0.243474
9096.000000;0.243393
9095.000000;0.243172
9094.000000;0.242863
9093.000000;0.242530
9092.000000;0.242265
9091.000000;0.242071
9090.000000;0.241781
9089.000000;0.241289
9088.000000;0.240824
9087.000000;0.240798
9086.000000;0.241296
9085.000000;0.241903
9084.000000;0.242115
9083.000000;0.241806
9082.000000;0.241212
9081.000000;0.240646
9080.000000;0.240377
9079.000000;0.240597
9078.000000;0.241257
9077.000000;0.241957
9076.000000;0.242228
9075.000000;0.241956
9074.000000;0.241415
9073.000000;0.240907
9072.000000;0.240521
9071.000000;0.240235
9070.000000;0.240060
9069.000000;0.240042
9068.000000;0.240198
9067.000000;0.240507
9066.000000;0.240854
9065.000000;0.241008
9064.000000;0.240791
9063.000000;0.240299
9062.000000;0.239838
9061.000000;0.239621
9060.000000;0.239610
9059.000000;0.239654
9058.000000;0.239648
9057.000000;0.239527
9056.000000;0.239275
9055.000000;0.239000
9054.000000;0.238881
9053.000000;0.238963
