Criado como novo conjunto de dados;"e0108.spp","-4278944.8 Secs"
cm-1;Abs
10000.000000;1.098692
9999.000000;1.098360
9998.000000;1.098027
9997.000000;1.097696
9996.000000;1.097362
9995.000000;1.097035
9994.000000;1.096692
9993.000000;1.096407
9992.000000;1.096444
9991.000000;1.096739
9990.000000;1.096918
9989.000000;1.096837
9988.000000;1.096763
9987.000000;1.096927
9986.000000;1.097188
9985.000000;1.097194
9984.000000;1.096711
9983.000000;1.095829
9982.000000;1.094979
9981.000000;1.094660
9980.000000;1.094941
9979.000000;1.095292
9978.000000;1.095099
9977.000000;1.094279
9976.000000;1.093261
9975.000000;1.092464
9974.000000;1.091986
9973.000000;1.091716
9972.000000;1.091524
9971.000000;1.091339
9970.000000;1.091169
9969.000000;1.091021
9968.000000;1.090805
9967.000000;1.090481
9966.000000;1.090254
9965.000000;1.090297
9964.000000;1.090206
9963.000000;1.089287
9962.000000;1.087676
9961.000000;1.086565
9960.000000;1.086733
9959.000000;1.087365
9958.000000;1.087027
9957.000000;1.085593
9956.000000;1.084372
9955.000000;1.084321
9954.000000;1.084941
9953.000000;1.085112
9952.000000;1.084326
9951.000000;1.082811
9950.000000;1.081059
9949.000000;1.079689
9948.000000;1.079351
9947.000000;1.080213
9946.000000;1.081636
9945.000000;1.082694
9944.000000;1.083039
9943.000000;1.083076
9942.000000;1.083307
9941.000000;1.083726
9940.000000;1.083868
9939.000000;1.083305
9938.000000;1.082093
9937.000000;1.080722
9936.000000;1.079648
9935.000000;1.078978
9934.000000;1.078580
9933.000000;1.078256
9932.000000;1.077719
9931.000000;1.076702
9930.000000;1.075386
9929.000000;1.074535
9928.000000;1.074834
9927.000000;1.076101
9926.000000;1.077352
9925.000000;1.077586
9924.000000;1.076442
9923.000000;1.074345
9922.000000;1.072363
9921.000000;1.071688
9920.000000;1.072608
9919.000000;1.073992
9918.000000;1.074326
9917.000000;1.073329
9916.000000;1.072087
9915.000000;1.071597
9914.000000;1.071789
9913.000000;1.072055
9912.000000;1.072129
9911.000000;1.072143
9910.000000;1.072253
9909.000000;1.072530
9908.000000;1.072906
9907.000000;1.072993
9906.000000;1.072270
9905.000000;1.070773
9904.000000;1.069326
9903.000000;1.068748
9902.000000;1.068945
9901.000000;1.069083
9900.000000;1.068596
9899.000000;1.067781
9898.000000;1.067334
9897.000000;1.067437
9896.000000;1.067410
9895.000000;1.066400
9894.000000;1.064490
9893.000000;1.062863
9892.000000;1.062576
9891.000000;1.063315
9890.000000;1.063795
9889.000000;1.063341
9888.000000;1.062552
9887.000000;1.062280
9886.000000;1.062578
9885.000000;1.062949
9884.000000;1.063139
9883.000000;1.063250
9882.000000;1.063335
9881.000000;1.063342
9880.000000;1.063366
9879.000000;1.063564
9878.000000;1.063792
9877.000000;1.063667
9876.000000;1.063020
9875.000000;1.062067
9874.000000;1.061115
9873.000000;1.060340
9872.000000;1.059814
9871.000000;1.059592
9870.000000;1.059645
9869.000000;1.059701
9868.000000;1.059210
9867.000000;1.057702
9866.000000;1.055432
9865.000000;1.053529
9864.000000;1.053087
9863.000000;1.054021
9862.000000;1.055143
9861.000000;1.055493
9860.000000;1.055228
9859.000000;1.054968
9858.000000;1.054801
9857.000000;1.054429
9856.000000;1.053888
9855.000000;1.053541
9854.000000;1.053459
9853.000000;1.053310
9852.000000;1.052953
9851.000000;1.052788
9850.000000;1.053338
9849.000000;1.054651
9848.000000;1.056159
9847.000000;1.056998
9846.000000;1.056511
9845.000000;1.054709
9844.000000;1.052346
9843.000000;1.050428
9842.000000;1.049507
9841.000000;1.049314
9840.000000;1.048998
9839.000000;1.047776
9838.000000;1.045637
9837.000000;1.043530
9836.000000;1.042611
9835.000000;1.043133
9834.000000;1.044246
9833.000000;1.044979
9832.000000;1.045191
9831.000000;1.045409
9830.000000;1.045963
9829.000000;1.046577
9828.000000;1.046704
9827.000000;1.046060
9826.000000;1.044881
9825.000000;1.043846
9824.000000;1.043594
9823.000000;1.044071
9822.000000;1.044468
9821.000000;1.044080
9820.000000;1.043086
9819.000000;1.042203
9818.000000;1.041721
9817.000000;1.041254
9816.000000;1.040413
9815.000000;1.039362
9814.000000;1.038589
9813.000000;1.038322
9812.000000;1.038266
9811.000000;1.037824
9810.000000;1.036652
9809.000000;1.035096
9808.000000;1.033948
9807.000000;1.033645
9806.000000;1.033907
9805.000000;1.034280
9804.000000;1.034698
9803.000000;1.035127
9802.000000;1.034972
9801.000000;1.033602
9800.000000;1.031497
9799.000000;1.030065
9798.000000;1.030031
9797.000000;1.030612
9796.000000;1.030634
9795.000000;1.029969
9794.000000;1.029407
9793.000000;1.029508
9792.000000;1.030145
9791.000000;1.030888
9790.000000;1.031291
9789.000000;1.030915
9788.000000;1.029636
9787.000000;1.028044
9786.000000;1.027154
9785.000000;1.027549
9784.000000;1.028943
9783.000000;1.030534
9782.000000;1.031536
9781.000000;1.031435
9780.000000;1.030145
9779.000000;1.028171
9778.000000;1.026412
9777.000000;1.025614
9776.000000;1.025970
9775.000000;1.027094
9774.000000;1.028181
9773.000000;1.028343
9772.000000;1.027315
9771.000000;1.025931
9770.000000;1.025444
9769.000000;1.026079
9768.000000;1.026596
9767.000000;1.025686
9766.000000;1.023582
9765.000000;1.021785
9764.000000;1.021288
9763.000000;1.021586
9762.000000;1.021515
9761.000000;1.020639
9760.000000;1.019602
9759.000000;1.019362
9758.000000;1.020286
9757.000000;1.021816
9756.000000;1.022868
9755.000000;1.022717
9754.000000;1.021650
9753.000000;1.020654
9752.000000;1.020377
9751.000000;1.020445
9750.000000;1.019934
9749.000000;1.018435
9748.000000;1.016501
9747.000000;1.015118
9746.000000;1.014887
9745.000000;1.015618
9744.000000;1.016595
9743.000000;1.017217
9742.000000;1.017427
9741.000000;1.017551
9740.000000;1.017802
9739.000000;1.018056
9738.000000;1.018025
9737.000000;1.017488
9736.000000;1.016388
9735.000000;1.015011
9734.000000;1.014065
9733.000000;1.014202
9732.000000;1.015240
9731.000000;1.016175
9730.000000;1.016225
9729.000000;1.015652
9728.000000;1.015169
9727.000000;1.014791
9726.000000;1.013816
9725.000000;1.011964
9724.000000;1.009996
9723.000000;1.008956
9722.000000;1.009051
9721.000000;1.009464
9720.000000;1.009175
9719.000000;1.007884
9718.000000;1.006322
9717.000000;1.005696
9716.000000;1.006629
9715.000000;1.008473
9714.000000;1.009776
9713.000000;1.009627
9712.000000;1.008487
9711.000000;1.007597
9710.000000;1.007731
9709.000000;1.008680
9708.000000;1.009719
9707.000000;1.010227
9706.000000;1.009895
9705.000000;1.008738
9704.000000;1.007167
9703.000000;1.005900
9702.000000;1.005528
9701.000000;1.006055
9700.000000;1.006863
9699.000000;1.007174
9698.000000;1.006535
9697.000000;1.004987
9696.000000;1.002985
9695.000000;1.001248
9694.000000;1.000492
9693.000000;1.001024
9692.000000;1.002435
9691.000000;1.003800
9690.000000;1.004324
9689.000000;1.003821
9688.000000;1.002600
9687.000000;1.001129
9686.000000;0.999899
9685.000000;0.999369
9684.000000;0.999688
9683.000000;1.000454
9682.000000;1.000961
9681.000000;1.000809
9680.000000;1.000120
9679.000000;0.999186
9678.000000;0.998185
9677.000000;0.997372
9676.000000;0.997248
9675.000000;0.998098
9674.000000;0.999403
9673.000000;1.000091
9672.000000;0.999548
9671.000000;0.998130
9670.000000;0.996545
9669.000000;0.995049
9668.000000;0.993591
9667.000000;0.992509
9666.000000;0.992483
9665.000000;0.993591
9664.000000;0.994837
9663.000000;0.994957
9662.000000;0.993612
9661.000000;0.991552
9660.000000;0.989783
9659.000000;0.988843
9658.000000;0.988699
9657.000000;0.988967
9656.000000;0.989219
9655.000000;0.989326
9654.000000;0.989541
9653.000000;0.990031
9652.000000;0.990440
9651.000000;0.990250
9650.000000;0.989525
9649.000000;0.988835
9648.000000;0.988444
9647.000000;0.988093
9646.000000;0.987745
9645.000000;0.988030
9644.000000;0.989457
9643.000000;0.991449
9642.000000;0.992609
9641.000000;0.992003
9640.000000;0.989965
9639.000000;0.987689
9638.000000;0.986287
9637.000000;0.986105
9636.000000;0.986648
9635.000000;0.987072
9634.000000;0.986880
9633.000000;0.986146
9632.000000;0.985187
9631.000000;0.984336
9630.000000;0.984056
9629.000000;0.984773
9628.000000;0.986205
9627.000000;0.987253
9626.000000;0.987044
9625.000000;0.985886
9624.000000;0.984760
9623.000000;0.984110
9622.000000;0.983666
9621.000000;0.983233
9620.000000;0.983030
9619.000000;0.983225
9618.000000;0.983680
9617.000000;0.984212
9616.000000;0.984623
9615.000000;0.984426
9614.000000;0.983180
9613.000000;0.981300
9612.000000;0.979914
9611.000000;0.979622
9610.000000;0.979842
9609.000000;0.979726
9608.000000;0.979277
9607.000000;0.979054
9606.000000;0.979120
9605.000000;0.978924
9604.000000;0.978188
9603.000000;0.977320
9602.000000;0.976799
9601.000000;0.976565
9600.000000;0.976273
9599.000000;0.975923
9598.000000;0.975906
9597.000000;0.976424
9596.000000;0.977107
9595.000000;0.977407
9594.000000;0.977292
9593.000000;0.977222
9592.000000;0.977366
9591.000000;0.977148
9590.000000;0.975921
9589.000000;0.973907
9588.000000;0.972096
9587.000000;0.971206
9586.000000;0.971114
9585.000000;0.971337
9584.000000;0.971688
9583.000000;0.972198
9582.000000;0.972687
9581.000000;0.972751
9580.000000;0.972154
9579.000000;0.971066
9578.000000;0.969991
9577.000000;0.969506
9576.000000;0.969859
9575.000000;0.970625
9574.000000;0.970907
9573.000000;0.970154
9572.000000;0.968792
9571.000000;0.967887
9570.000000;0.968152
9569.000000;0.969308
9568.000000;0.970343
9567.000000;0.970350
9566.000000;0.969246
9565.000000;0.967768
9564.000000;0.966775
9563.000000;0.966556
9562.000000;0.966780
9561.000000;0.967003
9560.000000;0.967063
9559.000000;0.967001
9558.000000;0.966818
9557.000000;0.966460
9556.000000;0.965916
9555.000000;0.965226
9554.000000;0.964437
9553.000000;0.963614
9552.000000;0.962807
9551.000000;0.962007
9550.000000;0.961208
9549.000000;0.960516
9548.000000;0.960090
9547.000000;0.959950
9546.000000;0.959914
9545.000000;0.959741
9544.000000;0.959305
9543.000000;0.958723
9542.000000;0.958372
9541.000000;0.958638
9540.000000;0.959490
9539.000000;0.960417
9538.000000;0.961006
9537.000000;0.961408
9536.000000;0.961937
9535.000000;0.962356
9534.000000;0.962002
9533.000000;0.960712
9532.000000;0.959157
9531.000000;0.958088
9530.000000;0.957624
9529.000000;0.957503
9528.000000;0.957669
9527.000000;0.958266
9526.000000;0.959212
9525.000000;0.960070
9524.000000;0.960323
9523.000000;0.959639
9522.000000;0.958060
9521.000000;0.956168
9520.000000;0.954948
9519.000000;0.955142
9518.000000;0.956620
9517.000000;0.958436
9516.000000;0.959498
9515.000000;0.959225
9514.000000;0.957780
9513.000000;0.955892
9512.000000;0.954381
9511.000000;0.953613
9510.000000;0.953375
9509.000000;0.953263
9508.000000;0.953089
9507.000000;0.952847
9506.000000;0.952482
9505.000000;0.951940
9504.000000;0.951386
9503.000000;0.951140
9502.000000;0.951297
9501.000000;0.951564
9500.000000;0.951558
9499.000000;0.951222
9498.000000;0.950900
9497.000000;0.951001
9496.000000;0.951576
9495.000000;0.952219
9494.000000;0.952406
9493.000000;0.951946
9492.000000;0.951095
9491.000000;0.950286
9490.000000;0.949777
9489.000000;0.949519
9488.000000;0.949261
9487.000000;0.948820
9486.000000;0.948320
9485.000000;0.948116
9484.000000;0.948410
9483.000000;0.948931
9482.000000;0.949128
9481.000000;0.948635
9480.000000;0.947534
9479.000000;0.946288
9478.000000;0.945518
9477.000000;0.945571
9476.000000;0.946070
9475.000000;0.946087
9474.000000;0.945138
9473.000000;0.943849
9472.000000;0.943216
9471.000000;0.943367
9470.000000;0.943541
9469.000000;0.943208
9468.000000;0.942621
9467.000000;0.942190
9466.000000;0.941899
9465.000000;0.941605
9464.000000;0.941422
9463.000000;0.941463
9462.000000;0.941574
9461.000000;0.941634
9460.000000;0.941804
9459.000000;0.942151
9458.000000;0.942361
9457.000000;0.942174
9456.000000;0.941821
9455.000000;0.941667
9454.000000;0.941688
9453.000000;0.941702
9452.000000;0.941850
9451.000000;0.942347
9450.000000;0.942872
9449.000000;0.942724
9448.000000;0.941613
9447.000000;0.939979
9446.000000;0.938532
9445.000000;0.937773
9444.000000;0.937955
9443.000000;0.939083
9442.000000;0.940731
9441.000000;0.942027
9440.000000;0.942055
9439.000000;0.940450
9438.000000;0.937861
9437.000000;0.935835
9436.000000;0.935787
9435.000000;0.937672
9434.000000;0.939777
9433.000000;0.940215
9432.000000;0.938703
9431.000000;0.936634
9430.000000;0.935508
9429.000000;0.935657
9428.000000;0.936350
9427.000000;0.936699
9426.000000;0.936397
9425.000000;0.935836
9424.000000;0.935607
9423.000000;0.935785
9422.000000;0.935788
9421.000000;0.935132
9420.000000;0.934146
9419.000000;0.933613
9418.000000;0.933807
9417.000000;0.934247
9416.000000;0.934462
9415.000000;0.934610
9414.000000;0.935128
9413.000000;0.936016
9412.000000;0.936685
9411.000000;0.936461
9410.000000;0.935172
9409.000000;0.933321
9408.000000;0.931736
9407.000000;0.931025
9406.000000;0.931358
9405.000000;0.932587
9404.000000;0.934241
9403.000000;0.935358
9402.000000;0.934845
9401.000000;0.932495
9400.000000;0.929470
9399.000000;0.927262
9398.000000;0.926296
9397.000000;0.925903
9396.000000;0.925483
9395.000000;0.925170
9394.000000;0.925376
9393.000000;0.926227
9392.000000;0.927532
9391.000000;0.928856
9390.000000;0.929513
9389.000000;0.928993
9388.000000;0.927602
9387.000000;0.926306
9386.000000;0.925782
9385.000000;0.925938
9384.000000;0.926389
9383.000000;0.926899
9382.000000;0.927197
9381.000000;0.926982
9380.000000;0.926482
9379.000000;0.926462
9378.000000;0.927175
9377.000000;0.927733
9376.000000;0.927112
9375.000000;0.925513
9374.000000;0.924126
9373.000000;0.923786
9372.000000;0.924448
9371.000000;0.925770
9370.000000;0.927417
9369.000000;0.928715
9368.000000;0.928814
9367.000000;0.927631
9366.000000;0.926187
9365.000000;0.925561
9364.000000;0.925737
9363.000000;0.925805
9362.000000;0.925113
9361.000000;0.923898
9360.000000;0.922822
9359.000000;0.922264
9358.000000;0.922139
9357.000000;0.922168
9356.000000;0.922122
9355.000000;0.921889
9354.000000;0.921477
9353.000000;0.920984
9352.000000;0.920522
9351.000000;0.920164
9350.000000;0.919917
9349.000000;0.919750
9348.000000;0.919650
9347.000000;0.919678
9346.000000;0.919875
9345.000000;0.920092
9344.000000;0.920002
9343.000000;0.919424
9342.000000;0.918633
9341.000000;0.918236
9340.000000;0.918645
9339.000000;0.919657
9338.000000;0.920592
9337.000000;0.920853
9336.000000;0.920281
9335.000000;0.919067
9334.000000;0.917557
9333.000000;0.916234
9332.000000;0.915650
9331.000000;0.916040
9330.000000;0.916969
9329.000000;0.917591
9328.000000;0.917385
9327.000000;0.916564
9326.000000;0.915704
9325.000000;0.915140
9324.000000;0.914819
9323.000000;0.914565
9322.000000;0.914303
9321.000000;0.914100
9320.000000;0.914146
9319.000000;0.914632
9318.000000;0.915441
9317.000000;0.915961
9316.000000;0.915461
9315.000000;0.913858
9314.000000;0.912029
9313.000000;0.911185
9312.000000;0.911873
9311.000000;0.913543
9310.000000;0.915019
9309.000000;0.915429
9308.000000;0.914782
9307.000000;0.913736
9306.000000;0.912881
9305.000000;0.912314
9304.000000;0.911850
9303.000000;0.911499
9302.000000;0.911551
9301.000000;0.912161
9300.000000;0.912978
9299.000000;0.913337
9298.000000;0.912900
9297.000000;0.912053
9296.000000;0.911599
9295.000000;0.911966
9294.000000;0.912683
9293.000000;0.912714
9292.000000;0.911459
9291.000000;0.909488
9290.000000;0.908113
9289.000000;0.908118
9288.000000;0.908967
9287.000000;0.909382
9286.000000;0.908700
9285.000000;0.907490
9284.000000;0.906790
9283.000000;0.906986
9282.000000;0.907622
9281.000000;0.908074
9280.000000;0.908093
9279.000000;0.907722
9278.000000;0.907059
9277.000000;0.906278
9276.000000;0.905710
9275.000000;0.905661
9274.000000;0.906189
9273.000000;0.907125
9272.000000;0.908195
9271.000000;0.909019
9270.000000;0.909177
9269.000000;0.908541
9268.000000;0.907535
9267.000000;0.906859
9266.000000;0.906881
9265.000000;0.907350
9264.000000;0.907721
9263.000000;0.907615
9262.000000;0.906981
9261.000000;0.905994
9260.000000;0.904909
9259.000000;0.903945
9258.000000;0.903196
9257.000000;0.902643
9256.000000;0.902251
9255.000000;0.902022
9254.000000;0.901963
9253.000000;0.902099
9252.000000;0.902544
9251.000000;0.903420
9250.000000;0.904579
9249.000000;0.905480
9248.000000;0.905512
9247.000000;0.904509
9246.000000;0.902949
9245.000000;0.901655
9244.000000;0.901263
9243.000000;0.901813
9242.000000;0.902713
9241.000000;0.903182
9240.000000;0.902889
9239.000000;0.902216
9238.000000;0.901819
9237.000000;0.901971
9236.000000;0.902403
9235.000000;0.902752
9234.000000;0.902975
9233.000000;0.903233
9232.000000;0.903524
9231.000000;0.903653
9230.000000;0.903506
9229.000000;0.903162
9228.000000;0.902679
9227.000000;0.901976
9226.000000;0.901033
9225.000000;0.900115
9224.000000;0.899603
9223.000000;0.899611
9222.000000;0.899852
9221.000000;0.899892
9220.000000;0.899469
9219.000000;0.898600
9218.000000;0.897554
9217.000000;0.896757
9216.000000;0.896588
9215.000000;0.897105
9214.000000;0.897967
9213.000000;0.898681
9212.000000;0.898955
9211.000000;0.898818
9210.000000;0.898478
9209.000000;0.898147
9208.000000;0.897960
9207.000000;0.897954
9206.000000;0.898026
9205.000000;0.897943
9204.000000;0.897474
9203.000000;0.896619
9202.000000;0.895700
9201.000000;0.895125
9200.000000;0.895039
9199.000000;0.895238
9198.000000;0.895447
9197.000000;0.895582
9196.000000;0.895671
9195.000000;0.895669
9194.000000;0.895504
9193.000000;0.895254
9192.000000;0.895078
9191.000000;0.894995
9190.000000;0.894883
9189.000000;0.894682
9188.000000;0.894439
9187.000000;0.894150
9186.000000;0.893779
9185.000000;0.893428
9184.000000;0.893238
9183.000000;0.893069
9182.000000;0.892581
9181.000000;0.891766
9180.000000;0.891077
9179.000000;0.890834
9178.000000;0.890794
9177.000000;0.890595
9176.000000;0.890379
9175.000000;0.890565
9174.000000;0.891184
9173.000000;0.891898
9172.000000;0.892586
9171.000000;0.893416
9170.000000;0.894241
9169.000000;0.894453
9168.000000;0.893744
9167.000000;0.892663
9166.000000;0.892046
9165.000000;0.892086
9164.000000;0.892276
9163.000000;0.892119
9162.000000;0.891559
9161.000000;0.890764
9160.000000;0.889922
9159.000000;0.889365
9158.000000;0.889572
9157.000000;0.890732
9156.000000;0.892318
9155.000000;0.893343
9154.000000;0.893185
9153.000000;0.892126
9152.000000;0.890978
9151.000000;0.890304
9150.000000;0.890115
9149.000000;0.890211
9148.000000;0.890474
9147.000000;0.890730
9146.000000;0.890636
9145.000000;0.890041
9144.000000;0.889312
9143.000000;0.888965
9142.000000;0.888970
9141.000000;0.888753
9140.000000;0.887970
9139.000000;0.887007
9138.000000;0.886526
9137.000000;0.886709
9136.000000;0.887165
9135.000000;0.887486
9134.000000;0.887679
9133.000000;0.888005
9132.000000;0.888522
9131.000000;0.888843
9130.000000;0.888456
9129.000000;0.887361
9128.000000;0.886308
9127.000000;0.886193
9126.000000;0.887159
9125.000000;0.888388
9124.000000;0.888882
9123.000000;0.888358
9122.000000;0.887356
9121.000000;0.886647
9120.000000;0.886654
9119.000000;0.887226
9118.000000;0.887796
9117.000000;0.887832
9116.000000;0.887306
9115.000000;0.886660
9114.000000;0.886257
9113.000000;0.886016
9112.000000;0.885716
9111.000000;0.885439
9110.000000;0.885461
9109.000000;0.885731
9108.000000;0.885760
9107.000000;0.885155
9106.000000;0.884121
9105.000000;0.883304
9104.000000;0.883186
9103.000000;0.883668
9102.000000;0.884228
9101.000000;0.884446
9100.000000;0.884321
9099.000000;0.884101
9098.000000;0.883913
9097.000000;0.883718
9096.000000;0.883538
9095.000000;0.883515
9094.000000;0.883650
9093.000000;0.883707
9092.000000;0.883456
9091.000000;0.882902
9090.000000;0.882167
9089.000000;0.881363
9088.000000;0.880698
9087.000000;0.880451
9086.000000;0.880620
9085.000000;0.880761
9084.000000;0.880448
9083.000000;0.879762
9082.000000;0.879145
9081.000000;0.878899
9080.000000;0.879105
9079.000000;0.879816
9078.000000;0.880945
9077.000000;0.882052
9076.000000;0.882641
9075.000000;0.882694
9074.000000;0.882559
9073.000000;0.882311
9072.000000;0.881665
9071.000000;0.880654
9070.000000;0.879921
9069.000000;0.880026
9068.000000;0.880709
9067.000000;0.881179
9066.000000;0.880990
9065.000000;0.880388
9064.000000;0.879921
9063.000000;0.879924
9062.000000;0.880297
9061.000000;0.880593
9060.000000;0.880391
9059.000000;0.879727
9058.000000;0.879126
9057.000000;0.879084
9056.000000;0.879600
9055.000000;0.880298
9054.000000;0.880867
9053.000000;0.881200
