Criado como novo conjunto de dados;"e0108.spp","-4261664.0 Secs"
cm-1;Abs
10000.000000;1.046016
9999.000000;1.044934
9998.000000;1.043699
9997.000000;1.042968
9996.000000;1.043681
9995.000000;1.045835
9994.000000;1.048050
9993.000000;1.048618
9992.000000;1.047332
9991.000000;1.045594
9990.000000;1.044663
9989.000000;1.044359
9988.000000;1.043798
9987.000000;1.042788
9986.000000;1.041870
9985.000000;1.041306
9984.000000;1.040748
9983.000000;1.039936
9982.000000;1.039127
9981.000000;1.038625
9980.000000;1.038294
9979.000000;1.037759
9978.000000;1.036933
9977.000000;1.036139
9976.000000;1.035814
9975.000000;1.036152
9974.000000;1.036916
9973.000000;1.037515
9972.000000;1.037432
9971.000000;1.036640
9970.000000;1.035560
9969.000000;1.034691
9968.000000;1.034346
9967.000000;1.034564
9966.000000;1.035039
9965.000000;1.035200
9964.000000;1.034701
9963.000000;1.033903
9962.000000;1.033619
9961.000000;1.034222
9960.000000;1.035199
9959.000000;1.035621
9958.000000;1.034916
9957.000000;1.033177
9956.000000;1.031031
9955.000000;1.029356
9954.000000;1.028796
9953.000000;1.029230
9952.000000;1.029795
9951.000000;1.029653
9950.000000;1.028745
9949.000000;1.027763
9948.000000;1.027493
9947.000000;1.028195
9946.000000;1.029404
9945.000000;1.030219
9944.000000;1.029983
9943.000000;1.028815
9942.000000;1.027293
9941.000000;1.025650
9940.000000;1.023649
9939.000000;1.021450
9938.000000;1.020109
9937.000000;1.020730
9936.000000;1.023225
9935.000000;1.026263
9934.000000;1.028349
9933.000000;1.028667
9932.000000;1.027175
9931.000000;1.024589
9930.000000;1.022242
9929.000000;1.021224
9928.000000;1.021393
9927.000000;1.021567
9926.000000;1.020850
9925.000000;1.019471
9924.000000;1.018232
9923.000000;1.017612
9922.000000;1.017691
9921.000000;1.018450
9920.000000;1.019608
9919.000000;1.020418
9918.000000;1.020205
9917.000000;1.019163
9916.000000;1.018218
9915.000000;1.017984
9914.000000;1.018162
9913.000000;1.018023
9912.000000;1.017237
9911.000000;1.016108
9910.000000;1.015223
9909.000000;1.014945
9908.000000;1.015177
9907.000000;1.015540
9906.000000;1.015721
9905.000000;1.015593
9904.000000;1.015105
9903.000000;1.014325
9902.000000;1.013619
9901.000000;1.013536
9900.000000;1.014251
9899.000000;1.015171
9898.000000;1.015354
9897.000000;1.014379
9896.000000;1.012634
9895.000000;1.010780
9894.000000;1.009205
9893.000000;1.008000
9892.000000;1.007129
9891.000000;1.006505
9890.000000;1.006097
9889.000000;1.006050
9888.000000;1.006524
9887.000000;1.007358
9886.000000;1.008132
9885.000000;1.008641
9884.000000;1.009010
9883.000000;1.009224
9882.000000;1.008832
9881.000000;1.007386
9880.000000;1.005074
9879.000000;1.002685
9878.000000;1.000938
9877.000000;0.999981
9876.000000;0.999534
9875.000000;0.999336
9874.000000;0.999406
9873.000000;0.999937
9872.000000;1.000934
9871.000000;1.001951
9870.000000;1.002257
9869.000000;1.001426
9868.000000;0.999797
9867.000000;0.998275
9866.000000;0.997657
9865.000000;0.998090
9864.000000;0.999039
9863.000000;0.999681
9862.000000;0.999444
9861.000000;0.998347
9860.000000;0.996934
9859.000000;0.995812
9858.000000;0.995200
9857.000000;0.994911
9856.000000;0.994703
9855.000000;0.994500
9854.000000;0.994264
9853.000000;0.993899
9852.000000;0.993535
9851.000000;0.993776
9850.000000;0.995214
9849.000000;0.997465
9848.000000;0.999013
9847.000000;0.998492
9846.000000;0.996156
9845.000000;0.993677
9844.000000;0.992420
9843.000000;0.992258
9842.000000;0.992115
9841.000000;0.991291
9840.000000;0.989967
9839.000000;0.988707
9838.000000;0.987984
9837.000000;0.988115
9836.000000;0.989146
9835.000000;0.990638
9834.000000;0.991805
9833.000000;0.992037
9832.000000;0.991265
9831.000000;0.989928
9830.000000;0.988779
9829.000000;0.988548
9828.000000;0.989362
9827.000000;0.990418
9826.000000;0.990591
9825.000000;0.989546
9824.000000;0.987987
9823.000000;0.986744
9822.000000;0.985952
9821.000000;0.985292
9820.000000;0.984640
9819.000000;0.984166
9818.000000;0.984021
9817.000000;0.984226
9816.000000;0.984669
9815.000000;0.985002
9814.000000;0.984761
9813.000000;0.983913
9812.000000;0.983092
9811.000000;0.982900
9810.000000;0.983073
9809.000000;0.982839
9808.000000;0.982081
9807.000000;0.981621
9806.000000;0.982217
9805.000000;0.983673
9804.000000;0.985078
9803.000000;0.985621
9802.000000;0.985019
9801.000000;0.983489
9800.000000;0.981650
9799.000000;0.980263
9798.000000;0.979609
9797.000000;0.979104
9796.000000;0.977849
9795.000000;0.975706
9794.000000;0.973645
9793.000000;0.972815
9792.000000;0.973359
9791.000000;0.974306
9790.000000;0.974582
9789.000000;0.973968
9788.000000;0.973032
9787.000000;0.972353
9786.000000;0.972107
9785.000000;0.972262
9784.000000;0.972752
9783.000000;0.973310
9782.000000;0.973486
9781.000000;0.973155
9780.000000;0.972787
9779.000000;0.972914
9778.000000;0.973415
9777.000000;0.973603
9776.000000;0.972981
9775.000000;0.971677
9774.000000;0.970181
9773.000000;0.968941
9772.000000;0.968221
9771.000000;0.968053
9770.000000;0.968230
9769.000000;0.968446
9768.000000;0.968462
9767.000000;0.968045
9766.000000;0.966988
9765.000000;0.965562
9764.000000;0.964836
9763.000000;0.965871
9762.000000;0.968321
9761.000000;0.970258
9760.000000;0.969925
9759.000000;0.967603
9758.000000;0.965256
9757.000000;0.964448
9756.000000;0.965020
9755.000000;0.965687
9754.000000;0.965513
9753.000000;0.964591
9752.000000;0.963525
9751.000000;0.962643
9750.000000;0.961824
9749.000000;0.960946
9748.000000;0.960269
9747.000000;0.960222
9746.000000;0.960873
9745.000000;0.961776
9744.000000;0.962418
9743.000000;0.962679
9742.000000;0.962760
9741.000000;0.962782
9740.000000;0.962673
9739.000000;0.962395
9738.000000;0.962077
9737.000000;0.961872
9736.000000;0.961761
9735.000000;0.961544
9734.000000;0.960967
9733.000000;0.959957
9732.000000;0.958816
9731.000000;0.958143
9730.000000;0.958380
9729.000000;0.959358
9728.000000;0.960335
9727.000000;0.960536
9726.000000;0.959630
9725.000000;0.957823
9724.000000;0.955712
9723.000000;0.954062
9722.000000;0.953426
9721.000000;0.953768
9720.000000;0.954496
9719.000000;0.954991
9718.000000;0.955078
9717.000000;0.954932
9716.000000;0.954628
9715.000000;0.954037
9714.000000;0.953207
9713.000000;0.952580
9712.000000;0.952567
9711.000000;0.953007
9710.000000;0.953341
9709.000000;0.953407
9708.000000;0.953748
9707.000000;0.954865
9706.000000;0.956374
9705.000000;0.957264
9704.000000;0.956915
9703.000000;0.955525
9702.000000;0.953577
9701.000000;0.951393
9700.000000;0.949358
9699.000000;0.948031
9698.000000;0.947559
9697.000000;0.947305
9696.000000;0.946631
9695.000000;0.945963
9694.000000;0.946397
9693.000000;0.948095
9692.000000;0.949670
9691.000000;0.949615
9690.000000;0.947972
9689.000000;0.946096
9688.000000;0.944986
9687.000000;0.944460
9686.000000;0.943963
9685.000000;0.943521
9684.000000;0.943551
9683.000000;0.944109
9682.000000;0.944763
9681.000000;0.945103
9680.000000;0.945014
9679.000000;0.944467
9678.000000;0.943420
9677.000000;0.942074
9676.000000;0.941004
9675.000000;0.940805
9674.000000;0.941567
9673.000000;0.942736
9672.000000;0.943464
9671.000000;0.943143
9670.000000;0.941844
9669.000000;0.940338
9668.000000;0.939539
9667.000000;0.939722
9666.000000;0.940289
9665.000000;0.940371
9664.000000;0.939692
9663.000000;0.938745
9662.000000;0.938188
9661.000000;0.938209
9660.000000;0.938473
9659.000000;0.938497
9658.000000;0.937984
9657.000000;0.936936
9656.000000;0.935603
9655.000000;0.934320
9654.000000;0.933314
9653.000000;0.932660
9652.000000;0.932395
9651.000000;0.932531
9650.000000;0.932851
9649.000000;0.932897
9648.000000;0.932434
9647.000000;0.931882
9646.000000;0.932033
9645.000000;0.933188
9644.000000;0.934727
9643.000000;0.935675
9642.000000;0.935565
9641.000000;0.934603
9640.000000;0.933180
9639.000000;0.931576
9638.000000;0.930152
9637.000000;0.929419
9636.000000;0.929636
9635.000000;0.930456
9634.000000;0.931177
9633.000000;0.931317
9632.000000;0.930864
9631.000000;0.930112
9630.000000;0.929457
9629.000000;0.929220
9628.000000;0.929375
9627.000000;0.929468
9626.000000;0.929077
9625.000000;0.928354
9624.000000;0.927833
9623.000000;0.927674
9622.000000;0.927440
9621.000000;0.926784
9620.000000;0.926071
9619.000000;0.926000
9618.000000;0.926749
9617.000000;0.927767
9616.000000;0.928323
9615.000000;0.928066
9614.000000;0.927093
9613.000000;0.925708
9612.000000;0.924193
9611.000000;0.922758
9610.000000;0.921636
9609.000000;0.921195
9608.000000;0.921741
9607.000000;0.923073
9606.000000;0.924393
9605.000000;0.924925
9604.000000;0.924564
9603.000000;0.923826
9602.000000;0.923230
9601.000000;0.922926
9600.000000;0.922754
9599.000000;0.922422
9598.000000;0.921688
9597.000000;0.920620
9596.000000;0.919595
9595.000000;0.918879
9594.000000;0.918319
9593.000000;0.917705
9592.000000;0.917253
9591.000000;0.917322
9590.000000;0.917719
9589.000000;0.917784
9588.000000;0.917236
9587.000000;0.916481
9586.000000;0.915984
9585.000000;0.915802
9584.000000;0.915880
9583.000000;0.916241
9582.000000;0.916548
9581.000000;0.916018
9580.000000;0.914362
9579.000000;0.912484
9578.000000;0.911655
9577.000000;0.912141
9576.000000;0.913098
9575.000000;0.913644
9574.000000;0.913608
9573.000000;0.913294
9572.000000;0.913053
9571.000000;0.913174
9570.000000;0.913687
9569.000000;0.914133
9568.000000;0.913891
9567.000000;0.912913
9566.000000;0.911871
9565.000000;0.911472
9564.000000;0.911840
9563.000000;0.912586
9562.000000;0.913112
9561.000000;0.912849
9560.000000;0.911665
9559.000000;0.910241
9558.000000;0.909614
9557.000000;0.910046
9556.000000;0.910641
9555.000000;0.910362
9554.000000;0.909210
9553.000000;0.908062
9552.000000;0.907605
9551.000000;0.907840
9550.000000;0.908400
9549.000000;0.908879
9548.000000;0.908896
9547.000000;0.908277
9546.000000;0.907259
9545.000000;0.906281
9544.000000;0.905519
9543.000000;0.904872
9542.000000;0.904349
9541.000000;0.904158
9540.000000;0.904317
9539.000000;0.904486
9538.000000;0.904358
9537.000000;0.904082
9536.000000;0.904135
9535.000000;0.904810
9534.000000;0.905877
9533.000000;0.906666
9532.000000;0.906516
9531.000000;0.905327
9530.000000;0.903675
9529.000000;0.902251
9528.000000;0.901223
9527.000000;0.900345
9526.000000;0.899633
9525.000000;0.899544
9524.000000;0.900306
9523.000000;0.901385
9522.000000;0.901950
9521.000000;0.901726
9520.000000;0.901096
9519.000000;0.900452
9518.000000;0.899803
9517.000000;0.899065
9516.000000;0.898398
9515.000000;0.898069
9514.000000;0.898147
9513.000000;0.898445
9512.000000;0.898676
9511.000000;0.898628
9510.000000;0.898333
9509.000000;0.898114
9508.000000;0.898309
9507.000000;0.898822
9506.000000;0.899119
9505.000000;0.898848
9504.000000;0.898294
9503.000000;0.898018
9502.000000;0.898111
9501.000000;0.898086
9500.000000;0.897522
9499.000000;0.896570
9498.000000;0.895716
9497.000000;0.895282
9496.000000;0.895293
9495.000000;0.895618
9494.000000;0.895973
9493.000000;0.895870
9492.000000;0.894913
9491.000000;0.893261
9490.000000;0.891597
9489.000000;0.890507
9488.000000;0.889995
9487.000000;0.889723
9486.000000;0.889600
9485.000000;0.889896
9484.000000;0.890784
9483.000000;0.891980
9482.000000;0.892983
9481.000000;0.893531
9480.000000;0.893648
9479.000000;0.893311
9478.000000;0.892373
9477.000000;0.890917
9476.000000;0.889514
9475.000000;0.888828
9474.000000;0.888931
9473.000000;0.889175
9472.000000;0.888844
9471.000000;0.887887
9470.000000;0.886901
9469.000000;0.886503
9468.000000;0.886843
9467.000000;0.887655
9466.000000;0.888571
9465.000000;0.889277
9464.000000;0.889478
9463.000000;0.888934
9462.000000;0.887640
9461.000000;0.885982
9460.000000;0.884645
9459.000000;0.884210
9458.000000;0.884749
9457.000000;0.885772
9456.000000;0.886645
9455.000000;0.887041
9454.000000;0.886981
9453.000000;0.886574
9452.000000;0.885892
9451.000000;0.885102
9450.000000;0.884469
9449.000000;0.884123
9448.000000;0.883886
9447.000000;0.883478
9446.000000;0.882883
9445.000000;0.882427
9444.000000;0.882514
9443.000000;0.883352
9442.000000;0.884811
9441.000000;0.886337
9440.000000;0.887079
9439.000000;0.886403
9438.000000;0.884528
9437.000000;0.882534
9436.000000;0.881517
9435.000000;0.881644
9434.000000;0.882050
9433.000000;0.881663
9432.000000;0.880199
9431.000000;0.878383
9430.000000;0.877213
9429.000000;0.877062
9428.000000;0.877543
9427.000000;0.878155
9426.000000;0.878836
9425.000000;0.879722
9424.000000;0.880542
9423.000000;0.880646
9422.000000;0.879745
9421.000000;0.878350
9420.000000;0.877253
9419.000000;0.876755
9418.000000;0.876615
9417.000000;0.876637
9416.000000;0.876976
9415.000000;0.877767
9414.000000;0.878718
9413.000000;0.879279
9412.000000;0.879167
9411.000000;0.878572
9410.000000;0.877869
9409.000000;0.877242
9408.000000;0.876648
9407.000000;0.876088
9406.000000;0.875780
9405.000000;0.876005
9404.000000;0.876795
9403.000000;0.877814
9402.000000;0.878528
9401.000000;0.878505
9400.000000;0.877639
9399.000000;0.876233
9398.000000;0.874855
9397.000000;0.873971
9396.000000;0.873661
9395.000000;0.873702
9394.000000;0.873915
9393.000000;0.874290
9392.000000;0.874750
9391.000000;0.874997
9390.000000;0.874811
9389.000000;0.874409
9388.000000;0.874254
9387.000000;0.874473
9386.000000;0.874647
9385.000000;0.874251
9384.000000;0.873190
9383.000000;0.871861
9382.000000;0.870807
9381.000000;0.870371
9380.000000;0.870513
9379.000000;0.870806
9378.000000;0.870715
9377.000000;0.870075
9376.000000;0.869275
9375.000000;0.868885
9374.000000;0.869025
9373.000000;0.869211
9372.000000;0.868875
9371.000000;0.868019
9370.000000;0.867289
9369.000000;0.867376
9368.000000;0.868358
9367.000000;0.869604
9366.000000;0.870280
9365.000000;0.869928
9364.000000;0.868695
9363.000000;0.867186
9362.000000;0.866124
9361.000000;0.865936
9360.000000;0.866436
9359.000000;0.866970
9358.000000;0.866990
9357.000000;0.866464
9356.000000;0.865661
9355.000000;0.864727
9354.000000;0.863740
9353.000000;0.863036
9352.000000;0.863069
9351.000000;0.863825
9350.000000;0.864629
9349.000000;0.864734
9348.000000;0.864002
9347.000000;0.862891
9346.000000;0.861964
9345.000000;0.861538
9344.000000;0.861620
9343.000000;0.861990
9342.000000;0.862415
9341.000000;0.862866
9340.000000;0.863416
9339.000000;0.863856
9338.000000;0.863743
9337.000000;0.863050
9336.000000;0.862492
9335.000000;0.862782
9334.000000;0.863720
9333.000000;0.864388
9332.000000;0.864224
9331.000000;0.863533
9330.000000;0.862849
9329.000000;0.862242
9328.000000;0.861456
9327.000000;0.860423
9326.000000;0.859371
9325.000000;0.858588
9324.000000;0.858272
9323.000000;0.858479
9322.000000;0.859016
9321.000000;0.859485
9320.000000;0.859621
9319.000000;0.859540
9318.000000;0.859506
9317.000000;0.859527
9316.000000;0.859348
9315.000000;0.858850
9314.000000;0.858286
9313.000000;0.858056
9312.000000;0.858263
9311.000000;0.858550
9310.000000;0.858372
9309.000000;0.857532
9308.000000;0.856408
9307.000000;0.855596
9306.000000;0.855315
9305.000000;0.855293
9304.000000;0.855226
9303.000000;0.855171
9302.000000;0.855360
9301.000000;0.855789
9300.000000;0.856204
9299.000000;0.856447
9298.000000;0.856610
9297.000000;0.856824
9296.000000;0.857066
9295.000000;0.857225
9294.000000;0.857226
9293.000000;0.856972
9292.000000;0.856286
9291.000000;0.855088
9290.000000;0.853657
9289.000000;0.852584
9288.000000;0.852329
9287.000000;0.852819
9286.000000;0.853546
9285.000000;0.854055
9284.000000;0.854248
9283.000000;0.854211
9282.000000;0.853920
9281.000000;0.853300
9280.000000;0.852501
9279.000000;0.851858
9278.000000;0.851512
9277.000000;0.851234
9276.000000;0.850741
9275.000000;0.850086
9274.000000;0.849604
9273.000000;0.849511
9272.000000;0.849671
9271.000000;0.849778
9270.000000;0.849711
9269.000000;0.849685
9268.000000;0.850027
9267.000000;0.850801
9266.000000;0.851676
9265.000000;0.852221
9264.000000;0.852322
9263.000000;0.852247
9262.000000;0.852324
9261.000000;0.852674
9260.000000;0.853231
9259.000000;0.853783
9258.000000;0.853946
9257.000000;0.853332
9256.000000;0.851953
9255.000000;0.850331
9254.000000;0.849061
9253.000000;0.848318
9252.000000;0.847914
9251.000000;0.847723
9250.000000;0.847792
9249.000000;0.848052
9248.000000;0.848165
9247.000000;0.847796
9246.000000;0.846998
9245.000000;0.846235
9244.000000;0.846011
9243.000000;0.846454
9242.000000;0.847214
9241.000000;0.847780
9240.000000;0.847923
9239.000000;0.847765
9238.000000;0.847435
9237.000000;0.846887
9236.000000;0.846160
9235.000000;0.845569
9234.000000;0.845392
9233.000000;0.845449
9232.000000;0.845274
9231.000000;0.844721
9230.000000;0.844192
9229.000000;0.844168
9228.000000;0.844683
9227.000000;0.845328
9226.000000;0.845638
9225.000000;0.845429
9224.000000;0.844861
9223.000000;0.844249
9222.000000;0.843783
9221.000000;0.843421
9220.000000;0.843086
9219.000000;0.842854
9218.000000;0.842789
9217.000000;0.842685
9216.000000;0.842219
9215.000000;0.841422
9214.000000;0.840790
9213.000000;0.840814
9212.000000;0.841543
9211.000000;0.842593
9210.000000;0.843387
9209.000000;0.843375
9208.000000;0.842398
9207.000000;0.841030
9206.000000;0.840285
9205.000000;0.840654
9204.000000;0.841549
9203.000000;0.841967
9202.000000;0.841606
9201.000000;0.840994
9200.000000;0.840605
9199.000000;0.840291
9198.000000;0.839744
9197.000000;0.839081
9196.000000;0.838673
9195.000000;0.838615
9194.000000;0.838757
9193.000000;0.839162
9192.000000;0.840101
9191.000000;0.841467
9190.000000;0.842526
9189.000000;0.842540
9188.000000;0.841546
9187.000000;0.840254
9186.000000;0.839236
9185.000000;0.838493
9184.000000;0.837812
9183.000000;0.837255
9182.000000;0.837053
9181.000000;0.837167
9180.000000;0.837261
9179.000000;0.837135
9178.000000;0.836955
9177.000000;0.836978
9176.000000;0.837219
9175.000000;0.837498
9174.000000;0.837678
9173.000000;0.837720
9172.000000;0.837578
9171.000000;0.837216
9170.000000;0.836731
9169.000000;0.836314
9168.000000;0.836063
9167.000000;0.835904
9166.000000;0.835730
9165.000000;0.835560
9164.000000;0.835507
9163.000000;0.835642
9162.000000;0.835914
9161.000000;0.836200
9160.000000;0.836379
9159.000000;0.836343
9158.000000;0.835987
9157.000000;0.835286
9156.000000;0.834414
9155.000000;0.833731
9154.000000;0.833529
9153.000000;0.833799
9152.000000;0.834289
9151.000000;0.834778
9150.000000;0.835198
9149.000000;0.835508
9148.000000;0.835600
9147.000000;0.835425
9146.000000;0.835112
9145.000000;0.834846
9144.000000;0.834701
9143.000000;0.834661
9142.000000;0.834725
9141.000000;0.834831
9140.000000;0.834780
9139.000000;0.834456
9138.000000;0.834082
9137.000000;0.834047
9136.000000;0.834436
9135.000000;0.834872
9134.000000;0.834870
9133.000000;0.834222
9132.000000;0.833008
9131.000000;0.831463
9130.000000;0.829980
9129.000000;0.829012
9128.000000;0.828741
9127.000000;0.828916
9126.000000;0.829220
9125.000000;0.829708
9124.000000;0.830610
9123.000000;0.831746
9122.000000;0.832484
9121.000000;0.832446
9120.000000;0.831998
9119.000000;0.831801
9118.000000;0.832023
9117.000000;0.832193
9116.000000;0.831784
9115.000000;0.830763
9114.000000;0.829558
9113.000000;0.828680
9112.000000;0.828410
9111.000000;0.828687
9110.000000;0.829199
9109.000000;0.829611
9108.000000;0.829785
9107.000000;0.829780
9106.000000;0.829687
9105.000000;0.829540
9104.000000;0.829398
9103.000000;0.829392
9102.000000;0.829612
9101.000000;0.829963
9100.000000;0.830173
9099.000000;0.829978
9098.000000;0.829331
9097.000000;0.828450
9096.000000;0.827661
9095.000000;0.827200
9094.000000;0.827158
9093.000000;0.827514
9092.000000;0.828123
9091.000000;0.828655
9090.000000;0.828734
9089.000000;0.828279
9088.000000;0.827629
9087.000000;0.827179
9086.000000;0.826946
9085.000000;0.826656
9084.000000;0.826169
9083.000000;0.825629
9082.000000;0.825200
9081.000000;0.824893
9080.000000;0.824729
9079.000000;0.824834
9078.000000;0.825245
9077.000000;0.825753
9076.000000;0.826098
9075.000000;0.826190
9074.000000;0.826045
9073.000000;0.825683
9072.000000;0.825239
9071.000000;0.825033
9070.000000;0.825279
9069.000000;0.825759
9068.000000;0.826004
9067.000000;0.825808
9066.000000;0.825415
9065.000000;0.825204
9064.000000;0.825322
9063.000000;0.825630
9062.000000;0.825868
9061.000000;0.825789
9060.000000;0.825214
9059.000000;0.824106
9058.000000;0.822707
9057.000000;0.821602
9056.000000;0.821454
9055.000000;0.822381
9054.000000;0.823584
9053.000000;0.823922
