Criado como novo conjunto de dados;"e0108.spp","-4220261.6 Secs"
cm-1;Abs
10000.000000;1.988589
9999.000000;1.982496
9998.000000;1.976562
9997.000000;1.970577
9996.000000;1.964910
9995.000000;1.958842
9994.000000;1.954294
9993.000000;1.955759
9992.000000;1.961582
9991.000000;1.970658
9990.000000;1.982665
9989.000000;1.996195
9988.000000;2.006035
9987.000000;2.006074
9986.000000;1.994769
9985.000000;1.979371
9984.000000;1.971441
9983.000000;1.976312
9982.000000;1.987631
9981.000000;1.992644
9980.000000;1.986427
9979.000000;1.977989
9978.000000;1.978195
9977.000000;1.988248
9976.000000;2.001011
9975.000000;2.009707
9974.000000;2.013572
9973.000000;2.014060
9972.000000;2.010040
9971.000000;2.000880
9970.000000;1.990577
9969.000000;1.984968
9968.000000;1.986211
9967.000000;1.991386
9966.000000;1.995484
9965.000000;1.994978
9964.000000;1.989844
9963.000000;1.983633
9962.000000;1.980843
9961.000000;1.982556
9960.000000;1.984478
9959.000000;1.980740
9958.000000;1.970465
9957.000000;1.959987
9956.000000;1.957580
9955.000000;1.965229
9954.000000;1.975905
9953.000000;1.980017
9952.000000;1.975207
9951.000000;1.967880
9950.000000;1.964786
9949.000000;1.966867
9948.000000;1.972170
9947.000000;1.979164
9946.000000;1.985585
9945.000000;1.988061
9944.000000;1.984352
9943.000000;1.976653
9942.000000;1.970230
9941.000000;1.967716
9940.000000;1.967856
9939.000000;1.969305
9938.000000;1.972187
9937.000000;1.975150
9936.000000;1.974604
9935.000000;1.968950
9934.000000;1.960948
9933.000000;1.954170
9932.000000;1.950063
9931.000000;1.949742
9930.000000;1.954307
9929.000000;1.962223
9928.000000;1.969384
9927.000000;1.972589
9926.000000;1.971638
9925.000000;1.967407
9924.000000;1.960327
9923.000000;1.952536
9922.000000;1.948669
9921.000000;1.951660
9920.000000;1.958641
9919.000000;1.962713
9918.000000;1.959689
9917.000000;1.952628
9916.000000;1.948394
9915.000000;1.951150
9914.000000;1.959590
9913.000000;1.968004
9912.000000;1.970940
9911.000000;1.968910
9910.000000;1.966958
9909.000000;1.967444
9908.000000;1.967553
9907.000000;1.964192
9906.000000;1.959310
9905.000000;1.958202
9904.000000;1.962925
9903.000000;1.969548
9902.000000;1.972580
9901.000000;1.970440
9900.000000;1.965267
9899.000000;1.960010
9898.000000;1.956957
9897.000000;1.956643
9896.000000;1.956985
9895.000000;1.954232
9894.000000;1.945952
9893.000000;1.934228
9892.000000;1.925250
9891.000000;1.924385
9890.000000;1.931601
9889.000000;1.940943
9888.000000;1.944440
9887.000000;1.938713
9886.000000;1.928460
9885.000000;1.922669
9884.000000;1.927423
9883.000000;1.941361
9882.000000;1.956499
9881.000000;1.964000
9880.000000;1.960670
9879.000000;1.949945
9878.000000;1.937847
9877.000000;1.929600
9876.000000;1.928099
9875.000000;1.932370
9874.000000;1.937502
9873.000000;1.938911
9872.000000;1.937582
9871.000000;1.938371
9870.000000;1.942287
9869.000000;1.943611
9868.000000;1.937272
9867.000000;1.926807
9866.000000;1.920648
9865.000000;1.922334
9864.000000;1.927565
9863.000000;1.930185
9862.000000;1.928805
9861.000000;1.926238
9860.000000;1.925412
9859.000000;1.927932
9858.000000;1.933827
9857.000000;1.940644
9856.000000;1.944204
9855.000000;1.942167
9854.000000;1.936314
9853.000000;1.930329
9852.000000;1.927363
9851.000000;1.930198
9850.000000;1.940027
9849.000000;1.952800
9848.000000;1.959534
9847.000000;1.954880
9846.000000;1.944492
9845.000000;1.939321
9844.000000;1.944178
9843.000000;1.954060
9842.000000;1.960653
9841.000000;1.960897
9840.000000;1.957730
9839.000000;1.954717
9838.000000;1.952424
9837.000000;1.949139
9836.000000;1.943659
9835.000000;1.937010
9834.000000;1.931988
9833.000000;1.931205
9832.000000;1.935137
9831.000000;1.941231
9830.000000;1.944678
9829.000000;1.941359
9828.000000;1.931460
9827.000000;1.919832
9826.000000;1.912036
9825.000000;1.910110
9824.000000;1.912298
9823.000000;1.916438
9822.000000;1.922298
9821.000000;1.930324
9820.000000;1.939401
9819.000000;1.946742
9818.000000;1.950502
9817.000000;1.951264
9816.000000;1.950020
9815.000000;1.947002
9814.000000;1.942908
9813.000000;1.938860
9812.000000;1.934811
9811.000000;1.929397
9810.000000;1.922155
9809.000000;1.915578
9808.000000;1.913696
9807.000000;1.918358
9806.000000;1.927330
9805.000000;1.935648
9804.000000;1.939110
9803.000000;1.937322
9802.000000;1.933546
9801.000000;1.931705
9800.000000;1.932783
9799.000000;1.933723
9798.000000;1.931187
9797.000000;1.926472
9796.000000;1.924878
9795.000000;1.929509
9794.000000;1.936996
9793.000000;1.939922
9792.000000;1.933887
9791.000000;1.922711
9790.000000;1.914205
9789.000000;1.911707
9788.000000;1.912938
9787.000000;1.915432
9786.000000;1.919772
9785.000000;1.926685
9784.000000;1.933255
9783.000000;1.934537
9782.000000;1.928965
9781.000000;1.920070
9780.000000;1.912842
9779.000000;1.910252
9778.000000;1.912094
9777.000000;1.915372
9776.000000;1.917044
9775.000000;1.917587
9774.000000;1.920372
9773.000000;1.926627
9772.000000;1.932520
9771.000000;1.932914
9770.000000;1.927163
9769.000000;1.918944
9768.000000;1.911735
9767.000000;1.907343
9766.000000;1.907717
9765.000000;1.914083
9764.000000;1.922823
9763.000000;1.925820
9762.000000;1.919004
9761.000000;1.908467
9760.000000;1.904331
9759.000000;1.911233
9758.000000;1.925770
9757.000000;1.939978
9756.000000;1.946148
9755.000000;1.940843
9754.000000;1.927616
9753.000000;1.914884
9752.000000;1.909026
9751.000000;1.909706
9750.000000;1.912253
9749.000000;1.914071
9748.000000;1.916610
9747.000000;1.921298
9746.000000;1.926574
9745.000000;1.929872
9744.000000;1.930712
9743.000000;1.930245
9742.000000;1.929070
9741.000000;1.927051
9740.000000;1.924119
9739.000000;1.919785
9738.000000;1.912736
9737.000000;1.902271
9736.000000;1.889915
9735.000000;1.879199
9734.000000;1.874067
9733.000000;1.876779
9732.000000;1.885910
9731.000000;1.896405
9730.000000;1.903163
9729.000000;1.905438
9728.000000;1.906612
9727.000000;1.909248
9726.000000;1.911992
9725.000000;1.912111
9724.000000;1.909832
9723.000000;1.908027
9722.000000;1.907933
9721.000000;1.907498
9720.000000;1.904135
9719.000000;1.897797
9718.000000;1.890532
9717.000000;1.883912
9716.000000;1.878460
9715.000000;1.875198
9714.000000;1.876077
9713.000000;1.882074
9712.000000;1.891399
9711.000000;1.900003
9710.000000;1.904450
9709.000000;1.904556
9708.000000;1.902435
9707.000000;1.899515
9706.000000;1.895706
9705.000000;1.891006
9704.000000;1.886301
9703.000000;1.882090
9702.000000;1.878529
9701.000000;1.877249
9700.000000;1.880881
9699.000000;1.890082
9698.000000;1.901927
9697.000000;1.911881
9696.000000;1.917348
9695.000000;1.918475
9694.000000;1.915842
9693.000000;1.909737
9692.000000;1.902069
9691.000000;1.895944
9690.000000;1.893059
9689.000000;1.892901
9688.000000;1.893912
9687.000000;1.895448
9686.000000;1.898097
9685.000000;1.901324
9684.000000;1.902344
9683.000000;1.898695
9682.000000;1.891438
9681.000000;1.884725
9680.000000;1.881982
9679.000000;1.882765
9678.000000;1.883520
9677.000000;1.881966
9676.000000;1.880382
9675.000000;1.882811
9674.000000;1.888998
9673.000000;1.893278
9672.000000;1.890867
9671.000000;1.883518
9670.000000;1.876732
9669.000000;1.873385
9668.000000;1.872623
9667.000000;1.873495
9666.000000;1.876576
9665.000000;1.881771
9664.000000;1.887006
9663.000000;1.890222
9662.000000;1.891450
9661.000000;1.892149
9660.000000;1.893281
9659.000000;1.894479
9658.000000;1.894231
9657.000000;1.890493
9656.000000;1.882603
9655.000000;1.872703
9654.000000;1.864372
9653.000000;1.859706
9652.000000;1.858354
9651.000000;1.860047
9650.000000;1.865908
9649.000000;1.875267
9648.000000;1.883092
9647.000000;1.884311
9646.000000;1.880402
9645.000000;1.877017
9644.000000;1.875810
9643.000000;1.873042
9642.000000;1.866662
9641.000000;1.860834
9640.000000;1.860729
9639.000000;1.865928
9638.000000;1.871626
9637.000000;1.874769
9636.000000;1.876124
9635.000000;1.876687
9634.000000;1.875530
9633.000000;1.872311
9632.000000;1.869532
9631.000000;1.870470
9630.000000;1.876065
9629.000000;1.884562
9628.000000;1.892750
9627.000000;1.896922
9626.000000;1.894369
9625.000000;1.885799
9624.000000;1.875237
9623.000000;1.866365
9622.000000;1.859794
9621.000000;1.853934
9620.000000;1.847915
9619.000000;1.843353
9618.000000;1.842788
9617.000000;1.846585
9616.000000;1.851780
9615.000000;1.854366
9614.000000;1.853017
9613.000000;1.849813
9612.000000;1.848007
9611.000000;1.850095
9610.000000;1.856184
9609.000000;1.863055
9608.000000;1.866085
9607.000000;1.863581
9606.000000;1.859271
9605.000000;1.858828
9604.000000;1.863851
9603.000000;1.870638
9602.000000;1.874359
9601.000000;1.873186
9600.000000;1.868083
9599.000000;1.860498
9598.000000;1.852325
9597.000000;1.846690
9596.000000;1.846048
9595.000000;1.849231
9594.000000;1.852157
9593.000000;1.852219
9592.000000;1.850763
9591.000000;1.850255
9590.000000;1.850591
9589.000000;1.849912
9588.000000;1.847867
9587.000000;1.846201
9586.000000;1.846358
9585.000000;1.847445
9584.000000;1.847262
9583.000000;1.845619
9582.000000;1.845586
9581.000000;1.850267
9580.000000;1.858708
9579.000000;1.866214
9578.000000;1.869212
9577.000000;1.868388
9576.000000;1.865684
9575.000000;1.860533
9574.000000;1.851659
9573.000000;1.841187
9572.000000;1.833829
9571.000000;1.832020
9570.000000;1.833748
9569.000000;1.835249
9568.000000;1.834478
9567.000000;1.831487
9566.000000;1.827347
9565.000000;1.824176
9564.000000;1.824584
9563.000000;1.829346
9562.000000;1.835997
9561.000000;1.840825
9560.000000;1.842597
9559.000000;1.843573
9558.000000;1.846307
9557.000000;1.850774
9556.000000;1.855528
9555.000000;1.859826
9554.000000;1.863512
9553.000000;1.865966
9552.000000;1.865359
9551.000000;1.860035
9550.000000;1.851796
9549.000000;1.845752
9548.000000;1.845139
9547.000000;1.847145
9546.000000;1.845705
9545.000000;1.839071
9544.000000;1.831919
9543.000000;1.829228
9542.000000;1.831225
9541.000000;1.834899
9540.000000;1.838335
9539.000000;1.841485
9538.000000;1.843177
9537.000000;1.841180
9536.000000;1.836345
9535.000000;1.832887
9534.000000;1.832835
9533.000000;1.833032
9532.000000;1.829777
9531.000000;1.825026
9530.000000;1.824729
9529.000000;1.831148
9528.000000;1.838997
9527.000000;1.840299
9526.000000;1.833348
9525.000000;1.824690
9524.000000;1.821478
9523.000000;1.824318
9522.000000;1.827876
9521.000000;1.827594
9520.000000;1.825055
9519.000000;1.825781
9518.000000;1.832778
9517.000000;1.843331
9516.000000;1.851647
9515.000000;1.854041
9514.000000;1.851147
9513.000000;1.845685
9512.000000;1.840013
9511.000000;1.836298
9510.000000;1.836467
9509.000000;1.840057
9508.000000;1.843107
9507.000000;1.841301
9506.000000;1.834952
9505.000000;1.828747
9504.000000;1.826390
9503.000000;1.827980
9502.000000;1.831433
9501.000000;1.834193
9500.000000;1.834243
9499.000000;1.831170
9498.000000;1.827069
9497.000000;1.825411
9496.000000;1.827890
9495.000000;1.833157
9494.000000;1.839325
9493.000000;1.846499
9492.000000;1.855169
9491.000000;1.862995
9490.000000;1.865783
9489.000000;1.862099
9488.000000;1.854778
9487.000000;1.847213
9486.000000;1.840367
9485.000000;1.833875
9484.000000;1.827744
9483.000000;1.822235
9482.000000;1.817748
9481.000000;1.815238
9480.000000;1.815489
9479.000000;1.817745
9478.000000;1.820342
9477.000000;1.822691
9476.000000;1.824926
9475.000000;1.825663
9474.000000;1.822826
9473.000000;1.817706
9472.000000;1.815398
9471.000000;1.819374
9470.000000;1.827439
9469.000000;1.834520
9468.000000;1.837896
9467.000000;1.837623
9466.000000;1.833917
9465.000000;1.827742
9464.000000;1.822625
9463.000000;1.821840
9462.000000;1.824376
9461.000000;1.826481
9460.000000;1.826483
9459.000000;1.826298
9458.000000;1.828337
9457.000000;1.832403
9456.000000;1.836076
9455.000000;1.836665
9454.000000;1.832597
9453.000000;1.824333
9452.000000;1.814689
9451.000000;1.807937
9450.000000;1.807508
9449.000000;1.813485
9448.000000;1.821386
9447.000000;1.824450
9446.000000;1.819701
9445.000000;1.812097
9444.000000;1.810493
9443.000000;1.818239
9442.000000;1.828276
9441.000000;1.829398
9440.000000;1.819173
9439.000000;1.806913
9438.000000;1.802701
9437.000000;1.808216
9436.000000;1.817429
9435.000000;1.823102
9434.000000;1.822249
9433.000000;1.816675
9432.000000;1.810349
9431.000000;1.806706
9430.000000;1.807016
9429.000000;1.810044
9428.000000;1.813342
9427.000000;1.815352
9426.000000;1.816033
9425.000000;1.815684
9424.000000;1.814103
9423.000000;1.811121
9422.000000;1.807448
9421.000000;1.804519
9420.000000;1.803494
9419.000000;1.804475
9418.000000;1.806399
9417.000000;1.807745
9416.000000;1.807495
9415.000000;1.805701
9414.000000;1.803732
9413.000000;1.803732
9412.000000;1.806816
9411.000000;1.811217
9410.000000;1.813007
9409.000000;1.809965
9408.000000;1.804248
9407.000000;1.800077
9406.000000;1.799655
9405.000000;1.802039
9404.000000;1.804821
9403.000000;1.805646
9402.000000;1.802657
9401.000000;1.795750
9400.000000;1.787987
9399.000000;1.783609
9398.000000;1.784501
9397.000000;1.790021
9396.000000;1.798957
9395.000000;1.809507
9394.000000;1.818000
9393.000000;1.820366
9392.000000;1.816045
9391.000000;1.808481
9390.000000;1.801031
9389.000000;1.794617
9388.000000;1.789887
9387.000000;1.788991
9386.000000;1.793294
9385.000000;1.800684
9384.000000;1.806818
9383.000000;1.808871
9382.000000;1.807210
9381.000000;1.803646
9380.000000;1.799718
9379.000000;1.796713
9378.000000;1.795492
9377.000000;1.795829
9376.000000;1.796666
9375.000000;1.797015
9374.000000;1.796340
9373.000000;1.794621
9372.000000;1.792657
9371.000000;1.791806
9370.000000;1.792606
9369.000000;1.793771
9368.000000;1.793141
9367.000000;1.789835
9366.000000;1.785260
9365.000000;1.782081
9364.000000;1.782690
9363.000000;1.788065
9362.000000;1.796931
9361.000000;1.805780
9360.000000;1.810821
9359.000000;1.810951
9358.000000;1.808305
9357.000000;1.805757
9356.000000;1.804473
9355.000000;1.803655
9354.000000;1.801830
9353.000000;1.798070
9352.000000;1.792473
9351.000000;1.785998
9350.000000;1.780082
9349.000000;1.776394
9348.000000;1.776330
9347.000000;1.780273
9346.000000;1.787016
9345.000000;1.793925
9344.000000;1.798080
9343.000000;1.797728
9342.000000;1.793561
9341.000000;1.788148
9340.000000;1.784196
9339.000000;1.783617
9338.000000;1.786654
9337.000000;1.791244
9336.000000;1.793893
9335.000000;1.791789
9334.000000;1.784970
9333.000000;1.776912
9332.000000;1.771809
9331.000000;1.770710
9330.000000;1.771299
9329.000000;1.771479
9328.000000;1.771895
9327.000000;1.773841
9326.000000;1.775985
9325.000000;1.775621
9324.000000;1.773229
9323.000000;1.773224
9322.000000;1.779139
9321.000000;1.789446
9320.000000;1.798414
9319.000000;1.800995
9318.000000;1.797309
9317.000000;1.792186
9316.000000;1.790473
9315.000000;1.793089
9314.000000;1.796942
9313.000000;1.798318
9312.000000;1.796256
9311.000000;1.792265
9310.000000;1.787776
9309.000000;1.783583
9308.000000;1.781152
9307.000000;1.781989
9306.000000;1.784979
9305.000000;1.786454
9304.000000;1.784292
9303.000000;1.780515
9302.000000;1.778554
9301.000000;1.779198
9300.000000;1.780632
9299.000000;1.781992
9298.000000;1.785143
9297.000000;1.792141
9296.000000;1.801843
9295.000000;1.809528
9294.000000;1.810259
9293.000000;1.803633
9292.000000;1.794754
9291.000000;1.789416
9290.000000;1.788469
9289.000000;1.787357
9288.000000;1.782089
9287.000000;1.774853
9286.000000;1.771559
9285.000000;1.774874
9284.000000;1.781407
9283.000000;1.785468
9282.000000;1.784668
9281.000000;1.781209
9280.000000;1.778874
9279.000000;1.779687
9278.000000;1.782613
9277.000000;1.784684
9276.000000;1.783659
9275.000000;1.779802
9274.000000;1.774775
9273.000000;1.769909
9272.000000;1.766368
9271.000000;1.765310
9270.000000;1.766466
9269.000000;1.767775
9268.000000;1.767847
9267.000000;1.767848
9266.000000;1.769462
9265.000000;1.771864
9264.000000;1.772681
9263.000000;1.771702
9262.000000;1.771237
9261.000000;1.772654
9260.000000;1.774814
9259.000000;1.775997
9258.000000;1.775501
9257.000000;1.773262
9256.000000;1.769737
9255.000000;1.766837
9254.000000;1.767248
9253.000000;1.771444
9252.000000;1.776330
9251.000000;1.778337
9250.000000;1.777354
9249.000000;1.776076
9248.000000;1.776239
9247.000000;1.777049
9246.000000;1.776477
9245.000000;1.772914
9244.000000;1.766728
9243.000000;1.760766
9242.000000;1.758209
9241.000000;1.759971
9240.000000;1.764406
9239.000000;1.768740
9238.000000;1.770648
9237.000000;1.769299
9236.000000;1.766050
9235.000000;1.764178
9234.000000;1.766516
9233.000000;1.772396
9232.000000;1.777619
9231.000000;1.778764
9230.000000;1.777155
9229.000000;1.777245
9228.000000;1.781672
9227.000000;1.788673
9226.000000;1.793592
9225.000000;1.792464
9224.000000;1.784978
9223.000000;1.774802
9222.000000;1.766946
9221.000000;1.764372
9220.000000;1.766520
9219.000000;1.770312
9218.000000;1.772339
9217.000000;1.771110
9216.000000;1.768228
9215.000000;1.767094
9214.000000;1.769611
9213.000000;1.773911
9212.000000;1.776321
9211.000000;1.776066
9210.000000;1.776146
9209.000000;1.778752
9208.000000;1.781981
9207.000000;1.782567
9206.000000;1.780369
9205.000000;1.777785
9204.000000;1.776057
9203.000000;1.774764
9202.000000;1.774077
9201.000000;1.774823
9200.000000;1.775834
9199.000000;1.773777
9198.000000;1.767253
9197.000000;1.759441
9196.000000;1.755159
9195.000000;1.756271
9194.000000;1.760527
9193.000000;1.764004
9192.000000;1.764120
9191.000000;1.761078
9190.000000;1.757462
9189.000000;1.756261
9188.000000;1.758434
9187.000000;1.762184
9186.000000;1.765094
9185.000000;1.766725
9184.000000;1.768193
9183.000000;1.769683
9182.000000;1.769916
9181.000000;1.768159
9180.000000;1.765412
9179.000000;1.763011
9178.000000;1.761071
9177.000000;1.758998
9176.000000;1.756725
9175.000000;1.754615
9174.000000;1.752617
9173.000000;1.750561
9172.000000;1.749139
9171.000000;1.749329
9170.000000;1.750717
9169.000000;1.751824
9168.000000;1.752392
9167.000000;1.753947
9166.000000;1.757428
9165.000000;1.761425
9164.000000;1.763947
9163.000000;1.765129
9162.000000;1.766293
9161.000000;1.766730
9160.000000;1.763716
9159.000000;1.756513
9158.000000;1.748601
9157.000000;1.744769
9156.000000;1.746866
9155.000000;1.752449
9154.000000;1.756972
9153.000000;1.757700
9152.000000;1.755990
9151.000000;1.755402
9150.000000;1.757478
9149.000000;1.760050
9148.000000;1.760226
9147.000000;1.758144
9146.000000;1.755851
9145.000000;1.753647
9144.000000;1.750559
9143.000000;1.747452
9142.000000;1.746572
9141.000000;1.748226
9140.000000;1.749931
9139.000000;1.749679
9138.000000;1.748479
9137.000000;1.748036
9136.000000;1.747709
9135.000000;1.745735
9134.000000;1.742551
9133.000000;1.740652
9132.000000;1.741301
9131.000000;1.743477
9130.000000;1.746066
9129.000000;1.749209
9128.000000;1.752930
9127.000000;1.755948
9126.000000;1.756972
9125.000000;1.756532
9124.000000;1.756698
9123.000000;1.759108
9122.000000;1.763237
9121.000000;1.766353
9120.000000;1.765788
9119.000000;1.761905
9118.000000;1.757913
9117.000000;1.756061
9116.000000;1.755238
9115.000000;1.753253
9114.000000;1.750451
9113.000000;1.749601
9112.000000;1.752259
9111.000000;1.756455
9110.000000;1.758681
9109.000000;1.757936
9108.000000;1.756605
9107.000000;1.757134
9106.000000;1.758790
9105.000000;1.758340
9104.000000;1.754287
9103.000000;1.749418
9102.000000;1.747723
9101.000000;1.749483
9100.000000;1.750795
9099.000000;1.748224
9098.000000;1.742753
9097.000000;1.738168
9096.000000;1.736822
9095.000000;1.738153
9094.000000;1.740336
9093.000000;1.742268
9092.000000;1.744178
9091.000000;1.747046
9090.000000;1.751328
9089.000000;1.755785
9088.000000;1.758117
9087.000000;1.757440
9086.000000;1.755076
9085.000000;1.752334
9084.000000;1.749144
9083.000000;1.745691
9082.000000;1.743543
9081.000000;1.743691
9080.000000;1.744888
9079.000000;1.745444
9078.000000;1.745810
9077.000000;1.747622
9076.000000;1.750477
9075.000000;1.751845
9074.000000;1.750618
9073.000000;1.748578
9072.000000;1.747758
9071.000000;1.748468
9070.000000;1.750378
9069.000000;1.753425
9068.000000;1.756731
9067.000000;1.758484
9066.000000;1.758268
9065.000000;1.757846
9064.000000;1.758250
9063.000000;1.757829
9062.000000;1.754724
9061.000000;1.749941
9060.000000;1.746195
9059.000000;1.744534
9058.000000;1.743619
9057.000000;1.742046
9056.000000;1.739988
9055.000000;1.738608
9054.000000;1.739088
9053.000000;1.741859
