Criado como novo conjunto de dados;"e0108.spp","-4277324.4 Secs"
cm-1;Abs
10000.000000;1.086209
9999.000000;1.085316
9998.000000;1.084744
9997.000000;1.084749
9996.000000;1.085469
9995.000000;1.086803
9994.000000;1.088225
9993.000000;1.089088
9992.000000;1.089110
9991.000000;1.088542
9990.000000;1.087745
9989.000000;1.086726
9988.000000;1.085178
9987.000000;1.082975
9986.000000;1.080585
9985.000000;1.078843
9984.000000;1.078193
9983.000000;1.078279
9982.000000;1.078439
9981.000000;1.078494
9980.000000;1.078757
9979.000000;1.079311
9978.000000;1.079687
9977.000000;1.079464
9976.000000;1.078793
9975.000000;1.078001
9974.000000;1.076966
9973.000000;1.075332
9972.000000;1.073261
9971.000000;1.071559
9970.000000;1.071034
9969.000000;1.071880
9968.000000;1.073600
9967.000000;1.075305
9966.000000;1.076074
9965.000000;1.075350
9964.000000;1.073258
9963.000000;1.070559
9962.000000;1.068223
9961.000000;1.066956
9960.000000;1.066937
9959.000000;1.067834
9958.000000;1.069065
9957.000000;1.070212
9956.000000;1.071227
9955.000000;1.072172
9954.000000;1.072806
9953.000000;1.072652
9952.000000;1.071572
9951.000000;1.070095
9950.000000;1.068984
9949.000000;1.068523
9948.000000;1.068387
9947.000000;1.068200
9946.000000;1.067946
9945.000000;1.067747
9944.000000;1.067518
9943.000000;1.067145
9942.000000;1.066826
9941.000000;1.066850
9940.000000;1.066996
9939.000000;1.066551
9938.000000;1.065177
9937.000000;1.063523
9936.000000;1.062647
9935.000000;1.063010
9934.000000;1.064255
9933.000000;1.065601
9932.000000;1.066139
9931.000000;1.065180
9930.000000;1.063015
9929.000000;1.061160
9928.000000;1.061106
9927.000000;1.062638
9926.000000;1.063822
9925.000000;1.062925
9924.000000;1.060132
9923.000000;1.057105
9922.000000;1.055278
9921.000000;1.054968
9920.000000;1.055709
9919.000000;1.056887
9918.000000;1.058081
9917.000000;1.059092
9916.000000;1.059801
9915.000000;1.060046
9914.000000;1.059736
9913.000000;1.059021
9912.000000;1.058163
9911.000000;1.057272
9910.000000;1.056423
9909.000000;1.055966
9908.000000;1.056303
9907.000000;1.057229
9906.000000;1.057861
9905.000000;1.057440
9904.000000;1.055973
9903.000000;1.054033
9902.000000;1.052294
9901.000000;1.051284
9900.000000;1.051094
9899.000000;1.051084
9898.000000;1.050383
9897.000000;1.048973
9896.000000;1.047844
9895.000000;1.047740
9894.000000;1.048307
9893.000000;1.048887
9892.000000;1.049523
9891.000000;1.050456
9890.000000;1.051100
9889.000000;1.050475
9888.000000;1.048621
9887.000000;1.046775
9886.000000;1.046012
9885.000000;1.046279
9884.000000;1.046744
9883.000000;1.046540
9882.000000;1.045243
9881.000000;1.043317
9880.000000;1.042100
9879.000000;1.042667
9878.000000;1.044487
9877.000000;1.045806
9876.000000;1.045624
9875.000000;1.044628
9874.000000;1.043884
9873.000000;1.043450
9872.000000;1.042853
9871.000000;1.042192
9870.000000;1.041926
9869.000000;1.041944
9868.000000;1.041722
9867.000000;1.041320
9866.000000;1.041404
9865.000000;1.042101
9864.000000;1.042548
9863.000000;1.041955
9862.000000;1.040730
9861.000000;1.040097
9860.000000;1.040742
9859.000000;1.042136
9858.000000;1.043105
9857.000000;1.042894
9856.000000;1.041731
9855.000000;1.040508
9854.000000;1.039936
9853.000000;1.039992
9852.000000;1.040142
9851.000000;1.039962
9850.000000;1.039404
9849.000000;1.038506
9848.000000;1.037128
9847.000000;1.035187
9846.000000;1.033022
9845.000000;1.031343
9844.000000;1.030824
9843.000000;1.031740
9842.000000;1.033807
9841.000000;1.036142
9840.000000;1.037559
9839.000000;1.037335
9838.000000;1.035824
9837.000000;1.034081
9836.000000;1.032772
9835.000000;1.031653
9834.000000;1.030166
9833.000000;1.028295
9832.000000;1.026638
9831.000000;1.025856
9830.000000;1.026259
9829.000000;1.027750
9828.000000;1.029795
9827.000000;1.031466
9826.000000;1.031932
9825.000000;1.031082
9824.000000;1.029552
9823.000000;1.028089
9822.000000;1.026952
9821.000000;1.025914
9820.000000;1.024737
9819.000000;1.023637
9818.000000;1.023270
9817.000000;1.024133
9816.000000;1.025895
9815.000000;1.027510
9814.000000;1.028160
9813.000000;1.027832
9812.000000;1.026748
9811.000000;1.024758
9810.000000;1.021939
9809.000000;1.019402
9808.000000;1.018548
9807.000000;1.019441
9806.000000;1.020681
9805.000000;1.021080
9804.000000;1.020781
9803.000000;1.020373
9802.000000;1.019723
9801.000000;1.018421
9800.000000;1.016888
9799.000000;1.016229
9798.000000;1.017010
9797.000000;1.018700
9796.000000;1.020317
9795.000000;1.021232
9794.000000;1.021359
9793.000000;1.020964
9792.000000;1.020418
9791.000000;1.019950
9790.000000;1.019605
9789.000000;1.019452
9788.000000;1.019604
9787.000000;1.019876
9786.000000;1.019708
9785.000000;1.018728
9784.000000;1.017172
9783.000000;1.015500
9782.000000;1.013941
9781.000000;1.012724
9780.000000;1.012310
9779.000000;1.012789
9778.000000;1.013327
9777.000000;1.012934
9776.000000;1.011826
9775.000000;1.011313
9774.000000;1.012134
9773.000000;1.013494
9772.000000;1.014065
9771.000000;1.013520
9770.000000;1.012603
9769.000000;1.011912
9768.000000;1.011181
9767.000000;1.009873
9766.000000;1.008105
9765.000000;1.006661
9764.000000;1.006129
9763.000000;1.006291
9762.000000;1.006471
9761.000000;1.006337
9760.000000;1.006140
9759.000000;1.006250
9758.000000;1.006731
9757.000000;1.007372
9756.000000;1.007822
9755.000000;1.007678
9754.000000;1.006784
9753.000000;1.005552
9752.000000;1.004634
9751.000000;1.004172
9750.000000;1.003796
9749.000000;1.003452
9748.000000;1.003600
9747.000000;1.004281
9746.000000;1.004707
9745.000000;1.004338
9744.000000;1.003736
9743.000000;1.003623
9742.000000;1.003592
9741.000000;1.002758
9740.000000;1.001375
9739.000000;1.000696
9738.000000;1.001217
9737.000000;1.002109
9736.000000;1.002548
9735.000000;1.002685
9734.000000;1.002939
9733.000000;1.003214
9732.000000;1.003328
9731.000000;1.003474
9730.000000;1.003661
9729.000000;1.003299
9728.000000;1.001972
9727.000000;1.000190
9726.000000;0.998797
9725.000000;0.998019
9724.000000;0.997615
9723.000000;0.997521
9722.000000;0.997681
9721.000000;0.997547
9720.000000;0.996566
9719.000000;0.995105
9718.000000;0.994193
9717.000000;0.994326
9716.000000;0.995033
9715.000000;0.995687
9714.000000;0.996137
9713.000000;0.996415
9712.000000;0.996345
9711.000000;0.995769
9710.000000;0.994841
9709.000000;0.993842
9708.000000;0.992927
9707.000000;0.992260
9706.000000;0.992116
9705.000000;0.992550
9704.000000;0.993061
9703.000000;0.992935
9702.000000;0.991935
9701.000000;0.990503
9700.000000;0.989300
9699.000000;0.988738
9698.000000;0.988903
9697.000000;0.989680
9696.000000;0.990828
9695.000000;0.992054
9694.000000;0.993164
9693.000000;0.994100
9692.000000;0.994737
9691.000000;0.994688
9690.000000;0.993489
9689.000000;0.991073
9688.000000;0.988032
9687.000000;0.985327
9686.000000;0.983674
9685.000000;0.983143
9684.000000;0.983278
9683.000000;0.983603
9682.000000;0.984006
9681.000000;0.984596
9680.000000;0.985232
9679.000000;0.985410
9678.000000;0.984841
9677.000000;0.983994
9676.000000;0.983686
9675.000000;0.984072
9674.000000;0.984395
9673.000000;0.983939
9672.000000;0.982914
9671.000000;0.982108
9670.000000;0.981874
9669.000000;0.981840
9668.000000;0.981526
9667.000000;0.980864
9666.000000;0.980052
9665.000000;0.979275
9664.000000;0.978722
9663.000000;0.978605
9662.000000;0.978891
9661.000000;0.979144
9660.000000;0.978854
9659.000000;0.977955
9658.000000;0.976852
9657.000000;0.975923
9656.000000;0.975160
9655.000000;0.974378
9654.000000;0.973698
9653.000000;0.973607
9652.000000;0.974438
9651.000000;0.975923
9650.000000;0.977377
9649.000000;0.978248
9648.000000;0.978378
9647.000000;0.977860
9646.000000;0.976915
9645.000000;0.975896
9644.000000;0.975128
9643.000000;0.974612
9642.000000;0.974054
9641.000000;0.973222
9640.000000;0.972093
9639.000000;0.970702
9638.000000;0.969192
9637.000000;0.968045
9636.000000;0.967824
9635.000000;0.968469
9634.000000;0.969228
9633.000000;0.969506
9632.000000;0.969459
9631.000000;0.969461
9630.000000;0.969403
9629.000000;0.968984
9628.000000;0.968392
9627.000000;0.968125
9626.000000;0.968273
9625.000000;0.968478
9624.000000;0.968490
9623.000000;0.968295
9622.000000;0.967783
9621.000000;0.966855
9620.000000;0.965908
9619.000000;0.965650
9618.000000;0.966233
9617.000000;0.967008
9616.000000;0.967324
9615.000000;0.967211
9614.000000;0.967074
9613.000000;0.967039
9612.000000;0.966905
9611.000000;0.966516
9610.000000;0.965934
9609.000000;0.965311
9608.000000;0.964756
9607.000000;0.964297
9606.000000;0.963830
9605.000000;0.963166
9604.000000;0.962191
9603.000000;0.961011
9602.000000;0.959969
9601.000000;0.959517
9600.000000;0.959914
9599.000000;0.960902
9598.000000;0.961800
9597.000000;0.962123
9596.000000;0.962030
9595.000000;0.962025
9594.000000;0.962302
9593.000000;0.962566
9592.000000;0.962347
9591.000000;0.961322
9590.000000;0.959473
9589.000000;0.957249
9588.000000;0.955449
9587.000000;0.954602
9586.000000;0.954499
9585.000000;0.954618
9584.000000;0.954907
9583.000000;0.955740
9582.000000;0.957104
9581.000000;0.958281
9580.000000;0.958475
9579.000000;0.957503
9578.000000;0.955838
9577.000000;0.954256
9576.000000;0.953424
9575.000000;0.953461
9574.000000;0.953825
9573.000000;0.953945
9572.000000;0.953984
9571.000000;0.954556
9570.000000;0.955678
9569.000000;0.956481
9568.000000;0.956156
9567.000000;0.954803
9566.000000;0.953170
9565.000000;0.951952
9564.000000;0.951564
9563.000000;0.952149
9562.000000;0.953387
9561.000000;0.954548
9560.000000;0.955056
9559.000000;0.954826
9558.000000;0.953940
9557.000000;0.952386
9556.000000;0.950475
9555.000000;0.949132
9554.000000;0.949183
9553.000000;0.950374
9552.000000;0.951485
9551.000000;0.951535
9550.000000;0.950681
9549.000000;0.949933
9548.000000;0.950172
9547.000000;0.951381
9546.000000;0.952613
9545.000000;0.952734
9544.000000;0.951374
9543.000000;0.949154
9542.000000;0.946972
9541.000000;0.945225
9540.000000;0.943844
9539.000000;0.942814
9538.000000;0.942350
9537.000000;0.942585
9536.000000;0.943317
9535.000000;0.944127
9534.000000;0.944677
9533.000000;0.944862
9532.000000;0.944753
9531.000000;0.944460
9530.000000;0.944048
9529.000000;0.943605
9528.000000;0.943300
9527.000000;0.943260
9526.000000;0.943397
9525.000000;0.943473
9524.000000;0.943327
9523.000000;0.942881
9522.000000;0.942009
9521.000000;0.940705
9520.000000;0.939439
9519.000000;0.938974
9518.000000;0.939541
9517.000000;0.940426
9516.000000;0.940737
9515.000000;0.940462
9514.000000;0.940385
9513.000000;0.940950
9512.000000;0.941590
9511.000000;0.941407
9510.000000;0.940307
9509.000000;0.939138
9508.000000;0.938657
9507.000000;0.938657
9506.000000;0.938300
9505.000000;0.937229
9504.000000;0.936047
9503.000000;0.935613
9502.000000;0.936095
9501.000000;0.936861
9500.000000;0.937159
9499.000000;0.936703
9498.000000;0.935767
9497.000000;0.934966
9496.000000;0.934851
9495.000000;0.935419
9494.000000;0.935994
9493.000000;0.935886
9492.000000;0.935211
9491.000000;0.934789
9490.000000;0.935186
9489.000000;0.936111
9488.000000;0.936790
9487.000000;0.936653
9486.000000;0.935619
9485.000000;0.934051
9484.000000;0.932678
9483.000000;0.932261
9482.000000;0.932977
9481.000000;0.934143
9480.000000;0.934753
9479.000000;0.934315
9478.000000;0.933151
9477.000000;0.931983
9476.000000;0.931320
9475.000000;0.931127
9474.000000;0.930955
9473.000000;0.930429
9472.000000;0.929668
9471.000000;0.929159
9470.000000;0.929225
9469.000000;0.929794
9468.000000;0.930669
9467.000000;0.931766
9466.000000;0.932930
9465.000000;0.933691
9464.000000;0.933444
9463.000000;0.931915
9462.000000;0.929473
9461.000000;0.927071
9460.000000;0.925814
9459.000000;0.926238
9458.000000;0.927755
9457.000000;0.928965
9456.000000;0.928819
9455.000000;0.927528
9454.000000;0.926236
9453.000000;0.925865
9452.000000;0.926387
9451.000000;0.927098
9450.000000;0.927393
9449.000000;0.927219
9448.000000;0.926868
9447.000000;0.926551
9446.000000;0.926299
9445.000000;0.926169
9444.000000;0.926292
9443.000000;0.926566
9442.000000;0.926531
9441.000000;0.925797
9440.000000;0.924536
9439.000000;0.923351
9438.000000;0.922688
9437.000000;0.922531
9436.000000;0.922614
9435.000000;0.922694
9434.000000;0.922625
9433.000000;0.922362
9432.000000;0.921938
9431.000000;0.921327
9430.000000;0.920448
9429.000000;0.919479
9428.000000;0.918976
9427.000000;0.919332
9426.000000;0.920216
9425.000000;0.920921
9424.000000;0.921213
9423.000000;0.921404
9422.000000;0.921597
9421.000000;0.921405
9420.000000;0.920588
9419.000000;0.919503
9418.000000;0.918662
9417.000000;0.918208
9416.000000;0.918066
9415.000000;0.918212
9414.000000;0.918485
9413.000000;0.918460
9412.000000;0.917847
9411.000000;0.916820
9410.000000;0.915716
9409.000000;0.914674
9408.000000;0.913860
9407.000000;0.913756
9406.000000;0.914729
9405.000000;0.916325
9404.000000;0.917442
9403.000000;0.917330
9402.000000;0.916221
9401.000000;0.914902
9400.000000;0.913916
9399.000000;0.913273
9398.000000;0.912823
9397.000000;0.912710
9396.000000;0.913300
9395.000000;0.914655
9394.000000;0.916241
9393.000000;0.917392
9392.000000;0.917948
9391.000000;0.918154
9390.000000;0.918002
9389.000000;0.917125
9388.000000;0.915469
9387.000000;0.913704
9386.000000;0.912718
9385.000000;0.912871
9384.000000;0.913783
9383.000000;0.914585
9382.000000;0.914346
9381.000000;0.912754
9380.000000;0.910605
9379.000000;0.909239
9378.000000;0.909209
9377.000000;0.909850
9376.000000;0.910348
9375.000000;0.910769
9374.000000;0.911555
9373.000000;0.912450
9372.000000;0.912637
9371.000000;0.911847
9370.000000;0.910713
9369.000000;0.909952
9368.000000;0.909692
9367.000000;0.909628
9366.000000;0.909393
9365.000000;0.908720
9364.000000;0.907614
9363.000000;0.906527
9362.000000;0.906082
9361.000000;0.906476
9360.000000;0.907308
9359.000000;0.908049
9358.000000;0.908448
9357.000000;0.908497
9356.000000;0.908299
9355.000000;0.908081
9354.000000;0.908070
9353.000000;0.908233
9352.000000;0.908304
9351.000000;0.908136
9350.000000;0.907772
9349.000000;0.907146
9348.000000;0.906032
9347.000000;0.904497
9346.000000;0.903130
9345.000000;0.902532
9344.000000;0.902693
9343.000000;0.903085
9342.000000;0.903294
9341.000000;0.903339
9340.000000;0.903420
9339.000000;0.903617
9338.000000;0.903925
9337.000000;0.904399
9336.000000;0.905046
9335.000000;0.905655
9334.000000;0.905886
9333.000000;0.905579
9332.000000;0.904886
9331.000000;0.904079
9330.000000;0.903296
9329.000000;0.902505
9328.000000;0.901631
9327.000000;0.900681
9326.000000;0.899815
9325.000000;0.899305
9324.000000;0.899301
9323.000000;0.899556
9322.000000;0.899585
9321.000000;0.899271
9320.000000;0.899175
9319.000000;0.899933
9318.000000;0.901378
9317.000000;0.902510
9316.000000;0.902427
9315.000000;0.901109
9314.000000;0.899265
9313.000000;0.897686
9312.000000;0.896805
9311.000000;0.896576
9310.000000;0.896628
9309.000000;0.896651
9308.000000;0.896735
9307.000000;0.897131
9306.000000;0.897716
9305.000000;0.897996
9304.000000;0.897747
9303.000000;0.897315
9302.000000;0.897110
9301.000000;0.897085
9300.000000;0.896950
9299.000000;0.896681
9298.000000;0.896540
9297.000000;0.896708
9296.000000;0.897134
9295.000000;0.897615
9294.000000;0.897844
9293.000000;0.897561
9292.000000;0.896879
9291.000000;0.896313
9290.000000;0.896224
9289.000000;0.896321
9288.000000;0.895982
9287.000000;0.895026
9286.000000;0.893918
9285.000000;0.893241
9284.000000;0.893214
9283.000000;0.893680
9282.000000;0.894300
9281.000000;0.894687
9280.000000;0.894536
9279.000000;0.893817
9278.000000;0.892821
9277.000000;0.891992
9276.000000;0.891655
9275.000000;0.891828
9274.000000;0.892265
9273.000000;0.892704
9272.000000;0.893032
9271.000000;0.893157
9270.000000;0.892865
9269.000000;0.892084
9268.000000;0.891239
9267.000000;0.890939
9266.000000;0.891194
9265.000000;0.891285
9264.000000;0.890671
9263.000000;0.889738
9262.000000;0.889350
9261.000000;0.889856
9260.000000;0.890828
9259.000000;0.891564
9258.000000;0.891554
9257.000000;0.890634
9256.000000;0.889112
9255.000000;0.887713
9254.000000;0.887105
9253.000000;0.887384
9252.000000;0.888128
9251.000000;0.888824
9250.000000;0.889108
9249.000000;0.888772
9248.000000;0.887837
9247.000000;0.886598
9246.000000;0.885394
9245.000000;0.884423
9244.000000;0.883889
9243.000000;0.884106
9242.000000;0.885145
9241.000000;0.886501
9240.000000;0.887484
9239.000000;0.887901
9238.000000;0.888075
9237.000000;0.888224
9236.000000;0.888166
9235.000000;0.887676
9234.000000;0.886830
9233.000000;0.885929
9232.000000;0.885301
9231.000000;0.885203
9230.000000;0.885663
9229.000000;0.886328
9228.000000;0.886636
9227.000000;0.886309
9226.000000;0.885615
9225.000000;0.885123
9224.000000;0.885257
9223.000000;0.885955
9222.000000;0.886653
9221.000000;0.886746
9220.000000;0.886207
9219.000000;0.885645
9218.000000;0.885579
9217.000000;0.885842
9216.000000;0.885925
9215.000000;0.885708
9214.000000;0.885484
9213.000000;0.885377
9212.000000;0.885186
9211.000000;0.884766
9210.000000;0.884201
9209.000000;0.883604
9208.000000;0.883105
9207.000000;0.883052
9206.000000;0.883775
9205.000000;0.885009
9204.000000;0.885867
9203.000000;0.885617
9202.000000;0.884329
9201.000000;0.882670
9200.000000;0.881314
9199.000000;0.880600
9198.000000;0.880485
9197.000000;0.880619
9196.000000;0.880645
9195.000000;0.880571
9194.000000;0.880708
9193.000000;0.881187
9192.000000;0.881741
9191.000000;0.882060
9190.000000;0.882141
9189.000000;0.882166
9188.000000;0.882225
9187.000000;0.882311
9186.000000;0.882411
9185.000000;0.882437
9184.000000;0.882145
9183.000000;0.881313
9182.000000;0.879984
9181.000000;0.878533
9180.000000;0.877518
9179.000000;0.877396
9178.000000;0.878167
9177.000000;0.879271
9176.000000;0.879961
9175.000000;0.879877
9174.000000;0.879185
9173.000000;0.878263
9172.000000;0.877489
9171.000000;0.877248
9170.000000;0.877735
9169.000000;0.878623
9168.000000;0.879194
9167.000000;0.879033
9166.000000;0.878396
9165.000000;0.877755
9164.000000;0.877209
9163.000000;0.876604
9162.000000;0.876018
9161.000000;0.875770
9160.000000;0.875962
9159.000000;0.876294
9158.000000;0.876447
9157.000000;0.876470
9156.000000;0.876619
9155.000000;0.876857
9154.000000;0.876720
9153.000000;0.875878
9152.000000;0.874765
9151.000000;0.874364
9150.000000;0.875189
9149.000000;0.876651
9148.000000;0.877614
9147.000000;0.877469
9146.000000;0.876497
9145.000000;0.875333
9144.000000;0.874430
9143.000000;0.874001
9142.000000;0.874056
9141.000000;0.874363
9140.000000;0.874617
9139.000000;0.874781
9138.000000;0.875026
9137.000000;0.875278
9136.000000;0.875133
9135.000000;0.874391
9134.000000;0.873410
9133.000000;0.872718
9132.000000;0.872479
9131.000000;0.872489
9130.000000;0.872503
9129.000000;0.872402
9128.000000;0.872206
9127.000000;0.872114
9126.000000;0.872379
9125.000000;0.872957
9124.000000;0.873396
9123.000000;0.873213
9122.000000;0.872344
9121.000000;0.871126
9120.000000;0.870027
9119.000000;0.869473
9118.000000;0.869665
9117.000000;0.870328
9116.000000;0.870857
9115.000000;0.870907
9114.000000;0.870696
9113.000000;0.870496
9112.000000;0.870118
9111.000000;0.869290
9110.000000;0.868360
9109.000000;0.868088
9108.000000;0.868702
9107.000000;0.869607
9106.000000;0.870174
9105.000000;0.870415
9104.000000;0.870648
9103.000000;0.870807
9102.000000;0.870521
9101.000000;0.869751
9100.000000;0.868992
9099.000000;0.868756
9098.000000;0.869061
9097.000000;0.869498
9096.000000;0.869699
9095.000000;0.869686
9094.000000;0.869788
9093.000000;0.870252
9092.000000;0.870940
9091.000000;0.871413
9090.000000;0.871341
9089.000000;0.870770
9088.000000;0.869977
9087.000000;0.869173
9086.000000;0.868457
9085.000000;0.867978
9084.000000;0.867882
9083.000000;0.868054
9082.000000;0.868087
9081.000000;0.867690
9080.000000;0.867064
9079.000000;0.866724
9078.000000;0.866956
9077.000000;0.867553
9076.000000;0.868066
9075.000000;0.868156
9074.000000;0.867744
9073.000000;0.867001
9072.000000;0.866269
9071.000000;0.865819
9070.000000;0.865609
9069.000000;0.865372
9068.000000;0.865007
9067.000000;0.864713
9066.000000;0.864630
9065.000000;0.864552
9064.000000;0.864208
9063.000000;0.863733
9062.000000;0.863600
9061.000000;0.864092
9060.000000;0.865035
9059.000000;0.866021
9058.000000;0.866703
9057.000000;0.866862
9056.000000;0.866420
9055.000000;0.865498
9054.000000;0.864375
9053.000000;0.863357
