Criado como novo conjunto de dados;"e0108.spp","-4226741.7 Secs"
cm-1;Abs
10000.000000;1.902048
9999.000000;1.904983
9998.000000;1.908937
9997.000000;1.909986
9996.000000;1.906406
9995.000000;1.901865
9994.000000;1.898687
9993.000000;1.895618
9992.000000;1.891501
9991.000000;1.888581
9990.000000;1.889412
9989.000000;1.893046
9988.000000;1.895737
9987.000000;1.895212
9986.000000;1.892753
9985.000000;1.891884
9984.000000;1.895469
9983.000000;1.902898
9982.000000;1.910114
9981.000000;1.912659
9980.000000;1.909177
9979.000000;1.902206
9978.000000;1.895348
9977.000000;1.890306
9976.000000;1.886948
9975.000000;1.885399
9974.000000;1.886700
9973.000000;1.890896
9972.000000;1.894840
9971.000000;1.893468
9970.000000;1.885637
9969.000000;1.877222
9968.000000;1.875029
9967.000000;1.879121
9966.000000;1.883485
9965.000000;1.883836
9964.000000;1.881833
9963.000000;1.880344
9962.000000;1.878790
9961.000000;1.875771
9960.000000;1.872960
9959.000000;1.873177
9958.000000;1.876262
9957.000000;1.879276
9956.000000;1.880219
9955.000000;1.879456
9954.000000;1.877676
9953.000000;1.874790
9952.000000;1.871066
9951.000000;1.867828
9950.000000;1.866838
9949.000000;1.869600
9948.000000;1.876665
9947.000000;1.886250
9946.000000;1.893803
9945.000000;1.894839
9944.000000;1.889108
9943.000000;1.880604
9942.000000;1.873231
9941.000000;1.867731
9940.000000;1.862402
9939.000000;1.855965
9938.000000;1.850290
9937.000000;1.849968
9936.000000;1.857649
9935.000000;1.869808
9934.000000;1.878766
9933.000000;1.880307
9932.000000;1.877799
9931.000000;1.876909
9930.000000;1.878896
9929.000000;1.881287
9928.000000;1.882647
9927.000000;1.883583
9926.000000;1.884327
9925.000000;1.884635
9924.000000;1.885625
9923.000000;1.888686
9922.000000;1.892180
9921.000000;1.892046
9920.000000;1.886837
9919.000000;1.879156
9918.000000;1.871444
9917.000000;1.863834
9916.000000;1.856642
9915.000000;1.851979
9914.000000;1.851440
9913.000000;1.853725
9912.000000;1.855907
9911.000000;1.856663
9910.000000;1.857165
9909.000000;1.858632
9908.000000;1.859842
9907.000000;1.857699
9906.000000;1.850715
9905.000000;1.842012
9904.000000;1.837642
9903.000000;1.841095
9902.000000;1.850023
9901.000000;1.858649
9900.000000;1.862653
9899.000000;1.860944
9898.000000;1.854705
9897.000000;1.847345
9896.000000;1.844129
9895.000000;1.849074
9894.000000;1.860560
9893.000000;1.870914
9892.000000;1.872742
9891.000000;1.866285
9890.000000;1.858407
9889.000000;1.854987
9888.000000;1.856881
9887.000000;1.861126
9886.000000;1.863481
9885.000000;1.860856
9884.000000;1.853392
9883.000000;1.844731
9882.000000;1.839720
9881.000000;1.841005
9880.000000;1.846739
9879.000000;1.851311
9878.000000;1.849537
9877.000000;1.841370
9876.000000;1.832111
9875.000000;1.827720
9874.000000;1.830244
9873.000000;1.837030
9872.000000;1.843501
9871.000000;1.846698
9870.000000;1.846610
9869.000000;1.844817
9868.000000;1.842276
9867.000000;1.838883
9866.000000;1.835486
9865.000000;1.834793
9864.000000;1.839305
9863.000000;1.848505
9862.000000;1.858193
9861.000000;1.863432
9860.000000;1.862297
9859.000000;1.856320
9858.000000;1.848630
9857.000000;1.842576
9856.000000;1.840505
9855.000000;1.842149
9854.000000;1.844122
9853.000000;1.842466
9852.000000;1.836570
9851.000000;1.829792
9850.000000;1.825952
9849.000000;1.826281
9848.000000;1.829498
9847.000000;1.833268
9846.000000;1.835597
9845.000000;1.835779
9844.000000;1.834213
9843.000000;1.831463
9842.000000;1.827846
9841.000000;1.824188
9840.000000;1.822268
9839.000000;1.823238
9838.000000;1.826199
9837.000000;1.829013
9836.000000;1.829914
9835.000000;1.828580
9834.000000;1.826673
9833.000000;1.827109
9832.000000;1.831447
9831.000000;1.837585
9830.000000;1.841129
9829.000000;1.839704
9828.000000;1.834676
9827.000000;1.828523
9826.000000;1.822822
9825.000000;1.819210
9824.000000;1.819599
9823.000000;1.823573
9822.000000;1.827107
9821.000000;1.826154
9820.000000;1.820912
9819.000000;1.814457
9818.000000;1.808838
9817.000000;1.805205
9816.000000;1.805680
9815.000000;1.811629
9814.000000;1.820540
9813.000000;1.827548
9812.000000;1.830588
9811.000000;1.831581
9810.000000;1.832359
9809.000000;1.832784
9808.000000;1.832781
9807.000000;1.832455
9806.000000;1.830343
9805.000000;1.825236
9804.000000;1.819682
9803.000000;1.817852
9802.000000;1.819561
9801.000000;1.819875
9800.000000;1.815877
9799.000000;1.810654
9798.000000;1.808164
9797.000000;1.807650
9796.000000;1.806566
9795.000000;1.806121
9794.000000;1.809602
9793.000000;1.816532
9792.000000;1.822381
9791.000000;1.824451
9790.000000;1.824886
9789.000000;1.826844
9788.000000;1.829976
9787.000000;1.831038
9786.000000;1.828051
9785.000000;1.822446
9784.000000;1.817513
9783.000000;1.815622
9782.000000;1.816568
9781.000000;1.818209
9780.000000;1.819049
9779.000000;1.819802
9778.000000;1.821627
9777.000000;1.823473
9776.000000;1.822847
9775.000000;1.819729
9774.000000;1.817439
9773.000000;1.818265
9772.000000;1.820308
9771.000000;1.820177
9770.000000;1.817900
9769.000000;1.816762
9768.000000;1.818244
9767.000000;1.819733
9766.000000;1.818184
9765.000000;1.814002
9764.000000;1.809221
9763.000000;1.803982
9762.000000;1.798022
9761.000000;1.794192
9760.000000;1.796759
9759.000000;1.805669
9758.000000;1.814904
9757.000000;1.818531
9756.000000;1.816993
9755.000000;1.814565
9754.000000;1.812765
9753.000000;1.809993
9752.000000;1.806116
9751.000000;1.803874
9750.000000;1.805609
9749.000000;1.810646
9748.000000;1.816139
9747.000000;1.818946
9746.000000;1.816732
9745.000000;1.809558
9744.000000;1.800845
9743.000000;1.794766
9742.000000;1.792229
9741.000000;1.790871
9740.000000;1.789147
9739.000000;1.788330
9738.000000;1.789555
9737.000000;1.791161
9736.000000;1.790964
9735.000000;1.790009
9734.000000;1.791596
9733.000000;1.796971
9732.000000;1.803620
9731.000000;1.807741
9730.000000;1.807610
9729.000000;1.804353
9728.000000;1.800259
9727.000000;1.796644
9726.000000;1.793090
9725.000000;1.789105
9724.000000;1.786040
9723.000000;1.785879
9722.000000;1.788289
9721.000000;1.790474
9720.000000;1.790443
9719.000000;1.789233
9718.000000;1.789259
9717.000000;1.791622
9716.000000;1.795775
9715.000000;1.800639
9714.000000;1.804749
9713.000000;1.806162
9712.000000;1.804004
9711.000000;1.800372
9710.000000;1.799111
9709.000000;1.801609
9708.000000;1.804725
9707.000000;1.803885
9706.000000;1.798302
9705.000000;1.792087
9704.000000;1.789725
9703.000000;1.791688
9702.000000;1.794766
9701.000000;1.795630
9700.000000;1.793530
9699.000000;1.790069
9698.000000;1.787349
9697.000000;1.786540
9696.000000;1.787273
9695.000000;1.787940
9694.000000;1.787091
9693.000000;1.784630
9692.000000;1.781249
9691.000000;1.777244
9690.000000;1.773113
9689.000000;1.770803
9688.000000;1.772167
9687.000000;1.775736
9686.000000;1.777298
9685.000000;1.775197
9684.000000;1.772583
9683.000000;1.772288
9682.000000;1.772473
9681.000000;1.770187
9680.000000;1.767601
9679.000000;1.770785
9678.000000;1.782072
9677.000000;1.796072
9676.000000;1.804154
9675.000000;1.802872
9674.000000;1.796085
9673.000000;1.789184
9672.000000;1.784426
9671.000000;1.781279
9670.000000;1.778949
9669.000000;1.777560
9668.000000;1.777053
9667.000000;1.776283
9666.000000;1.774520
9665.000000;1.773455
9664.000000;1.775897
9663.000000;1.781613
9662.000000;1.785969
9661.000000;1.784710
9660.000000;1.779125
9659.000000;1.773945
9658.000000;1.771609
9657.000000;1.771147
9656.000000;1.771279
9655.000000;1.771828
9654.000000;1.772397
9653.000000;1.772466
9652.000000;1.773069
9651.000000;1.775690
9650.000000;1.779096
9649.000000;1.779936
9648.000000;1.777724
9647.000000;1.776134
9646.000000;1.777185
9645.000000;1.777763
9644.000000;1.774456
9643.000000;1.769052
9642.000000;1.766450
9641.000000;1.768301
9640.000000;1.771102
9639.000000;1.770718
9638.000000;1.766905
9637.000000;1.762712
9636.000000;1.761022
9635.000000;1.762289
9634.000000;1.764782
9633.000000;1.766850
9632.000000;1.769009
9631.000000;1.772908
9630.000000;1.778143
9629.000000;1.781568
9628.000000;1.780650
9627.000000;1.776320
9626.000000;1.771307
9625.000000;1.767017
9624.000000;1.763308
9623.000000;1.760205
9622.000000;1.758364
9621.000000;1.758076
9620.000000;1.758852
9619.000000;1.760020
9618.000000;1.761002
9617.000000;1.761145
9616.000000;1.760515
9615.000000;1.760866
9614.000000;1.764567
9613.000000;1.772031
9612.000000;1.780318
9611.000000;1.784642
9610.000000;1.781867
9609.000000;1.772753
9608.000000;1.761047
9607.000000;1.750808
9606.000000;1.744865
9605.000000;1.744944
9604.000000;1.751292
9603.000000;1.761339
9602.000000;1.769948
9601.000000;1.772875
9600.000000;1.770614
9599.000000;1.767560
9598.000000;1.767287
9597.000000;1.769755
9596.000000;1.772234
9595.000000;1.771894
9594.000000;1.767893
9593.000000;1.762130
9592.000000;1.758007
9591.000000;1.757278
9590.000000;1.758286
9589.000000;1.758346
9588.000000;1.757483
9587.000000;1.758104
9586.000000;1.760903
9585.000000;1.763160
9584.000000;1.761703
9583.000000;1.756168
9582.000000;1.749045
9581.000000;1.744093
9580.000000;1.744548
9579.000000;1.750636
9578.000000;1.758232
9577.000000;1.762010
9576.000000;1.761025
9575.000000;1.758831
9574.000000;1.757602
9573.000000;1.755494
9572.000000;1.750975
9571.000000;1.746648
9570.000000;1.745842
9569.000000;1.747506
9568.000000;1.747420
9567.000000;1.743733
9566.000000;1.739104
9565.000000;1.737250
9564.000000;1.739106
9563.000000;1.742585
9562.000000;1.745202
9561.000000;1.746863
9560.000000;1.749754
9559.000000;1.754820
9558.000000;1.759059
9557.000000;1.758395
9556.000000;1.753578
9555.000000;1.750304
9554.000000;1.752432
9553.000000;1.757647
9552.000000;1.761032
9551.000000;1.760575
9550.000000;1.756997
9549.000000;1.750836
9548.000000;1.743185
9547.000000;1.737475
9546.000000;1.736748
9545.000000;1.739661
9544.000000;1.741800
9543.000000;1.741071
9542.000000;1.739516
9541.000000;1.739779
9540.000000;1.742615
9539.000000;1.747895
9538.000000;1.754876
9537.000000;1.760406
9536.000000;1.759684
9535.000000;1.751458
9534.000000;1.740847
9533.000000;1.734624
9532.000000;1.734988
9531.000000;1.738688
9530.000000;1.741080
9529.000000;1.740375
9528.000000;1.738085
9527.000000;1.736427
9526.000000;1.736316
9525.000000;1.737688
9524.000000;1.740563
9523.000000;1.744532
9522.000000;1.747502
9521.000000;1.746689
9520.000000;1.741660
9519.000000;1.735326
9518.000000;1.730919
9517.000000;1.729005
9516.000000;1.728675
9515.000000;1.730124
9514.000000;1.733811
9513.000000;1.737988
9512.000000;1.739429
9511.000000;1.736950
9510.000000;1.732553
9509.000000;1.728925
9508.000000;1.727385
9507.000000;1.728033
9506.000000;1.730007
9505.000000;1.731213
9504.000000;1.729479
9503.000000;1.725207
9502.000000;1.721596
9501.000000;1.721468
9500.000000;1.725230
9499.000000;1.731287
9498.000000;1.736744
9497.000000;1.738563
9496.000000;1.735675
9495.000000;1.730084
9494.000000;1.725143
9493.000000;1.722671
9492.000000;1.722188
9491.000000;1.722466
9490.000000;1.722692
9489.000000;1.722402
9488.000000;1.721687
9487.000000;1.721608
9486.000000;1.723103
9485.000000;1.725231
9484.000000;1.725998
9483.000000;1.725371
9482.000000;1.725519
9481.000000;1.727336
9480.000000;1.728404
9479.000000;1.725592
9478.000000;1.719210
9477.000000;1.713220
9476.000000;1.711280
9475.000000;1.713548
9474.000000;1.717162
9473.000000;1.719154
9472.000000;1.718903
9471.000000;1.717966
9470.000000;1.717892
9469.000000;1.718612
9468.000000;1.719065
9467.000000;1.718913
9466.000000;1.718861
9465.000000;1.719370
9464.000000;1.719943
9463.000000;1.719964
9462.000000;1.719716
9461.000000;1.720191
9460.000000;1.722008
9459.000000;1.724374
9458.000000;1.725173
9457.000000;1.722946
9456.000000;1.719113
9455.000000;1.717256
9454.000000;1.719420
9453.000000;1.723662
9452.000000;1.726444
9451.000000;1.727008
9450.000000;1.727675
9449.000000;1.729624
9448.000000;1.730451
9447.000000;1.727595
9446.000000;1.722579
9445.000000;1.719361
9444.000000;1.719774
9443.000000;1.722521
9442.000000;1.725462
9441.000000;1.726893
9440.000000;1.725285
9439.000000;1.720468
9438.000000;1.715269
9437.000000;1.713409
9436.000000;1.715168
9435.000000;1.716786
9434.000000;1.715024
9433.000000;1.711036
9432.000000;1.708294
9431.000000;1.707989
9430.000000;1.708108
9429.000000;1.706478
9428.000000;1.703288
9427.000000;1.700474
9426.000000;1.699900
9425.000000;1.702430
9424.000000;1.707650
9423.000000;1.713850
9422.000000;1.718643
9421.000000;1.720286
9420.000000;1.718659
9419.000000;1.714979
9418.000000;1.710798
9417.000000;1.707302
9416.000000;1.705250
9415.000000;1.705077
9414.000000;1.706684
9413.000000;1.709043
9412.000000;1.710389
9411.000000;1.709418
9410.000000;1.706391
9409.000000;1.702710
9408.000000;1.699585
9407.000000;1.697644
9406.000000;1.697509
9405.000000;1.699620
9404.000000;1.702937
9403.000000;1.704882
9402.000000;1.703751
9401.000000;1.700486
9400.000000;1.697312
9399.000000;1.695615
9398.000000;1.695793
9397.000000;1.698283
9396.000000;1.703234
9395.000000;1.709017
9394.000000;1.712869
9393.000000;1.713860
9392.000000;1.713603
9391.000000;1.713004
9390.000000;1.710208
9389.000000;1.703526
9388.000000;1.695055
9387.000000;1.689143
9386.000000;1.687941
9385.000000;1.690183
9384.000000;1.693837
9383.000000;1.698158
9382.000000;1.702736
9381.000000;1.706230
9380.000000;1.707266
9379.000000;1.706030
9378.000000;1.704134
9377.000000;1.703081
9376.000000;1.703098
9375.000000;1.702925
9374.000000;1.700708
9373.000000;1.695811
9372.000000;1.689804
9371.000000;1.685280
9370.000000;1.683845
9369.000000;1.685439
9368.000000;1.689202
9367.000000;1.694081
9366.000000;1.698666
9365.000000;1.701644
9364.000000;1.702952
9363.000000;1.703338
9362.000000;1.702504
9361.000000;1.699488
9360.000000;1.695221
9359.000000;1.692598
9358.000000;1.692920
9357.000000;1.693938
9356.000000;1.693174
9355.000000;1.691540
9354.000000;1.691291
9353.000000;1.691746
9352.000000;1.689761
9351.000000;1.684615
9350.000000;1.679661
9349.000000;1.677889
9348.000000;1.678476
9347.000000;1.679061
9346.000000;1.679402
9345.000000;1.680944
9344.000000;1.684009
9343.000000;1.687429
9342.000000;1.690291
9341.000000;1.692233
9340.000000;1.692471
9339.000000;1.690430
9338.000000;1.687465
9337.000000;1.686447
9336.000000;1.689033
9335.000000;1.694023
9334.000000;1.698636
9333.000000;1.700719
9332.000000;1.699633
9331.000000;1.696362
9330.000000;1.693451
9329.000000;1.693436
9328.000000;1.696464
9327.000000;1.700094
9326.000000;1.701714
9325.000000;1.700457
9324.000000;1.696689
9323.000000;1.690964
9322.000000;1.684542
9321.000000;1.679849
9320.000000;1.678691
9319.000000;1.680168
9318.000000;1.681660
9317.000000;1.682019
9316.000000;1.682383
9315.000000;1.683443
9314.000000;1.683715
9313.000000;1.681852
9312.000000;1.679290
9311.000000;1.678682
9310.000000;1.680484
9309.000000;1.682670
9308.000000;1.683601
9307.000000;1.683554
9306.000000;1.683035
9305.000000;1.681596
9304.000000;1.679443
9303.000000;1.678718
9302.000000;1.681500
9301.000000;1.686868
9300.000000;1.691154
9299.000000;1.691528
9298.000000;1.688724
9297.000000;1.685554
9296.000000;1.683528
9295.000000;1.682050
9294.000000;1.680295
9293.000000;1.678507
9292.000000;1.677196
9291.000000;1.676081
9290.000000;1.674825
9289.000000;1.674351
9288.000000;1.676165
9287.000000;1.680123
9286.000000;1.683874
9285.000000;1.685170
9284.000000;1.684072
9283.000000;1.682061
9282.000000;1.680078
9281.000000;1.678775
9280.000000;1.679484
9279.000000;1.682809
9278.000000;1.686680
9277.000000;1.687915
9276.000000;1.686071
9275.000000;1.683843
9274.000000;1.683047
9273.000000;1.682332
9272.000000;1.680063
9271.000000;1.677697
9270.000000;1.678116
9269.000000;1.681265
9268.000000;1.683795
9267.000000;1.683348
9266.000000;1.681198
9265.000000;1.679870
9264.000000;1.679733
9263.000000;1.678881
9262.000000;1.675755
9261.000000;1.671010
9260.000000;1.666576
9259.000000;1.663691
9258.000000;1.662468
9257.000000;1.662778
9256.000000;1.664784
9255.000000;1.668365
9254.000000;1.672375
9253.000000;1.675256
9252.000000;1.676559
9251.000000;1.677131
9250.000000;1.677567
9249.000000;1.677290
9248.000000;1.675645
9247.000000;1.673196
9246.000000;1.671092
9245.000000;1.669496
9244.000000;1.667426
9243.000000;1.664300
9242.000000;1.661227
9241.000000;1.660353
9240.000000;1.662844
9239.000000;1.667436
9238.000000;1.671254
9237.000000;1.672683
9236.000000;1.673034
9235.000000;1.674419
9234.000000;1.676619
9233.000000;1.677331
9232.000000;1.675140
9231.000000;1.670903
9230.000000;1.666145
9229.000000;1.661903
9228.000000;1.659595
9227.000000;1.660706
9226.000000;1.664446
9225.000000;1.667431
9224.000000;1.667441
9223.000000;1.666131
9222.000000;1.666107
9221.000000;1.667267
9220.000000;1.668074
9219.000000;1.668683
9218.000000;1.670172
9217.000000;1.671419
9216.000000;1.669900
9215.000000;1.665913
9214.000000;1.662940
9213.000000;1.663172
9212.000000;1.665152
9211.000000;1.666389
9210.000000;1.666275
9209.000000;1.665439
9208.000000;1.664292
9207.000000;1.663809
9206.000000;1.665903
9205.000000;1.671063
9204.000000;1.676593
9203.000000;1.678921
9202.000000;1.677447
9201.000000;1.674732
9200.000000;1.673302
9199.000000;1.673500
9198.000000;1.673866
9197.000000;1.672534
9196.000000;1.668754
9195.000000;1.663970
9194.000000;1.660920
9193.000000;1.661012
9192.000000;1.662993
9191.000000;1.664771
9190.000000;1.666021
9189.000000;1.667774
9188.000000;1.669882
9187.000000;1.670524
9186.000000;1.668418
9185.000000;1.664413
9184.000000;1.660511
9183.000000;1.658142
9182.000000;1.657485
9181.000000;1.657724
9180.000000;1.657829
9179.000000;1.657408
9178.000000;1.656971
9177.000000;1.657316
9176.000000;1.658712
9175.000000;1.660654
9174.000000;1.662188
9173.000000;1.662495
9172.000000;1.661670
9171.000000;1.661139
9170.000000;1.662535
9169.000000;1.665557
9168.000000;1.667580
9167.000000;1.666264
9166.000000;1.662301
9165.000000;1.658876
9164.000000;1.658734
9163.000000;1.662151
9162.000000;1.666915
9161.000000;1.669747
9160.000000;1.668582
9159.000000;1.664314
9158.000000;1.660045
9157.000000;1.658157
9156.000000;1.658311
9155.000000;1.658585
9154.000000;1.658011
9153.000000;1.657075
9152.000000;1.656183
9151.000000;1.655109
9150.000000;1.653998
9149.000000;1.653541
9148.000000;1.653676
9147.000000;1.653014
9146.000000;1.650384
9145.000000;1.646517
9144.000000;1.643284
9143.000000;1.641717
9142.000000;1.641709
9141.000000;1.643228
9140.000000;1.646559
9139.000000;1.650980
9138.000000;1.654003
9137.000000;1.653092
9136.000000;1.648599
9135.000000;1.644209
9134.000000;1.643931
9133.000000;1.648711
9132.000000;1.655635
9131.000000;1.660246
9130.000000;1.660100
9129.000000;1.656372
9128.000000;1.652400
9127.000000;1.651105
9126.000000;1.652977
9125.000000;1.655696
9124.000000;1.656513
9123.000000;1.655143
9122.000000;1.653469
9121.000000;1.653092
9120.000000;1.653757
9119.000000;1.653912
9118.000000;1.652737
9117.000000;1.650985
9116.000000;1.649769
9115.000000;1.649606
9114.000000;1.650544
9113.000000;1.652203
9112.000000;1.653686
9111.000000;1.654019
9110.000000;1.652743
9109.000000;1.650046
9108.000000;1.646633
9107.000000;1.643725
9106.000000;1.642643
9105.000000;1.643709
9104.000000;1.645694
9103.000000;1.646820
9102.000000;1.646153
9101.000000;1.643882
9100.000000;1.640934
9099.000000;1.638928
9098.000000;1.639712
9097.000000;1.643679
9096.000000;1.648528
9095.000000;1.650699
9094.000000;1.648552
9093.000000;1.643581
9092.000000;1.638574
9091.000000;1.635829
9090.000000;1.636633
9089.000000;1.640559
9088.000000;1.645062
9087.000000;1.647224
9086.000000;1.646680
9085.000000;1.645707
9084.000000;1.645890
9083.000000;1.646011
9082.000000;1.643881
9081.000000;1.639191
9080.000000;1.633763
9079.000000;1.629925
9078.000000;1.629470
9077.000000;1.633089
9076.000000;1.639352
9075.000000;1.644633
9074.000000;1.645635
9073.000000;1.642417
9072.000000;1.638054
9071.000000;1.635510
9070.000000;1.635565
9069.000000;1.637145
9068.000000;1.638661
9067.000000;1.639234
9066.000000;1.639280
9065.000000;1.639972
9064.000000;1.641799
9063.000000;1.643891
9062.000000;1.645155
9061.000000;1.645562
9060.000000;1.645741
9059.000000;1.645992
9058.000000;1.646200
9057.000000;1.646111
9056.000000;1.645138
9055.000000;1.642534
9054.000000;1.638673
9053.000000;1.635493
