Criado como novo conjunto de dados;"e0108.spp","-4249242.9 Secs"
cm-1;Abs
10000.000000;1.016584
9999.000000;1.014980
9998.000000;1.013107
9997.000000;1.011817
9996.000000;1.011807
9995.000000;1.012858
9994.000000;1.014281
9993.000000;1.015294
9992.000000;1.015512
9991.000000;1.014955
9990.000000;1.013918
9989.000000;1.012581
9988.000000;1.010951
9987.000000;1.009232
9986.000000;1.008017
9985.000000;1.007765
9984.000000;1.008197
9983.000000;1.008558
9982.000000;1.008401
9981.000000;1.007845
9980.000000;1.007205
9979.000000;1.006702
9978.000000;1.006479
9977.000000;1.006510
9976.000000;1.006498
9975.000000;1.006166
9974.000000;1.005660
9973.000000;1.005318
9972.000000;1.005086
9971.000000;1.004601
9970.000000;1.003872
9969.000000;1.003370
9968.000000;1.003244
9967.000000;1.002952
9966.000000;1.001963
9965.000000;1.000511
9964.000000;0.999337
9963.000000;0.998927
9962.000000;0.999252
9961.000000;1.000067
9960.000000;1.001041
9959.000000;1.001626
9958.000000;1.001171
9957.000000;0.999479
9956.000000;0.997208
9955.000000;0.995460
9954.000000;0.994745
9953.000000;0.994353
9952.000000;0.993040
9951.000000;0.990528
9950.000000;0.988125
9949.000000;0.987542
9948.000000;0.989193
9947.000000;0.991875
9946.000000;0.993925
9945.000000;0.994446
9944.000000;0.993617
9943.000000;0.992367
9942.000000;0.991767
9941.000000;0.992203
9940.000000;0.992951
9939.000000;0.992910
9938.000000;0.991921
9937.000000;0.991002
9936.000000;0.991130
9935.000000;0.992148
9934.000000;0.992950
9933.000000;0.992424
9932.000000;0.990244
9931.000000;0.987280
9930.000000;0.985316
9929.000000;0.985715
9928.000000;0.987996
9927.000000;0.990110
9926.000000;0.990416
9925.000000;0.989061
9924.000000;0.987231
9923.000000;0.985688
9922.000000;0.984524
9921.000000;0.983745
9920.000000;0.983345
9919.000000;0.983066
9918.000000;0.982741
9917.000000;0.982747
9916.000000;0.983578
9915.000000;0.985055
9914.000000;0.986375
9913.000000;0.986835
9912.000000;0.986142
9911.000000;0.984343
9910.000000;0.982050
9909.000000;0.980520
9908.000000;0.980710
9907.000000;0.982152
9906.000000;0.983328
9905.000000;0.983325
9904.000000;0.982652
9903.000000;0.982185
9902.000000;0.981890
9901.000000;0.981040
9900.000000;0.979410
9899.000000;0.977743
9898.000000;0.976971
9897.000000;0.977237
9896.000000;0.977765
9895.000000;0.977667
9894.000000;0.976844
9893.000000;0.976032
9892.000000;0.975949
9891.000000;0.976568
9890.000000;0.977338
9889.000000;0.977913
9888.000000;0.978364
9887.000000;0.978752
9886.000000;0.978856
9885.000000;0.978406
9884.000000;0.977355
9883.000000;0.975856
9882.000000;0.974185
9881.000000;0.972736
9880.000000;0.971880
9879.000000;0.971708
9878.000000;0.971988
9877.000000;0.972359
9876.000000;0.972498
9875.000000;0.972175
9874.000000;0.971393
9873.000000;0.970458
9872.000000;0.969688
9871.000000;0.969021
9870.000000;0.968129
9869.000000;0.966939
9868.000000;0.965822
9867.000000;0.965173
9866.000000;0.965001
9865.000000;0.965088
9864.000000;0.965392
9863.000000;0.966017
9862.000000;0.966814
9861.000000;0.967220
9860.000000;0.966648
9859.000000;0.965062
9858.000000;0.963103
9857.000000;0.961581
9856.000000;0.960864
9855.000000;0.960792
9854.000000;0.961103
9853.000000;0.961744
9852.000000;0.962719
9851.000000;0.963897
9850.000000;0.965156
9849.000000;0.966456
9848.000000;0.967510
9847.000000;0.967570
9846.000000;0.965935
9845.000000;0.962793
9844.000000;0.959389
9843.000000;0.957193
9842.000000;0.956787
9841.000000;0.957362
9840.000000;0.957324
9839.000000;0.955728
9838.000000;0.953333
9837.000000;0.951986
9836.000000;0.952722
9835.000000;0.954640
9834.000000;0.955893
9833.000000;0.955573
9832.000000;0.954281
9831.000000;0.953088
9830.000000;0.952532
9829.000000;0.952611
9828.000000;0.953145
9827.000000;0.953849
9826.000000;0.954378
9825.000000;0.954547
9824.000000;0.954351
9823.000000;0.953722
9822.000000;0.952560
9821.000000;0.951119
9820.000000;0.950045
9819.000000;0.949753
9818.000000;0.949998
9817.000000;0.950293
9816.000000;0.950540
9815.000000;0.950930
9814.000000;0.951397
9813.000000;0.951558
9812.000000;0.951221
9811.000000;0.950674
9810.000000;0.950339
9809.000000;0.950291
9808.000000;0.950215
9807.000000;0.949769
9806.000000;0.948919
9805.000000;0.947998
9804.000000;0.947499
9803.000000;0.947744
9802.000000;0.948645
9801.000000;0.949721
9800.000000;0.950399
9799.000000;0.950420
9798.000000;0.949938
9797.000000;0.949211
9796.000000;0.948346
9795.000000;0.947472
9794.000000;0.946974
9793.000000;0.947190
9792.000000;0.947797
9791.000000;0.947858
9790.000000;0.946761
9789.000000;0.944947
9788.000000;0.943443
9787.000000;0.942778
9786.000000;0.942613
9785.000000;0.942310
9784.000000;0.941580
9783.000000;0.940614
9782.000000;0.939864
9781.000000;0.939749
9780.000000;0.940309
9779.000000;0.941041
9778.000000;0.941275
9777.000000;0.940858
9776.000000;0.940337
9775.000000;0.940345
9774.000000;0.940899
9773.000000;0.941410
9772.000000;0.941340
9771.000000;0.940728
9770.000000;0.940036
9769.000000;0.939527
9768.000000;0.938968
9767.000000;0.938030
9766.000000;0.936862
9765.000000;0.936003
9764.000000;0.935741
9763.000000;0.935805
9762.000000;0.935774
9761.000000;0.935498
9760.000000;0.934979
9759.000000;0.934165
9758.000000;0.933167
9757.000000;0.932390
9756.000000;0.932058
9755.000000;0.931767
9754.000000;0.930939
9753.000000;0.929667
9752.000000;0.928690
9751.000000;0.928545
9750.000000;0.929098
9749.000000;0.929866
9748.000000;0.930442
9747.000000;0.930606
9746.000000;0.930394
9745.000000;0.930165
9744.000000;0.930257
9743.000000;0.930497
9742.000000;0.930405
9741.000000;0.929981
9740.000000;0.929837
9739.000000;0.930312
9738.000000;0.930853
9737.000000;0.930622
9736.000000;0.929479
9735.000000;0.928069
9734.000000;0.927063
9733.000000;0.926634
9732.000000;0.926589
9731.000000;0.926697
9730.000000;0.926836
9729.000000;0.926970
9728.000000;0.926997
9727.000000;0.926651
9726.000000;0.925703
9725.000000;0.924327
9724.000000;0.923049
9723.000000;0.922194
9722.000000;0.921590
9721.000000;0.920995
9720.000000;0.920558
9719.000000;0.920531
9718.000000;0.920656
9717.000000;0.920303
9716.000000;0.919292
9715.000000;0.918227
9714.000000;0.917838
9713.000000;0.918250
9712.000000;0.919092
9711.000000;0.920094
9710.000000;0.921265
9709.000000;0.922421
9708.000000;0.922931
9707.000000;0.922238
9706.000000;0.920575
9705.000000;0.918877
9704.000000;0.917871
9703.000000;0.917413
9702.000000;0.916787
9701.000000;0.915580
9700.000000;0.914140
9699.000000;0.913259
9698.000000;0.913504
9697.000000;0.914756
9696.000000;0.916226
9695.000000;0.917005
9694.000000;0.916790
9693.000000;0.916058
9692.000000;0.915429
9691.000000;0.914987
9690.000000;0.914382
9689.000000;0.913484
9688.000000;0.912622
9687.000000;0.912152
9686.000000;0.912071
9685.000000;0.912145
9684.000000;0.912192
9683.000000;0.912133
9682.000000;0.911927
9681.000000;0.911634
9680.000000;0.911421
9679.000000;0.911379
9678.000000;0.911431
9677.000000;0.911528
9676.000000;0.911793
9675.000000;0.912289
9674.000000;0.912677
9673.000000;0.912326
9672.000000;0.910944
9671.000000;0.909105
9670.000000;0.907962
9669.000000;0.908267
9668.000000;0.909648
9667.000000;0.910950
9666.000000;0.911317
9665.000000;0.910779
9664.000000;0.909761
9663.000000;0.908401
9662.000000;0.906682
9661.000000;0.904996
9660.000000;0.904036
9659.000000;0.904037
9658.000000;0.904444
9657.000000;0.904453
9656.000000;0.903702
9655.000000;0.902401
9654.000000;0.901070
9653.000000;0.900248
9652.000000;0.900212
9651.000000;0.900786
9650.000000;0.901498
9649.000000;0.901985
9648.000000;0.902189
9647.000000;0.902162
9646.000000;0.901935
9645.000000;0.901623
9644.000000;0.901399
9643.000000;0.901209
9642.000000;0.900739
9641.000000;0.899822
9640.000000;0.898712
9639.000000;0.897768
9638.000000;0.897023
9637.000000;0.896239
9636.000000;0.895306
9635.000000;0.894441
9634.000000;0.894032
9633.000000;0.894341
9632.000000;0.895304
9631.000000;0.896518
9630.000000;0.897512
9629.000000;0.898077
9628.000000;0.898230
9627.000000;0.897911
9626.000000;0.896968
9625.000000;0.895537
9624.000000;0.894185
9623.000000;0.893472
9622.000000;0.893510
9621.000000;0.894049
9620.000000;0.894798
9619.000000;0.895475
9618.000000;0.895756
9617.000000;0.895479
9616.000000;0.894862
9615.000000;0.894243
9614.000000;0.893599
9613.000000;0.892577
9612.000000;0.891071
9611.000000;0.889579
9610.000000;0.888850
9609.000000;0.889194
9608.000000;0.890211
9607.000000;0.891143
9606.000000;0.891482
9605.000000;0.891225
9604.000000;0.890634
9603.000000;0.889919
9602.000000;0.889209
9601.000000;0.888646
9600.000000;0.888305
9599.000000;0.888106
9598.000000;0.887988
9597.000000;0.888072
9596.000000;0.888376
9595.000000;0.888421
9594.000000;0.887561
9593.000000;0.885839
9592.000000;0.884159
9591.000000;0.883373
9590.000000;0.883461
9589.000000;0.883815
9588.000000;0.884035
9587.000000;0.884097
9586.000000;0.883972
9585.000000;0.883548
9584.000000;0.882960
9583.000000;0.882612
9582.000000;0.882743
9581.000000;0.883169
9580.000000;0.883542
9579.000000;0.883696
9578.000000;0.883695
9577.000000;0.883678
9576.000000;0.883700
9575.000000;0.883629
9574.000000;0.883243
9573.000000;0.882529
9572.000000;0.881804
9571.000000;0.881376
9570.000000;0.881123
9569.000000;0.880651
9568.000000;0.879847
9567.000000;0.879034
9566.000000;0.878533
9565.000000;0.878347
9564.000000;0.878410
9563.000000;0.878843
9562.000000;0.879686
9561.000000;0.880536
9560.000000;0.880795
9559.000000;0.880339
9558.000000;0.879677
9557.000000;0.879361
9556.000000;0.879428
9555.000000;0.879501
9554.000000;0.879260
9553.000000;0.878618
9552.000000;0.877611
9551.000000;0.876378
9550.000000;0.875228
9549.000000;0.874477
9548.000000;0.874162
9547.000000;0.874058
9546.000000;0.873967
9545.000000;0.873789
9544.000000;0.873379
9543.000000;0.872665
9542.000000;0.871966
9541.000000;0.871790
9540.000000;0.872115
9539.000000;0.872272
9538.000000;0.871883
9537.000000;0.871474
9536.000000;0.871667
9535.000000;0.872123
9534.000000;0.871978
9533.000000;0.871180
9532.000000;0.870608
9531.000000;0.870741
9530.000000;0.870956
9529.000000;0.870479
9528.000000;0.869429
9527.000000;0.868511
9526.000000;0.868162
9525.000000;0.868467
9524.000000;0.869430
9523.000000;0.870718
9522.000000;0.871428
9521.000000;0.870818
9520.000000;0.869283
9519.000000;0.868052
9518.000000;0.867866
9517.000000;0.868354
9516.000000;0.868739
9515.000000;0.868727
9514.000000;0.868554
9513.000000;0.868488
9512.000000;0.868520
9511.000000;0.868404
9510.000000;0.867938
9509.000000;0.867240
9508.000000;0.866687
9507.000000;0.866419
9506.000000;0.866077
9505.000000;0.865326
9504.000000;0.864535
9503.000000;0.864488
9502.000000;0.865336
9501.000000;0.866203
9500.000000;0.866029
9499.000000;0.864614
9498.000000;0.862671
9497.000000;0.861086
9496.000000;0.860344
9495.000000;0.860511
9494.000000;0.861403
9493.000000;0.862658
9492.000000;0.863753
9491.000000;0.864191
9490.000000;0.863856
9489.000000;0.863197
9488.000000;0.862873
9487.000000;0.863060
9486.000000;0.863269
9485.000000;0.863027
9484.000000;0.862553
9483.000000;0.862409
9482.000000;0.862585
9481.000000;0.862387
9480.000000;0.861355
9479.000000;0.859877
9478.000000;0.858634
9477.000000;0.857794
9476.000000;0.857126
9475.000000;0.856692
9474.000000;0.856923
9473.000000;0.857898
9472.000000;0.858921
9471.000000;0.859134
9470.000000;0.858461
9469.000000;0.857680
9468.000000;0.857494
9467.000000;0.857736
9466.000000;0.857694
9465.000000;0.857119
9464.000000;0.856581
9463.000000;0.856682
9462.000000;0.857221
9461.000000;0.857444
9460.000000;0.857027
9459.000000;0.856445
9458.000000;0.856279
9457.000000;0.856467
9456.000000;0.856418
9455.000000;0.855728
9454.000000;0.854596
9453.000000;0.853653
9452.000000;0.853450
9451.000000;0.854029
9450.000000;0.854850
9449.000000;0.855249
9448.000000;0.855052
9447.000000;0.854644
9446.000000;0.854374
9445.000000;0.854102
9444.000000;0.853500
9443.000000;0.852626
9442.000000;0.851873
9441.000000;0.851406
9440.000000;0.850991
9439.000000;0.850473
9438.000000;0.850121
9437.000000;0.850258
9436.000000;0.850689
9435.000000;0.850804
9434.000000;0.850241
9433.000000;0.849226
9432.000000;0.848178
9431.000000;0.847202
9430.000000;0.846161
9429.000000;0.845128
9428.000000;0.844491
9427.000000;0.844562
9426.000000;0.845230
9425.000000;0.846097
9424.000000;0.846852
9423.000000;0.847408
9422.000000;0.847732
9421.000000;0.847717
9420.000000;0.847306
9419.000000;0.846650
9418.000000;0.846084
9417.000000;0.845903
9416.000000;0.846106
9415.000000;0.846331
9414.000000;0.846126
9413.000000;0.845382
9412.000000;0.844497
9411.000000;0.844040
9410.000000;0.844238
9409.000000;0.844789
9408.000000;0.845154
9407.000000;0.844992
9406.000000;0.844383
9405.000000;0.843724
9404.000000;0.843385
9403.000000;0.843387
9402.000000;0.843411
9401.000000;0.843191
9400.000000;0.842845
9399.000000;0.842714
9398.000000;0.842849
9397.000000;0.842846
9396.000000;0.842247
9395.000000;0.841055
9394.000000;0.839795
9393.000000;0.839093
9392.000000;0.839177
9391.000000;0.839745
9390.000000;0.840268
9389.000000;0.840429
9388.000000;0.840273
9387.000000;0.840006
9386.000000;0.839800
9385.000000;0.839817
9384.000000;0.840214
9383.000000;0.840867
9382.000000;0.841235
9381.000000;0.840813
9380.000000;0.839737
9379.000000;0.838656
9378.000000;0.837957
9377.000000;0.837458
9376.000000;0.836980
9375.000000;0.836860
9374.000000;0.837527
9373.000000;0.838742
9372.000000;0.839658
9371.000000;0.839675
9370.000000;0.838947
9369.000000;0.838018
9368.000000;0.837259
9367.000000;0.836729
9366.000000;0.836326
9365.000000;0.835862
9364.000000;0.835181
9363.000000;0.834415
9362.000000;0.833981
9361.000000;0.834141
9360.000000;0.834649
9359.000000;0.835012
9358.000000;0.835032
9357.000000;0.834875
9356.000000;0.834665
9355.000000;0.834311
9354.000000;0.833788
9353.000000;0.833331
9352.000000;0.833158
9351.000000;0.833156
9350.000000;0.832993
9349.000000;0.832461
9348.000000;0.831630
9347.000000;0.830783
9346.000000;0.830317
9345.000000;0.830525
9344.000000;0.831226
9343.000000;0.831721
9342.000000;0.831454
9341.000000;0.830716
9340.000000;0.830358
9339.000000;0.830740
9338.000000;0.831295
9337.000000;0.831325
9336.000000;0.830910
9335.000000;0.830675
9334.000000;0.830853
9333.000000;0.831014
9332.000000;0.830722
9331.000000;0.830089
9330.000000;0.829505
9329.000000;0.829089
9328.000000;0.828660
9327.000000;0.828121
9326.000000;0.827640
9325.000000;0.827432
9324.000000;0.827497
9323.000000;0.827646
9322.000000;0.827680
9321.000000;0.827505
9320.000000;0.827103
9319.000000;0.826512
9318.000000;0.825862
9317.000000;0.825364
9316.000000;0.825136
9315.000000;0.825056
9314.000000;0.824898
9313.000000;0.824652
9312.000000;0.824583
9311.000000;0.824872
9310.000000;0.825311
9309.000000;0.825478
9308.000000;0.825142
9307.000000;0.824392
9306.000000;0.823438
9305.000000;0.822466
9304.000000;0.821683
9303.000000;0.821302
9302.000000;0.821376
9301.000000;0.821725
9300.000000;0.822081
9299.000000;0.822267
9298.000000;0.822274
9297.000000;0.822251
9296.000000;0.822397
9295.000000;0.822747
9294.000000;0.823057
9293.000000;0.822986
9292.000000;0.822433
9291.000000;0.821602
9290.000000;0.820741
9289.000000;0.819934
9288.000000;0.819171
9287.000000;0.818496
9286.000000;0.818035
9285.000000;0.817945
9284.000000;0.818322
9283.000000;0.819046
9282.000000;0.819706
9281.000000;0.819861
9280.000000;0.819492
9279.000000;0.819051
9278.000000;0.818948
9277.000000;0.819087
9276.000000;0.819062
9275.000000;0.818739
9274.000000;0.818467
9273.000000;0.818661
9272.000000;0.819279
9271.000000;0.819749
9270.000000;0.819464
9269.000000;0.818389
9268.000000;0.817153
9267.000000;0.816481
9266.000000;0.816521
9265.000000;0.816795
9264.000000;0.816822
9263.000000;0.816607
9262.000000;0.816475
9261.000000;0.816591
9260.000000;0.816812
9259.000000;0.816915
9258.000000;0.816794
9257.000000;0.816465
9256.000000;0.816036
9255.000000;0.815700
9254.000000;0.815579
9253.000000;0.815564
9252.000000;0.815428
9251.000000;0.815133
9250.000000;0.814878
9249.000000;0.814809
9248.000000;0.814780
9247.000000;0.814502
9246.000000;0.813854
9245.000000;0.812995
9244.000000;0.812223
9243.000000;0.811807
9242.000000;0.811896
9241.000000;0.812461
9240.000000;0.813255
9239.000000;0.813914
9238.000000;0.814215
9237.000000;0.814243
9236.000000;0.814217
9235.000000;0.814142
9234.000000;0.813772
9233.000000;0.812997
9232.000000;0.812125
9231.000000;0.811594
9230.000000;0.811464
9229.000000;0.811404
9228.000000;0.811179
9227.000000;0.810910
9226.000000;0.810762
9225.000000;0.810647
9224.000000;0.810445
9223.000000;0.810325
9222.000000;0.810533
9221.000000;0.810948
9220.000000;0.811138
9219.000000;0.810890
9218.000000;0.810449
9217.000000;0.810168
9216.000000;0.810131
9215.000000;0.810207
9214.000000;0.810327
9213.000000;0.810537
9212.000000;0.810834
9211.000000;0.811045
9210.000000;0.810893
9209.000000;0.810226
9208.000000;0.809255
9207.000000;0.808512
9206.000000;0.808388
9205.000000;0.808692
9204.000000;0.808836
9203.000000;0.808500
9202.000000;0.807943
9201.000000;0.807596
9200.000000;0.807529
9199.000000;0.807442
9198.000000;0.807068
9197.000000;0.806432
9196.000000;0.805814
9195.000000;0.805586
9194.000000;0.805988
9193.000000;0.806898
9192.000000;0.807809
9191.000000;0.808204
9190.000000;0.808013
9189.000000;0.807611
9188.000000;0.807375
9187.000000;0.807322
9186.000000;0.807154
9185.000000;0.806565
9184.000000;0.805537
9183.000000;0.804402
9182.000000;0.803605
9181.000000;0.803366
9180.000000;0.803558
9179.000000;0.803910
9178.000000;0.804235
9177.000000;0.804390
9176.000000;0.804193
9175.000000;0.803604
9174.000000;0.802964
9173.000000;0.802797
9172.000000;0.803228
9171.000000;0.803748
9170.000000;0.803704
9169.000000;0.802990
9168.000000;0.802160
9167.000000;0.801885
9166.000000;0.802361
9165.000000;0.803218
9164.000000;0.803907
9163.000000;0.804088
9162.000000;0.803728
9161.000000;0.802980
9160.000000;0.802112
9159.000000;0.801473
9158.000000;0.801297
9157.000000;0.801419
9156.000000;0.801342
9155.000000;0.800746
9154.000000;0.799907
9153.000000;0.799464
9152.000000;0.799779
9151.000000;0.800620
9150.000000;0.801452
9149.000000;0.801885
9148.000000;0.801840
9147.000000;0.801484
9146.000000;0.801138
9145.000000;0.801141
9144.000000;0.801588
9143.000000;0.802180
9142.000000;0.802412
9141.000000;0.802013
9140.000000;0.801221
9139.000000;0.800604
9138.000000;0.800530
9137.000000;0.800750
9136.000000;0.800596
9135.000000;0.799702
9134.000000;0.798466
9133.000000;0.797631
9132.000000;0.797471
9131.000000;0.797612
9130.000000;0.797673
9129.000000;0.797776
9128.000000;0.798192
9127.000000;0.798750
9126.000000;0.798964
9125.000000;0.798674
9124.000000;0.798220
9123.000000;0.797951
9122.000000;0.797860
9121.000000;0.797806
9120.000000;0.797802
9119.000000;0.797870
9118.000000;0.797828
9117.000000;0.797460
9116.000000;0.796819
9115.000000;0.796151
9114.000000;0.795603
9113.000000;0.795216
9112.000000;0.795119
9111.000000;0.795428
9110.000000;0.795899
9109.000000;0.795972
9108.000000;0.795358
9107.000000;0.794422
9106.000000;0.793806
9105.000000;0.793770
9104.000000;0.794074
9103.000000;0.794407
9102.000000;0.794686
9101.000000;0.794936
9100.000000;0.795152
9099.000000;0.795364
9098.000000;0.795654
9097.000000;0.795952
9096.000000;0.795909
9095.000000;0.795173
9094.000000;0.793795
9093.000000;0.792259
9092.000000;0.791109
9091.000000;0.790615
9090.000000;0.790735
9089.000000;0.791236
9088.000000;0.791812
9087.000000;0.792235
9086.000000;0.792500
9085.000000;0.792766
9084.000000;0.793077
9083.000000;0.793208
9082.000000;0.792915
9081.000000;0.792314
9080.000000;0.791896
9079.000000;0.792086
9078.000000;0.792835
9077.000000;0.793713
9076.000000;0.794317
9075.000000;0.794523
9074.000000;0.794357
9073.000000;0.793801
9072.000000;0.792844
9071.000000;0.791697
9070.000000;0.790841
9069.000000;0.790751
9068.000000;0.791515
9067.000000;0.792697
9066.000000;0.793607
9065.000000;0.793793
9064.000000;0.793325
9063.000000;0.792646
9062.000000;0.792165
9061.000000;0.792020
9060.000000;0.792137
9059.000000;0.792364
9058.000000;0.792503
9057.000000;0.792352
9056.000000;0.791870
9055.000000;0.791242
9054.000000;0.790684
9053.000000;0.790215
