Criado como novo conjunto de dados;"e0108.spp","-4225121.9 Secs"
cm-1;Abs
10000.000000;1.836865
9999.000000;1.845189
9998.000000;1.853684
9997.000000;1.862331
9996.000000;1.871183
9995.000000;1.880176
9994.000000;1.889370
9993.000000;1.896545
9992.000000;1.897406
9991.000000;1.892676
9990.000000;1.887723
9989.000000;1.887060
9988.000000;1.889994
9987.000000;1.892515
9986.000000;1.892227
9985.000000;1.890183
9984.000000;1.887775
9983.000000;1.885056
9982.000000;1.882795
9981.000000;1.883021
9980.000000;1.886211
9979.000000;1.889695
9978.000000;1.890065
9977.000000;1.886212
9976.000000;1.879015
9975.000000;1.869586
9974.000000;1.859632
9973.000000;1.851915
9972.000000;1.847845
9971.000000;1.845559
9970.000000;1.842201
9969.000000;1.837577
9968.000000;1.834367
9967.000000;1.835369
9966.000000;1.841582
9965.000000;1.851743
9964.000000;1.862114
9963.000000;1.867852
9962.000000;1.867037
9961.000000;1.862896
9960.000000;1.859637
9959.000000;1.857439
9958.000000;1.854105
9957.000000;1.850563
9956.000000;1.851186
9955.000000;1.857822
9954.000000;1.866026
9953.000000;1.868557
9952.000000;1.862857
9951.000000;1.853688
9950.000000;1.847708
9949.000000;1.848025
9948.000000;1.853297
9947.000000;1.859595
9946.000000;1.863350
9945.000000;1.863391
9944.000000;1.860326
9943.000000;1.855039
9942.000000;1.849215
9941.000000;1.846321
9940.000000;1.849406
9939.000000;1.856716
9938.000000;1.861243
9937.000000;1.857661
9936.000000;1.848869
9935.000000;1.842590
9934.000000;1.843161
9933.000000;1.848372
9932.000000;1.852793
9931.000000;1.852973
9930.000000;1.849473
9929.000000;1.845303
9928.000000;1.843235
9927.000000;1.843773
9926.000000;1.845282
9925.000000;1.846129
9924.000000;1.846465
9923.000000;1.847529
9922.000000;1.849187
9921.000000;1.849050
9920.000000;1.844772
9919.000000;1.837236
9918.000000;1.830959
9917.000000;1.830635
9916.000000;1.836481
9915.000000;1.842662
9914.000000;1.842025
9913.000000;1.833992
9912.000000;1.825445
9911.000000;1.822951
9910.000000;1.826662
9909.000000;1.831991
9908.000000;1.835538
9907.000000;1.837449
9906.000000;1.838709
9905.000000;1.839055
9904.000000;1.838031
9903.000000;1.836421
9902.000000;1.835271
9901.000000;1.834928
9900.000000;1.835272
9899.000000;1.835110
9898.000000;1.833185
9897.000000;1.830995
9896.000000;1.831498
9895.000000;1.834309
9894.000000;1.835003
9893.000000;1.830890
9892.000000;1.825698
9891.000000;1.825386
9890.000000;1.830191
9889.000000;1.833953
9888.000000;1.831918
9887.000000;1.826196
9886.000000;1.821657
9885.000000;1.820161
9884.000000;1.820851
9883.000000;1.823158
9882.000000;1.826423
9881.000000;1.828192
9880.000000;1.826571
9879.000000;1.823430
9878.000000;1.821962
9877.000000;1.821906
9876.000000;1.820155
9875.000000;1.816087
9874.000000;1.813338
9873.000000;1.815122
9872.000000;1.820736
9871.000000;1.827763
9870.000000;1.834996
9869.000000;1.841365
9868.000000;1.843840
9867.000000;1.839209
9866.000000;1.828049
9865.000000;1.815190
9864.000000;1.806364
9863.000000;1.805147
9862.000000;1.811434
9861.000000;1.821020
9860.000000;1.827634
9859.000000;1.827887
9858.000000;1.824175
9857.000000;1.821249
9856.000000;1.820806
9855.000000;1.820635
9854.000000;1.818350
9853.000000;1.814570
9852.000000;1.812178
9851.000000;1.813212
9850.000000;1.817150
9849.000000;1.822006
9848.000000;1.826283
9847.000000;1.829789
9846.000000;1.832752
9845.000000;1.834392
9844.000000;1.833062
9843.000000;1.828261
9842.000000;1.822039
9841.000000;1.817632
9840.000000;1.816867
9839.000000;1.819526
9838.000000;1.824338
9837.000000;1.829332
9836.000000;1.831666
9835.000000;1.829180
9834.000000;1.823272
9833.000000;1.818564
9832.000000;1.818457
9831.000000;1.821995
9830.000000;1.825688
9829.000000;1.827895
9828.000000;1.829732
9827.000000;1.831245
9826.000000;1.829168
9825.000000;1.820415
9824.000000;1.806875
9823.000000;1.794444
9822.000000;1.787609
9821.000000;1.786862
9820.000000;1.790564
9819.000000;1.797237
9818.000000;1.805523
9817.000000;1.813005
9816.000000;1.817134
9815.000000;1.817669
9814.000000;1.816344
9813.000000;1.814460
9812.000000;1.811736
9811.000000;1.807190
9810.000000;1.801441
9809.000000;1.797476
9808.000000;1.798111
9807.000000;1.802628
9806.000000;1.806346
9805.000000;1.804898
9804.000000;1.799385
9803.000000;1.795391
9802.000000;1.797070
9801.000000;1.803321
9800.000000;1.809118
9799.000000;1.810490
9798.000000;1.807898
9797.000000;1.804414
9796.000000;1.802326
9795.000000;1.802327
9794.000000;1.804011
9793.000000;1.805619
9792.000000;1.804352
9791.000000;1.798822
9790.000000;1.790948
9789.000000;1.784153
9788.000000;1.780280
9787.000000;1.779133
9786.000000;1.780577
9785.000000;1.785829
9784.000000;1.795563
9783.000000;1.807024
9782.000000;1.814635
9781.000000;1.814963
9780.000000;1.810516
9779.000000;1.807093
9778.000000;1.807827
9777.000000;1.810832
9776.000000;1.812238
9775.000000;1.810444
9774.000000;1.806757
9773.000000;1.802752
9772.000000;1.799070
9771.000000;1.796917
9770.000000;1.798269
9769.000000;1.803050
9768.000000;1.807507
9767.000000;1.807680
9766.000000;1.804113
9765.000000;1.801131
9764.000000;1.802044
9763.000000;1.806567
9762.000000;1.812341
9761.000000;1.817123
9760.000000;1.818831
9759.000000;1.815351
9758.000000;1.806413
9757.000000;1.795114
9756.000000;1.785852
9755.000000;1.780822
9754.000000;1.779484
9753.000000;1.780853
9752.000000;1.784592
9751.000000;1.789670
9750.000000;1.793778
9749.000000;1.795548
9748.000000;1.796447
9747.000000;1.798608
9746.000000;1.801208
9745.000000;1.800817
9744.000000;1.795868
9743.000000;1.789427
9742.000000;1.786154
9741.000000;1.787278
9740.000000;1.789689
9739.000000;1.789875
9738.000000;1.787708
9737.000000;1.785978
9736.000000;1.787130
9735.000000;1.790858
9734.000000;1.793930
9733.000000;1.792252
9732.000000;1.784348
9731.000000;1.773179
9730.000000;1.763718
9729.000000;1.758854
9728.000000;1.758563
9727.000000;1.761945
9726.000000;1.768208
9725.000000;1.775610
9724.000000;1.780820
9723.000000;1.780855
9722.000000;1.775745
9721.000000;1.768108
9720.000000;1.760454
9719.000000;1.754364
9718.000000;1.751711
9717.000000;1.754469
9716.000000;1.762264
9715.000000;1.771180
9714.000000;1.776580
9713.000000;1.777514
9712.000000;1.777396
9711.000000;1.780139
9710.000000;1.786029
9709.000000;1.791075
9708.000000;1.790941
9707.000000;1.785912
9706.000000;1.780895
9705.000000;1.780203
9704.000000;1.783221
9703.000000;1.785555
9702.000000;1.784136
9701.000000;1.779951
9700.000000;1.775569
9699.000000;1.772143
9698.000000;1.769734
9697.000000;1.768604
9696.000000;1.769008
9695.000000;1.770503
9694.000000;1.771931
9693.000000;1.772540
9692.000000;1.772795
9691.000000;1.773366
9690.000000;1.774197
9689.000000;1.774944
9688.000000;1.775269
9687.000000;1.774323
9686.000000;1.770880
9685.000000;1.764815
9684.000000;1.758181
9683.000000;1.754008
9682.000000;1.753502
9681.000000;1.754774
9680.000000;1.754753
9679.000000;1.752463
9678.000000;1.750199
9677.000000;1.751037
9676.000000;1.755595
9675.000000;1.761655
9674.000000;1.766399
9673.000000;1.768429
9672.000000;1.767796
9671.000000;1.765401
9670.000000;1.763051
9669.000000;1.762864
9668.000000;1.765319
9667.000000;1.768207
9666.000000;1.768722
9665.000000;1.766671
9664.000000;1.764650
9663.000000;1.765306
9662.000000;1.769221
9661.000000;1.774888
9660.000000;1.779733
9659.000000;1.781222
9658.000000;1.778237
9657.000000;1.771901
9656.000000;1.764595
9655.000000;1.758254
9654.000000;1.754202
9653.000000;1.753928
9652.000000;1.758104
9651.000000;1.764257
9650.000000;1.767537
9649.000000;1.765326
9648.000000;1.759541
9647.000000;1.753906
9646.000000;1.750443
9645.000000;1.748673
9644.000000;1.747542
9643.000000;1.747330
9642.000000;1.748749
9641.000000;1.750653
9640.000000;1.750394
9639.000000;1.746727
9638.000000;1.741112
9637.000000;1.736345
9636.000000;1.734731
9635.000000;1.736953
9634.000000;1.741700
9633.000000;1.746339
9632.000000;1.748674
9631.000000;1.748573
9630.000000;1.747790
9629.000000;1.748268
9628.000000;1.750779
9627.000000;1.754719
9626.000000;1.758339
9625.000000;1.759289
9624.000000;1.756468
9623.000000;1.752318
9622.000000;1.751551
9621.000000;1.756039
9620.000000;1.761898
9619.000000;1.762996
9618.000000;1.757978
9617.000000;1.752023
9616.000000;1.750500
9615.000000;1.753096
9614.000000;1.755017
9613.000000;1.752827
9612.000000;1.747884
9611.000000;1.743765
9610.000000;1.742060
9609.000000;1.741670
9608.000000;1.740980
9607.000000;1.739847
9606.000000;1.739708
9605.000000;1.741779
9604.000000;1.745150
9603.000000;1.747213
9602.000000;1.746644
9601.000000;1.745191
9600.000000;1.745226
9599.000000;1.746180
9598.000000;1.744887
9597.000000;1.739793
9596.000000;1.733468
9595.000000;1.729956
9594.000000;1.730711
9593.000000;1.733639
9592.000000;1.735333
9591.000000;1.733962
9590.000000;1.730456
9589.000000;1.727442
9588.000000;1.727059
9587.000000;1.729412
9586.000000;1.732863
9585.000000;1.735426
9584.000000;1.735648
9583.000000;1.733232
9582.000000;1.729708
9581.000000;1.727753
9580.000000;1.728807
9579.000000;1.731152
9578.000000;1.731425
9577.000000;1.728520
9576.000000;1.724543
9575.000000;1.722181
9574.000000;1.722238
9573.000000;1.723432
9572.000000;1.724241
9571.000000;1.724060
9570.000000;1.722566
9569.000000;1.719360
9568.000000;1.715071
9567.000000;1.712242
9566.000000;1.713877
9565.000000;1.720540
9564.000000;1.728899
9563.000000;1.733822
9562.000000;1.732887
9561.000000;1.728535
9560.000000;1.725042
9559.000000;1.724186
9558.000000;1.724746
9557.000000;1.725371
9556.000000;1.726322
9555.000000;1.728107
9554.000000;1.729798
9553.000000;1.729551
9552.000000;1.726456
9551.000000;1.721547
9550.000000;1.716921
9549.000000;1.714084
9548.000000;1.712907
9547.000000;1.711905
9546.000000;1.709730
9545.000000;1.706645
9544.000000;1.704326
9543.000000;1.703604
9542.000000;1.703309
9541.000000;1.702436
9540.000000;1.702177
9539.000000;1.704458
9538.000000;1.709388
9537.000000;1.715252
9536.000000;1.720780
9535.000000;1.726027
9534.000000;1.730413
9533.000000;1.731834
9532.000000;1.728907
9531.000000;1.723264
9530.000000;1.718845
9529.000000;1.718416
9528.000000;1.721188
9527.000000;1.724128
9526.000000;1.725011
9525.000000;1.723846
9524.000000;1.721734
9523.000000;1.719281
9522.000000;1.716470
9521.000000;1.713334
9520.000000;1.710136
9519.000000;1.707152
9518.000000;1.704798
9517.000000;1.703706
9516.000000;1.703998
9515.000000;1.704589
9514.000000;1.704215
9513.000000;1.703292
9512.000000;1.703647
9511.000000;1.706205
9510.000000;1.709824
9509.000000;1.712768
9508.000000;1.714480
9507.000000;1.715034
9506.000000;1.713804
9505.000000;1.710247
9504.000000;1.705423
9503.000000;1.701493
9502.000000;1.699954
9501.000000;1.700632
9500.000000;1.702477
9499.000000;1.705063
9498.000000;1.708586
9497.000000;1.712917
9496.000000;1.717434
9495.000000;1.721613
9494.000000;1.725421
9493.000000;1.728802
9492.000000;1.730808
9491.000000;1.729739
9490.000000;1.724698
9489.000000;1.716938
9488.000000;1.709076
9487.000000;1.702779
9486.000000;1.697855
9485.000000;1.693937
9484.000000;1.691656
9483.000000;1.691805
9482.000000;1.694960
9481.000000;1.701111
9480.000000;1.708555
9479.000000;1.714088
9478.000000;1.715169
9477.000000;1.712398
9476.000000;1.709083
9475.000000;1.707544
9474.000000;1.706887
9473.000000;1.704795
9472.000000;1.700243
9471.000000;1.694057
9470.000000;1.687886
9469.000000;1.683257
9468.000000;1.681201
9467.000000;1.681774
9466.000000;1.683924
9465.000000;1.686718
9464.000000;1.690251
9463.000000;1.694313
9462.000000;1.697175
9461.000000;1.697424
9460.000000;1.696257
9459.000000;1.696082
9458.000000;1.697404
9457.000000;1.698642
9456.000000;1.698678
9455.000000;1.698115
9454.000000;1.698084
9453.000000;1.699134
9452.000000;1.701334
9451.000000;1.704054
9450.000000;1.705443
9449.000000;1.703727
9448.000000;1.699704
9447.000000;1.696726
9446.000000;1.697612
9445.000000;1.701984
9444.000000;1.706759
9443.000000;1.709151
9442.000000;1.708986
9441.000000;1.708243
9440.000000;1.708481
9439.000000;1.708573
9438.000000;1.705577
9437.000000;1.698582
9436.000000;1.690550
9435.000000;1.685054
9434.000000;1.682489
9433.000000;1.681035
9432.000000;1.680414
9431.000000;1.682506
9430.000000;1.687937
9429.000000;1.693963
9428.000000;1.696881
9427.000000;1.695668
9426.000000;1.692178
9425.000000;1.688683
9424.000000;1.686379
9423.000000;1.685341
9422.000000;1.684621
9421.000000;1.682696
9420.000000;1.678779
9419.000000;1.673795
9418.000000;1.669818
9417.000000;1.668871
9416.000000;1.671952
9415.000000;1.678118
9414.000000;1.684441
9413.000000;1.688164
9412.000000;1.689308
9411.000000;1.690033
9410.000000;1.691365
9409.000000;1.692168
9408.000000;1.691481
9407.000000;1.690076
9406.000000;1.688976
9405.000000;1.687930
9404.000000;1.686457
9403.000000;1.685293
9402.000000;1.685526
9401.000000;1.687052
9400.000000;1.688840
9399.000000;1.689861
9398.000000;1.689093
9397.000000;1.686143
9396.000000;1.682655
9395.000000;1.681520
9394.000000;1.683603
9393.000000;1.686160
9392.000000;1.685925
9391.000000;1.683150
9390.000000;1.680554
9389.000000;1.679126
9388.000000;1.677498
9387.000000;1.675125
9386.000000;1.673523
9385.000000;1.673574
9384.000000;1.673704
9383.000000;1.672013
9382.000000;1.668976
9381.000000;1.666926
9380.000000;1.667662
9379.000000;1.671292
9378.000000;1.676642
9377.000000;1.681616
9376.000000;1.683610
9375.000000;1.681372
9374.000000;1.676593
9373.000000;1.672775
9372.000000;1.672432
9371.000000;1.675020
9370.000000;1.677619
9369.000000;1.677889
9368.000000;1.675991
9367.000000;1.673487
9366.000000;1.671235
9365.000000;1.669343
9364.000000;1.668554
9363.000000;1.670129
9362.000000;1.673842
9361.000000;1.677330
9360.000000;1.678727
9359.000000;1.678891
9358.000000;1.679566
9357.000000;1.680502
9356.000000;1.680060
9355.000000;1.678169
9354.000000;1.676506
9353.000000;1.675490
9352.000000;1.673490
9351.000000;1.670042
9350.000000;1.667724
9349.000000;1.668986
9348.000000;1.672355
9347.000000;1.673719
9346.000000;1.671324
9345.000000;1.667785
9344.000000;1.666535
9343.000000;1.667974
9342.000000;1.670051
9341.000000;1.671457
9340.000000;1.672814
9339.000000;1.674799
9338.000000;1.676464
9337.000000;1.676240
9336.000000;1.674133
9335.000000;1.671897
9334.000000;1.671019
9333.000000;1.671132
9332.000000;1.670455
9331.000000;1.667555
9330.000000;1.662611
9329.000000;1.657357
9328.000000;1.654366
9327.000000;1.655676
9326.000000;1.660961
9325.000000;1.667125
9324.000000;1.670453
9323.000000;1.669759
9322.000000;1.666914
9321.000000;1.664123
9320.000000;1.662096
9319.000000;1.660941
9318.000000;1.661273
9317.000000;1.663433
9316.000000;1.666010
9315.000000;1.666429
9314.000000;1.663742
9313.000000;1.660380
9312.000000;1.660372
9311.000000;1.665528
9310.000000;1.673066
9309.000000;1.677132
9308.000000;1.673861
9307.000000;1.665282
9306.000000;1.657152
9305.000000;1.653379
9304.000000;1.653458
9303.000000;1.654726
9302.000000;1.655839
9301.000000;1.657249
9300.000000;1.659055
9299.000000;1.660067
9298.000000;1.659392
9297.000000;1.657989
9296.000000;1.657925
9295.000000;1.660283
9294.000000;1.663977
9293.000000;1.666429
9292.000000;1.665661
9291.000000;1.662448
9290.000000;1.660298
9289.000000;1.662372
9288.000000;1.668015
9287.000000;1.672795
9286.000000;1.672847
9285.000000;1.668792
9284.000000;1.664229
9283.000000;1.661543
9282.000000;1.660589
9281.000000;1.660348
9280.000000;1.660104
9279.000000;1.659045
9278.000000;1.656455
9277.000000;1.653094
9276.000000;1.651184
9275.000000;1.652087
9274.000000;1.654695
9273.000000;1.656833
9272.000000;1.657557
9271.000000;1.657104
9270.000000;1.655339
9269.000000;1.651702
9268.000000;1.647000
9267.000000;1.644026
9266.000000;1.645209
9265.000000;1.649994
9264.000000;1.655154
9263.000000;1.657600
9262.000000;1.656907
9261.000000;1.655122
9260.000000;1.654207
9259.000000;1.653985
9258.000000;1.652870
9257.000000;1.650388
9256.000000;1.648042
9255.000000;1.647281
9254.000000;1.647682
9253.000000;1.648087
9252.000000;1.648678
9251.000000;1.650517
9250.000000;1.653326
9249.000000;1.655364
9248.000000;1.656146
9247.000000;1.657494
9246.000000;1.660447
9245.000000;1.662797
9244.000000;1.661674
9243.000000;1.657768
9242.000000;1.654906
9241.000000;1.655737
9240.000000;1.659485
9239.000000;1.663475
9238.000000;1.665320
9237.000000;1.663755
9236.000000;1.658900
9235.000000;1.652711
9234.000000;1.648467
9233.000000;1.648374
9232.000000;1.651415
9231.000000;1.654189
9230.000000;1.654151
9229.000000;1.651768
9228.000000;1.649368
9227.000000;1.648451
9226.000000;1.648342
9225.000000;1.647151
9224.000000;1.643950
9223.000000;1.640041
9222.000000;1.637913
9221.000000;1.638818
9220.000000;1.641362
9219.000000;1.642627
9218.000000;1.640945
9217.000000;1.637620
9216.000000;1.635728
9215.000000;1.637289
9214.000000;1.641667
9213.000000;1.646515
9212.000000;1.650019
9211.000000;1.651911
9210.000000;1.652262
9209.000000;1.650314
9208.000000;1.645650
9207.000000;1.640170
9206.000000;1.637443
9205.000000;1.639351
9204.000000;1.643906
9203.000000;1.647129
9202.000000;1.647179
9201.000000;1.645692
9200.000000;1.644895
9199.000000;1.645136
9198.000000;1.645788
9197.000000;1.646838
9196.000000;1.648141
9195.000000;1.647794
9194.000000;1.643305
9193.000000;1.635067
9192.000000;1.626980
9191.000000;1.622769
9190.000000;1.622842
9189.000000;1.625340
9188.000000;1.629068
9187.000000;1.633915
9186.000000;1.638723
9185.000000;1.640798
9184.000000;1.638739
9183.000000;1.634716
9182.000000;1.632532
9181.000000;1.633872
9180.000000;1.637166
9179.000000;1.639643
9178.000000;1.639877
9177.000000;1.638510
9176.000000;1.637233
9175.000000;1.637440
9174.000000;1.639423
9173.000000;1.642220
9172.000000;1.644192
9171.000000;1.644140
9170.000000;1.642120
9169.000000;1.639278
9168.000000;1.636913
9167.000000;1.635661
9166.000000;1.635517
9165.000000;1.636424
9164.000000;1.638351
9163.000000;1.640541
9162.000000;1.641283
9161.000000;1.639423
9160.000000;1.636041
9159.000000;1.633639
9158.000000;1.633697
9157.000000;1.635683
9156.000000;1.638068
9155.000000;1.639502
9154.000000;1.639031
9153.000000;1.636316
9152.000000;1.632523
9151.000000;1.630156
9150.000000;1.630780
9149.000000;1.633130
9148.000000;1.634336
9147.000000;1.633140
9146.000000;1.631157
9145.000000;1.630745
9144.000000;1.632305
9143.000000;1.633977
9142.000000;1.633614
9141.000000;1.630865
9140.000000;1.627328
9139.000000;1.624973
9138.000000;1.624610
9137.000000;1.625620
9136.000000;1.626791
9135.000000;1.627145
9134.000000;1.626182
9133.000000;1.624075
9132.000000;1.621900
9131.000000;1.621152
9130.000000;1.622538
9129.000000;1.625396
9128.000000;1.628425
9127.000000;1.630608
9126.000000;1.631234
9125.000000;1.629764
9124.000000;1.626412
9123.000000;1.622432
9122.000000;1.619149
9121.000000;1.617033
9120.000000;1.616195
9119.000000;1.617224
9118.000000;1.620589
9117.000000;1.625400
9116.000000;1.629744
9115.000000;1.632348
9114.000000;1.633123
9113.000000;1.632234
9112.000000;1.629860
9111.000000;1.627102
9110.000000;1.625999
9109.000000;1.627674
9108.000000;1.630715
9107.000000;1.632240
9106.000000;1.630877
9105.000000;1.628251
9104.000000;1.627198
9103.000000;1.628817
9102.000000;1.631365
9101.000000;1.632041
9100.000000;1.629800
9099.000000;1.626029
9098.000000;1.622599
9097.000000;1.620279
9096.000000;1.619383
9095.000000;1.620825
9094.000000;1.625154
9093.000000;1.630725
9092.000000;1.634318
9091.000000;1.634306
9090.000000;1.632115
9089.000000;1.629787
9088.000000;1.627430
9087.000000;1.624082
9086.000000;1.620197
9085.000000;1.617911
9084.000000;1.618813
9083.000000;1.622230
9082.000000;1.625759
9081.000000;1.627192
9080.000000;1.626067
9079.000000;1.623692
9078.000000;1.621800
9077.000000;1.621177
9076.000000;1.621531
9075.000000;1.622384
9074.000000;1.623528
9073.000000;1.624503
9072.000000;1.624323
9071.000000;1.622329
9070.000000;1.619113
9069.000000;1.616267
9068.000000;1.615308
9067.000000;1.616725
9066.000000;1.619668
9065.000000;1.622332
9064.000000;1.623015
9063.000000;1.621528
9062.000000;1.619483
9061.000000;1.618613
9060.000000;1.619172
9059.000000;1.620428
9058.000000;1.622094
9057.000000;1.624370
9056.000000;1.626846
9055.000000;1.628348
9054.000000;1.628089
9053.000000;1.626291
