Criado como novo conjunto de dados;"e0108.spp","-4289205.0 Secs"
cm-1;Abs
10000.000000;0.715413
9999.000000;0.715009
9998.000000;0.715157
9997.000000;0.715890
9996.000000;0.716564
9995.000000;0.716544
9994.000000;0.715748
9993.000000;0.714695
9992.000000;0.713853
9991.000000;0.713227
9990.000000;0.712469
9989.000000;0.711331
9988.000000;0.709942
9987.000000;0.708711
9986.000000;0.708064
9985.000000;0.708197
9984.000000;0.708936
9983.000000;0.709766
9982.000000;0.710075
9981.000000;0.709516
9980.000000;0.708268
9979.000000;0.706909
9978.000000;0.705992
9977.000000;0.705712
9976.000000;0.705988
9975.000000;0.706713
9974.000000;0.707692
9973.000000;0.708359
9972.000000;0.707975
9971.000000;0.706403
9970.000000;0.704473
9969.000000;0.703208
9968.000000;0.702811
9967.000000;0.702733
9966.000000;0.702598
9965.000000;0.702538
9964.000000;0.702585
9963.000000;0.702356
9962.000000;0.701679
9961.000000;0.701052
9960.000000;0.700978
9959.000000;0.701123
9958.000000;0.700689
9957.000000;0.699538
9956.000000;0.698444
9955.000000;0.698162
9954.000000;0.698630
9953.000000;0.699199
9952.000000;0.699304
9951.000000;0.698785
9950.000000;0.697840
9949.000000;0.696889
9948.000000;0.696298
9947.000000;0.696046
9946.000000;0.695757
9945.000000;0.695191
9944.000000;0.694576
9943.000000;0.694337
9942.000000;0.694535
9941.000000;0.694669
9940.000000;0.694072
9939.000000;0.692602
9938.000000;0.691004
9937.000000;0.690453
9936.000000;0.691472
9935.000000;0.693260
9934.000000;0.694311
9933.000000;0.693793
9932.000000;0.692221
9931.000000;0.690802
9930.000000;0.690336
9929.000000;0.690799
9928.000000;0.691626
9927.000000;0.692140
9926.000000;0.691883
9925.000000;0.690833
9924.000000;0.689359
9923.000000;0.687927
9922.000000;0.686866
9921.000000;0.686348
9920.000000;0.686395
9919.000000;0.686788
9918.000000;0.687161
9917.000000;0.687370
9916.000000;0.687620
9915.000000;0.688052
9914.000000;0.688341
9913.000000;0.687926
9912.000000;0.686646
9911.000000;0.684977
9910.000000;0.683620
9909.000000;0.682956
9908.000000;0.682875
9907.000000;0.682957
9906.000000;0.682777
9905.000000;0.682157
9904.000000;0.681210
9903.000000;0.680166
9902.000000;0.679195
9901.000000;0.678414
9900.000000;0.677963
9899.000000;0.677959
9898.000000;0.678325
9897.000000;0.678746
9896.000000;0.678888
9895.000000;0.678694
9894.000000;0.678447
9893.000000;0.678468
9892.000000;0.678717
9891.000000;0.678808
9890.000000;0.678504
9889.000000;0.678086
9888.000000;0.677995
9887.000000;0.678179
9886.000000;0.678054
9885.000000;0.677187
9884.000000;0.675794
9883.000000;0.674428
9882.000000;0.673398
9881.000000;0.672680
9880.000000;0.672186
9879.000000;0.671885
9878.000000;0.671746
9877.000000;0.671767
9876.000000;0.671999
9875.000000;0.672348
9874.000000;0.672469
9873.000000;0.672114
9872.000000;0.671557
9871.000000;0.671366
9870.000000;0.671675
9869.000000;0.671906
9868.000000;0.671358
9867.000000;0.669966
9866.000000;0.668399
9865.000000;0.667460
9864.000000;0.667457
9863.000000;0.668019
9862.000000;0.668449
9861.000000;0.668300
9860.000000;0.667720
9859.000000;0.667203
9858.000000;0.667009
9857.000000;0.666917
9856.000000;0.666591
9855.000000;0.666046
9854.000000;0.665647
9853.000000;0.665675
9852.000000;0.666063
9851.000000;0.666517
9850.000000;0.666747
9849.000000;0.666524
9848.000000;0.665687
9847.000000;0.664293
9846.000000;0.662738
9845.000000;0.661582
9844.000000;0.661173
9843.000000;0.661450
9842.000000;0.662047
9841.000000;0.662513
9840.000000;0.662503
9839.000000;0.662000
9838.000000;0.661419
9837.000000;0.661280
9836.000000;0.661626
9835.000000;0.661870
9834.000000;0.661362
9833.000000;0.660031
9832.000000;0.658331
9831.000000;0.656764
9830.000000;0.655661
9829.000000;0.655240
9828.000000;0.655500
9827.000000;0.656047
9826.000000;0.656356
9825.000000;0.656285
9824.000000;0.656096
9823.000000;0.655923
9822.000000;0.655520
9821.000000;0.654681
9820.000000;0.653622
9819.000000;0.652739
9818.000000;0.652180
9817.000000;0.651843
9816.000000;0.651636
9815.000000;0.651522
9814.000000;0.651423
9813.000000;0.651286
9812.000000;0.651154
9811.000000;0.651042
9810.000000;0.650846
9809.000000;0.650531
9808.000000;0.650301
9807.000000;0.650393
9806.000000;0.650736
9805.000000;0.651011
9804.000000;0.650982
9803.000000;0.650637
9802.000000;0.650074
9801.000000;0.649441
9800.000000;0.648939
9799.000000;0.648658
9798.000000;0.648389
9797.000000;0.647823
9796.000000;0.646974
9795.000000;0.646236
9794.000000;0.645936
9793.000000;0.645941
9792.000000;0.645808
9791.000000;0.645273
9790.000000;0.644561
9789.000000;0.644230
9788.000000;0.644652
9787.000000;0.645601
9786.000000;0.646400
9785.000000;0.646531
9784.000000;0.646056
9783.000000;0.645375
9782.000000;0.644733
9781.000000;0.644088
9780.000000;0.643349
9779.000000;0.642566
9778.000000;0.641895
9777.000000;0.641517
9776.000000;0.641522
9775.000000;0.641722
9774.000000;0.641677
9773.000000;0.641149
9772.000000;0.640468
9771.000000;0.640206
9770.000000;0.640448
9769.000000;0.640637
9768.000000;0.640198
9767.000000;0.639127
9766.000000;0.637863
9765.000000;0.636802
9764.000000;0.636105
9763.000000;0.635820
9762.000000;0.635942
9761.000000;0.636313
9760.000000;0.636631
9759.000000;0.636626
9758.000000;0.636235
9757.000000;0.635623
9756.000000;0.635045
9755.000000;0.634662
9754.000000;0.634472
9753.000000;0.634387
9752.000000;0.634313
9751.000000;0.634139
9750.000000;0.633767
9749.000000;0.633248
9748.000000;0.632813
9747.000000;0.632642
9746.000000;0.632637
9745.000000;0.632501
9744.000000;0.632010
9743.000000;0.631181
9742.000000;0.630289
9741.000000;0.629798
9740.000000;0.630048
9739.000000;0.630790
9738.000000;0.631179
9737.000000;0.630580
9736.000000;0.629325
9735.000000;0.628354
9734.000000;0.628132
9733.000000;0.628316
9732.000000;0.628484
9731.000000;0.628682
9730.000000;0.628987
9729.000000;0.628999
9728.000000;0.628245
9727.000000;0.626913
9726.000000;0.625729
9725.000000;0.625159
9724.000000;0.625061
9723.000000;0.625048
9722.000000;0.624835
9721.000000;0.624231
9720.000000;0.623190
9719.000000;0.622046
9718.000000;0.621403
9717.000000;0.621526
9716.000000;0.621977
9715.000000;0.622039
9714.000000;0.621457
9713.000000;0.620636
9712.000000;0.620201
9711.000000;0.620490
9710.000000;0.621368
9709.000000;0.622339
9708.000000;0.622851
9707.000000;0.622672
9706.000000;0.622058
9705.000000;0.621462
9704.000000;0.621047
9703.000000;0.620573
9702.000000;0.619801
9701.000000;0.618887
9700.000000;0.618222
9699.000000;0.617977
9698.000000;0.617964
9697.000000;0.617947
9696.000000;0.617920
9695.000000;0.617990
9694.000000;0.618108
9693.000000;0.618036
9692.000000;0.617568
9691.000000;0.616738
9690.000000;0.615825
9689.000000;0.615186
9688.000000;0.614977
9687.000000;0.614965
9686.000000;0.614724
9685.000000;0.614116
9684.000000;0.613507
9683.000000;0.613384
9682.000000;0.613838
9681.000000;0.614496
9680.000000;0.614868
9679.000000;0.614624
9678.000000;0.613690
9677.000000;0.612347
9676.000000;0.611190
9675.000000;0.610671
9674.000000;0.610613
9673.000000;0.610433
9672.000000;0.609931
9671.000000;0.609582
9670.000000;0.609872
9669.000000;0.610607
9668.000000;0.611125
9667.000000;0.611078
9666.000000;0.610716
9665.000000;0.610440
9664.000000;0.610322
9663.000000;0.610097
9662.000000;0.609460
9661.000000;0.608355
9660.000000;0.607096
9659.000000;0.606178
9658.000000;0.605870
9657.000000;0.605997
9656.000000;0.606172
9655.000000;0.606159
9654.000000;0.605920
9653.000000;0.605487
9652.000000;0.604973
9651.000000;0.604611
9650.000000;0.604512
9649.000000;0.604393
9648.000000;0.603816
9647.000000;0.602720
9646.000000;0.601517
9645.000000;0.600658
9644.000000;0.600328
9643.000000;0.600579
9642.000000;0.601386
9641.000000;0.602408
9640.000000;0.602972
9639.000000;0.602608
9638.000000;0.601492
9637.000000;0.600218
9636.000000;0.599277
9635.000000;0.598877
9634.000000;0.599039
9633.000000;0.599525
9632.000000;0.599799
9631.000000;0.599434
9630.000000;0.598645
9629.000000;0.598130
9628.000000;0.598260
9627.000000;0.598632
9626.000000;0.598614
9625.000000;0.598115
9624.000000;0.597590
9623.000000;0.597342
9622.000000;0.597133
9621.000000;0.596620
9620.000000;0.595985
9619.000000;0.595806
9618.000000;0.596276
9617.000000;0.596792
9616.000000;0.596552
9615.000000;0.595498
9614.000000;0.594383
9613.000000;0.593845
9612.000000;0.593684
9611.000000;0.593214
9610.000000;0.592161
9609.000000;0.590943
9608.000000;0.590143
9607.000000;0.589970
9606.000000;0.590293
9605.000000;0.590896
9604.000000;0.591556
9603.000000;0.592011
9602.000000;0.592047
9601.000000;0.591622
9600.000000;0.590884
9599.000000;0.590107
9598.000000;0.589603
9597.000000;0.589546
9596.000000;0.589808
9595.000000;0.590022
9594.000000;0.589917
9593.000000;0.589548
9592.000000;0.589159
9591.000000;0.588898
9590.000000;0.588724
9589.000000;0.588505
9588.000000;0.588096
9587.000000;0.587389
9586.000000;0.586453
9585.000000;0.585604
9584.000000;0.585181
9583.000000;0.585218
9582.000000;0.585411
9581.000000;0.585427
9580.000000;0.585188
9579.000000;0.584848
9578.000000;0.584589
9577.000000;0.584447
9576.000000;0.584281
9575.000000;0.583901
9574.000000;0.583294
9573.000000;0.582720
9572.000000;0.582452
9571.000000;0.582413
9570.000000;0.582199
9569.000000;0.581567
9568.000000;0.580768
9567.000000;0.580256
9566.000000;0.580123
9565.000000;0.580047
9564.000000;0.579831
9563.000000;0.579752
9562.000000;0.580180
9561.000000;0.580960
9560.000000;0.581419
9559.000000;0.581066
9558.000000;0.580104
9557.000000;0.579157
9556.000000;0.578597
9555.000000;0.578340
9554.000000;0.578184
9553.000000;0.578110
9552.000000;0.578132
9551.000000;0.578056
9550.000000;0.577580
9549.000000;0.576653
9548.000000;0.575573
9547.000000;0.574703
9546.000000;0.574149
9545.000000;0.573761
9544.000000;0.573416
9543.000000;0.573218
9542.000000;0.573388
9541.000000;0.573950
9540.000000;0.574596
9539.000000;0.574940
9538.000000;0.574918
9537.000000;0.574813
9536.000000;0.574877
9535.000000;0.575040
9534.000000;0.575072
9533.000000;0.574909
9532.000000;0.574670
9531.000000;0.574408
9530.000000;0.574033
9529.000000;0.573507
9528.000000;0.572944
9527.000000;0.572426
9526.000000;0.571873
9525.000000;0.571234
9524.000000;0.570668
9523.000000;0.570345
9522.000000;0.570133
9521.000000;0.569701
9520.000000;0.568984
9519.000000;0.568363
9518.000000;0.568270
9517.000000;0.568742
9516.000000;0.569447
9515.000000;0.570041
9514.000000;0.570333
9513.000000;0.570198
9512.000000;0.569564
9511.000000;0.568533
9510.000000;0.567380
9509.000000;0.566384
9508.000000;0.565722
9507.000000;0.565477
9506.000000;0.565578
9505.000000;0.565723
9504.000000;0.565599
9503.000000;0.565252
9502.000000;0.565076
9501.000000;0.565273
9500.000000;0.565549
9499.000000;0.565509
9498.000000;0.565179
9497.000000;0.564859
9496.000000;0.564630
9495.000000;0.564351
9494.000000;0.564080
9493.000000;0.564074
9492.000000;0.564314
9491.000000;0.564397
9490.000000;0.564073
9489.000000;0.563556
9488.000000;0.563129
9487.000000;0.562731
9486.000000;0.562213
9485.000000;0.561753
9484.000000;0.561656
9483.000000;0.561865
9482.000000;0.561996
9481.000000;0.561834
9480.000000;0.561505
9479.000000;0.561177
9478.000000;0.560837
9477.000000;0.560395
9476.000000;0.559826
9475.000000;0.559160
9474.000000;0.558496
9473.000000;0.558013
9472.000000;0.557787
9471.000000;0.557609
9470.000000;0.557191
9469.000000;0.556575
9468.000000;0.556144
9467.000000;0.556159
9466.000000;0.556475
9465.000000;0.556766
9464.000000;0.556877
9463.000000;0.556856
9462.000000;0.556811
9461.000000;0.556828
9460.000000;0.556926
9459.000000;0.556999
9458.000000;0.556901
9457.000000;0.556626
9456.000000;0.556300
9455.000000;0.555968
9454.000000;0.555559
9453.000000;0.555099
9452.000000;0.554804
9451.000000;0.554821
9450.000000;0.555007
9449.000000;0.555083
9448.000000;0.554924
9447.000000;0.554612
9446.000000;0.554309
9445.000000;0.554180
9444.000000;0.554323
9443.000000;0.554588
9442.000000;0.554527
9441.000000;0.553721
9440.000000;0.552234
9439.000000;0.550668
9438.000000;0.549711
9437.000000;0.549609
9436.000000;0.550016
9435.000000;0.550347
9434.000000;0.550292
9433.000000;0.550041
9432.000000;0.550011
9431.000000;0.550377
9430.000000;0.550904
9429.000000;0.551201
9428.000000;0.551059
9427.000000;0.550540
9426.000000;0.549881
9425.000000;0.549329
9424.000000;0.548957
9423.000000;0.548605
9422.000000;0.548066
9421.000000;0.547377
9420.000000;0.546801
9419.000000;0.546495
9418.000000;0.546319
9417.000000;0.546080
9416.000000;0.545806
9415.000000;0.545684
9414.000000;0.545782
9413.000000;0.545997
9412.000000;0.546214
9411.000000;0.546379
9410.000000;0.546442
9409.000000;0.546311
9408.000000;0.545929
9407.000000;0.545381
9406.000000;0.544891
9405.000000;0.544637
9404.000000;0.544529
9403.000000;0.544255
9402.000000;0.543672
9401.000000;0.543046
9400.000000;0.542731
9399.000000;0.542675
9398.000000;0.542478
9397.000000;0.541951
9396.000000;0.541327
9395.000000;0.540870
9394.000000;0.540610
9393.000000;0.540610
9392.000000;0.541099
9391.000000;0.542034
9390.000000;0.542821
9389.000000;0.542876
9388.000000;0.542297
9387.000000;0.541636
9386.000000;0.541155
9385.000000;0.540718
9384.000000;0.540286
9383.000000;0.540036
9382.000000;0.539956
9381.000000;0.539780
9380.000000;0.539435
9379.000000;0.539177
9378.000000;0.539123
9377.000000;0.539041
9376.000000;0.538784
9375.000000;0.538588
9374.000000;0.538652
9373.000000;0.538749
9372.000000;0.538581
9371.000000;0.538294
9370.000000;0.538258
9369.000000;0.538476
9368.000000;0.538564
9367.000000;0.538281
9366.000000;0.537755
9365.000000;0.537177
9364.000000;0.536579
9363.000000;0.535992
9362.000000;0.535574
9361.000000;0.535469
9360.000000;0.535647
9359.000000;0.535944
9358.000000;0.536141
9357.000000;0.536022
9356.000000;0.535535
9355.000000;0.534950
9354.000000;0.534674
9353.000000;0.534826
9352.000000;0.535105
9351.000000;0.535157
9350.000000;0.534914
9349.000000;0.534497
9348.000000;0.533958
9347.000000;0.533294
9346.000000;0.532630
9345.000000;0.532174
9344.000000;0.531970
9343.000000;0.531820
9342.000000;0.531526
9341.000000;0.531141
9340.000000;0.530959
9339.000000;0.531266
9338.000000;0.532066
9337.000000;0.532995
9336.000000;0.533534
9335.000000;0.533371
9334.000000;0.532615
9333.000000;0.531652
9332.000000;0.530812
9331.000000;0.530194
9330.000000;0.529743
9329.000000;0.529422
9328.000000;0.529252
9327.000000;0.529224
9326.000000;0.529190
9325.000000;0.528945
9324.000000;0.528492
9323.000000;0.528176
9322.000000;0.528392
9321.000000;0.529094
9320.000000;0.529744
9319.000000;0.529871
9318.000000;0.529575
9317.000000;0.529279
9316.000000;0.529119
9315.000000;0.528824
9314.000000;0.528201
9313.000000;0.527392
9312.000000;0.526586
9311.000000;0.525741
9310.000000;0.524804
9309.000000;0.524010
9308.000000;0.523700
9307.000000;0.523911
9306.000000;0.524372
9305.000000;0.524841
9304.000000;0.525239
9303.000000;0.525496
9302.000000;0.525493
9301.000000;0.525202
9300.000000;0.524737
9299.000000;0.524232
9298.000000;0.523806
9297.000000;0.523631
9296.000000;0.523841
9295.000000;0.524326
9294.000000;0.524744
9293.000000;0.524812
9292.000000;0.524481
9291.000000;0.523875
9290.000000;0.523207
9289.000000;0.522772
9288.000000;0.522789
9287.000000;0.523147
9286.000000;0.523480
9285.000000;0.523532
9284.000000;0.523328
9283.000000;0.522964
9282.000000;0.522482
9281.000000;0.522020
9280.000000;0.521794
9279.000000;0.521764
9278.000000;0.521558
9277.000000;0.521001
9276.000000;0.520485
9275.000000;0.520525
9274.000000;0.521055
9273.000000;0.521526
9272.000000;0.521574
9271.000000;0.521286
9270.000000;0.520819
9269.000000;0.520183
9268.000000;0.519478
9267.000000;0.519003
9266.000000;0.518902
9265.000000;0.518947
9264.000000;0.518863
9263.000000;0.518707
9262.000000;0.518742
9261.000000;0.519033
9260.000000;0.519335
9259.000000;0.519326
9258.000000;0.518846
9257.000000;0.518001
9256.000000;0.517130
9255.000000;0.516593
9254.000000;0.516478
9253.000000;0.516558
9252.000000;0.516589
9251.000000;0.516536
9250.000000;0.516440
9249.000000;0.516204
9248.000000;0.515695
9247.000000;0.514983
9246.000000;0.514346
9245.000000;0.514027
9244.000000;0.514079
9243.000000;0.514377
9242.000000;0.514683
9241.000000;0.514772
9240.000000;0.514644
9239.000000;0.514600
9238.000000;0.514969
9237.000000;0.515717
9236.000000;0.516440
9235.000000;0.516740
9234.000000;0.516564
9233.000000;0.516141
9232.000000;0.515720
9231.000000;0.515412
9230.000000;0.515215
9229.000000;0.515072
9228.000000;0.514891
9227.000000;0.514571
9226.000000;0.514084
9225.000000;0.513559
9224.000000;0.513217
9223.000000;0.513168
9222.000000;0.513251
9221.000000;0.513179
9220.000000;0.512869
9219.000000;0.512532
9218.000000;0.512386
9217.000000;0.512394
9216.000000;0.512381
9215.000000;0.512342
9214.000000;0.512448
9213.000000;0.512805
9212.000000;0.513327
9211.000000;0.513854
9210.000000;0.514238
9209.000000;0.514296
9208.000000;0.513889
9207.000000;0.513153
9206.000000;0.512500
9205.000000;0.512233
9204.000000;0.512206
9203.000000;0.512010
9202.000000;0.511431
9201.000000;0.510601
9200.000000;0.509746
9199.000000;0.508981
9198.000000;0.508400
9197.000000;0.508152
9196.000000;0.508259
9195.000000;0.508450
9194.000000;0.508396
9193.000000;0.508108
9192.000000;0.507925
9191.000000;0.508068
9190.000000;0.508384
9189.000000;0.508627
9188.000000;0.508807
9187.000000;0.509051
9186.000000;0.509207
9185.000000;0.508894
9184.000000;0.508039
9183.000000;0.507118
9182.000000;0.506685
9181.000000;0.506768
9180.000000;0.506932
9179.000000;0.506871
9178.000000;0.506709
9177.000000;0.506694
9176.000000;0.506796
9175.000000;0.506743
9174.000000;0.506390
9173.000000;0.505896
9172.000000;0.505545
9171.000000;0.505456
9170.000000;0.505491
9169.000000;0.505421
9168.000000;0.505163
9167.000000;0.504861
9166.000000;0.504719
9165.000000;0.504750
9164.000000;0.504747
9163.000000;0.504525
9162.000000;0.504150
9161.000000;0.503885
9160.000000;0.503904
9159.000000;0.504111
9158.000000;0.504243
9157.000000;0.504110
9156.000000;0.503739
9155.000000;0.503323
9154.000000;0.503098
9153.000000;0.503229
9152.000000;0.503725
9151.000000;0.504373
9150.000000;0.504823
9149.000000;0.504818
9148.000000;0.504390
9147.000000;0.503789
9146.000000;0.503226
9145.000000;0.502728
9144.000000;0.502266
9143.000000;0.501917
9142.000000;0.501809
9141.000000;0.501905
9140.000000;0.501977
9139.000000;0.501860
9138.000000;0.501639
9137.000000;0.501525
9136.000000;0.501593
9135.000000;0.501721
9134.000000;0.501768
9133.000000;0.501695
9132.000000;0.501501
9131.000000;0.501164
9130.000000;0.500725
9129.000000;0.500361
9128.000000;0.500245
9127.000000;0.500364
9126.000000;0.500575
9125.000000;0.500813
9124.000000;0.501111
9123.000000;0.501381
9122.000000;0.501370
9121.000000;0.500966
9120.000000;0.500418
9119.000000;0.500096
9118.000000;0.500081
9117.000000;0.500161
9116.000000;0.500163
9115.000000;0.500069
9114.000000;0.499815
9113.000000;0.499268
9112.000000;0.498503
9111.000000;0.497904
9110.000000;0.497765
9109.000000;0.497909
9108.000000;0.497919
9107.000000;0.497666
9106.000000;0.497412
9105.000000;0.497412
9104.000000;0.497635
9103.000000;0.497919
9102.000000;0.498202
9101.000000;0.498506
9100.000000;0.498784
9099.000000;0.498920
9098.000000;0.498824
9097.000000;0.498495
9096.000000;0.498022
9095.000000;0.497573
9094.000000;0.497317
9093.000000;0.497272
9092.000000;0.497252
9091.000000;0.497034
9090.000000;0.496601
9089.000000;0.496179
9088.000000;0.496003
9087.000000;0.496079
9086.000000;0.496203
9085.000000;0.496223
9084.000000;0.496184
9083.000000;0.496175
9082.000000;0.496110
9081.000000;0.495820
9080.000000;0.495358
9079.000000;0.495053
9078.000000;0.495130
9077.000000;0.495427
9076.000000;0.495624
9075.000000;0.495624
9074.000000;0.495534
9073.000000;0.495353
9072.000000;0.494954
9071.000000;0.494412
9070.000000;0.494112
9069.000000;0.494364
9068.000000;0.495017
9067.000000;0.495566
9066.000000;0.495594
9065.000000;0.495048
9064.000000;0.494192
9063.000000;0.493407
9062.000000;0.492964
9061.000000;0.492888
9060.000000;0.493002
9059.000000;0.493123
9058.000000;0.493204
9057.000000;0.493291
9056.000000;0.493432
9055.000000;0.493628
9054.000000;0.493798
9053.000000;0.493788
