Criado como novo conjunto de dados;"e0108.spp","-4278764.7 Secs"
cm-1;Abs
10000.000000;1.093288
9999.000000;1.094877
9998.000000;1.096456
9997.000000;1.098068
9996.000000;1.099638
9995.000000;1.101315
9994.000000;1.102666
9993.000000;1.102405
9992.000000;1.100863
9991.000000;1.099096
9990.000000;1.097759
9989.000000;1.096629
9988.000000;1.095475
9987.000000;1.094717
9986.000000;1.094975
9985.000000;1.096015
9984.000000;1.096550
9983.000000;1.095438
9982.000000;1.093002
9981.000000;1.090805
9980.000000;1.090010
9979.000000;1.090241
9978.000000;1.090253
9977.000000;1.089469
9976.000000;1.088505
9975.000000;1.088238
9974.000000;1.088741
9973.000000;1.089275
9972.000000;1.089119
9971.000000;1.088191
9970.000000;1.086910
9969.000000;1.085685
9968.000000;1.084706
9967.000000;1.084237
9966.000000;1.084773
9965.000000;1.086502
9964.000000;1.088627
9963.000000;1.089754
9962.000000;1.089320
9961.000000;1.088287
9960.000000;1.087920
9959.000000;1.088126
9958.000000;1.087570
9957.000000;1.085448
9956.000000;1.082614
9955.000000;1.080660
9954.000000;1.080302
9953.000000;1.081050
9952.000000;1.082124
9951.000000;1.083142
9950.000000;1.083931
9949.000000;1.084245
9948.000000;1.083988
9947.000000;1.083462
9946.000000;1.083038
9945.000000;1.082681
9944.000000;1.082057
9943.000000;1.081093
9942.000000;1.080056
9941.000000;1.078978
9940.000000;1.077462
9939.000000;1.075524
9938.000000;1.074323
9937.000000;1.075313
9936.000000;1.078496
9935.000000;1.081955
9934.000000;1.083464
9933.000000;1.082378
9932.000000;1.079818
9931.000000;1.077431
9930.000000;1.076193
9929.000000;1.075972
9928.000000;1.075767
9927.000000;1.074657
9926.000000;1.072869
9925.000000;1.071620
9924.000000;1.071606
9923.000000;1.072071
9922.000000;1.071886
9921.000000;1.071138
9920.000000;1.070850
9919.000000;1.071354
9918.000000;1.071893
9917.000000;1.071901
9916.000000;1.071730
9915.000000;1.071779
9914.000000;1.071747
9913.000000;1.071313
9912.000000;1.070910
9911.000000;1.071148
9910.000000;1.071792
9909.000000;1.071912
9908.000000;1.070886
9907.000000;1.068808
9906.000000;1.066132
9905.000000;1.063466
9904.000000;1.061639
9903.000000;1.061362
9902.000000;1.062609
9901.000000;1.064544
9900.000000;1.066152
9899.000000;1.066864
9898.000000;1.066712
9897.000000;1.066127
9896.000000;1.065549
9895.000000;1.064990
9894.000000;1.064018
9893.000000;1.062374
9892.000000;1.060551
9891.000000;1.059533
9890.000000;1.059905
9889.000000;1.061331
9888.000000;1.062868
9887.000000;1.063656
9886.000000;1.063379
9885.000000;1.062274
9884.000000;1.060766
9883.000000;1.059137
9882.000000;1.057589
9881.000000;1.056517
9880.000000;1.056384
9879.000000;1.057170
9878.000000;1.058098
9877.000000;1.058163
9876.000000;1.056941
9875.000000;1.054901
9874.000000;1.053104
9873.000000;1.052617
9872.000000;1.053845
9871.000000;1.056103
9870.000000;1.057985
9869.000000;1.058463
9868.000000;1.057598
9867.000000;1.056068
9866.000000;1.054392
9865.000000;1.052872
9864.000000;1.051905
9863.000000;1.051764
9862.000000;1.052160
9861.000000;1.052465
9860.000000;1.052328
9859.000000;1.051762
9858.000000;1.050817
9857.000000;1.049669
9856.000000;1.048914
9855.000000;1.049128
9854.000000;1.050021
9853.000000;1.050539
9852.000000;1.049990
9851.000000;1.048739
9850.000000;1.047652
9849.000000;1.047311
9848.000000;1.047891
9847.000000;1.049259
9846.000000;1.050822
9845.000000;1.051683
9844.000000;1.051380
9843.000000;1.050241
9842.000000;1.048757
9841.000000;1.046944
9840.000000;1.044780
9839.000000;1.042862
9838.000000;1.042014
9837.000000;1.042320
9836.000000;1.043071
9835.000000;1.043706
9834.000000;1.044331
9833.000000;1.045188
9832.000000;1.046083
9831.000000;1.046614
9830.000000;1.046649
9829.000000;1.046234
9828.000000;1.045238
9827.000000;1.043445
9826.000000;1.041059
9825.000000;1.038860
9824.000000;1.037675
9823.000000;1.037658
9822.000000;1.038156
9821.000000;1.038377
9820.000000;1.038195
9819.000000;1.038158
9818.000000;1.038631
9817.000000;1.039164
9816.000000;1.038996
9815.000000;1.038061
9814.000000;1.037095
9813.000000;1.036677
9812.000000;1.036540
9811.000000;1.036020
9810.000000;1.034943
9809.000000;1.033772
9808.000000;1.032983
9807.000000;1.032642
9806.000000;1.032550
9805.000000;1.032478
9804.000000;1.032250
9803.000000;1.031841
9802.000000;1.031498
9801.000000;1.031613
9800.000000;1.032311
9799.000000;1.033176
9798.000000;1.033523
9797.000000;1.033038
9796.000000;1.032136
9795.000000;1.031600
9794.000000;1.031802
9793.000000;1.032322
9792.000000;1.032395
9791.000000;1.031754
9790.000000;1.030859
9789.000000;1.030246
9788.000000;1.029928
9787.000000;1.029628
9786.000000;1.029416
9785.000000;1.029697
9784.000000;1.030541
9783.000000;1.031383
9782.000000;1.031560
9781.000000;1.030908
9780.000000;1.029710
9779.000000;1.028268
9778.000000;1.026827
9777.000000;1.025721
9776.000000;1.025221
9775.000000;1.025182
9774.000000;1.025155
9773.000000;1.024980
9772.000000;1.025024
9771.000000;1.025580
9770.000000;1.026206
9769.000000;1.026012
9768.000000;1.024732
9767.000000;1.023215
9766.000000;1.022593
9765.000000;1.023051
9764.000000;1.023698
9763.000000;1.023666
9762.000000;1.023038
9761.000000;1.022493
9760.000000;1.022327
9759.000000;1.022268
9758.000000;1.022094
9757.000000;1.021854
9756.000000;1.021389
9755.000000;1.020256
9754.000000;1.018497
9753.000000;1.017069
9752.000000;1.016918
9751.000000;1.017745
9750.000000;1.018204
9749.000000;1.017361
9748.000000;1.015587
9747.000000;1.013973
9746.000000;1.013313
9745.000000;1.013761
9744.000000;1.014940
9743.000000;1.016099
9742.000000;1.016530
9741.000000;1.016219
9740.000000;1.015862
9739.000000;1.015955
9738.000000;1.016114
9737.000000;1.015599
9736.000000;1.014310
9735.000000;1.012887
9734.000000;1.011919
9733.000000;1.011488
9732.000000;1.011488
9731.000000;1.011913
9730.000000;1.012694
9729.000000;1.013573
9728.000000;1.014350
9727.000000;1.014996
9726.000000;1.015369
9725.000000;1.015066
9724.000000;1.013862
9723.000000;1.012077
9722.000000;1.010215
9721.000000;1.008403
9720.000000;1.006609
9719.000000;1.005294
9718.000000;1.005259
9717.000000;1.006601
9716.000000;1.008207
9715.000000;1.008711
9714.000000;1.007835
9713.000000;1.006484
9712.000000;1.005668
9711.000000;1.005699
9710.000000;1.006325
9709.000000;1.007107
9708.000000;1.007492
9707.000000;1.006975
9706.000000;1.005598
9705.000000;1.004105
9704.000000;1.003215
9703.000000;1.002885
9702.000000;1.002612
9701.000000;1.002320
9700.000000;1.002471
9699.000000;1.003194
9698.000000;1.003731
9697.000000;1.003123
9696.000000;1.001303
9695.000000;0.999283
9694.000000;0.998314
9693.000000;0.998930
9692.000000;1.000586
9691.000000;1.002059
9690.000000;1.002338
9689.000000;1.001405
9688.000000;1.000102
9687.000000;0.999248
9686.000000;0.999071
9685.000000;0.999453
9684.000000;1.000271
9683.000000;1.001226
9682.000000;1.001737
9681.000000;1.001467
9680.000000;1.000815
9679.000000;1.000446
9678.000000;1.000437
9677.000000;1.000323
9676.000000;0.999915
9675.000000;0.999509
9674.000000;0.999157
9673.000000;0.998327
9672.000000;0.996670
9671.000000;0.994755
9670.000000;0.993606
9669.000000;0.993599
9668.000000;0.994116
9667.000000;0.994202
9666.000000;0.993353
9665.000000;0.991770
9664.000000;0.990165
9663.000000;0.989313
9662.000000;0.989539
9661.000000;0.990514
9660.000000;0.991616
9659.000000;0.992554
9658.000000;0.993479
9657.000000;0.994463
9656.000000;0.995120
9655.000000;0.994863
9654.000000;0.993519
9653.000000;0.991645
9652.000000;0.990248
9651.000000;0.990055
9650.000000;0.990866
9649.000000;0.991630
9648.000000;0.991392
9647.000000;0.990267
9646.000000;0.989251
9645.000000;0.989071
9644.000000;0.989522
9643.000000;0.989950
9642.000000;0.990001
9641.000000;0.989661
9640.000000;0.988871
9639.000000;0.987552
9638.000000;0.985953
9637.000000;0.984562
9636.000000;0.983634
9635.000000;0.983109
9634.000000;0.983061
9633.000000;0.983840
9632.000000;0.985455
9631.000000;0.987085
9630.000000;0.987591
9629.000000;0.986552
9628.000000;0.984563
9627.000000;0.982570
9626.000000;0.981213
9625.000000;0.980754
9624.000000;0.981151
9623.000000;0.981958
9622.000000;0.982453
9621.000000;0.982251
9620.000000;0.981721
9619.000000;0.981506
9618.000000;0.981737
9617.000000;0.981996
9616.000000;0.981959
9615.000000;0.981736
9614.000000;0.981493
9613.000000;0.981068
9612.000000;0.980271
9611.000000;0.979409
9610.000000;0.979119
9609.000000;0.979660
9608.000000;0.980569
9607.000000;0.981094
9606.000000;0.980864
9605.000000;0.980059
9604.000000;0.979048
9603.000000;0.977995
9602.000000;0.976804
9601.000000;0.975365
9600.000000;0.973859
9599.000000;0.972804
9598.000000;0.972679
9597.000000;0.973409
9596.000000;0.974212
9595.000000;0.974252
9594.000000;0.973521
9593.000000;0.972860
9592.000000;0.972997
9591.000000;0.973736
9590.000000;0.974234
9589.000000;0.973981
9588.000000;0.973236
9587.000000;0.972493
9586.000000;0.971877
9585.000000;0.971305
9584.000000;0.970964
9583.000000;0.971224
9582.000000;0.972071
9581.000000;0.972920
9580.000000;0.973123
9579.000000;0.972519
9578.000000;0.971417
9577.000000;0.970207
9576.000000;0.969118
9575.000000;0.968213
9574.000000;0.967473
9573.000000;0.966935
9572.000000;0.966804
9571.000000;0.967305
9570.000000;0.968277
9569.000000;0.969050
9568.000000;0.968941
9567.000000;0.967905
9566.000000;0.966547
9565.000000;0.965513
9564.000000;0.965017
9563.000000;0.964932
9562.000000;0.965074
9561.000000;0.965292
9560.000000;0.965488
9559.000000;0.965662
9558.000000;0.965847
9557.000000;0.965877
9556.000000;0.965382
9555.000000;0.964201
9554.000000;0.962739
9553.000000;0.961717
9552.000000;0.961532
9551.000000;0.961930
9550.000000;0.962278
9549.000000;0.962104
9548.000000;0.961478
9547.000000;0.960927
9546.000000;0.960899
9545.000000;0.961193
9544.000000;0.961044
9543.000000;0.959954
9542.000000;0.958368
9541.000000;0.957258
9540.000000;0.957101
9539.000000;0.957609
9538.000000;0.958431
9537.000000;0.959639
9536.000000;0.961227
9535.000000;0.962539
9534.000000;0.962698
9533.000000;0.961576
9532.000000;0.959919
9531.000000;0.958475
9530.000000;0.957394
9529.000000;0.956543
9528.000000;0.955985
9527.000000;0.955861
9526.000000;0.956092
9525.000000;0.956517
9524.000000;0.957174
9523.000000;0.958061
9522.000000;0.958698
9521.000000;0.958369
9520.000000;0.956982
9519.000000;0.955403
9518.000000;0.954587
9517.000000;0.954521
9516.000000;0.954371
9515.000000;0.953622
9514.000000;0.952657
9513.000000;0.952116
9512.000000;0.952029
9511.000000;0.951896
9510.000000;0.951415
9509.000000;0.950822
9508.000000;0.950535
9507.000000;0.950739
9506.000000;0.951301
9505.000000;0.951884
9504.000000;0.952126
9503.000000;0.951974
9502.000000;0.951829
9501.000000;0.952114
9500.000000;0.952639
9499.000000;0.952759
9498.000000;0.952255
9497.000000;0.951706
9496.000000;0.951716
9495.000000;0.952059
9494.000000;0.951912
9493.000000;0.950861
9492.000000;0.949366
9491.000000;0.948227
9490.000000;0.947876
9489.000000;0.948161
9488.000000;0.948531
9487.000000;0.948398
9486.000000;0.947561
9485.000000;0.946418
9484.000000;0.945677
9483.000000;0.945739
9482.000000;0.946358
9481.000000;0.946838
9480.000000;0.946544
9479.000000;0.945390
9478.000000;0.944014
9477.000000;0.943416
9476.000000;0.944146
9475.000000;0.945737
9474.000000;0.947036
9473.000000;0.947152
9472.000000;0.946009
9471.000000;0.944122
9470.000000;0.942171
9469.000000;0.940848
9468.000000;0.940704
9467.000000;0.941794
9466.000000;0.943499
9465.000000;0.944848
9464.000000;0.945078
9463.000000;0.944041
9462.000000;0.942253
9461.000000;0.940558
9460.000000;0.939525
9459.000000;0.939076
9458.000000;0.938851
9457.000000;0.938851
9456.000000;0.939376
9455.000000;0.940249
9454.000000;0.940600
9453.000000;0.939844
9452.000000;0.938582
9451.000000;0.938004
9450.000000;0.938484
9449.000000;0.939254
9448.000000;0.939570
9447.000000;0.939690
9446.000000;0.940327
9445.000000;0.941473
9444.000000;0.942279
9443.000000;0.942072
9442.000000;0.941082
9441.000000;0.940007
9440.000000;0.939175
9439.000000;0.938383
9438.000000;0.937390
9437.000000;0.936278
9436.000000;0.935340
9435.000000;0.934834
9434.000000;0.934877
9433.000000;0.935341
9432.000000;0.935775
9431.000000;0.935677
9430.000000;0.934997
9429.000000;0.934186
9428.000000;0.933649
9427.000000;0.933405
9426.000000;0.933425
9425.000000;0.933950
9424.000000;0.935073
9423.000000;0.936211
9422.000000;0.936518
9421.000000;0.935828
9420.000000;0.934761
9419.000000;0.933863
9418.000000;0.933120
9417.000000;0.932385
9416.000000;0.931798
9415.000000;0.931494
9414.000000;0.931281
9413.000000;0.930978
9412.000000;0.930796
9411.000000;0.931035
9410.000000;0.931544
9409.000000;0.931794
9408.000000;0.931433
9407.000000;0.930555
9406.000000;0.929536
9405.000000;0.928757
9404.000000;0.928362
9403.000000;0.928116
9402.000000;0.927655
9401.000000;0.927029
9400.000000;0.926782
9399.000000;0.927316
9398.000000;0.928361
9397.000000;0.929292
9396.000000;0.929748
9395.000000;0.929685
9394.000000;0.929167
9393.000000;0.928465
9392.000000;0.928066
9391.000000;0.928097
9390.000000;0.927916
9389.000000;0.926847
9388.000000;0.925211
9387.000000;0.924068
9386.000000;0.923912
9385.000000;0.924218
9384.000000;0.924340
9383.000000;0.924286
9382.000000;0.924383
9381.000000;0.924697
9380.000000;0.925115
9379.000000;0.925570
9378.000000;0.925875
9377.000000;0.925683
9376.000000;0.924981
9375.000000;0.924378
9374.000000;0.924496
9373.000000;0.925243
9372.000000;0.925997
9371.000000;0.926290
9370.000000;0.926022
9369.000000;0.925222
9368.000000;0.923991
9367.000000;0.922638
9366.000000;0.921535
9365.000000;0.920827
9364.000000;0.920452
9363.000000;0.920338
9362.000000;0.920375
9361.000000;0.920352
9360.000000;0.920219
9359.000000;0.920314
9358.000000;0.920943
9357.000000;0.921767
9356.000000;0.921967
9355.000000;0.921162
9354.000000;0.919906
9353.000000;0.919101
9352.000000;0.919087
9351.000000;0.919409
9350.000000;0.919297
9349.000000;0.918296
9348.000000;0.916605
9347.000000;0.914941
9346.000000;0.914032
9345.000000;0.914109
9344.000000;0.914831
9343.000000;0.915640
9342.000000;0.916168
9341.000000;0.916449
9340.000000;0.916867
9339.000000;0.917803
9338.000000;0.919134
9337.000000;0.920139
9336.000000;0.920131
9335.000000;0.919206
9334.000000;0.918165
9333.000000;0.917672
9332.000000;0.917664
9331.000000;0.917607
9330.000000;0.917127
9329.000000;0.916289
9328.000000;0.915417
9327.000000;0.914813
9326.000000;0.914555
9325.000000;0.914473
9324.000000;0.914288
9323.000000;0.913832
9322.000000;0.913116
9321.000000;0.912254
9320.000000;0.911436
9319.000000;0.910943
9318.000000;0.910994
9317.000000;0.911460
9316.000000;0.911862
9315.000000;0.911813
9314.000000;0.911394
9313.000000;0.911001
9312.000000;0.910851
9311.000000;0.910767
9310.000000;0.910490
9309.000000;0.910118
9308.000000;0.910112
9307.000000;0.910797
9306.000000;0.911873
9305.000000;0.912591
9304.000000;0.912526
9303.000000;0.912018
9302.000000;0.911676
9301.000000;0.911583
9300.000000;0.911285
9299.000000;0.910549
9298.000000;0.909793
9297.000000;0.909575
9296.000000;0.909877
9295.000000;0.910144
9294.000000;0.909926
9293.000000;0.909269
9292.000000;0.908510
9291.000000;0.907901
9290.000000;0.907506
9289.000000;0.907332
9288.000000;0.907410
9287.000000;0.907707
9286.000000;0.907960
9285.000000;0.907735
9284.000000;0.906807
9283.000000;0.905542
9282.000000;0.904702
9281.000000;0.904747
9280.000000;0.905378
9279.000000;0.905881
9278.000000;0.905840
9277.000000;0.905435
9276.000000;0.905062
9275.000000;0.904855
9274.000000;0.904633
9273.000000;0.904229
9272.000000;0.903755
9271.000000;0.903464
9270.000000;0.903415
9269.000000;0.903412
9268.000000;0.903340
9267.000000;0.903390
9266.000000;0.903799
9265.000000;0.904405
9264.000000;0.904706
9263.000000;0.904401
9262.000000;0.903725
9261.000000;0.903198
9260.000000;0.903172
9259.000000;0.903651
9258.000000;0.904332
9257.000000;0.904695
9256.000000;0.904315
9255.000000;0.903334
9254.000000;0.902506
9253.000000;0.902511
9252.000000;0.903280
9251.000000;0.904115
9250.000000;0.904367
9249.000000;0.903852
9248.000000;0.902724
9247.000000;0.901286
9246.000000;0.899982
9245.000000;0.899280
9244.000000;0.899323
9243.000000;0.899782
9242.000000;0.900169
9241.000000;0.900315
9240.000000;0.900480
9239.000000;0.900963
9238.000000;0.901628
9237.000000;0.901905
9236.000000;0.901410
9235.000000;0.900514
9234.000000;0.900027
9233.000000;0.900234
9232.000000;0.900527
9231.000000;0.900231
9230.000000;0.899531
9229.000000;0.899171
9228.000000;0.899382
9227.000000;0.899624
9226.000000;0.899428
9225.000000;0.898993
9224.000000;0.898754
9223.000000;0.898772
9222.000000;0.898818
9221.000000;0.898768
9220.000000;0.898574
9219.000000;0.898088
9218.000000;0.897259
9217.000000;0.896399
9216.000000;0.895914
9215.000000;0.895790
9214.000000;0.895701
9213.000000;0.895637
9212.000000;0.896025
9211.000000;0.897073
9210.000000;0.898221
9209.000000;0.898560
9208.000000;0.897766
9207.000000;0.896450
9206.000000;0.895520
9205.000000;0.895321
9204.000000;0.895479
9203.000000;0.895517
9202.000000;0.895429
9201.000000;0.895523
9200.000000;0.895792
9199.000000;0.895760
9198.000000;0.895102
9197.000000;0.894197
9196.000000;0.893766
9195.000000;0.894011
9194.000000;0.894410
9193.000000;0.894395
9192.000000;0.893973
9191.000000;0.893540
9190.000000;0.893317
9189.000000;0.893205
9188.000000;0.893064
9187.000000;0.892847
9186.000000;0.892475
9185.000000;0.891845
9184.000000;0.891033
9183.000000;0.890350
9182.000000;0.890079
9181.000000;0.890218
9180.000000;0.890538
9179.000000;0.890812
9178.000000;0.890935
9177.000000;0.890948
9176.000000;0.890998
9175.000000;0.891217
9174.000000;0.891555
9173.000000;0.891803
9172.000000;0.891792
9171.000000;0.891462
9170.000000;0.890717
9169.000000;0.889473
9168.000000;0.888029
9167.000000;0.887174
9166.000000;0.887559
9165.000000;0.888934
9164.000000;0.890278
9163.000000;0.890754
9162.000000;0.890384
9161.000000;0.889780
9160.000000;0.889493
9159.000000;0.889661
9158.000000;0.889989
9157.000000;0.889947
9156.000000;0.889204
9155.000000;0.888020
9154.000000;0.887051
9153.000000;0.886713
9152.000000;0.886921
9151.000000;0.887433
9150.000000;0.888085
9149.000000;0.888574
9148.000000;0.888488
9147.000000;0.887907
9146.000000;0.887594
9145.000000;0.888101
9144.000000;0.888910
9143.000000;0.888991
9142.000000;0.888109
9141.000000;0.887024
9140.000000;0.886450
9139.000000;0.886391
9138.000000;0.886525
9137.000000;0.886669
9136.000000;0.886695
9135.000000;0.886505
9134.000000;0.886380
9133.000000;0.886880
9132.000000;0.888013
9131.000000;0.888843
9130.000000;0.888406
9129.000000;0.886835
9128.000000;0.885157
9127.000000;0.884108
9126.000000;0.883609
9125.000000;0.883368
9124.000000;0.883477
9123.000000;0.884170
9122.000000;0.885213
9121.000000;0.885913
9120.000000;0.885814
9119.000000;0.885232
9118.000000;0.884910
9117.000000;0.885153
9116.000000;0.885507
9115.000000;0.885403
9114.000000;0.884860
9113.000000;0.884264
9112.000000;0.883624
9111.000000;0.882597
9110.000000;0.881329
9109.000000;0.880699
9108.000000;0.881361
9107.000000;0.882861
9106.000000;0.884029
9105.000000;0.884087
9104.000000;0.883138
9103.000000;0.881817
9102.000000;0.880854
9101.000000;0.880775
9100.000000;0.881550
9099.000000;0.882507
9098.000000;0.882958
9097.000000;0.882901
9096.000000;0.882853
9095.000000;0.883069
9094.000000;0.883269
9093.000000;0.883145
9092.000000;0.882713
9091.000000;0.882071
9090.000000;0.881190
9089.000000;0.880185
9088.000000;0.879520
9087.000000;0.879668
9086.000000;0.880632
9085.000000;0.881900
9084.000000;0.882787
9083.000000;0.882797
9082.000000;0.881927
9081.000000;0.880796
9080.000000;0.880289
9079.000000;0.880753
9078.000000;0.881557
9077.000000;0.881662
9076.000000;0.880738
9075.000000;0.879501
9074.000000;0.878871
9073.000000;0.878945
9072.000000;0.878986
9071.000000;0.878432
9070.000000;0.877674
9069.000000;0.877646
9068.000000;0.878740
9067.000000;0.880367
9066.000000;0.881553
9065.000000;0.881749
9064.000000;0.881022
9063.000000;0.879779
9062.000000;0.878583
9061.000000;0.877997
9060.000000;0.878234
9059.000000;0.878940
9058.000000;0.879540
9057.000000;0.879829
9056.000000;0.880038
9055.000000;0.880330
9054.000000;0.880476
9053.000000;0.880136
