Criado como novo conjunto de dados;"e0108.spp","-4233762.0 Secs"
cm-1;Abs
10000.000000;1.071095
9999.000000;1.072003
9998.000000;1.072914
9997.000000;1.073825
9996.000000;1.074740
9995.000000;1.075653
9994.000000;1.076575
9993.000000;1.077486
9992.000000;1.078440
9991.000000;1.078139
9990.000000;1.076533
9989.000000;1.074602
9988.000000;1.073340
9987.000000;1.073018
9986.000000;1.073202
9985.000000;1.073337
9984.000000;1.073208
9983.000000;1.072911
9982.000000;1.072505
9981.000000;1.071871
9980.000000;1.070971
9979.000000;1.070093
9978.000000;1.069645
9977.000000;1.069699
9976.000000;1.069839
9975.000000;1.069415
9974.000000;1.068033
9973.000000;1.065978
9972.000000;1.064203
9971.000000;1.063658
9970.000000;1.064362
9969.000000;1.065226
9968.000000;1.065126
9967.000000;1.064154
9966.000000;1.063440
9965.000000;1.063761
9964.000000;1.064706
9963.000000;1.065284
9962.000000;1.064999
9961.000000;1.064123
9960.000000;1.063121
9959.000000;1.062181
9958.000000;1.061288
9957.000000;1.060496
9956.000000;1.059948
9955.000000;1.059670
9954.000000;1.059473
9953.000000;1.059128
9952.000000;1.058683
9951.000000;1.058544
9950.000000;1.059016
9949.000000;1.059805
9948.000000;1.060248
9947.000000;1.060062
9946.000000;1.059528
9945.000000;1.058827
9944.000000;1.057695
9943.000000;1.056140
9942.000000;1.055043
9941.000000;1.055338
9940.000000;1.056673
9939.000000;1.057560
9938.000000;1.057039
9937.000000;1.055693
9936.000000;1.054694
9935.000000;1.054363
9934.000000;1.054176
9933.000000;1.053818
9932.000000;1.053551
9931.000000;1.053575
9930.000000;1.053571
9929.000000;1.053153
9928.000000;1.052338
9927.000000;1.051343
9926.000000;1.050201
9925.000000;1.048904
9924.000000;1.047747
9923.000000;1.047180
9922.000000;1.047294
9921.000000;1.047707
9920.000000;1.047930
9919.000000;1.047703
9918.000000;1.047054
9917.000000;1.046258
9916.000000;1.045752
9915.000000;1.045868
9914.000000;1.046495
9913.000000;1.047012
9912.000000;1.046718
9911.000000;1.045372
9910.000000;1.043404
9909.000000;1.041620
9908.000000;1.040591
9907.000000;1.040143
9906.000000;1.039539
9905.000000;1.038385
9904.000000;1.037326
9903.000000;1.037516
9902.000000;1.039325
9901.000000;1.041853
9900.000000;1.043801
9899.000000;1.044445
9898.000000;1.043647
9897.000000;1.041550
9896.000000;1.038902
9895.000000;1.037186
9894.000000;1.037473
9893.000000;1.039056
9892.000000;1.039977
9891.000000;1.039263
9890.000000;1.038017
9889.000000;1.037773
9888.000000;1.038496
9887.000000;1.038902
9886.000000;1.038344
9885.000000;1.037452
9884.000000;1.036950
9883.000000;1.036723
9882.000000;1.036351
9881.000000;1.035916
9880.000000;1.035808
9879.000000;1.036064
9878.000000;1.036259
9877.000000;1.035873
9876.000000;1.034631
9875.000000;1.032804
9874.000000;1.031274
9873.000000;1.030874
9872.000000;1.031402
9871.000000;1.031685
9870.000000;1.030966
9869.000000;1.029846
9868.000000;1.029389
9867.000000;1.029727
9866.000000;1.030130
9865.000000;1.030230
9864.000000;1.030349
9863.000000;1.030532
9862.000000;1.030080
9861.000000;1.028504
9860.000000;1.026489
9859.000000;1.025360
9858.000000;1.025730
9857.000000;1.027024
9856.000000;1.028242
9855.000000;1.028913
9854.000000;1.029248
9853.000000;1.029546
9852.000000;1.029690
9851.000000;1.029271
9850.000000;1.028114
9849.000000;1.026500
9848.000000;1.024836
9847.000000;1.023361
9846.000000;1.022251
9845.000000;1.021712
9844.000000;1.021660
9843.000000;1.021531
9842.000000;1.020871
9841.000000;1.020018
9840.000000;1.019721
9839.000000;1.020100
9838.000000;1.020510
9837.000000;1.020533
9836.000000;1.020513
9835.000000;1.020786
9834.000000;1.020906
9833.000000;1.020166
9832.000000;1.018658
9831.000000;1.017381
9830.000000;1.017280
9829.000000;1.018389
9828.000000;1.019826
9827.000000;1.020434
9826.000000;1.019601
9825.000000;1.017749
9824.000000;1.015994
9823.000000;1.015152
9822.000000;1.015080
9821.000000;1.015040
9820.000000;1.014529
9819.000000;1.013651
9818.000000;1.012896
9817.000000;1.012768
9816.000000;1.013420
9815.000000;1.014339
9814.000000;1.014519
9813.000000;1.013279
9812.000000;1.010951
9811.000000;1.008572
9810.000000;1.006979
9809.000000;1.006315
9808.000000;1.006224
9807.000000;1.006253
9806.000000;1.006080
9805.000000;1.005607
9804.000000;1.004952
9803.000000;1.004265
9802.000000;1.003635
9801.000000;1.003261
9800.000000;1.003501
9799.000000;1.004499
9798.000000;1.005877
9797.000000;1.007020
9796.000000;1.007591
9795.000000;1.007619
9794.000000;1.007270
9793.000000;1.006828
9792.000000;1.006711
9791.000000;1.007124
9790.000000;1.007665
9789.000000;1.007641
9788.000000;1.006855
9787.000000;1.005805
9786.000000;1.005100
9785.000000;1.004968
9784.000000;1.005212
9783.000000;1.005356
9782.000000;1.004900
9781.000000;1.003778
9780.000000;1.002568
9779.000000;1.001899
9778.000000;1.001670
9777.000000;1.001232
9776.000000;1.000348
9775.000000;0.999516
9774.000000;0.999202
9773.000000;0.999247
9772.000000;0.999336
9771.000000;0.999573
9770.000000;1.000135
9769.000000;1.000621
9768.000000;1.000334
9767.000000;0.999210
9766.000000;0.998034
9765.000000;0.997620
9764.000000;0.998022
9763.000000;0.998622
9762.000000;0.998774
9761.000000;0.998252
9760.000000;0.997271
9759.000000;0.996257
9758.000000;0.995515
9757.000000;0.994978
9756.000000;0.994297
9755.000000;0.993284
9754.000000;0.992208
9753.000000;0.991528
9752.000000;0.991331
9751.000000;0.991191
9750.000000;0.990652
9749.000000;0.989775
9748.000000;0.989105
9747.000000;0.989156
9746.000000;0.989978
9745.000000;0.991074
9744.000000;0.991609
9743.000000;0.990968
9742.000000;0.989468
9741.000000;0.988351
9740.000000;0.988604
9739.000000;0.989777
9738.000000;0.990417
9737.000000;0.989769
9736.000000;0.988553
9735.000000;0.987849
9734.000000;0.987804
9733.000000;0.987982
9732.000000;0.988384
9731.000000;0.989240
9730.000000;0.990021
9729.000000;0.989682
9728.000000;0.988084
9727.000000;0.986341
9726.000000;0.985399
9725.000000;0.984976
9724.000000;0.984329
9723.000000;0.983464
9722.000000;0.982917
9721.000000;0.982707
9720.000000;0.982308
9719.000000;0.981626
9718.000000;0.981336
9717.000000;0.981965
9716.000000;0.983022
9715.000000;0.983362
9714.000000;0.982327
9713.000000;0.980395
9712.000000;0.978756
9711.000000;0.978322
9710.000000;0.979052
9709.000000;0.980070
9708.000000;0.980373
9707.000000;0.979514
9706.000000;0.977782
9705.000000;0.975921
9704.000000;0.974682
9703.000000;0.974411
9702.000000;0.974861
9701.000000;0.975500
9700.000000;0.976075
9699.000000;0.976765
9698.000000;0.977699
9697.000000;0.978564
9696.000000;0.978928
9695.000000;0.978773
9694.000000;0.978391
9693.000000;0.977790
9692.000000;0.976609
9691.000000;0.974762
9690.000000;0.972883
9689.000000;0.971852
9688.000000;0.971915
9687.000000;0.972439
9686.000000;0.972573
9685.000000;0.971997
9684.000000;0.971049
9683.000000;0.970287
9682.000000;0.970079
9681.000000;0.970444
9680.000000;0.971064
9679.000000;0.971441
9678.000000;0.971285
9677.000000;0.970836
9676.000000;0.970604
9675.000000;0.970713
9674.000000;0.970681
9673.000000;0.970052
9672.000000;0.969076
9671.000000;0.968487
9670.000000;0.968644
9669.000000;0.969152
9668.000000;0.969337
9667.000000;0.968895
9666.000000;0.968018
9665.000000;0.967115
9664.000000;0.966521
9663.000000;0.966320
9662.000000;0.966281
9661.000000;0.966043
9660.000000;0.965450
9659.000000;0.964671
9658.000000;0.963965
9657.000000;0.963446
9656.000000;0.963132
9655.000000;0.963056
9654.000000;0.963193
9653.000000;0.963422
9652.000000;0.963713
9651.000000;0.964239
9650.000000;0.965125
9649.000000;0.966149
9648.000000;0.966862
9647.000000;0.966978
9646.000000;0.966532
9645.000000;0.965680
9644.000000;0.964516
9643.000000;0.963159
9642.000000;0.961843
9641.000000;0.960793
9640.000000;0.960039
9639.000000;0.959417
9638.000000;0.958795
9637.000000;0.958281
9636.000000;0.958184
9635.000000;0.958740
9634.000000;0.959802
9633.000000;0.960805
9632.000000;0.961128
9631.000000;0.960573
9630.000000;0.959487
9629.000000;0.958389
9628.000000;0.957515
9627.000000;0.956773
9626.000000;0.956049
9625.000000;0.955434
9624.000000;0.955105
9623.000000;0.955114
9622.000000;0.955360
9621.000000;0.955674
9620.000000;0.955858
9619.000000;0.955738
9618.000000;0.955319
9617.000000;0.954765
9616.000000;0.954100
9615.000000;0.953054
9614.000000;0.951487
9613.000000;0.949882
9612.000000;0.949024
9611.000000;0.949109
9610.000000;0.949518
9609.000000;0.949631
9608.000000;0.949549
9607.000000;0.949772
9606.000000;0.950436
9605.000000;0.951234
9604.000000;0.951823
9603.000000;0.951984
9602.000000;0.951560
9601.000000;0.950660
9600.000000;0.949857
9599.000000;0.949736
9598.000000;0.950180
9597.000000;0.950383
9596.000000;0.949699
9595.000000;0.948227
9594.000000;0.946589
9593.000000;0.945405
9592.000000;0.945009
9591.000000;0.945302
9590.000000;0.945695
9589.000000;0.945449
9588.000000;0.944325
9587.000000;0.942827
9586.000000;0.941751
9585.000000;0.941556
9584.000000;0.942120
9583.000000;0.942908
9582.000000;0.943338
9581.000000;0.943161
9580.000000;0.942542
9579.000000;0.941691
9578.000000;0.940566
9577.000000;0.939188
9576.000000;0.938079
9575.000000;0.937923
9574.000000;0.938681
9573.000000;0.939445
9572.000000;0.939385
9571.000000;0.938620
9570.000000;0.937904
9569.000000;0.937727
9568.000000;0.937990
9567.000000;0.938290
9566.000000;0.938242
9565.000000;0.937700
9564.000000;0.936999
9563.000000;0.936807
9562.000000;0.937423
9561.000000;0.938299
9560.000000;0.938571
9559.000000;0.938052
9558.000000;0.937373
9557.000000;0.937156
9556.000000;0.937376
9555.000000;0.937602
9554.000000;0.937497
9553.000000;0.936933
9552.000000;0.935899
9551.000000;0.934659
9550.000000;0.933811
9549.000000;0.933856
9548.000000;0.934601
9547.000000;0.935206
9546.000000;0.934954
9545.000000;0.933918
9544.000000;0.932819
9543.000000;0.932335
9542.000000;0.932588
9541.000000;0.933180
9540.000000;0.933621
9539.000000;0.933748
9538.000000;0.933798
9537.000000;0.934044
9536.000000;0.934340
9535.000000;0.934160
9534.000000;0.933239
9533.000000;0.932033
9532.000000;0.931300
9531.000000;0.931262
9530.000000;0.931402
9529.000000;0.931145
9528.000000;0.930492
9527.000000;0.929862
9526.000000;0.929617
9525.000000;0.929925
9524.000000;0.930751
9523.000000;0.931611
9522.000000;0.931584
9521.000000;0.930138
9520.000000;0.927991
9519.000000;0.926660
9518.000000;0.926950
9517.000000;0.928142
9516.000000;0.928886
9515.000000;0.928610
9514.000000;0.927809
9513.000000;0.927157
9512.000000;0.926747
9511.000000;0.926268
9510.000000;0.925649
9509.000000;0.925238
9508.000000;0.925288
9507.000000;0.925464
9506.000000;0.925118
9505.000000;0.924149
9504.000000;0.923336
9503.000000;0.923567
9502.000000;0.924782
9501.000000;0.925918
9500.000000;0.925962
9499.000000;0.924879
9498.000000;0.923428
9497.000000;0.922292
9496.000000;0.921587
9495.000000;0.921069
9494.000000;0.920550
9493.000000;0.920033
9492.000000;0.919542
9491.000000;0.918958
9490.000000;0.918131
9489.000000;0.917172
9488.000000;0.916513
9487.000000;0.916530
9486.000000;0.917133
9485.000000;0.917801
9484.000000;0.918048
9483.000000;0.917806
9482.000000;0.917398
9481.000000;0.917175
9480.000000;0.917176
9479.000000;0.917116
9478.000000;0.916748
9477.000000;0.916237
9476.000000;0.916043
9475.000000;0.916373
9474.000000;0.916895
9473.000000;0.917077
9472.000000;0.916680
9471.000000;0.915828
9470.000000;0.914831
9469.000000;0.914078
9468.000000;0.913890
9467.000000;0.914204
9466.000000;0.914590
9465.000000;0.914774
9464.000000;0.914934
9463.000000;0.915221
9462.000000;0.915258
9461.000000;0.914552
9460.000000;0.913278
9459.000000;0.912213
9458.000000;0.911896
9457.000000;0.912219
9456.000000;0.912772
9455.000000;0.913148
9454.000000;0.912974
9453.000000;0.912175
9452.000000;0.911261
9451.000000;0.910930
9450.000000;0.911284
9449.000000;0.911773
9448.000000;0.911922
9447.000000;0.911759
9446.000000;0.911479
9445.000000;0.911163
9444.000000;0.910968
9443.000000;0.911090
9442.000000;0.911316
9441.000000;0.911027
9440.000000;0.909953
9439.000000;0.908593
9438.000000;0.907653
9437.000000;0.907359
9436.000000;0.907545
9435.000000;0.908033
9434.000000;0.908617
9433.000000;0.908960
9432.000000;0.908904
9431.000000;0.908670
9430.000000;0.908438
9429.000000;0.907955
9428.000000;0.906922
9427.000000;0.905607
9426.000000;0.904732
9425.000000;0.904783
9424.000000;0.905605
9423.000000;0.906544
9422.000000;0.906860
9421.000000;0.906193
9420.000000;0.904861
9419.000000;0.903612
9418.000000;0.902954
9417.000000;0.902834
9416.000000;0.902974
9415.000000;0.903186
9414.000000;0.903244
9413.000000;0.902884
9412.000000;0.902231
9411.000000;0.901861
9410.000000;0.902065
9409.000000;0.902359
9408.000000;0.902132
9407.000000;0.901528
9406.000000;0.901219
9405.000000;0.901445
9404.000000;0.901734
9403.000000;0.901544
9402.000000;0.900780
9401.000000;0.899727
9400.000000;0.898827
9399.000000;0.898472
9398.000000;0.898668
9397.000000;0.898898
9396.000000;0.898616
9395.000000;0.897854
9394.000000;0.897087
9393.000000;0.896586
9392.000000;0.896247
9391.000000;0.896001
9390.000000;0.896022
9389.000000;0.896469
9388.000000;0.897280
9387.000000;0.898218
9386.000000;0.898895
9385.000000;0.898843
9384.000000;0.897888
9383.000000;0.896482
9382.000000;0.895384
9381.000000;0.894994
9380.000000;0.895166
9379.000000;0.895597
9378.000000;0.896096
9377.000000;0.896543
9376.000000;0.896881
9375.000000;0.897138
9374.000000;0.897173
9373.000000;0.896548
9372.000000;0.895060
9371.000000;0.893390
9370.000000;0.892675
9369.000000;0.893318
9368.000000;0.894579
9367.000000;0.895477
9366.000000;0.895735
9365.000000;0.895606
9364.000000;0.895188
9363.000000;0.894331
9362.000000;0.893057
9361.000000;0.891732
9360.000000;0.890802
9359.000000;0.890455
9358.000000;0.890490
9357.000000;0.890491
9356.000000;0.890283
9355.000000;0.890214
9354.000000;0.890723
9353.000000;0.891600
9352.000000;0.892045
9351.000000;0.891623
9350.000000;0.890769
9349.000000;0.890102
9348.000000;0.889605
9347.000000;0.888863
9346.000000;0.887862
9345.000000;0.887080
9344.000000;0.886845
9343.000000;0.886995
9342.000000;0.887178
9341.000000;0.887166
9340.000000;0.886872
9339.000000;0.886384
9338.000000;0.886046
9337.000000;0.886225
9336.000000;0.886884
9335.000000;0.887602
9334.000000;0.888076
9333.000000;0.888362
9332.000000;0.888561
9331.000000;0.888544
9330.000000;0.888182
9329.000000;0.887619
9328.000000;0.887090
9327.000000;0.886617
9326.000000;0.886147
9325.000000;0.885865
9324.000000;0.886009
9323.000000;0.886370
9322.000000;0.886334
9321.000000;0.885571
9320.000000;0.884449
9319.000000;0.883588
9318.000000;0.883166
9317.000000;0.882879
9316.000000;0.882479
9315.000000;0.882122
9314.000000;0.882159
9313.000000;0.882680
9312.000000;0.883305
9311.000000;0.883416
9310.000000;0.882696
9309.000000;0.881530
9308.000000;0.880741
9307.000000;0.880823
9306.000000;0.881504
9305.000000;0.882136
9304.000000;0.882373
9303.000000;0.882282
9302.000000;0.881963
9301.000000;0.881396
9300.000000;0.880674
9299.000000;0.880054
9298.000000;0.879733
9297.000000;0.879779
9296.000000;0.880231
9295.000000;0.880951
9294.000000;0.881341
9293.000000;0.880647
9292.000000;0.878805
9291.000000;0.876745
9290.000000;0.875613
9289.000000;0.875815
9288.000000;0.876909
9287.000000;0.878206
9286.000000;0.879251
9285.000000;0.879860
9284.000000;0.879956
9283.000000;0.879449
9282.000000;0.878259
9281.000000;0.876580
9280.000000;0.875062
9279.000000;0.874435
9278.000000;0.874780
9277.000000;0.875424
9276.000000;0.875698
9275.000000;0.875597
9274.000000;0.875509
9273.000000;0.875615
9272.000000;0.875847
9271.000000;0.876169
9270.000000;0.876501
9269.000000;0.876543
9268.000000;0.876070
9267.000000;0.875311
9266.000000;0.874684
9265.000000;0.874260
9264.000000;0.873869
9263.000000;0.873607
9262.000000;0.873844
9261.000000;0.874678
9260.000000;0.875728
9259.000000;0.876504
9258.000000;0.876727
9257.000000;0.876292
9256.000000;0.875282
9255.000000;0.874089
9254.000000;0.873190
9253.000000;0.872709
9252.000000;0.872436
9251.000000;0.872250
9250.000000;0.872170
9249.000000;0.871970
9248.000000;0.871180
9247.000000;0.869720
9246.000000;0.868215
9245.000000;0.867460
9244.000000;0.867749
9243.000000;0.868845
9242.000000;0.870320
9241.000000;0.871689
9240.000000;0.872457
9239.000000;0.872365
9238.000000;0.871623
9237.000000;0.870784
9236.000000;0.870382
9235.000000;0.870657
9234.000000;0.871390
9233.000000;0.871928
9232.000000;0.871636
9231.000000;0.870531
9230.000000;0.869295
9229.000000;0.868521
9228.000000;0.868146
9227.000000;0.867731
9226.000000;0.867077
9225.000000;0.866321
9224.000000;0.865667
9223.000000;0.865312
9222.000000;0.865524
9221.000000;0.866405
9220.000000;0.867586
9219.000000;0.868433
9218.000000;0.868609
9217.000000;0.868277
9216.000000;0.867779
9215.000000;0.867372
9214.000000;0.867294
9213.000000;0.867777
9212.000000;0.868738
9211.000000;0.869590
9210.000000;0.869611
9209.000000;0.868604
9208.000000;0.867133
9207.000000;0.866107
9206.000000;0.866114
9205.000000;0.867052
9204.000000;0.868261
9203.000000;0.868970
9202.000000;0.868688
9201.000000;0.867355
9200.000000;0.865332
9199.000000;0.863302
9198.000000;0.861974
9197.000000;0.861593
9196.000000;0.861696
9195.000000;0.861584
9194.000000;0.861210
9193.000000;0.861323
9192.000000;0.862483
9191.000000;0.864094
9190.000000;0.864824
9189.000000;0.864105
9188.000000;0.862802
9187.000000;0.862121
9186.000000;0.862233
9185.000000;0.862361
9184.000000;0.862025
9183.000000;0.861607
9182.000000;0.861603
9181.000000;0.861806
9180.000000;0.861605
9179.000000;0.860845
9178.000000;0.859967
9177.000000;0.859384
9176.000000;0.859041
9175.000000;0.858677
9174.000000;0.858319
9173.000000;0.858331
9172.000000;0.858984
9171.000000;0.860018
9170.000000;0.860702
9169.000000;0.860430
9168.000000;0.859271
9167.000000;0.857837
9166.000000;0.856674
9165.000000;0.855990
9164.000000;0.855917
9163.000000;0.856637
9162.000000;0.857959
9161.000000;0.859046
9160.000000;0.859018
9159.000000;0.857881
9158.000000;0.856568
9157.000000;0.855982
9156.000000;0.856200
9155.000000;0.856591
9154.000000;0.856559
9153.000000;0.856092
9152.000000;0.855695
9151.000000;0.855792
9150.000000;0.856237
9149.000000;0.856486
9148.000000;0.856273
9147.000000;0.855892
9146.000000;0.855685
9145.000000;0.855528
9144.000000;0.855100
9143.000000;0.854474
9142.000000;0.854044
9141.000000;0.853952
9140.000000;0.853982
9139.000000;0.854066
9138.000000;0.854476
9137.000000;0.855344
9136.000000;0.856277
9135.000000;0.856661
9134.000000;0.856243
9133.000000;0.855304
9132.000000;0.854391
9131.000000;0.853965
9130.000000;0.854152
9129.000000;0.854707
9128.000000;0.855242
9127.000000;0.855508
9126.000000;0.855448
9125.000000;0.855079
9124.000000;0.854511
9123.000000;0.853986
9122.000000;0.853650
9121.000000;0.853289
9120.000000;0.852593
9119.000000;0.851704
9118.000000;0.851252
9117.000000;0.851712
9116.000000;0.852896
9115.000000;0.854132
9114.000000;0.854753
9113.000000;0.854418
9112.000000;0.853272
9111.000000;0.851933
9110.000000;0.851117
9109.000000;0.851081
9108.000000;0.851481
9107.000000;0.851824
9106.000000;0.851917
9105.000000;0.851845
9104.000000;0.851727
9103.000000;0.851651
9102.000000;0.851680
9101.000000;0.851735
9100.000000;0.851572
9099.000000;0.851050
9098.000000;0.850315
9097.000000;0.849640
9096.000000;0.849219
9095.000000;0.849191
9094.000000;0.849662
9093.000000;0.850514
9092.000000;0.851306
9091.000000;0.851527
9090.000000;0.850975
9089.000000;0.849874
9088.000000;0.848751
9087.000000;0.848203
9086.000000;0.848531
9085.000000;0.849406
9084.000000;0.850040
9083.000000;0.849870
9082.000000;0.849008
9081.000000;0.847972
9080.000000;0.847166
9079.000000;0.846772
9078.000000;0.846882
9077.000000;0.847435
9076.000000;0.848072
9075.000000;0.848329
9074.000000;0.848059
9073.000000;0.847536
9072.000000;0.847129
9071.000000;0.846969
9070.000000;0.846961
9069.000000;0.846989
9068.000000;0.847048
9067.000000;0.847182
9066.000000;0.847325
9065.000000;0.847261
9064.000000;0.846817
9063.000000;0.846110
9062.000000;0.845506
9061.000000;0.845298
9060.000000;0.845472
9059.000000;0.845797
9058.000000;0.846078
9057.000000;0.846305
9056.000000;0.846616
9055.000000;0.847072
9054.000000;0.847397
9053.000000;0.847043
