Criado como novo conjunto de dados;"e0108.spp","-4285785.1 Secs"
cm-1;Abs
10000.000000;0.885860
9999.000000;0.885183
9998.000000;0.884489
9997.000000;0.883835
9996.000000;0.882977
9995.000000;0.881849
9994.000000;0.880764
9993.000000;0.879974
9992.000000;0.879611
9991.000000;0.879533
9990.000000;0.879386
9989.000000;0.878883
9988.000000;0.878095
9987.000000;0.877431
9986.000000;0.877306
9985.000000;0.877755
9984.000000;0.878345
9983.000000;0.878500
9982.000000;0.877996
9981.000000;0.877139
9980.000000;0.876447
9979.000000;0.876191
9978.000000;0.876268
9977.000000;0.876406
9976.000000;0.876433
9975.000000;0.876359
9974.000000;0.876274
9973.000000;0.876145
9972.000000;0.875724
9971.000000;0.874784
9970.000000;0.873522
9969.000000;0.872614
9968.000000;0.872685
9967.000000;0.873696
9966.000000;0.874931
9965.000000;0.875571
9964.000000;0.875244
9963.000000;0.874164
9962.000000;0.872907
9961.000000;0.871998
9960.000000;0.871511
9959.000000;0.871028
9958.000000;0.870156
9957.000000;0.869102
9956.000000;0.868497
9955.000000;0.868567
9954.000000;0.868711
9953.000000;0.868172
9952.000000;0.867034
9951.000000;0.866224
9950.000000;0.866434
9949.000000;0.867310
9948.000000;0.867933
9947.000000;0.867909
9946.000000;0.867633
9945.000000;0.867491
9944.000000;0.867286
9943.000000;0.866718
9942.000000;0.866033
9941.000000;0.865728
9940.000000;0.865767
9939.000000;0.865599
9938.000000;0.864975
9937.000000;0.864337
9936.000000;0.864171
9935.000000;0.864276
9934.000000;0.863995
9933.000000;0.863021
9932.000000;0.861729
9931.000000;0.860779
9930.000000;0.860511
9929.000000;0.860712
9928.000000;0.860893
9927.000000;0.860795
9926.000000;0.860613
9925.000000;0.860630
9924.000000;0.860680
9923.000000;0.860205
9922.000000;0.858938
9921.000000;0.857294
9920.000000;0.855971
9919.000000;0.855376
9918.000000;0.855544
9917.000000;0.856274
9916.000000;0.857122
9915.000000;0.857552
9914.000000;0.857417
9913.000000;0.857113
9912.000000;0.856997
9911.000000;0.856870
9910.000000;0.856383
9909.000000;0.855715
9908.000000;0.855359
9907.000000;0.855295
9906.000000;0.854926
9905.000000;0.853924
9904.000000;0.852698
9903.000000;0.851839
9902.000000;0.851428
9901.000000;0.851128
9900.000000;0.850620
9899.000000;0.849745
9898.000000;0.848463
9897.000000;0.846966
9896.000000;0.845752
9895.000000;0.845324
9894.000000;0.845751
9893.000000;0.846637
9892.000000;0.847496
9891.000000;0.848052
9890.000000;0.848254
9889.000000;0.848177
9888.000000;0.847979
9887.000000;0.847852
9886.000000;0.847884
9885.000000;0.847910
9884.000000;0.847580
9883.000000;0.846698
9882.000000;0.845553
9881.000000;0.844760
9880.000000;0.844627
9879.000000;0.844751
9878.000000;0.844439
9877.000000;0.843523
9876.000000;0.842562
9875.000000;0.842170
9874.000000;0.842356
9873.000000;0.842609
9872.000000;0.842482
9871.000000;0.841997
9870.000000;0.841555
9869.000000;0.841505
9868.000000;0.841811
9867.000000;0.842122
9866.000000;0.842204
9865.000000;0.842213
9864.000000;0.842375
9863.000000;0.842478
9862.000000;0.842013
9861.000000;0.840911
9860.000000;0.839815
9859.000000;0.839352
9858.000000;0.839393
9857.000000;0.839320
9856.000000;0.838893
9855.000000;0.838464
9854.000000;0.838303
9853.000000;0.838139
9852.000000;0.837579
9851.000000;0.836742
9850.000000;0.836173
9849.000000;0.836125
9848.000000;0.836191
9847.000000;0.835745
9846.000000;0.834653
9845.000000;0.833443
9844.000000;0.832797
9843.000000;0.832949
9842.000000;0.833574
9841.000000;0.834118
9840.000000;0.834153
9839.000000;0.833504
9838.000000;0.832309
9837.000000;0.831057
9836.000000;0.830336
9835.000000;0.830305
9834.000000;0.830460
9833.000000;0.830134
9832.000000;0.829255
9831.000000;0.828454
9830.000000;0.828387
9829.000000;0.829043
9828.000000;0.829773
9827.000000;0.829874
9826.000000;0.829103
9825.000000;0.827744
9824.000000;0.826340
9823.000000;0.825315
9822.000000;0.824726
9821.000000;0.824336
9820.000000;0.823923
9819.000000;0.823471
9818.000000;0.823062
9817.000000;0.822695
9816.000000;0.822331
9815.000000;0.822048
9814.000000;0.822034
9813.000000;0.822420
9812.000000;0.823171
9811.000000;0.824087
9810.000000;0.824822
9809.000000;0.825004
9808.000000;0.824424
9807.000000;0.823171
9806.000000;0.821604
9805.000000;0.820221
9804.000000;0.819457
9803.000000;0.819400
9802.000000;0.819623
9801.000000;0.819485
9800.000000;0.818758
9799.000000;0.817819
9798.000000;0.817088
9797.000000;0.816558
9796.000000;0.816106
9795.000000;0.816000
9794.000000;0.816621
9793.000000;0.817737
9792.000000;0.818535
9791.000000;0.818487
9790.000000;0.817781
9789.000000;0.816815
9788.000000;0.815690
9787.000000;0.814465
9786.000000;0.813503
9785.000000;0.813177
9784.000000;0.813426
9783.000000;0.813892
9782.000000;0.814318
9781.000000;0.814563
9780.000000;0.814429
9779.000000;0.813863
9778.000000;0.813212
9777.000000;0.812923
9776.000000;0.813024
9775.000000;0.813189
9774.000000;0.813245
9773.000000;0.813293
9772.000000;0.813407
9771.000000;0.813577
9770.000000;0.813879
9769.000000;0.814329
9768.000000;0.814527
9767.000000;0.813890
9766.000000;0.812397
9765.000000;0.810789
9764.000000;0.809819
9763.000000;0.809505
9762.000000;0.809257
9761.000000;0.808551
9760.000000;0.807352
9759.000000;0.806066
9758.000000;0.805197
9757.000000;0.804898
9756.000000;0.804746
9755.000000;0.804149
9754.000000;0.803083
9753.000000;0.802222
9752.000000;0.802168
9751.000000;0.802710
9750.000000;0.803053
9749.000000;0.802668
9748.000000;0.801748
9747.000000;0.800898
9746.000000;0.800536
9745.000000;0.800584
9744.000000;0.800632
9743.000000;0.800412
9742.000000;0.800116
9741.000000;0.800120
9740.000000;0.800392
9739.000000;0.800444
9738.000000;0.800013
9737.000000;0.799564
9736.000000;0.799804
9735.000000;0.800797
9734.000000;0.801785
9733.000000;0.801934
9732.000000;0.801041
9731.000000;0.799493
9730.000000;0.797804
9729.000000;0.796360
9728.000000;0.795436
9727.000000;0.795173
9726.000000;0.795438
9725.000000;0.795831
9724.000000;0.795973
9723.000000;0.795802
9722.000000;0.795526
9721.000000;0.795304
9720.000000;0.795091
9719.000000;0.794872
9718.000000;0.794865
9717.000000;0.795300
9716.000000;0.796010
9715.000000;0.796462
9714.000000;0.796280
9713.000000;0.795627
9712.000000;0.795035
9711.000000;0.794905
9710.000000;0.795194
9709.000000;0.795463
9708.000000;0.795193
9707.000000;0.794177
9706.000000;0.792690
9705.000000;0.791266
9704.000000;0.790303
9703.000000;0.789871
9702.000000;0.789807
9701.000000;0.789836
9700.000000;0.789694
9699.000000;0.789358
9698.000000;0.789155
9697.000000;0.789433
9696.000000;0.790080
9695.000000;0.790582
9694.000000;0.790610
9693.000000;0.790345
9692.000000;0.790096
9691.000000;0.789832
9690.000000;0.789293
9689.000000;0.788418
9688.000000;0.787484
9687.000000;0.786849
9686.000000;0.786657
9685.000000;0.786704
9684.000000;0.786512
9683.000000;0.785706
9682.000000;0.784466
9681.000000;0.783498
9680.000000;0.783388
9679.000000;0.784035
9678.000000;0.784809
9677.000000;0.785166
9676.000000;0.784987
9675.000000;0.784434
9674.000000;0.783708
9673.000000;0.782989
9672.000000;0.782424
9671.000000;0.782070
9670.000000;0.781902
9669.000000;0.781857
9668.000000;0.781837
9667.000000;0.781704
9666.000000;0.781360
9665.000000;0.780844
9664.000000;0.780284
9663.000000;0.779781
9662.000000;0.779374
9661.000000;0.779039
9660.000000;0.778657
9659.000000;0.778058
9658.000000;0.777203
9657.000000;0.776285
9656.000000;0.775553
9655.000000;0.775069
9654.000000;0.774776
9653.000000;0.774785
9652.000000;0.775383
9651.000000;0.776615
9650.000000;0.777947
9649.000000;0.778593
9648.000000;0.778261
9647.000000;0.777438
9646.000000;0.776824
9645.000000;0.776576
9644.000000;0.776301
9643.000000;0.775730
9642.000000;0.775069
9641.000000;0.774576
9640.000000;0.774105
9639.000000;0.773382
9638.000000;0.772555
9637.000000;0.772105
9636.000000;0.772230
9635.000000;0.772648
9634.000000;0.773017
9633.000000;0.773210
9632.000000;0.773126
9631.000000;0.772624
9630.000000;0.771848
9629.000000;0.771305
9628.000000;0.771314
9627.000000;0.771564
9626.000000;0.771513
9625.000000;0.771087
9624.000000;0.770636
9623.000000;0.770267
9622.000000;0.769610
9621.000000;0.768414
9620.000000;0.767120
9619.000000;0.766585
9618.000000;0.767229
9617.000000;0.768590
9616.000000;0.769705
9615.000000;0.769888
9614.000000;0.769126
9613.000000;0.767845
9612.000000;0.766485
9611.000000;0.765339
9610.000000;0.764589
9609.000000;0.764260
9608.000000;0.764160
9607.000000;0.764073
9606.000000;0.763999
9605.000000;0.764069
9604.000000;0.764270
9603.000000;0.764450
9602.000000;0.764542
9601.000000;0.764551
9600.000000;0.764375
9599.000000;0.763927
9598.000000;0.763459
9597.000000;0.763389
9596.000000;0.763665
9595.000000;0.763646
9594.000000;0.762824
9593.000000;0.761440
9592.000000;0.760178
9591.000000;0.759455
9590.000000;0.759171
9589.000000;0.758958
9588.000000;0.758460
9587.000000;0.757580
9586.000000;0.756662
9585.000000;0.756275
9584.000000;0.756637
9583.000000;0.757395
9582.000000;0.758070
9581.000000;0.758456
9580.000000;0.758409
9579.000000;0.757675
9578.000000;0.756314
9577.000000;0.754998
9576.000000;0.754399
9575.000000;0.754467
9574.000000;0.754715
9573.000000;0.755018
9572.000000;0.755575
9571.000000;0.756124
9570.000000;0.755904
9569.000000;0.754653
9568.000000;0.753098
9567.000000;0.752185
9566.000000;0.752177
9565.000000;0.752780
9564.000000;0.753735
9563.000000;0.754900
9562.000000;0.755902
9561.000000;0.756210
9560.000000;0.755622
9559.000000;0.754478
9558.000000;0.753317
9557.000000;0.752456
9556.000000;0.751963
9555.000000;0.751864
9554.000000;0.752201
9553.000000;0.752826
9552.000000;0.753268
9551.000000;0.753050
9550.000000;0.752199
9549.000000;0.751264
9548.000000;0.750684
9547.000000;0.750329
9546.000000;0.749793
9545.000000;0.748946
9544.000000;0.747963
9543.000000;0.747026
9542.000000;0.746321
9541.000000;0.746183
9540.000000;0.746790
9539.000000;0.747745
9538.000000;0.748345
9537.000000;0.748328
9536.000000;0.748003
9535.000000;0.747651
9534.000000;0.747264
9533.000000;0.746933
9532.000000;0.746939
9531.000000;0.747187
9530.000000;0.747045
9529.000000;0.746131
9528.000000;0.744905
9527.000000;0.744050
9526.000000;0.743594
9525.000000;0.743131
9524.000000;0.742640
9523.000000;0.742465
9522.000000;0.742610
9521.000000;0.742680
9520.000000;0.742618
9519.000000;0.742909
9518.000000;0.743761
9517.000000;0.744509
9516.000000;0.744237
9515.000000;0.742818
9514.000000;0.741041
9513.000000;0.739809
9512.000000;0.739422
9511.000000;0.739583
9510.000000;0.739882
9509.000000;0.740210
9508.000000;0.740723
9507.000000;0.741395
9506.000000;0.741744
9505.000000;0.741241
9504.000000;0.740018
9503.000000;0.738915
9502.000000;0.738651
9501.000000;0.739160
9500.000000;0.739863
9499.000000;0.740338
9498.000000;0.740474
9497.000000;0.740171
9496.000000;0.739349
9495.000000;0.738296
9494.000000;0.737639
9493.000000;0.737724
9492.000000;0.738193
9491.000000;0.738370
9490.000000;0.738000
9489.000000;0.737408
9488.000000;0.736954
9487.000000;0.736571
9486.000000;0.735981
9485.000000;0.735230
9484.000000;0.734799
9483.000000;0.735069
9482.000000;0.735796
9481.000000;0.736311
9480.000000;0.736242
9479.000000;0.735855
9478.000000;0.735592
9477.000000;0.735470
9476.000000;0.735158
9475.000000;0.734550
9474.000000;0.733952
9473.000000;0.733621
9472.000000;0.733398
9471.000000;0.732987
9470.000000;0.732405
9469.000000;0.731943
9468.000000;0.731767
9467.000000;0.731768
9466.000000;0.731768
9465.000000;0.731690
9464.000000;0.731498
9463.000000;0.731155
9462.000000;0.730690
9461.000000;0.730251
9460.000000;0.730020
9459.000000;0.730098
9458.000000;0.730442
9457.000000;0.730849
9456.000000;0.731032
9455.000000;0.730824
9454.000000;0.730346
9453.000000;0.729928
9452.000000;0.729819
9451.000000;0.729990
9450.000000;0.730147
9449.000000;0.729913
9448.000000;0.729095
9447.000000;0.727940
9446.000000;0.727068
9445.000000;0.726961
9444.000000;0.727489
9443.000000;0.728049
9442.000000;0.728184
9441.000000;0.727890
9440.000000;0.727335
9439.000000;0.726561
9438.000000;0.725608
9437.000000;0.724711
9436.000000;0.724130
9435.000000;0.723877
9434.000000;0.723799
9433.000000;0.723885
9432.000000;0.724249
9431.000000;0.724801
9430.000000;0.725113
9429.000000;0.724737
9428.000000;0.723614
9427.000000;0.722157
9426.000000;0.721007
9425.000000;0.720665
9424.000000;0.721204
9423.000000;0.722205
9422.000000;0.722979
9421.000000;0.722983
9420.000000;0.722179
9419.000000;0.721104
9418.000000;0.720552
9417.000000;0.721006
9416.000000;0.722270
9415.000000;0.723612
9414.000000;0.724338
9413.000000;0.724248
9412.000000;0.723586
9411.000000;0.722716
9410.000000;0.721936
9409.000000;0.721433
9408.000000;0.721229
9407.000000;0.721176
9406.000000;0.721133
9405.000000;0.721111
9404.000000;0.721119
9403.000000;0.720924
9402.000000;0.720186
9401.000000;0.718900
9400.000000;0.717578
9399.000000;0.716887
9398.000000;0.717095
9397.000000;0.717866
9396.000000;0.718500
9395.000000;0.718430
9394.000000;0.717619
9393.000000;0.716545
9392.000000;0.715725
9391.000000;0.715277
9390.000000;0.715009
9389.000000;0.714867
9388.000000;0.715013
9387.000000;0.715443
9386.000000;0.715783
9385.000000;0.715697
9384.000000;0.715296
9383.000000;0.714893
9382.000000;0.714506
9381.000000;0.713942
9380.000000;0.713305
9379.000000;0.713002
9378.000000;0.713154
9377.000000;0.713347
9376.000000;0.713209
9375.000000;0.712974
9374.000000;0.713163
9373.000000;0.713882
9372.000000;0.714733
9371.000000;0.715349
9370.000000;0.715674
9369.000000;0.715736
9368.000000;0.715452
9367.000000;0.714812
9366.000000;0.713983
9365.000000;0.713117
9364.000000;0.712206
9363.000000;0.711272
9362.000000;0.710541
9361.000000;0.710271
9360.000000;0.710477
9359.000000;0.710934
9358.000000;0.711334
9357.000000;0.711380
9356.000000;0.710885
9355.000000;0.709981
9354.000000;0.709127
9353.000000;0.708712
9352.000000;0.708679
9351.000000;0.708634
9350.000000;0.708271
9349.000000;0.707569
9348.000000;0.706685
9347.000000;0.705888
9346.000000;0.705557
9345.000000;0.705948
9344.000000;0.706848
9343.000000;0.707609
9342.000000;0.707703
9341.000000;0.707220
9340.000000;0.706795
9339.000000;0.707024
9338.000000;0.707921
9337.000000;0.708868
9336.000000;0.709133
9335.000000;0.708499
9334.000000;0.707395
9333.000000;0.706384
9332.000000;0.705657
9331.000000;0.705086
9330.000000;0.704613
9329.000000;0.704339
9328.000000;0.704289
9327.000000;0.704300
9326.000000;0.704199
9325.000000;0.703953
9324.000000;0.703660
9323.000000;0.703521
9322.000000;0.703766
9321.000000;0.704402
9320.000000;0.705033
9319.000000;0.705169
9318.000000;0.704757
9317.000000;0.704193
9316.000000;0.703765
9315.000000;0.703329
9314.000000;0.702653
9313.000000;0.701796
9312.000000;0.700967
9311.000000;0.700218
9310.000000;0.699527
9309.000000;0.699075
9308.000000;0.699151
9307.000000;0.699767
9306.000000;0.700517
9305.000000;0.700895
9304.000000;0.700726
9303.000000;0.700361
9302.000000;0.700424
9301.000000;0.701229
9300.000000;0.702327
9299.000000;0.702779
9298.000000;0.702070
9297.000000;0.700677
9296.000000;0.699585
9295.000000;0.699342
9294.000000;0.699720
9293.000000;0.700145
9292.000000;0.700209
9291.000000;0.699831
9290.000000;0.699230
9289.000000;0.698798
9288.000000;0.698798
9287.000000;0.699069
9286.000000;0.699159
9285.000000;0.698810
9284.000000;0.698230
9283.000000;0.697833
9282.000000;0.697850
9281.000000;0.698219
9280.000000;0.698681
9279.000000;0.698908
9278.000000;0.698660
9277.000000;0.697978
9276.000000;0.697182
9275.000000;0.696602
9274.000000;0.696344
9273.000000;0.696352
9272.000000;0.696551
9271.000000;0.696769
9270.000000;0.696650
9269.000000;0.695938
9268.000000;0.694895
9267.000000;0.694204
9266.000000;0.694297
9265.000000;0.694900
9264.000000;0.695372
9263.000000;0.695424
9262.000000;0.695290
9261.000000;0.695227
9260.000000;0.695092
9259.000000;0.694541
9258.000000;0.693532
9257.000000;0.692467
9256.000000;0.691858
9255.000000;0.691916
9254.000000;0.692422
9253.000000;0.692931
9252.000000;0.693105
9251.000000;0.692907
9250.000000;0.692468
9249.000000;0.691838
9248.000000;0.690965
9247.000000;0.689937
9246.000000;0.689078
9245.000000;0.688711
9244.000000;0.688911
9243.000000;0.689555
9242.000000;0.690515
9241.000000;0.691637
9240.000000;0.692613
9239.000000;0.693091
9238.000000;0.692949
9237.000000;0.692386
9236.000000;0.691759
9235.000000;0.691391
9234.000000;0.691443
9233.000000;0.691802
9232.000000;0.692104
9231.000000;0.692046
9230.000000;0.691673
9229.000000;0.691239
9228.000000;0.690837
9227.000000;0.690348
9226.000000;0.689744
9225.000000;0.689220
9224.000000;0.688966
9223.000000;0.688973
9222.000000;0.689114
9221.000000;0.689237
9220.000000;0.689122
9219.000000;0.688584
9218.000000;0.687779
9217.000000;0.687244
9216.000000;0.687456
9215.000000;0.688368
9214.000000;0.689480
9213.000000;0.690254
9212.000000;0.690400
9211.000000;0.689914
9210.000000;0.689033
9209.000000;0.688153
9208.000000;0.687607
9207.000000;0.687461
9206.000000;0.687537
9205.000000;0.687595
9204.000000;0.687457
9203.000000;0.687062
9202.000000;0.686522
9201.000000;0.686088
9200.000000;0.685959
9199.000000;0.686076
9198.000000;0.686168
9197.000000;0.686008
9196.000000;0.685635
9195.000000;0.685341
9194.000000;0.685420
9193.000000;0.685859
9192.000000;0.686265
9191.000000;0.686177
9190.000000;0.685530
9189.000000;0.684735
9188.000000;0.684289
9187.000000;0.684345
9186.000000;0.684689
9185.000000;0.685016
9184.000000;0.685155
9183.000000;0.685092
9182.000000;0.684860
9181.000000;0.684443
9180.000000;0.683805
9179.000000;0.683034
9178.000000;0.682399
9177.000000;0.682120
9176.000000;0.682110
9175.000000;0.682078
9174.000000;0.681889
9173.000000;0.681688
9172.000000;0.681636
9171.000000;0.681703
9170.000000;0.681773
9169.000000;0.681810
9168.000000;0.681819
9167.000000;0.681783
9166.000000;0.681724
9165.000000;0.681702
9164.000000;0.681659
9163.000000;0.681431
9162.000000;0.681053
9161.000000;0.680876
9160.000000;0.681197
9159.000000;0.681864
9158.000000;0.682434
9157.000000;0.682636
9156.000000;0.682519
9155.000000;0.682221
9154.000000;0.681814
9153.000000;0.681404
9152.000000;0.681164
9151.000000;0.681191
9150.000000;0.681387
9149.000000;0.681514
9148.000000;0.681349
9147.000000;0.680863
9146.000000;0.680332
9145.000000;0.680201
9144.000000;0.680658
9143.000000;0.681341
9142.000000;0.681592
9141.000000;0.681060
9140.000000;0.679993
9139.000000;0.678944
9138.000000;0.678275
9137.000000;0.677965
9136.000000;0.677796
9135.000000;0.677683
9134.000000;0.677755
9133.000000;0.678117
9132.000000;0.678562
9131.000000;0.678678
9130.000000;0.678289
9129.000000;0.677662
9128.000000;0.677193
9127.000000;0.677012
9126.000000;0.677024
9125.000000;0.677182
9124.000000;0.677493
9123.000000;0.677790
9122.000000;0.677747
9121.000000;0.677210
9120.000000;0.676396
9119.000000;0.675738
9118.000000;0.675584
9117.000000;0.675995
9116.000000;0.676678
9115.000000;0.677140
9114.000000;0.677066
9113.000000;0.676598
9112.000000;0.676139
9111.000000;0.675889
9110.000000;0.675681
9109.000000;0.675288
9108.000000;0.674757
9107.000000;0.674375
9106.000000;0.674408
9105.000000;0.674881
9104.000000;0.675530
9103.000000;0.675959
9102.000000;0.675952
9101.000000;0.675662
9100.000000;0.675421
9099.000000;0.675384
9098.000000;0.675448
9097.000000;0.675491
9096.000000;0.675492
9095.000000;0.675423
9094.000000;0.675221
9093.000000;0.674921
9092.000000;0.674638
9091.000000;0.674331
9090.000000;0.673800
9089.000000;0.673041
9088.000000;0.672419
9087.000000;0.672292
9086.000000;0.672595
9085.000000;0.672932
9084.000000;0.672944
9083.000000;0.672449
9082.000000;0.671429
9081.000000;0.670192
9080.000000;0.669426
9079.000000;0.669673
9078.000000;0.670671
9077.000000;0.671518
9076.000000;0.671620
9075.000000;0.671274
9074.000000;0.671157
9073.000000;0.671490
9072.000000;0.671925
9071.000000;0.672101
9070.000000;0.672023
9069.000000;0.671937
9068.000000;0.671993
9067.000000;0.672109
9066.000000;0.672062
9065.000000;0.671707
9064.000000;0.671151
9063.000000;0.670680
9062.000000;0.670466
9061.000000;0.670415
9060.000000;0.670367
9059.000000;0.670340
9058.000000;0.670455
9057.000000;0.670718
9056.000000;0.671015
9055.000000;0.671219
9054.000000;0.671172
9053.000000;0.670682
