Criado como novo conjunto de dados;"e0108.spp","-4243662.6 Secs"
cm-1;Abs
10000.000000;1.000640
9999.000000;1.002145
9998.000000;1.003156
9997.000000;1.002799
9996.000000;1.000786
9995.000000;0.998100
9994.000000;0.996442
9993.000000;0.996712
9992.000000;0.998297
9991.000000;0.999926
9990.000000;1.000805
9989.000000;1.000729
9988.000000;0.999601
9987.000000;0.997546
9986.000000;0.995375
9985.000000;0.994218
9984.000000;0.994409
9983.000000;0.995072
9982.000000;0.995023
9981.000000;0.993904
9980.000000;0.992317
9979.000000;0.991001
9978.000000;0.990173
9977.000000;0.989677
9976.000000;0.989488
9975.000000;0.989868
9974.000000;0.991018
9973.000000;0.992665
9972.000000;0.994049
9971.000000;0.994402
9970.000000;0.993509
9969.000000;0.991896
9968.000000;0.990520
9967.000000;0.990211
9966.000000;0.991170
9965.000000;0.992814
9964.000000;0.994169
9963.000000;0.994631
9962.000000;0.994375
9961.000000;0.993900
9960.000000;0.993236
9959.000000;0.991910
9958.000000;0.989771
9957.000000;0.987604
9956.000000;0.986651
9955.000000;0.987452
9954.000000;0.989157
9953.000000;0.990042
9952.000000;0.988946
9951.000000;0.986375
9950.000000;0.984080
9949.000000;0.983377
9948.000000;0.983897
9947.000000;0.984130
9946.000000;0.983131
9945.000000;0.981347
9944.000000;0.979760
9943.000000;0.978821
9942.000000;0.978524
9941.000000;0.978920
9940.000000;0.979875
9939.000000;0.980549
9938.000000;0.979929
9937.000000;0.978060
9936.000000;0.976190
9935.000000;0.975382
9934.000000;0.975439
9933.000000;0.975457
9932.000000;0.975034
9931.000000;0.974465
9930.000000;0.974040
9929.000000;0.973704
9928.000000;0.973391
9927.000000;0.973279
9926.000000;0.973526
9925.000000;0.973945
9924.000000;0.974084
9923.000000;0.973631
9922.000000;0.972752
9921.000000;0.972101
9920.000000;0.972359
9919.000000;0.973526
9918.000000;0.974669
9917.000000;0.974648
9916.000000;0.973236
9915.000000;0.971392
9914.000000;0.970316
9913.000000;0.970338
9912.000000;0.970802
9911.000000;0.970933
9910.000000;0.970668
9909.000000;0.970566
9908.000000;0.970962
9907.000000;0.971461
9906.000000;0.971355
9905.000000;0.970413
9904.000000;0.969073
9903.000000;0.967857
9902.000000;0.966808
9901.000000;0.965690
9900.000000;0.964612
9899.000000;0.964140
9898.000000;0.964699
9897.000000;0.966012
9896.000000;0.967275
9895.000000;0.967874
9894.000000;0.967823
9893.000000;0.967462
9892.000000;0.966906
9891.000000;0.966029
9890.000000;0.965009
9889.000000;0.964510
9888.000000;0.964995
9887.000000;0.965972
9886.000000;0.966349
9885.000000;0.965602
9884.000000;0.964236
9883.000000;0.962958
9882.000000;0.961825
9881.000000;0.960533
9880.000000;0.959167
9879.000000;0.958153
9878.000000;0.957641
9877.000000;0.957415
9876.000000;0.957386
9875.000000;0.957682
9874.000000;0.958229
9873.000000;0.958660
9872.000000;0.958766
9871.000000;0.958681
9870.000000;0.958502
9869.000000;0.958052
9868.000000;0.957184
9867.000000;0.955996
9866.000000;0.954627
9865.000000;0.953185
9864.000000;0.952036
9863.000000;0.951751
9862.000000;0.952425
9861.000000;0.953338
9860.000000;0.953650
9859.000000;0.953274
9858.000000;0.952745
9857.000000;0.952444
9856.000000;0.952364
9855.000000;0.952509
9854.000000;0.953050
9853.000000;0.953967
9852.000000;0.954853
9851.000000;0.955184
9850.000000;0.954657
9849.000000;0.953276
9848.000000;0.951363
9847.000000;0.949515
9846.000000;0.948292
9845.000000;0.947742
9844.000000;0.947382
9843.000000;0.946756
9842.000000;0.945943
9841.000000;0.945410
9840.000000;0.945434
9839.000000;0.945752
9838.000000;0.945753
9837.000000;0.945084
9836.000000;0.944140
9835.000000;0.943838
9834.000000;0.944705
9833.000000;0.946181
9832.000000;0.947012
9831.000000;0.946460
9830.000000;0.945011
9829.000000;0.943753
9828.000000;0.943261
9827.000000;0.943294
9826.000000;0.943372
9825.000000;0.943271
9824.000000;0.942903
9823.000000;0.942110
9822.000000;0.940899
9821.000000;0.939763
9820.000000;0.939344
9819.000000;0.939668
9818.000000;0.940014
9817.000000;0.939736
9816.000000;0.939016
9815.000000;0.938507
9814.000000;0.938436
9813.000000;0.938478
9812.000000;0.938417
9811.000000;0.938381
9810.000000;0.938357
9809.000000;0.937984
9808.000000;0.937153
9807.000000;0.936388
9806.000000;0.936205
9805.000000;0.936360
9804.000000;0.936159
9803.000000;0.935350
9802.000000;0.934315
9801.000000;0.933550
9800.000000;0.933329
9799.000000;0.933736
9798.000000;0.934603
9797.000000;0.935434
9796.000000;0.935824
9795.000000;0.935957
9794.000000;0.936251
9793.000000;0.936449
9792.000000;0.935679
9791.000000;0.933689
9790.000000;0.931570
9789.000000;0.930832
9788.000000;0.931948
9787.000000;0.934076
9786.000000;0.935963
9785.000000;0.936820
9784.000000;0.936496
9783.000000;0.935275
9782.000000;0.933685
9781.000000;0.932208
9780.000000;0.930910
9779.000000;0.929441
9778.000000;0.927580
9777.000000;0.925771
9776.000000;0.924896
9775.000000;0.925279
9774.000000;0.926077
9773.000000;0.926014
9772.000000;0.924806
9771.000000;0.923494
9770.000000;0.923154
9769.000000;0.923591
9768.000000;0.923699
9767.000000;0.922907
9766.000000;0.921742
9765.000000;0.920971
9764.000000;0.920744
9763.000000;0.920760
9762.000000;0.920831
9761.000000;0.921033
9760.000000;0.921558
9759.000000;0.922559
9758.000000;0.923893
9757.000000;0.924855
9756.000000;0.924607
9755.000000;0.923191
9754.000000;0.921710
9753.000000;0.921117
9752.000000;0.921120
9751.000000;0.920726
9750.000000;0.919600
9749.000000;0.918346
9748.000000;0.917574
9747.000000;0.917272
9746.000000;0.917149
9745.000000;0.917054
9744.000000;0.916831
9743.000000;0.916192
9742.000000;0.915145
9741.000000;0.914311
9740.000000;0.914408
9739.000000;0.915402
9738.000000;0.916421
9737.000000;0.916596
9736.000000;0.915887
9735.000000;0.914984
9734.000000;0.914496
9733.000000;0.914408
9732.000000;0.914333
9731.000000;0.914058
9730.000000;0.913700
9729.000000;0.913408
9728.000000;0.913162
9727.000000;0.912895
9726.000000;0.912624
9725.000000;0.912347
9724.000000;0.911948
9723.000000;0.911341
9722.000000;0.910618
9721.000000;0.909980
9720.000000;0.909614
9719.000000;0.909680
9718.000000;0.910208
9717.000000;0.910895
9716.000000;0.911155
9715.000000;0.910591
9714.000000;0.909371
9713.000000;0.908061
9712.000000;0.907195
9711.000000;0.907063
9710.000000;0.907712
9709.000000;0.908950
9708.000000;0.910393
9707.000000;0.911629
9706.000000;0.912311
9705.000000;0.912097
9704.000000;0.910758
9703.000000;0.908517
9702.000000;0.906114
9701.000000;0.904299
9700.000000;0.903303
9699.000000;0.902899
9698.000000;0.902782
9697.000000;0.902700
9696.000000;0.902450
9695.000000;0.902063
9694.000000;0.901900
9693.000000;0.902263
9692.000000;0.902964
9691.000000;0.903509
9690.000000;0.903622
9689.000000;0.903323
9688.000000;0.902654
9687.000000;0.901721
9686.000000;0.900932
9685.000000;0.900685
9684.000000;0.900735
9683.000000;0.900360
9682.000000;0.899397
9681.000000;0.898678
9680.000000;0.899059
9679.000000;0.900255
9678.000000;0.901062
9677.000000;0.900678
9676.000000;0.899472
9675.000000;0.898383
9674.000000;0.897865
9673.000000;0.897624
9672.000000;0.897211
9671.000000;0.896623
9670.000000;0.896255
9669.000000;0.896420
9668.000000;0.897037
9667.000000;0.897707
9666.000000;0.897964
9665.000000;0.897492
9664.000000;0.896320
9663.000000;0.894968
9662.000000;0.894178
9661.000000;0.894242
9660.000000;0.894625
9659.000000;0.894482
9658.000000;0.893534
9657.000000;0.892283
9656.000000;0.891413
9655.000000;0.891214
9654.000000;0.891538
9653.000000;0.892055
9652.000000;0.892463
9651.000000;0.892603
9650.000000;0.892456
9649.000000;0.892028
9648.000000;0.891317
9647.000000;0.890496
9646.000000;0.889959
9645.000000;0.889958
9644.000000;0.890252
9643.000000;0.890319
9642.000000;0.889830
9641.000000;0.888746
9640.000000;0.887189
9639.000000;0.885587
9638.000000;0.884748
9637.000000;0.885259
9636.000000;0.886728
9635.000000;0.888061
9634.000000;0.888594
9633.000000;0.888549
9632.000000;0.888318
9631.000000;0.887879
9630.000000;0.887158
9629.000000;0.886448
9628.000000;0.886026
9627.000000;0.885714
9626.000000;0.885215
9625.000000;0.884637
9624.000000;0.884279
9623.000000;0.884117
9622.000000;0.883903
9621.000000;0.883570
9620.000000;0.883153
9619.000000;0.882513
9618.000000;0.881620
9617.000000;0.880971
9616.000000;0.881185
9615.000000;0.882116
9614.000000;0.882769
9613.000000;0.882281
9612.000000;0.880752
9611.000000;0.879022
9610.000000;0.877854
9609.000000;0.877486
9608.000000;0.877695
9607.000000;0.878097
9606.000000;0.878431
9605.000000;0.878650
9604.000000;0.878767
9603.000000;0.878730
9602.000000;0.878545
9601.000000;0.878392
9600.000000;0.878434
9599.000000;0.878559
9598.000000;0.878502
9597.000000;0.878167
9596.000000;0.877615
9595.000000;0.876840
9594.000000;0.875817
9593.000000;0.874739
9592.000000;0.873906
9591.000000;0.873342
9590.000000;0.872810
9589.000000;0.872281
9588.000000;0.872117
9587.000000;0.872597
9586.000000;0.873418
9585.000000;0.873862
9584.000000;0.873462
9583.000000;0.872425
9582.000000;0.871413
9581.000000;0.870960
9580.000000;0.871050
9579.000000;0.871230
9578.000000;0.871115
9577.000000;0.870746
9576.000000;0.870420
9575.000000;0.870263
9574.000000;0.870147
9573.000000;0.869978
9572.000000;0.869882
9571.000000;0.869973
9570.000000;0.870061
9569.000000;0.869712
9568.000000;0.868640
9567.000000;0.867050
9566.000000;0.865558
9565.000000;0.864685
9564.000000;0.864437
9563.000000;0.864413
9562.000000;0.864302
9561.000000;0.864086
9560.000000;0.863768
9559.000000;0.863190
9558.000000;0.862340
9557.000000;0.861657
9556.000000;0.861750
9555.000000;0.862787
9554.000000;0.864274
9553.000000;0.865391
9552.000000;0.865509
9551.000000;0.864567
9550.000000;0.863196
9549.000000;0.862326
9548.000000;0.862399
9547.000000;0.862979
9546.000000;0.863296
9545.000000;0.863043
9544.000000;0.862442
9543.000000;0.861747
9542.000000;0.861057
9541.000000;0.860535
9540.000000;0.860376
9539.000000;0.860533
9538.000000;0.860771
9537.000000;0.861033
9536.000000;0.861419
9535.000000;0.861815
9534.000000;0.861893
9533.000000;0.861523
9532.000000;0.860851
9531.000000;0.859987
9530.000000;0.859033
9529.000000;0.858452
9528.000000;0.858858
9527.000000;0.860150
9526.000000;0.861373
9525.000000;0.861772
9524.000000;0.861576
9523.000000;0.861288
9522.000000;0.860702
9521.000000;0.859276
9520.000000;0.857328
9519.000000;0.856087
9518.000000;0.856342
9517.000000;0.857507
9516.000000;0.858313
9515.000000;0.858122
9514.000000;0.857318
9513.000000;0.856576
9512.000000;0.856076
9511.000000;0.855516
9510.000000;0.854720
9509.000000;0.854033
9508.000000;0.853993
9507.000000;0.854661
9506.000000;0.855478
9505.000000;0.855843
9504.000000;0.855670
9503.000000;0.855238
9502.000000;0.854690
9501.000000;0.853933
9500.000000;0.852986
9499.000000;0.852187
9498.000000;0.851959
9497.000000;0.852443
9496.000000;0.853337
9495.000000;0.854035
9494.000000;0.854024
9493.000000;0.853258
9492.000000;0.852115
9491.000000;0.850969
9490.000000;0.849948
9489.000000;0.849109
9488.000000;0.848593
9487.000000;0.848421
9486.000000;0.848319
9485.000000;0.848002
9484.000000;0.847566
9483.000000;0.847363
9482.000000;0.847528
9481.000000;0.847805
9480.000000;0.847849
9479.000000;0.847520
9478.000000;0.846877
9477.000000;0.846099
9476.000000;0.845461
9475.000000;0.845238
9474.000000;0.845517
9473.000000;0.846096
9472.000000;0.846537
9471.000000;0.846381
9470.000000;0.845460
9469.000000;0.844138
9468.000000;0.843124
9467.000000;0.842887
9466.000000;0.843299
9465.000000;0.843883
9464.000000;0.844242
9463.000000;0.844141
9462.000000;0.843440
9461.000000;0.842274
9460.000000;0.841183
9459.000000;0.840746
9458.000000;0.841049
9457.000000;0.841666
9456.000000;0.842119
9455.000000;0.842181
9454.000000;0.841854
9453.000000;0.841295
9452.000000;0.840735
9451.000000;0.840241
9450.000000;0.839584
9449.000000;0.838592
9448.000000;0.837582
9447.000000;0.837171
9446.000000;0.837655
9445.000000;0.838794
9444.000000;0.840186
9443.000000;0.841512
9442.000000;0.842389
9441.000000;0.842391
9440.000000;0.841442
9439.000000;0.840023
9438.000000;0.838802
9437.000000;0.838168
9436.000000;0.838117
9435.000000;0.838315
9434.000000;0.838217
9433.000000;0.837455
9432.000000;0.836308
9431.000000;0.835536
9430.000000;0.835507
9429.000000;0.835699
9428.000000;0.835334
9427.000000;0.834374
9426.000000;0.833627
9425.000000;0.833881
9424.000000;0.835127
9423.000000;0.836608
9422.000000;0.837442
9421.000000;0.837233
9420.000000;0.836245
9419.000000;0.835131
9418.000000;0.834488
9417.000000;0.834588
9416.000000;0.835334
9415.000000;0.836259
9414.000000;0.836695
9413.000000;0.836269
9412.000000;0.835350
9411.000000;0.834703
9410.000000;0.834580
9409.000000;0.834397
9408.000000;0.833543
9407.000000;0.832286
9406.000000;0.831535
9405.000000;0.831788
9404.000000;0.832637
9403.000000;0.833305
9402.000000;0.833417
9401.000000;0.833104
9400.000000;0.832585
9399.000000;0.831866
9398.000000;0.830893
9397.000000;0.829862
9396.000000;0.829163
9395.000000;0.828963
9394.000000;0.828962
9393.000000;0.828789
9392.000000;0.828557
9391.000000;0.828758
9390.000000;0.829540
9389.000000;0.830373
9388.000000;0.830622
9387.000000;0.830236
9386.000000;0.829637
9385.000000;0.829116
9384.000000;0.828624
9383.000000;0.828045
9382.000000;0.827394
9381.000000;0.826747
9380.000000;0.826127
9379.000000;0.825478
9378.000000;0.824695
9377.000000;0.823812
9376.000000;0.823220
9375.000000;0.823448
9374.000000;0.824509
9373.000000;0.825660
9372.000000;0.826153
9371.000000;0.826097
9370.000000;0.826207
9369.000000;0.826777
9368.000000;0.827307
9367.000000;0.827199
9366.000000;0.826397
9365.000000;0.825230
9364.000000;0.823981
9363.000000;0.822852
9362.000000;0.822095
9361.000000;0.821877
9360.000000;0.822115
9359.000000;0.822594
9358.000000;0.823117
9357.000000;0.823429
9356.000000;0.823247
9355.000000;0.822625
9354.000000;0.822132
9353.000000;0.822331
9352.000000;0.823044
9351.000000;0.823422
9350.000000;0.822809
9349.000000;0.821403
9348.000000;0.819993
9347.000000;0.819175
9346.000000;0.818965
9345.000000;0.819081
9344.000000;0.819395
9343.000000;0.819971
9342.000000;0.820684
9341.000000;0.821038
9340.000000;0.820575
9339.000000;0.819455
9338.000000;0.818423
9337.000000;0.818095
9336.000000;0.818380
9335.000000;0.818693
9334.000000;0.818614
9333.000000;0.818195
9332.000000;0.817686
9331.000000;0.817186
9330.000000;0.816635
9329.000000;0.816041
9328.000000;0.815587
9327.000000;0.815525
9326.000000;0.815961
9325.000000;0.816712
9324.000000;0.817365
9323.000000;0.817536
9322.000000;0.817123
9321.000000;0.816320
9320.000000;0.815409
9319.000000;0.814595
9318.000000;0.813983
9317.000000;0.813641
9316.000000;0.813617
9315.000000;0.813916
9314.000000;0.814452
9313.000000;0.814996
9312.000000;0.815220
9311.000000;0.814898
9310.000000;0.814109
9309.000000;0.813182
9308.000000;0.812389
9307.000000;0.811760
9306.000000;0.811239
9305.000000;0.810948
9304.000000;0.811112
9303.000000;0.811715
9302.000000;0.812378
9301.000000;0.812671
9300.000000;0.812477
9299.000000;0.811949
9298.000000;0.811219
9297.000000;0.810337
9296.000000;0.809482
9295.000000;0.809004
9294.000000;0.809125
9293.000000;0.809668
9292.000000;0.810205
9291.000000;0.810484
9290.000000;0.810607
9289.000000;0.810749
9288.000000;0.810819
9287.000000;0.810525
9286.000000;0.809808
9285.000000;0.809066
9284.000000;0.808793
9283.000000;0.809004
9282.000000;0.809171
9281.000000;0.808792
9280.000000;0.807897
9279.000000;0.806928
9278.000000;0.806289
9277.000000;0.806164
9276.000000;0.806589
9275.000000;0.807342
9274.000000;0.807844
9273.000000;0.807513
9272.000000;0.806384
9271.000000;0.805125
9270.000000;0.804353
9269.000000;0.804141
9268.000000;0.804291
9267.000000;0.804713
9266.000000;0.805301
9265.000000;0.805682
9264.000000;0.805501
9263.000000;0.804880
9262.000000;0.804273
9261.000000;0.803879
9260.000000;0.803504
9259.000000;0.803008
9258.000000;0.802603
9257.000000;0.802559
9256.000000;0.802830
9255.000000;0.803125
9254.000000;0.803250
9253.000000;0.803263
9252.000000;0.803325
9251.000000;0.803468
9250.000000;0.803507
9249.000000;0.803163
9248.000000;0.802288
9247.000000;0.800984
9246.000000;0.799559
9245.000000;0.798477
9244.000000;0.798336
9243.000000;0.799596
9242.000000;0.802042
9241.000000;0.804608
9240.000000;0.806056
9239.000000;0.805928
9238.000000;0.804740
9237.000000;0.803333
9236.000000;0.802250
9235.000000;0.801642
9234.000000;0.801342
9233.000000;0.800952
9232.000000;0.800198
9231.000000;0.799371
9230.000000;0.799131
9229.000000;0.799662
9228.000000;0.800270
9227.000000;0.800099
9226.000000;0.799096
9225.000000;0.797953
9224.000000;0.797255
9223.000000;0.797034
9222.000000;0.797113
9221.000000;0.797453
9220.000000;0.797992
9219.000000;0.798428
9218.000000;0.798464
9217.000000;0.798171
9216.000000;0.797928
9215.000000;0.798001
9214.000000;0.798314
9213.000000;0.798606
9212.000000;0.798669
9211.000000;0.798414
9210.000000;0.797859
9209.000000;0.797188
9208.000000;0.796761
9207.000000;0.796875
9206.000000;0.797413
9205.000000;0.797808
9204.000000;0.797503
9203.000000;0.796468
9202.000000;0.795191
9201.000000;0.794200
9200.000000;0.793688
9199.000000;0.793572
9198.000000;0.793731
9197.000000;0.794070
9196.000000;0.794456
9195.000000;0.794771
9194.000000;0.795072
9193.000000;0.795535
9192.000000;0.796160
9191.000000;0.796602
9190.000000;0.796461
9189.000000;0.795777
9188.000000;0.795113
9187.000000;0.794979
9186.000000;0.795198
9185.000000;0.795050
9184.000000;0.794112
9183.000000;0.792812
9182.000000;0.791963
9181.000000;0.791830
9180.000000;0.791930
9179.000000;0.791740
9178.000000;0.791339
9177.000000;0.791183
9176.000000;0.791430
9175.000000;0.791755
9174.000000;0.791817
9173.000000;0.791673
9172.000000;0.791600
9171.000000;0.791648
9170.000000;0.791570
9169.000000;0.791220
9168.000000;0.790826
9167.000000;0.790735
9166.000000;0.790947
9165.000000;0.791115
9164.000000;0.791033
9163.000000;0.790911
9162.000000;0.791027
9161.000000;0.791253
9160.000000;0.791131
9159.000000;0.790440
9158.000000;0.789515
9157.000000;0.788976
9156.000000;0.789176
9155.000000;0.789876
9154.000000;0.790412
9153.000000;0.790274
9152.000000;0.789626
9151.000000;0.789162
9150.000000;0.789359
9149.000000;0.790007
9148.000000;0.790554
9147.000000;0.790706
9146.000000;0.790472
9145.000000;0.789831
9144.000000;0.788788
9143.000000;0.787699
9142.000000;0.787125
9141.000000;0.787224
9140.000000;0.787596
9139.000000;0.787802
9138.000000;0.787729
9137.000000;0.787376
9136.000000;0.786716
9135.000000;0.786015
9134.000000;0.785885
9133.000000;0.786607
9132.000000;0.787579
9131.000000;0.787842
9130.000000;0.787117
9129.000000;0.786015
9128.000000;0.785306
9127.000000;0.785290
9126.000000;0.785834
9125.000000;0.786604
9124.000000;0.787180
9123.000000;0.787252
9122.000000;0.786881
9121.000000;0.786450
9120.000000;0.786271
9119.000000;0.786304
9118.000000;0.786265
9117.000000;0.785875
9116.000000;0.785026
9115.000000;0.783916
9114.000000;0.783064
9113.000000;0.782978
9112.000000;0.783662
9111.000000;0.784520
9110.000000;0.784846
9109.000000;0.784423
9108.000000;0.783613
9107.000000;0.782952
9106.000000;0.782713
9105.000000;0.782805
9104.000000;0.782971
9103.000000;0.783065
9102.000000;0.783158
9101.000000;0.783413
9100.000000;0.783893
9099.000000;0.784491
9098.000000;0.784996
9097.000000;0.785187
9096.000000;0.784950
9095.000000;0.784363
9094.000000;0.783654
9093.000000;0.783012
9092.000000;0.782467
9091.000000;0.781998
9090.000000;0.781649
9089.000000;0.781449
9088.000000;0.781286
9087.000000;0.781013
9086.000000;0.780624
9085.000000;0.780206
9084.000000;0.779775
9083.000000;0.779347
9082.000000;0.779141
9081.000000;0.779471
9080.000000;0.780326
9079.000000;0.781222
9078.000000;0.781658
9077.000000;0.781620
9076.000000;0.781506
9075.000000;0.781566
9074.000000;0.781593
9073.000000;0.781216
9072.000000;0.780384
9071.000000;0.779464
9070.000000;0.778886
9069.000000;0.778809
9068.000000;0.779138
9067.000000;0.779751
9066.000000;0.780524
9065.000000;0.781189
9064.000000;0.781396
9063.000000;0.781048
9062.000000;0.780471
9061.000000;0.780084
9060.000000;0.779973
9059.000000;0.779905
9058.000000;0.779714
9057.000000;0.779484
9056.000000;0.779343
9055.000000;0.779220
9054.000000;0.778899
9053.000000;0.778276
