Criado como novo conjunto de dados;"e0108.spp","-4216121.2 Secs"
cm-1;Abs
10000.000000;1.988172
9999.000000;1.983554
9998.000000;1.979271
9997.000000;1.974424
9996.000000;1.972801
9995.000000;1.975012
9994.000000;1.975576
9993.000000;1.973349
9992.000000;1.972680
9991.000000;1.977649
9990.000000;1.985268
9989.000000;1.988382
9988.000000;1.984955
9987.000000;1.980355
9986.000000;1.980070
9985.000000;1.985055
9984.000000;1.993750
9983.000000;2.003759
9982.000000;2.010879
9981.000000;2.011453
9980.000000;2.007844
9979.000000;2.006838
9978.000000;2.010816
9977.000000;2.014471
9976.000000;2.012250
9975.000000;2.005907
9974.000000;2.000880
9973.000000;1.999046
9972.000000;1.999137
9971.000000;2.000146
9970.000000;2.001392
9969.000000;2.001980
9968.000000;2.001315
9967.000000;2.000296
9966.000000;2.000331
9965.000000;1.999848
9964.000000;1.996279
9963.000000;1.991105
9962.000000;1.987645
9961.000000;1.986071
9960.000000;1.984920
9959.000000;1.985516
9958.000000;1.989524
9957.000000;1.992888
9956.000000;1.989063
9955.000000;1.978329
9954.000000;1.967748
9953.000000;1.962759
9952.000000;1.962360
9951.000000;1.962436
9950.000000;1.961355
9949.000000;1.959996
9948.000000;1.958715
9947.000000;1.957174
9946.000000;1.955514
9945.000000;1.953862
9944.000000;1.952181
9943.000000;1.951918
9942.000000;1.955994
9941.000000;1.965040
9940.000000;1.974490
9939.000000;1.978108
9938.000000;1.974562
9937.000000;1.967875
9936.000000;1.962023
9935.000000;1.958346
9934.000000;1.957517
9933.000000;1.960356
9932.000000;1.966486
9931.000000;1.974101
9930.000000;1.980440
9929.000000;1.983006
9928.000000;1.981366
9927.000000;1.976866
9926.000000;1.971257
9925.000000;1.966001
9924.000000;1.961517
9923.000000;1.956940
9922.000000;1.951631
9921.000000;1.946544
9920.000000;1.943476
9919.000000;1.944203
9918.000000;1.950844
9917.000000;1.964900
9916.000000;1.984567
9915.000000;2.004292
9914.000000;2.017482
9913.000000;2.019301
9912.000000;2.008460
9911.000000;1.988520
9910.000000;1.967211
9909.000000;1.952421
9908.000000;1.947739
9907.000000;1.951579
9906.000000;1.959664
9905.000000;1.967921
9904.000000;1.974224
9903.000000;1.978706
9902.000000;1.982141
9901.000000;1.983605
9900.000000;1.980532
9899.000000;1.972249
9898.000000;1.962794
9897.000000;1.957945
9896.000000;1.959379
9895.000000;1.963220
9894.000000;1.964844
9893.000000;1.964548
9892.000000;1.966462
9891.000000;1.972125
9890.000000;1.978157
9889.000000;1.980402
9888.000000;1.977772
9887.000000;1.971219
9886.000000;1.961877
9885.000000;1.951892
9884.000000;1.944376
9883.000000;1.940739
9882.000000;1.939261
9881.000000;1.937870
9880.000000;1.937560
9879.000000;1.941114
9878.000000;1.949252
9877.000000;1.958793
9876.000000;1.964008
9875.000000;1.961085
9874.000000;1.952028
9873.000000;1.942566
9872.000000;1.936469
9871.000000;1.932666
9870.000000;1.927852
9869.000000;1.922008
9868.000000;1.919511
9867.000000;1.923314
9866.000000;1.929948
9865.000000;1.932912
9864.000000;1.930826
9863.000000;1.928383
9862.000000;1.929536
9861.000000;1.933676
9860.000000;1.938366
9859.000000;1.943175
9858.000000;1.948482
9857.000000;1.952215
9856.000000;1.951823
9855.000000;1.948717
9854.000000;1.947918
9853.000000;1.953227
9852.000000;1.963082
9851.000000;1.970783
9850.000000;1.969670
9849.000000;1.959556
9848.000000;1.947540
9847.000000;1.942039
9846.000000;1.946774
9845.000000;1.959208
9844.000000;1.972732
9843.000000;1.980157
9842.000000;1.976676
9841.000000;1.962580
9840.000000;1.944523
9839.000000;1.932006
9838.000000;1.930838
9837.000000;1.939013
9836.000000;1.948510
9835.000000;1.952809
9834.000000;1.952774
9833.000000;1.952823
9832.000000;1.953432
9831.000000;1.951155
9830.000000;1.944554
9829.000000;1.936347
9828.000000;1.930064
9827.000000;1.927028
9826.000000;1.926526
9825.000000;1.927389
9824.000000;1.928420
9823.000000;1.928567
9822.000000;1.927897
9821.000000;1.927531
9820.000000;1.927687
9819.000000;1.926587
9818.000000;1.922840
9817.000000;1.917965
9816.000000;1.914620
9815.000000;1.912749
9814.000000;1.909505
9813.000000;1.904236
9812.000000;1.901231
9811.000000;1.905168
9810.000000;1.915661
9809.000000;1.927573
9808.000000;1.935997
9807.000000;1.940197
9806.000000;1.942328
9805.000000;1.943301
9804.000000;1.941629
9803.000000;1.936413
9802.000000;1.929723
9801.000000;1.924640
9800.000000;1.921818
9799.000000;1.919316
9798.000000;1.915778
9797.000000;1.912460
9796.000000;1.911355
9795.000000;1.912660
9794.000000;1.915437
9793.000000;1.919705
9792.000000;1.925888
9791.000000;1.932001
9790.000000;1.933512
9789.000000;1.927845
9788.000000;1.917587
9787.000000;1.907628
9786.000000;1.900984
9785.000000;1.898621
9784.000000;1.901119
9783.000000;1.908260
9782.000000;1.917712
9781.000000;1.925800
9780.000000;1.929941
9779.000000;1.930820
9778.000000;1.931771
9777.000000;1.934628
9776.000000;1.937436
9775.000000;1.936277
9774.000000;1.928469
9773.000000;1.916323
9772.000000;1.907017
9771.000000;1.905927
9770.000000;1.911362
9769.000000;1.917191
9768.000000;1.919327
9767.000000;1.918087
9766.000000;1.915648
9765.000000;1.913529
9764.000000;1.911892
9763.000000;1.909472
9762.000000;1.904574
9761.000000;1.897663
9760.000000;1.892129
9759.000000;1.890823
9758.000000;1.892463
9757.000000;1.893103
9756.000000;1.891518
9755.000000;1.890983
9754.000000;1.894232
9753.000000;1.899366
9752.000000;1.902467
9751.000000;1.902309
9750.000000;1.900969
9749.000000;1.900624
9748.000000;1.901507
9747.000000;1.902822
9746.000000;1.903768
9745.000000;1.903437
9744.000000;1.901033
9743.000000;1.896548
9742.000000;1.891102
9741.000000;1.886850
9740.000000;1.886369
9739.000000;1.890811
9738.000000;1.897857
9737.000000;1.902905
9736.000000;1.903690
9735.000000;1.902695
9734.000000;1.903191
9733.000000;1.904511
9732.000000;1.903908
9731.000000;1.901901
9730.000000;1.902429
9729.000000;1.907175
9728.000000;1.912650
9727.000000;1.913670
9726.000000;1.908550
9725.000000;1.900345
9724.000000;1.892766
9723.000000;1.887398
9722.000000;1.885010
9721.000000;1.885266
9720.000000;1.885673
9719.000000;1.884020
9718.000000;1.880967
9717.000000;1.878808
9716.000000;1.878586
9715.000000;1.879124
9714.000000;1.879012
9713.000000;1.879317
9712.000000;1.883224
9711.000000;1.892471
9710.000000;1.904559
9709.000000;1.913711
9708.000000;1.915349
9707.000000;1.909865
9706.000000;1.901044
9705.000000;1.891979
9704.000000;1.883976
9703.000000;1.878010
9702.000000;1.875507
9701.000000;1.877380
9700.000000;1.882955
9699.000000;1.889954
9698.000000;1.895032
9697.000000;1.895392
9696.000000;1.891152
9695.000000;1.885430
9694.000000;1.881744
9693.000000;1.881560
9692.000000;1.883747
9691.000000;1.885666
9690.000000;1.884989
9689.000000;1.881501
9688.000000;1.877673
9687.000000;1.876747
9686.000000;1.879382
9685.000000;1.882535
9684.000000;1.882610
9683.000000;1.879438
9682.000000;1.875844
9681.000000;1.873823
9680.000000;1.872966
9679.000000;1.872534
9678.000000;1.872893
9677.000000;1.873963
9676.000000;1.874510
9675.000000;1.874582
9674.000000;1.876689
9673.000000;1.882167
9672.000000;1.887348
9671.000000;1.886735
9670.000000;1.880838
9669.000000;1.876882
9668.000000;1.880585
9667.000000;1.890091
9666.000000;1.898334
9665.000000;1.900319
9664.000000;1.896834
9663.000000;1.891468
9662.000000;1.886914
9661.000000;1.884125
9660.000000;1.882488
9659.000000;1.880507
9658.000000;1.877400
9657.000000;1.873865
9656.000000;1.870547
9655.000000;1.866572
9654.000000;1.861574
9653.000000;1.858815
9652.000000;1.863016
9651.000000;1.873950
9650.000000;1.884305
9649.000000;1.886938
9648.000000;1.883672
9647.000000;1.882053
9646.000000;1.884765
9645.000000;1.886923
9644.000000;1.883862
9643.000000;1.878091
9642.000000;1.875332
9641.000000;1.876347
9640.000000;1.876340
9639.000000;1.871332
9638.000000;1.862375
9637.000000;1.853562
9636.000000;1.848345
9635.000000;1.848121
9634.000000;1.852054
9633.000000;1.856917
9632.000000;1.858658
9631.000000;1.856148
9630.000000;1.852734
9629.000000;1.852630
9628.000000;1.856313
9627.000000;1.860549
9626.000000;1.862786
9625.000000;1.863832
9624.000000;1.865327
9623.000000;1.866577
9622.000000;1.865927
9621.000000;1.864515
9620.000000;1.866178
9619.000000;1.872643
9618.000000;1.880042
9617.000000;1.881926
9616.000000;1.876273
9615.000000;1.867736
9614.000000;1.862555
9613.000000;1.862822
9612.000000;1.865532
9611.000000;1.866229
9610.000000;1.863396
9609.000000;1.859227
9608.000000;1.856474
9607.000000;1.855327
9606.000000;1.853602
9605.000000;1.849649
9604.000000;1.844433
9603.000000;1.840397
9602.000000;1.838693
9601.000000;1.838273
9600.000000;1.837916
9599.000000;1.838390
9598.000000;1.841681
9597.000000;1.848125
9596.000000;1.855008
9595.000000;1.858665
9594.000000;1.858126
9593.000000;1.855939
9592.000000;1.855085
9591.000000;1.855931
9590.000000;1.856517
9589.000000;1.855087
9588.000000;1.851391
9587.000000;1.846100
9586.000000;1.840526
9585.000000;1.836673
9584.000000;1.836239
9583.000000;1.839354
9582.000000;1.844561
9581.000000;1.850031
9580.000000;1.854536
9579.000000;1.857389
9578.000000;1.858418
9577.000000;1.858614
9576.000000;1.860008
9575.000000;1.863608
9574.000000;1.867484
9573.000000;1.868406
9572.000000;1.865381
9571.000000;1.859754
9570.000000;1.852377
9569.000000;1.843002
9568.000000;1.832900
9567.000000;1.826223
9566.000000;1.826873
9565.000000;1.834339
9564.000000;1.843725
9563.000000;1.850167
9562.000000;1.852285
9561.000000;1.850855
9560.000000;1.846610
9559.000000;1.840652
9558.000000;1.834725
9557.000000;1.829735
9556.000000;1.825389
9555.000000;1.822306
9554.000000;1.823113
9553.000000;1.829722
9552.000000;1.839984
9551.000000;1.848484
9550.000000;1.851120
9549.000000;1.847976
9548.000000;1.842129
9547.000000;1.837330
9546.000000;1.836230
9545.000000;1.838682
9544.000000;1.840642
9543.000000;1.837021
9542.000000;1.827730
9541.000000;1.818887
9540.000000;1.816767
9539.000000;1.822132
9538.000000;1.830597
9537.000000;1.837098
9536.000000;1.839201
9535.000000;1.836887
9534.000000;1.831257
9533.000000;1.824640
9532.000000;1.820670
9531.000000;1.822139
9530.000000;1.828441
9529.000000;1.835608
9528.000000;1.838607
9527.000000;1.834691
9526.000000;1.826387
9525.000000;1.820464
9524.000000;1.822323
9523.000000;1.831055
9522.000000;1.840124
9521.000000;1.843615
9520.000000;1.841852
9519.000000;1.839722
9518.000000;1.840950
9517.000000;1.845235
9516.000000;1.849107
9515.000000;1.849213
9514.000000;1.845107
9513.000000;1.839024
9512.000000;1.833820
9511.000000;1.831277
9510.000000;1.831932
9509.000000;1.835110
9508.000000;1.839311
9507.000000;1.843227
9506.000000;1.845613
9505.000000;1.844740
9504.000000;1.839670
9503.000000;1.832321
9502.000000;1.827128
9501.000000;1.827165
9500.000000;1.830790
9499.000000;1.833725
9498.000000;1.834335
9497.000000;1.834587
9496.000000;1.835356
9495.000000;1.833967
9494.000000;1.828454
9493.000000;1.821806
9492.000000;1.818592
9491.000000;1.818831
9490.000000;1.818547
9489.000000;1.816014
9488.000000;1.813728
9487.000000;1.813342
9486.000000;1.812393
9485.000000;1.808420
9484.000000;1.803987
9483.000000;1.804271
9482.000000;1.810538
9481.000000;1.818266
9480.000000;1.822031
9479.000000;1.821184
9478.000000;1.819462
9477.000000;1.820238
9476.000000;1.823195
9475.000000;1.825034
9474.000000;1.823226
9473.000000;1.818654
9472.000000;1.814159
9471.000000;1.811203
9470.000000;1.808933
9469.000000;1.806314
9468.000000;1.803795
9467.000000;1.802386
9466.000000;1.802198
9465.000000;1.802770
9464.000000;1.804228
9463.000000;1.806826
9462.000000;1.809874
9461.000000;1.812712
9460.000000;1.816159
9459.000000;1.821330
9458.000000;1.827004
9457.000000;1.829690
9456.000000;1.826825
9455.000000;1.819203
9454.000000;1.809897
9453.000000;1.801727
9452.000000;1.796242
9451.000000;1.793737
9450.000000;1.793820
9449.000000;1.796447
9448.000000;1.801578
9447.000000;1.807607
9446.000000;1.811418
9445.000000;1.811593
9444.000000;1.810955
9443.000000;1.813386
9442.000000;1.818290
9441.000000;1.820508
9440.000000;1.816777
9439.000000;1.810149
9438.000000;1.805819
9437.000000;1.804836
9436.000000;1.804195
9435.000000;1.801883
9434.000000;1.799260
9433.000000;1.798182
9432.000000;1.797954
9431.000000;1.796209
9430.000000;1.791943
9429.000000;1.787094
9428.000000;1.785126
9427.000000;1.787710
9426.000000;1.792753
9425.000000;1.796506
9424.000000;1.797949
9423.000000;1.799986
9422.000000;1.805370
9421.000000;1.812444
9420.000000;1.816684
9419.000000;1.816427
9418.000000;1.814480
9417.000000;1.813217
9416.000000;1.810900
9415.000000;1.804924
9414.000000;1.797013
9413.000000;1.791984
9412.000000;1.792366
9411.000000;1.796371
9410.000000;1.800339
9409.000000;1.801967
9408.000000;1.800959
9407.000000;1.798207
9406.000000;1.795914
9405.000000;1.797033
9404.000000;1.802137
9403.000000;1.807292
9402.000000;1.807371
9401.000000;1.801440
9400.000000;1.793153
9399.000000;1.786576
9398.000000;1.783622
9397.000000;1.784924
9396.000000;1.790457
9395.000000;1.797985
9394.000000;1.802876
9393.000000;1.802160
9392.000000;1.798204
9391.000000;1.795711
9390.000000;1.795763
9389.000000;1.795323
9388.000000;1.792383
9387.000000;1.788682
9386.000000;1.786561
9385.000000;1.786092
9384.000000;1.786500
9383.000000;1.788310
9382.000000;1.792019
9381.000000;1.795695
9380.000000;1.796386
9379.000000;1.793893
9378.000000;1.790774
9377.000000;1.788519
9376.000000;1.786221
9375.000000;1.783055
9374.000000;1.779713
9373.000000;1.777027
9372.000000;1.775032
9371.000000;1.774358
9370.000000;1.777086
9369.000000;1.784412
9368.000000;1.794172
9367.000000;1.802315
9366.000000;1.806837
9365.000000;1.808865
9364.000000;1.809910
9363.000000;1.809853
9362.000000;1.808003
9361.000000;1.804712
9360.000000;1.801191
9359.000000;1.798441
9358.000000;1.796670
9357.000000;1.795063
9356.000000;1.792295
9355.000000;1.788226
9354.000000;1.784920
9353.000000;1.784985
9352.000000;1.788494
9351.000000;1.792524
9350.000000;1.794284
9349.000000;1.793619
9348.000000;1.791645
9347.000000;1.788451
9346.000000;1.784227
9345.000000;1.781773
9344.000000;1.785004
9343.000000;1.794074
9342.000000;1.803129
9341.000000;1.804463
9340.000000;1.795958
9339.000000;1.783232
9338.000000;1.773770
9337.000000;1.770717
9336.000000;1.772053
9335.000000;1.774315
9334.000000;1.776680
9333.000000;1.781186
9332.000000;1.788949
9331.000000;1.796889
9330.000000;1.800036
9329.000000;1.797395
9328.000000;1.793025
9327.000000;1.790903
9326.000000;1.790786
9325.000000;1.789770
9324.000000;1.786680
9323.000000;1.783083
9322.000000;1.780500
9321.000000;1.779167
9320.000000;1.779511
9319.000000;1.782563
9318.000000;1.788381
9317.000000;1.795041
9316.000000;1.799561
9315.000000;1.799787
9314.000000;1.795771
9313.000000;1.789860
9312.000000;1.785237
9311.000000;1.783606
9310.000000;1.783931
9309.000000;1.783585
9308.000000;1.780765
9307.000000;1.775743
9306.000000;1.770274
9305.000000;1.766629
9304.000000;1.767014
9303.000000;1.772167
9302.000000;1.779739
9301.000000;1.785396
9300.000000;1.786656
9299.000000;1.784767
9298.000000;1.782207
9297.000000;1.780083
9296.000000;1.778851
9295.000000;1.779282
9294.000000;1.780778
9293.000000;1.780306
9292.000000;1.775415
9291.000000;1.767824
9290.000000;1.761949
9289.000000;1.760320
9288.000000;1.761968
9287.000000;1.764334
9286.000000;1.765081
9285.000000;1.762964
9284.000000;1.759205
9283.000000;1.757938
9282.000000;1.762829
9281.000000;1.772211
9280.000000;1.779363
9279.000000;1.779647
9278.000000;1.775717
9277.000000;1.772931
9276.000000;1.772308
9275.000000;1.771236
9274.000000;1.769196
9273.000000;1.768891
9272.000000;1.771544
9271.000000;1.774045
9270.000000;1.772489
9269.000000;1.767276
9268.000000;1.762254
9267.000000;1.759814
9266.000000;1.759163
9265.000000;1.758932
9264.000000;1.759419
9263.000000;1.761383
9262.000000;1.764190
9261.000000;1.766639
9260.000000;1.768598
9259.000000;1.770661
9258.000000;1.772620
9257.000000;1.773217
9256.000000;1.771827
9255.000000;1.769631
9254.000000;1.768497
9253.000000;1.768975
9252.000000;1.769898
9251.000000;1.770020
9250.000000;1.769494
9249.000000;1.769308
9248.000000;1.769648
9247.000000;1.769382
9246.000000;1.767172
9245.000000;1.763036
9244.000000;1.758949
9243.000000;1.757561
9242.000000;1.759697
9241.000000;1.763215
9240.000000;1.765101
9239.000000;1.764903
9238.000000;1.765038
9237.000000;1.767320
9236.000000;1.770445
9235.000000;1.771716
9234.000000;1.770294
9233.000000;1.767533
9232.000000;1.764762
9231.000000;1.762101
9230.000000;1.759629
9229.000000;1.758569
9228.000000;1.760300
9227.000000;1.764451
9226.000000;1.768539
9225.000000;1.769606
9224.000000;1.766454
9223.000000;1.760560
9222.000000;1.754569
9221.000000;1.749818
9220.000000;1.746039
9219.000000;1.743549
9218.000000;1.744418
9217.000000;1.750303
9216.000000;1.759547
9215.000000;1.767736
9214.000000;1.771688
9213.000000;1.771795
9212.000000;1.769967
9211.000000;1.767062
9210.000000;1.763221
9209.000000;1.759142
9208.000000;1.755702
9207.000000;1.752889
9206.000000;1.750103
9205.000000;1.747227
9204.000000;1.744657
9203.000000;1.742716
9202.000000;1.741827
9201.000000;1.742698
9200.000000;1.745384
9199.000000;1.748449
9198.000000;1.749968
9197.000000;1.749461
9196.000000;1.748124
9195.000000;1.747282
9194.000000;1.747676
9193.000000;1.749669
9192.000000;1.752809
9191.000000;1.755602
9190.000000;1.756519
9189.000000;1.755336
9188.000000;1.753163
9187.000000;1.751086
9186.000000;1.749368
9185.000000;1.747864
9184.000000;1.746518
9183.000000;1.745351
9182.000000;1.744487
9181.000000;1.744290
9180.000000;1.744882
9179.000000;1.745619
9178.000000;1.745886
9177.000000;1.746354
9176.000000;1.748429
9175.000000;1.752256
9174.000000;1.756073
9173.000000;1.757906
9172.000000;1.757494
9171.000000;1.755909
9170.000000;1.753727
9169.000000;1.750841
9168.000000;1.747904
9167.000000;1.746566
9166.000000;1.747768
9165.000000;1.750336
9164.000000;1.751869
9163.000000;1.751204
9162.000000;1.749519
9161.000000;1.748663
9160.000000;1.748940
9159.000000;1.749087
9158.000000;1.748136
9157.000000;1.746410
9156.000000;1.744536
9155.000000;1.742660
9154.000000;1.741434
9153.000000;1.742899
9152.000000;1.748723
9151.000000;1.757367
9150.000000;1.764394
9149.000000;1.766279
9148.000000;1.763045
9147.000000;1.757080
9146.000000;1.751003
9145.000000;1.746989
9144.000000;1.746134
9143.000000;1.747168
9142.000000;1.747080
9141.000000;1.744549
9140.000000;1.741756
9139.000000;1.741223
9138.000000;1.741959
9137.000000;1.740603
9136.000000;1.736255
9135.000000;1.732227
9134.000000;1.732374
9133.000000;1.737161
9132.000000;1.743680
9131.000000;1.748356
9130.000000;1.749243
9129.000000;1.746905
9128.000000;1.743409
9127.000000;1.740145
9126.000000;1.737047
9125.000000;1.733408
9124.000000;1.728966
9123.000000;1.724592
9122.000000;1.721933
9121.000000;1.722489
9120.000000;1.726880
9119.000000;1.734141
9118.000000;1.741564
9117.000000;1.746221
9116.000000;1.747313
9115.000000;1.746426
9114.000000;1.745445
9113.000000;1.744928
9112.000000;1.744296
9111.000000;1.742784
9110.000000;1.740137
9109.000000;1.736885
9108.000000;1.734043
9107.000000;1.732326
9106.000000;1.731783
9105.000000;1.732281
9104.000000;1.733697
9103.000000;1.735195
9102.000000;1.735297
9101.000000;1.733887
9100.000000;1.733344
9099.000000;1.736033
9098.000000;1.740971
9097.000000;1.744525
9096.000000;1.744750
9095.000000;1.743500
9094.000000;1.743645
9093.000000;1.745773
9092.000000;1.748219
9091.000000;1.749061
9090.000000;1.747518
9089.000000;1.744358
9088.000000;1.741763
9087.000000;1.741912
9086.000000;1.744539
9085.000000;1.746658
9084.000000;1.745815
9083.000000;1.742639
9082.000000;1.739263
9081.000000;1.736784
9080.000000;1.735320
9079.000000;1.735256
9078.000000;1.736741
9077.000000;1.738498
9076.000000;1.738915
9075.000000;1.738399
9074.000000;1.739133
9073.000000;1.742109
9072.000000;1.745358
9071.000000;1.745529
9070.000000;1.740940
9069.000000;1.733217
9068.000000;1.726379
9067.000000;1.724197
9066.000000;1.727481
9065.000000;1.733224
9064.000000;1.736810
9063.000000;1.735869
9062.000000;1.731939
9061.000000;1.728256
9060.000000;1.726712
9059.000000;1.727016
9058.000000;1.727929
9057.000000;1.728787
9056.000000;1.729878
9055.000000;1.731485
9054.000000;1.732878
9053.000000;1.733010
