Criado como novo conjunto de dados;"e0108.spp","-4220081.6 Secs"
cm-1;Abs
10000.000000;1.926090
9999.000000;1.933402
9998.000000;1.940839
9997.000000;1.948407
9996.000000;1.956106
9995.000000;1.963950
9994.000000;1.971927
9993.000000;1.980075
9992.000000;1.988334
9991.000000;1.997023
9990.000000;2.001843
9989.000000;2.000757
9988.000000;1.993967
9987.000000;1.984637
9986.000000;1.979360
9985.000000;1.983221
9984.000000;1.994630
9983.000000;2.005767
9982.000000;2.009461
9981.000000;2.006296
9980.000000;2.001806
9979.000000;1.999447
9978.000000;1.999653
9977.000000;2.001316
9976.000000;2.002486
9975.000000;2.001457
9974.000000;1.997904
9973.000000;1.993291
9972.000000;1.989943
9971.000000;1.989570
9970.000000;1.992372
9969.000000;1.996725
9968.000000;1.999868
9967.000000;1.999320
9966.000000;1.994588
9965.000000;1.988181
9964.000000;1.983430
9963.000000;1.981533
9962.000000;1.981543
9961.000000;1.982655
9960.000000;1.986116
9959.000000;1.994074
9958.000000;2.005921
9957.000000;2.016089
9956.000000;2.017047
9955.000000;2.006138
9954.000000;1.988061
9953.000000;1.969784
9952.000000;1.955557
9951.000000;1.947030
9950.000000;1.944783
9949.000000;1.947648
9948.000000;1.952134
9947.000000;1.954401
9946.000000;1.953091
9945.000000;1.949997
9944.000000;1.948396
9943.000000;1.951144
9942.000000;1.958999
9941.000000;1.969082
9940.000000;1.975461
9939.000000;1.973699
9938.000000;1.965741
9937.000000;1.958100
9936.000000;1.955006
9935.000000;1.955365
9934.000000;1.955818
9933.000000;1.955278
9932.000000;1.956397
9931.000000;1.963195
9930.000000;1.977181
9929.000000;1.995010
9928.000000;2.009605
9927.000000;2.015063
9926.000000;2.011630
9925.000000;2.004769
9924.000000;1.999501
9923.000000;1.996908
9922.000000;1.994906
9921.000000;1.990462
9920.000000;1.981305
9919.000000;1.967506
9918.000000;1.952335
9917.000000;1.940533
9916.000000;1.935046
9915.000000;1.936171
9914.000000;1.942881
9913.000000;1.952982
9912.000000;1.962954
9911.000000;1.969617
9910.000000;1.972028
9909.000000;1.970908
9908.000000;1.966398
9907.000000;1.958063
9906.000000;1.947394
9905.000000;1.938065
9904.000000;1.933122
9903.000000;1.933471
9902.000000;1.938468
9901.000000;1.946379
9900.000000;1.955127
9899.000000;1.962684
9898.000000;1.966767
9897.000000;1.966299
9896.000000;1.962994
9895.000000;1.960222
9894.000000;1.960812
9893.000000;1.965256
9892.000000;1.970442
9891.000000;1.971025
9890.000000;1.964912
9889.000000;1.957014
9888.000000;1.954880
9887.000000;1.961355
9886.000000;1.972271
9885.000000;1.980618
9884.000000;1.982809
9883.000000;1.979913
9882.000000;1.974663
9881.000000;1.970121
9880.000000;1.968534
9879.000000;1.969119
9878.000000;1.967524
9877.000000;1.959388
9876.000000;1.946138
9875.000000;1.934511
9874.000000;1.929078
9873.000000;1.928019
9872.000000;1.927138
9871.000000;1.926581
9870.000000;1.931106
9869.000000;1.942891
9868.000000;1.956622
9867.000000;1.964262
9866.000000;1.963729
9865.000000;1.959503
9864.000000;1.956249
9863.000000;1.956064
9862.000000;1.959963
9861.000000;1.966872
9860.000000;1.971150
9859.000000;1.966414
9858.000000;1.954079
9857.000000;1.942833
9856.000000;1.938331
9855.000000;1.938186
9854.000000;1.937982
9853.000000;1.938521
9852.000000;1.943393
9851.000000;1.951788
9850.000000;1.958297
9849.000000;1.959587
9848.000000;1.957235
9847.000000;1.953303
9846.000000;1.947515
9845.000000;1.939969
9844.000000;1.933268
9843.000000;1.930413
9842.000000;1.932216
9841.000000;1.937200
9840.000000;1.942663
9839.000000;1.945882
9838.000000;1.946232
9837.000000;1.946303
9836.000000;1.948873
9835.000000;1.952727
9834.000000;1.953655
9833.000000;1.950191
9832.000000;1.945943
9831.000000;1.944757
9830.000000;1.946222
9829.000000;1.947609
9828.000000;1.947728
9827.000000;1.947084
9826.000000;1.945934
9825.000000;1.944132
9824.000000;1.942024
9823.000000;1.939449
9822.000000;1.935138
9821.000000;1.928985
9820.000000;1.923345
9819.000000;1.921075
9818.000000;1.923508
9817.000000;1.930448
9816.000000;1.940432
9815.000000;1.950230
9814.000000;1.956154
9813.000000;1.957604
9812.000000;1.957517
9811.000000;1.957588
9810.000000;1.955412
9809.000000;1.948701
9808.000000;1.939803
9807.000000;1.932517
9806.000000;1.926842
9805.000000;1.920519
9804.000000;1.914187
9803.000000;1.910919
9802.000000;1.910935
9801.000000;1.910781
9800.000000;1.908727
9799.000000;1.907436
9798.000000;1.909599
9797.000000;1.914119
9796.000000;1.918507
9795.000000;1.922903
9794.000000;1.929187
9793.000000;1.936777
9792.000000;1.941916
9791.000000;1.941671
9790.000000;1.936944
9789.000000;1.931344
9788.000000;1.928479
9787.000000;1.929816
9786.000000;1.933649
9785.000000;1.936233
9784.000000;1.934996
9783.000000;1.930400
9782.000000;1.924006
9781.000000;1.916405
9780.000000;1.908555
9779.000000;1.903173
9778.000000;1.902475
9777.000000;1.905265
9776.000000;1.907387
9775.000000;1.905811
9774.000000;1.902505
9773.000000;1.902570
9772.000000;1.908242
9771.000000;1.915853
9770.000000;1.919112
9769.000000;1.915414
9768.000000;1.908052
9767.000000;1.901864
9766.000000;1.898212
9765.000000;1.895554
9764.000000;1.893958
9763.000000;1.896479
9762.000000;1.905216
9761.000000;1.918011
9760.000000;1.930236
9759.000000;1.938600
9758.000000;1.942026
9757.000000;1.940392
9756.000000;1.934742
9755.000000;1.927512
9754.000000;1.920023
9753.000000;1.911105
9752.000000;1.900316
9751.000000;1.890927
9750.000000;1.887526
9749.000000;1.890747
9748.000000;1.896175
9747.000000;1.898992
9746.000000;1.898074
9745.000000;1.895522
9744.000000;1.893971
9743.000000;1.895497
9742.000000;1.901575
9741.000000;1.911791
9740.000000;1.922707
9739.000000;1.929602
9738.000000;1.930333
9737.000000;1.926777
9736.000000;1.922358
9735.000000;1.919451
9734.000000;1.918666
9733.000000;1.919331
9732.000000;1.920261
9731.000000;1.920077
9730.000000;1.917523
9729.000000;1.912666
9728.000000;1.907824
9727.000000;1.906053
9726.000000;1.908092
9725.000000;1.911451
9724.000000;1.913330
9723.000000;1.913579
9722.000000;1.913341
9721.000000;1.912163
9720.000000;1.908710
9719.000000;1.903754
9718.000000;1.899897
9717.000000;1.897949
9716.000000;1.895724
9715.000000;1.891048
9714.000000;1.884213
9713.000000;1.876996
9712.000000;1.871403
9711.000000;1.869307
9710.000000;1.871633
9709.000000;1.878188
9708.000000;1.888476
9707.000000;1.901584
9706.000000;1.914464
9705.000000;1.921586
9704.000000;1.918865
9703.000000;1.908769
9702.000000;1.898999
9701.000000;1.894905
9700.000000;1.895813
9699.000000;1.898862
9698.000000;1.903117
9697.000000;1.908191
9696.000000;1.911937
9695.000000;1.912475
9694.000000;1.910679
9693.000000;1.908295
9692.000000;1.904856
9691.000000;1.899112
9690.000000;1.892964
9689.000000;1.890445
9688.000000;1.892541
9687.000000;1.896043
9686.000000;1.897850
9685.000000;1.897915
9684.000000;1.897236
9683.000000;1.895531
9682.000000;1.892856
9681.000000;1.891482
9680.000000;1.893377
9679.000000;1.896870
9678.000000;1.898417
9677.000000;1.897458
9676.000000;1.896720
9675.000000;1.897341
9674.000000;1.896552
9673.000000;1.891676
9672.000000;1.884792
9671.000000;1.881130
9670.000000;1.883509
9669.000000;1.889791
9668.000000;1.895111
9667.000000;1.895942
9666.000000;1.892521
9665.000000;1.888014
9664.000000;1.885634
9663.000000;1.886446
9662.000000;1.889194
9661.000000;1.892072
9660.000000;1.894487
9659.000000;1.896635
9658.000000;1.897809
9657.000000;1.896172
9656.000000;1.890583
9655.000000;1.882098
9654.000000;1.873497
9653.000000;1.867813
9652.000000;1.866950
9651.000000;1.870538
9650.000000;1.875741
9649.000000;1.879192
9648.000000;1.879325
9647.000000;1.876205
9646.000000;1.870184
9645.000000;1.862474
9644.000000;1.856562
9643.000000;1.856675
9642.000000;1.863576
9641.000000;1.872593
9640.000000;1.877331
9639.000000;1.875955
9638.000000;1.871547
9637.000000;1.866551
9636.000000;1.860776
9635.000000;1.854470
9634.000000;1.849720
9633.000000;1.847714
9632.000000;1.847171
9631.000000;1.847207
9630.000000;1.849644
9629.000000;1.855849
9628.000000;1.862666
9627.000000;1.864928
9626.000000;1.861920
9625.000000;1.857825
9624.000000;1.855858
9623.000000;1.855181
9622.000000;1.853796
9621.000000;1.852307
9620.000000;1.853353
9619.000000;1.858261
9618.000000;1.865885
9617.000000;1.874396
9616.000000;1.882559
9615.000000;1.888494
9614.000000;1.889075
9613.000000;1.883150
9612.000000;1.874736
9611.000000;1.870446
9610.000000;1.873409
9609.000000;1.880587
9608.000000;1.886395
9607.000000;1.888500
9606.000000;1.888610
9605.000000;1.888113
9604.000000;1.885876
9603.000000;1.880594
9602.000000;1.872773
9601.000000;1.863816
9600.000000;1.854953
9599.000000;1.847731
9598.000000;1.844171
9597.000000;1.844983
9596.000000;1.848179
9595.000000;1.851193
9594.000000;1.854075
9593.000000;1.858557
9592.000000;1.864282
9591.000000;1.868325
9590.000000;1.869026
9589.000000;1.868007
9588.000000;1.867240
9587.000000;1.866381
9586.000000;1.864479
9585.000000;1.862342
9584.000000;1.861068
9583.000000;1.859607
9582.000000;1.856230
9581.000000;1.851900
9580.000000;1.849751
9579.000000;1.851017
9578.000000;1.853613
9577.000000;1.855532
9576.000000;1.857369
9575.000000;1.859470
9574.000000;1.859128
9573.000000;1.854017
9572.000000;1.847146
9571.000000;1.844586
9570.000000;1.848355
9569.000000;1.854174
9568.000000;1.857066
9567.000000;1.857443
9566.000000;1.859372
9565.000000;1.864330
9564.000000;1.869664
9563.000000;1.872816
9562.000000;1.873974
9561.000000;1.874191
9560.000000;1.873416
9559.000000;1.871070
9558.000000;1.867626
9557.000000;1.864195
9556.000000;1.861156
9555.000000;1.858263
9554.000000;1.854947
9553.000000;1.850100
9552.000000;1.842941
9551.000000;1.834619
9550.000000;1.827472
9549.000000;1.822412
9548.000000;1.818816
9547.000000;1.817418
9546.000000;1.821224
9545.000000;1.831842
9544.000000;1.845934
9543.000000;1.856952
9542.000000;1.860888
9541.000000;1.859517
9540.000000;1.856823
9539.000000;1.854160
9538.000000;1.850968
9537.000000;1.847684
9536.000000;1.845775
9535.000000;1.846145
9534.000000;1.848125
9533.000000;1.849262
9532.000000;1.846668
9531.000000;1.840106
9530.000000;1.833546
9529.000000;1.832216
9528.000000;1.837597
9527.000000;1.845433
9526.000000;1.849355
9525.000000;1.847327
9524.000000;1.843777
9523.000000;1.844915
9522.000000;1.852660
9521.000000;1.862579
9520.000000;1.867426
9519.000000;1.863792
9518.000000;1.854584
9517.000000;1.844492
9516.000000;1.836150
9515.000000;1.831576
9514.000000;1.833371
9513.000000;1.841258
9512.000000;1.848879
9511.000000;1.848346
9510.000000;1.839714
9509.000000;1.831591
9508.000000;1.830875
9507.000000;1.835657
9506.000000;1.838764
9505.000000;1.836601
9504.000000;1.832470
9503.000000;1.831426
9502.000000;1.834909
9501.000000;1.840650
9500.000000;1.845493
9499.000000;1.847370
9498.000000;1.845621
9497.000000;1.840770
9496.000000;1.834073
9495.000000;1.827476
9494.000000;1.823860
9493.000000;1.825384
9492.000000;1.830598
9491.000000;1.834739
9490.000000;1.834692
9489.000000;1.833029
9488.000000;1.835252
9487.000000;1.843336
9486.000000;1.853492
9485.000000;1.859915
9484.000000;1.858807
9483.000000;1.849220
9482.000000;1.833583
9481.000000;1.818199
9480.000000;1.810357
9479.000000;1.813159
9478.000000;1.823122
9477.000000;1.833367
9476.000000;1.839690
9475.000000;1.842752
9474.000000;1.844578
9473.000000;1.845562
9472.000000;1.845220
9471.000000;1.843309
9470.000000;1.839533
9469.000000;1.833414
9468.000000;1.825208
9467.000000;1.816735
9466.000000;1.810370
9465.000000;1.807405
9464.000000;1.808026
9463.000000;1.811833
9462.000000;1.817259
9461.000000;1.821396
9460.000000;1.822395
9459.000000;1.822183
9458.000000;1.824694
9457.000000;1.830637
9456.000000;1.835427
9455.000000;1.833870
9454.000000;1.826581
9453.000000;1.819201
9452.000000;1.815597
9451.000000;1.814362
9450.000000;1.811852
9449.000000;1.807108
9448.000000;1.802911
9447.000000;1.802872
9446.000000;1.808382
9445.000000;1.817486
9444.000000;1.825861
9443.000000;1.829708
9442.000000;1.828570
9441.000000;1.825058
9440.000000;1.821760
9439.000000;1.819191
9438.000000;1.816952
9437.000000;1.815439
9436.000000;1.815334
9435.000000;1.816422
9434.000000;1.818092
9433.000000;1.820308
9432.000000;1.822585
9431.000000;1.822676
9430.000000;1.818443
9429.000000;1.811075
9428.000000;1.804766
9427.000000;1.803148
9426.000000;1.806643
9425.000000;1.812145
9424.000000;1.814368
9423.000000;1.809500
9422.000000;1.799724
9421.000000;1.792705
9420.000000;1.794612
9419.000000;1.803795
9418.000000;1.812268
9417.000000;1.814366
9416.000000;1.812149
9415.000000;1.810326
9414.000000;1.809661
9413.000000;1.808347
9412.000000;1.806900
9411.000000;1.807921
9410.000000;1.811758
9409.000000;1.815346
9408.000000;1.815904
9407.000000;1.813974
9406.000000;1.811816
9405.000000;1.810884
9404.000000;1.812009
9403.000000;1.815893
9402.000000;1.821756
9401.000000;1.826157
9400.000000;1.824987
9399.000000;1.817326
9398.000000;1.806567
9397.000000;1.797687
9396.000000;1.793795
9395.000000;1.794677
9394.000000;1.797720
9393.000000;1.800397
9392.000000;1.802447
9391.000000;1.805292
9390.000000;1.809362
9389.000000;1.813112
9388.000000;1.814940
9387.000000;1.815070
9386.000000;1.814842
9385.000000;1.814602
9384.000000;1.813139
9383.000000;1.809399
9382.000000;1.804294
9381.000000;1.800307
9380.000000;1.799208
9379.000000;1.800217
9378.000000;1.800725
9377.000000;1.799260
9376.000000;1.797074
9375.000000;1.796247
9374.000000;1.797134
9373.000000;1.798404
9372.000000;1.799181
9371.000000;1.800100
9370.000000;1.802144
9369.000000;1.805489
9368.000000;1.809732
9367.000000;1.814255
9366.000000;1.817919
9365.000000;1.819355
9364.000000;1.818159
9363.000000;1.815266
9362.000000;1.811875
9361.000000;1.808782
9360.000000;1.807027
9359.000000;1.807666
9358.000000;1.809572
9357.000000;1.808943
9356.000000;1.803358
9355.000000;1.795644
9354.000000;1.791422
9353.000000;1.793144
9352.000000;1.797922
9351.000000;1.800966
9350.000000;1.800070
9349.000000;1.796447
9348.000000;1.792546
9347.000000;1.790174
9346.000000;1.789803
9345.000000;1.790510
9344.000000;1.791073
9343.000000;1.791752
9342.000000;1.794131
9341.000000;1.798346
9340.000000;1.801427
9339.000000;1.800122
9338.000000;1.795174
9337.000000;1.790802
9336.000000;1.789919
9335.000000;1.791483
9334.000000;1.792676
9333.000000;1.792438
9332.000000;1.792075
9331.000000;1.793195
9330.000000;1.796173
9329.000000;1.800110
9328.000000;1.803188
9327.000000;1.803592
9326.000000;1.801089
9325.000000;1.797512
9324.000000;1.795120
9323.000000;1.794608
9322.000000;1.795255
9321.000000;1.796648
9320.000000;1.798980
9319.000000;1.801350
9318.000000;1.801290
9317.000000;1.797411
9316.000000;1.791963
9315.000000;1.789297
9314.000000;1.791708
9313.000000;1.797108
9312.000000;1.800649
9311.000000;1.798830
9310.000000;1.792093
9309.000000;1.783924
9308.000000;1.778107
9307.000000;1.776513
9306.000000;1.778577
9305.000000;1.782183
9304.000000;1.785033
9303.000000;1.785704
9302.000000;1.784453
9301.000000;1.783669
9300.000000;1.786326
9299.000000;1.792706
9298.000000;1.799146
9297.000000;1.801492
9296.000000;1.799806
9295.000000;1.797889
9294.000000;1.797976
9293.000000;1.797469
9292.000000;1.792233
9291.000000;1.782501
9290.000000;1.773027
9289.000000;1.768099
9288.000000;1.768547
9287.000000;1.772462
9286.000000;1.777434
9285.000000;1.782197
9284.000000;1.786247
9283.000000;1.788554
9282.000000;1.787878
9281.000000;1.784565
9280.000000;1.781137
9279.000000;1.780255
9278.000000;1.782224
9277.000000;1.784783
9276.000000;1.785406
9275.000000;1.783673
9274.000000;1.781105
9273.000000;1.779315
9272.000000;1.779036
9271.000000;1.780360
9270.000000;1.782948
9269.000000;1.785873
9268.000000;1.787768
9267.000000;1.787612
9266.000000;1.785515
9265.000000;1.782667
9264.000000;1.780305
9263.000000;1.778477
9262.000000;1.775870
9261.000000;1.771452
9260.000000;1.766422
9259.000000;1.763865
9258.000000;1.766084
9257.000000;1.772351
9256.000000;1.779203
9255.000000;1.783071
9254.000000;1.782873
9253.000000;1.780003
9252.000000;1.776459
9251.000000;1.773681
9250.000000;1.772523
9249.000000;1.773141
9248.000000;1.774523
9247.000000;1.774830
9246.000000;1.773339
9245.000000;1.771712
9244.000000;1.771822
9243.000000;1.772818
9242.000000;1.772297
9241.000000;1.770326
9240.000000;1.769946
9239.000000;1.772463
9238.000000;1.774311
9237.000000;1.771224
9236.000000;1.764696
9235.000000;1.760708
9234.000000;1.762281
9233.000000;1.766550
9232.000000;1.769792
9231.000000;1.772248
9230.000000;1.775500
9229.000000;1.778050
9228.000000;1.776857
9227.000000;1.771921
9226.000000;1.766179
9225.000000;1.761502
9224.000000;1.757801
9223.000000;1.755709
9222.000000;1.756898
9221.000000;1.761132
9220.000000;1.765476
9219.000000;1.767347
9218.000000;1.766777
9217.000000;1.765051
9216.000000;1.762933
9215.000000;1.761177
9214.000000;1.761165
9213.000000;1.763540
9212.000000;1.766929
9211.000000;1.769214
9210.000000;1.769726
9209.000000;1.769247
9208.000000;1.768376
9207.000000;1.767103
9206.000000;1.765703
9205.000000;1.764986
9204.000000;1.765544
9203.000000;1.767195
9202.000000;1.768958
9201.000000;1.769438
9200.000000;1.767914
9199.000000;1.765373
9198.000000;1.763896
9197.000000;1.764766
9196.000000;1.767654
9195.000000;1.771629
9194.000000;1.776009
9193.000000;1.779489
9192.000000;1.779682
9191.000000;1.775436
9190.000000;1.769079
9189.000000;1.764527
9188.000000;1.763292
9187.000000;1.763500
9186.000000;1.762756
9185.000000;1.760750
9184.000000;1.758620
9183.000000;1.757210
9182.000000;1.756847
9181.000000;1.757855
9180.000000;1.760058
9179.000000;1.761787
9178.000000;1.760775
9177.000000;1.756881
9176.000000;1.753098
9175.000000;1.752933
9174.000000;1.756958
9173.000000;1.762336
9172.000000;1.765811
9171.000000;1.766818
9170.000000;1.767120
9169.000000;1.767921
9168.000000;1.768531
9167.000000;1.767973
9166.000000;1.766722
9165.000000;1.765972
9164.000000;1.765814
9163.000000;1.765136
9162.000000;1.763434
9161.000000;1.761609
9160.000000;1.760405
9159.000000;1.759211
9158.000000;1.756893
9157.000000;1.753292
9156.000000;1.749428
9155.000000;1.746547
9154.000000;1.745733
9153.000000;1.748005
9152.000000;1.753665
9151.000000;1.761275
9150.000000;1.767998
9149.000000;1.771503
9148.000000;1.771267
9147.000000;1.767925
9146.000000;1.762363
9145.000000;1.756024
9144.000000;1.751181
9143.000000;1.749746
9142.000000;1.751682
9141.000000;1.755148
9140.000000;1.758201
9139.000000;1.759925
9138.000000;1.760278
9137.000000;1.759673
9136.000000;1.758764
9135.000000;1.758101
9134.000000;1.758145
9133.000000;1.759537
9132.000000;1.762697
9131.000000;1.766627
9130.000000;1.768232
9129.000000;1.764734
9128.000000;1.757676
9127.000000;1.752482
9126.000000;1.753372
9125.000000;1.759413
9124.000000;1.765520
9123.000000;1.767149
9122.000000;1.763692
9121.000000;1.757638
9120.000000;1.752194
9119.000000;1.749812
9118.000000;1.751283
9117.000000;1.755356
9116.000000;1.759581
9115.000000;1.762042
9114.000000;1.762227
9113.000000;1.760565
9112.000000;1.757965
9111.000000;1.755785
9110.000000;1.755181
9109.000000;1.756100
9108.000000;1.757217
9107.000000;1.757278
9106.000000;1.756676
9105.000000;1.757043
9104.000000;1.759242
9103.000000;1.762268
9102.000000;1.764144
9101.000000;1.764109
9100.000000;1.763477
9099.000000;1.763734
9098.000000;1.764197
9097.000000;1.762298
9096.000000;1.756705
9095.000000;1.750111
9094.000000;1.747672
9093.000000;1.752306
9092.000000;1.761973
9091.000000;1.770990
9090.000000;1.774192
9089.000000;1.770792
9088.000000;1.764347
9087.000000;1.759375
9086.000000;1.758047
9085.000000;1.759191
9084.000000;1.759768
9083.000000;1.757497
9082.000000;1.752734
9081.000000;1.748162
9080.000000;1.746419
9079.000000;1.747592
9078.000000;1.749014
9077.000000;1.748147
9076.000000;1.745611
9075.000000;1.744174
9074.000000;1.744780
9073.000000;1.745181
9072.000000;1.743200
9071.000000;1.740044
9070.000000;1.738961
9069.000000;1.741341
9068.000000;1.745335
9067.000000;1.747986
9066.000000;1.747794
9065.000000;1.745415
9064.000000;1.742865
9063.000000;1.742322
9062.000000;1.744817
9061.000000;1.749393
9060.000000;1.753984
9059.000000;1.757244
9058.000000;1.758643
9057.000000;1.757306
9056.000000;1.752498
9055.000000;1.745385
9054.000000;1.738768
9053.000000;1.734735
