Criado como novo conjunto de dados;"e0108.spp","-4262203.8 Secs"
cm-1;Abs
10000.000000;1.043127
9999.000000;1.044183
9998.000000;1.046144
9997.000000;1.047924
9996.000000;1.048111
9995.000000;1.046496
9994.000000;1.044285
9993.000000;1.043244
9992.000000;1.043482
9991.000000;1.043536
9990.000000;1.042275
9989.000000;1.040417
9988.000000;1.039473
9987.000000;1.039949
9986.000000;1.041059
9985.000000;1.041759
9984.000000;1.041530
9983.000000;1.040410
9982.000000;1.038837
9981.000000;1.037464
9980.000000;1.036752
9979.000000;1.036629
9978.000000;1.036739
9977.000000;1.036927
9976.000000;1.037234
9975.000000;1.037568
9974.000000;1.037689
9973.000000;1.037461
9972.000000;1.036887
9971.000000;1.036071
9970.000000;1.035392
9969.000000;1.035485
9968.000000;1.036580
9967.000000;1.037869
9966.000000;1.037956
9965.000000;1.036146
9964.000000;1.033126
9963.000000;1.030325
9962.000000;1.028762
9961.000000;1.028485
9960.000000;1.028803
9959.000000;1.028945
9958.000000;1.028644
9957.000000;1.028227
9956.000000;1.028202
9955.000000;1.028788
9954.000000;1.029761
9953.000000;1.030570
9952.000000;1.030605
9951.000000;1.029606
9950.000000;1.028011
9949.000000;1.026676
9948.000000;1.026030
9947.000000;1.025677
9946.000000;1.025096
9945.000000;1.024513
9944.000000;1.024625
9943.000000;1.025547
9942.000000;1.026475
9941.000000;1.026582
9940.000000;1.025932
9939.000000;1.025361
9938.000000;1.025581
9937.000000;1.026470
9936.000000;1.027143
9935.000000;1.026729
9934.000000;1.025151
9933.000000;1.023154
9932.000000;1.021567
9931.000000;1.020655
9930.000000;1.020304
9929.000000;1.020601
9928.000000;1.021836
9927.000000;1.023880
9926.000000;1.025845
9925.000000;1.026521
9924.000000;1.025157
9923.000000;1.022009
9922.000000;1.018402
9921.000000;1.016087
9920.000000;1.016021
9919.000000;1.017535
9918.000000;1.018970
9917.000000;1.019330
9916.000000;1.019074
9915.000000;1.019125
9914.000000;1.019533
9913.000000;1.019468
9912.000000;1.018322
9911.000000;1.016405
9910.000000;1.014549
9909.000000;1.013347
9908.000000;1.012819
9907.000000;1.012623
9906.000000;1.012433
9905.000000;1.012186
9904.000000;1.012033
9903.000000;1.012127
9902.000000;1.012462
9901.000000;1.012820
9900.000000;1.012838
9899.000000;1.012218
9898.000000;1.011090
9897.000000;1.010138
9896.000000;1.010114
9895.000000;1.011116
9894.000000;1.012428
9893.000000;1.013109
9892.000000;1.012669
9891.000000;1.011245
9890.000000;1.009407
9889.000000;1.007860
9888.000000;1.007050
9887.000000;1.006813
9886.000000;1.006514
9885.000000;1.005731
9884.000000;1.004689
9883.000000;1.003888
9882.000000;1.003496
9881.000000;1.003353
9880.000000;1.003426
9879.000000;1.003859
9878.000000;1.004543
9877.000000;1.005005
9876.000000;1.004895
9875.000000;1.004418
9874.000000;1.004062
9873.000000;1.003984
9872.000000;1.003900
9871.000000;1.003565
9870.000000;1.003078
9869.000000;1.002583
9868.000000;1.001901
9867.000000;1.000783
9866.000000;0.999488
9865.000000;0.998699
9864.000000;0.998699
9863.000000;0.998901
9862.000000;0.998552
9861.000000;0.997734
9860.000000;0.997224
9859.000000;0.997401
9858.000000;0.997803
9857.000000;0.997840
9856.000000;0.997476
9855.000000;0.996969
9854.000000;0.996343
9853.000000;0.995539
9852.000000;0.994860
9851.000000;0.994771
9850.000000;0.995267
9849.000000;0.995770
9848.000000;0.995709
9847.000000;0.994977
9846.000000;0.993809
9845.000000;0.992514
9844.000000;0.991441
9843.000000;0.990876
9842.000000;0.990713
9841.000000;0.990392
9840.000000;0.989500
9839.000000;0.988387
9838.000000;0.987909
9837.000000;0.988459
9836.000000;0.989446
9835.000000;0.989924
9834.000000;0.989614
9833.000000;0.989067
9832.000000;0.988858
9831.000000;0.988930
9830.000000;0.988886
9829.000000;0.988652
9828.000000;0.988535
9827.000000;0.988665
9826.000000;0.988732
9825.000000;0.988371
9824.000000;0.987516
9823.000000;0.986286
9822.000000;0.984800
9821.000000;0.983374
9820.000000;0.982629
9819.000000;0.983024
9818.000000;0.984215
9817.000000;0.985157
9816.000000;0.985001
9815.000000;0.983772
9814.000000;0.982138
9813.000000;0.980755
9812.000000;0.979947
9811.000000;0.979792
9810.000000;0.980194
9809.000000;0.980826
9808.000000;0.981219
9807.000000;0.981096
9806.000000;0.980648
9805.000000;0.980402
9804.000000;0.980748
9803.000000;0.981507
9802.000000;0.981972
9801.000000;0.981504
9800.000000;0.980165
9799.000000;0.978663
9798.000000;0.977669
9797.000000;0.977300
9796.000000;0.977296
9795.000000;0.977493
9794.000000;0.977892
9793.000000;0.978341
9792.000000;0.978457
9791.000000;0.977993
9790.000000;0.977090
9789.000000;0.976018
9788.000000;0.974870
9787.000000;0.973710
9786.000000;0.972861
9785.000000;0.972705
9784.000000;0.973161
9783.000000;0.973628
9782.000000;0.973620
9781.000000;0.973307
9780.000000;0.973235
9779.000000;0.973597
9778.000000;0.973948
9777.000000;0.973642
9776.000000;0.972472
9775.000000;0.970923
9774.000000;0.969826
9773.000000;0.969651
9772.000000;0.970031
9771.000000;0.970088
9770.000000;0.969303
9769.000000;0.968041
9768.000000;0.967110
9767.000000;0.966932
9766.000000;0.967299
9765.000000;0.967777
9764.000000;0.968029
9763.000000;0.967822
9762.000000;0.967104
9761.000000;0.966197
9760.000000;0.965590
9759.000000;0.965411
9758.000000;0.965341
9757.000000;0.965154
9756.000000;0.965051
9755.000000;0.965228
9754.000000;0.965379
9753.000000;0.964982
9752.000000;0.963963
9751.000000;0.962756
9750.000000;0.961783
9749.000000;0.961124
9748.000000;0.960674
9747.000000;0.960347
9746.000000;0.960126
9745.000000;0.960123
9744.000000;0.960566
9743.000000;0.961486
9742.000000;0.962446
9741.000000;0.962797
9740.000000;0.962257
9739.000000;0.961090
9738.000000;0.959797
9737.000000;0.958858
9736.000000;0.958661
9735.000000;0.959311
9734.000000;0.960405
9733.000000;0.961315
9732.000000;0.961776
9731.000000;0.961959
9730.000000;0.961968
9729.000000;0.961667
9728.000000;0.961098
9727.000000;0.960608
9726.000000;0.960273
9725.000000;0.959606
9724.000000;0.958256
9723.000000;0.956650
9722.000000;0.955444
9721.000000;0.954573
9720.000000;0.953441
9719.000000;0.951928
9718.000000;0.950680
9717.000000;0.950346
9716.000000;0.950967
9715.000000;0.952188
9714.000000;0.953593
9713.000000;0.954603
9712.000000;0.954582
9711.000000;0.953456
9710.000000;0.951978
9709.000000;0.951010
9708.000000;0.950734
9707.000000;0.950794
9706.000000;0.950825
9705.000000;0.950552
9704.000000;0.949739
9703.000000;0.948410
9702.000000;0.947118
9701.000000;0.946616
9700.000000;0.947080
9699.000000;0.947906
9698.000000;0.948428
9697.000000;0.948652
9696.000000;0.949084
9695.000000;0.949923
9694.000000;0.950650
9693.000000;0.950524
9692.000000;0.949460
9691.000000;0.948228
9690.000000;0.947646
9689.000000;0.947733
9688.000000;0.947834
9687.000000;0.947505
9686.000000;0.946960
9685.000000;0.946621
9684.000000;0.946615
9683.000000;0.946884
9682.000000;0.947372
9681.000000;0.947778
9680.000000;0.947494
9679.000000;0.946275
9678.000000;0.944802
9677.000000;0.944085
9676.000000;0.944338
9675.000000;0.944839
9674.000000;0.944879
9673.000000;0.944468
9672.000000;0.944045
9671.000000;0.943852
9670.000000;0.943768
9669.000000;0.943462
9668.000000;0.942682
9667.000000;0.941627
9666.000000;0.941011
9665.000000;0.941384
9664.000000;0.942289
9663.000000;0.942514
9662.000000;0.941385
9661.000000;0.939517
9660.000000;0.938050
9659.000000;0.937452
9658.000000;0.937314
9657.000000;0.937009
9656.000000;0.936242
9655.000000;0.935177
9654.000000;0.934358
9653.000000;0.934353
9652.000000;0.935151
9651.000000;0.936017
9650.000000;0.936240
9649.000000;0.935958
9648.000000;0.935922
9647.000000;0.936497
9646.000000;0.937233
9645.000000;0.937428
9644.000000;0.936819
9643.000000;0.935601
9642.000000;0.934064
9641.000000;0.932454
9640.000000;0.931057
9639.000000;0.930143
9638.000000;0.929778
9637.000000;0.929786
9636.000000;0.929918
9635.000000;0.930051
9634.000000;0.930201
9633.000000;0.930347
9632.000000;0.930330
9631.000000;0.930021
9630.000000;0.929517
9629.000000;0.928996
9628.000000;0.928430
9627.000000;0.927680
9626.000000;0.926963
9625.000000;0.926874
9624.000000;0.927677
9623.000000;0.928762
9622.000000;0.929165
9621.000000;0.928634
9620.000000;0.927832
9619.000000;0.927457
9618.000000;0.927531
9617.000000;0.927642
9616.000000;0.927597
9615.000000;0.927565
9614.000000;0.927640
9613.000000;0.927474
9612.000000;0.926503
9611.000000;0.924549
9610.000000;0.922214
9609.000000;0.920560
9608.000000;0.920290
9607.000000;0.921176
9606.000000;0.922342
9605.000000;0.923070
9604.000000;0.923272
9603.000000;0.923245
9602.000000;0.923165
9601.000000;0.922904
9600.000000;0.922277
9599.000000;0.921359
9598.000000;0.920559
9597.000000;0.920322
9596.000000;0.920726
9595.000000;0.921349
9594.000000;0.921556
9593.000000;0.920940
9592.000000;0.919577
9591.000000;0.917981
9590.000000;0.916835
9589.000000;0.916586
9588.000000;0.917129
9587.000000;0.917877
9586.000000;0.918251
9585.000000;0.918093
9584.000000;0.917575
9583.000000;0.916858
9582.000000;0.916049
9581.000000;0.915445
9580.000000;0.915485
9579.000000;0.916276
9578.000000;0.917298
9577.000000;0.917771
9576.000000;0.917354
9575.000000;0.916396
9574.000000;0.915434
9573.000000;0.914582
9572.000000;0.913506
9571.000000;0.912005
9570.000000;0.910471
9569.000000;0.909626
9568.000000;0.909821
9567.000000;0.910675
9566.000000;0.911448
9565.000000;0.911676
9564.000000;0.911431
9563.000000;0.911067
9562.000000;0.910856
9561.000000;0.910842
9560.000000;0.910913
9559.000000;0.910927
9558.000000;0.910795
9557.000000;0.910480
9556.000000;0.909959
9555.000000;0.909256
9554.000000;0.908512
9553.000000;0.907956
9552.000000;0.907778
9551.000000;0.908048
9550.000000;0.908702
9549.000000;0.909511
9548.000000;0.910150
9547.000000;0.910450
9546.000000;0.910560
9545.000000;0.910668
9544.000000;0.910599
9543.000000;0.909964
9542.000000;0.908722
9541.000000;0.907313
9540.000000;0.906133
9539.000000;0.905215
9538.000000;0.904583
9537.000000;0.904557
9536.000000;0.905337
9535.000000;0.906480
9534.000000;0.907217
9533.000000;0.907224
9532.000000;0.906739
9531.000000;0.905971
9530.000000;0.904815
9529.000000;0.903255
9528.000000;0.901714
9527.000000;0.900803
9526.000000;0.900829
9525.000000;0.901578
9524.000000;0.902410
9523.000000;0.902541
9522.000000;0.901492
9521.000000;0.899483
9520.000000;0.897418
9519.000000;0.896383
9518.000000;0.896984
9517.000000;0.898917
9516.000000;0.901092
9515.000000;0.902385
9514.000000;0.902515
9513.000000;0.902153
9512.000000;0.902014
9511.000000;0.902038
9510.000000;0.901676
9509.000000;0.900759
9508.000000;0.899707
9507.000000;0.898924
9506.000000;0.898435
9505.000000;0.898171
9504.000000;0.898192
9503.000000;0.898414
9502.000000;0.898423
9501.000000;0.897897
9500.000000;0.897096
9499.000000;0.896679
9498.000000;0.896992
9497.000000;0.897649
9496.000000;0.897848
9495.000000;0.897143
9494.000000;0.895902
9493.000000;0.894938
9492.000000;0.894643
9491.000000;0.894649
9490.000000;0.894423
9489.000000;0.893951
9488.000000;0.893592
9487.000000;0.893465
9486.000000;0.893396
9485.000000;0.893344
9484.000000;0.893439
9483.000000;0.893536
9482.000000;0.893191
9481.000000;0.892220
9480.000000;0.890955
9479.000000;0.889820
9478.000000;0.888968
9477.000000;0.888424
9476.000000;0.888171
9475.000000;0.887941
9474.000000;0.887324
9473.000000;0.886355
9472.000000;0.885672
9471.000000;0.885808
9470.000000;0.886590
9469.000000;0.887448
9468.000000;0.887994
9467.000000;0.888049
9466.000000;0.887496
9465.000000;0.886529
9464.000000;0.885793
9463.000000;0.885789
9462.000000;0.886261
9461.000000;0.886562
9460.000000;0.886491
9459.000000;0.886363
9458.000000;0.886338
9457.000000;0.886218
9456.000000;0.885932
9455.000000;0.885731
9454.000000;0.885754
9453.000000;0.885781
9452.000000;0.885583
9451.000000;0.885226
9450.000000;0.884825
9449.000000;0.884257
9448.000000;0.883365
9447.000000;0.882339
9446.000000;0.881752
9445.000000;0.882189
9444.000000;0.883733
9443.000000;0.885655
9442.000000;0.886748
9441.000000;0.886314
9440.000000;0.884861
9439.000000;0.883528
9438.000000;0.882844
9437.000000;0.882389
9436.000000;0.881658
9435.000000;0.880801
9434.000000;0.880262
9433.000000;0.880102
9432.000000;0.880047
9431.000000;0.879991
9430.000000;0.880092
9429.000000;0.880437
9428.000000;0.880898
9427.000000;0.881283
9426.000000;0.881399
9425.000000;0.881052
9424.000000;0.880276
9423.000000;0.879500
9422.000000;0.879170
9421.000000;0.879234
9420.000000;0.879206
9419.000000;0.878770
9418.000000;0.878110
9417.000000;0.877626
9416.000000;0.877530
9415.000000;0.877778
9414.000000;0.878192
9413.000000;0.878504
9412.000000;0.878409
9411.000000;0.877798
9410.000000;0.876933
9409.000000;0.876292
9408.000000;0.876213
9407.000000;0.876691
9406.000000;0.877448
9405.000000;0.878091
9404.000000;0.878250
9403.000000;0.877740
9402.000000;0.876709
9401.000000;0.875580
9400.000000;0.874742
9399.000000;0.874252
9398.000000;0.873916
9397.000000;0.873639
9396.000000;0.873576
9395.000000;0.873887
9394.000000;0.874497
9393.000000;0.875239
9392.000000;0.876080
9391.000000;0.876987
9390.000000;0.877617
9389.000000;0.877478
9388.000000;0.876493
9387.000000;0.875169
9386.000000;0.874072
9385.000000;0.873338
9384.000000;0.872790
9383.000000;0.872290
9382.000000;0.871800
9381.000000;0.871288
9380.000000;0.870800
9379.000000;0.870498
9378.000000;0.870429
9377.000000;0.870371
9376.000000;0.870102
9375.000000;0.869715
9374.000000;0.869433
9373.000000;0.869274
9372.000000;0.869179
9371.000000;0.869349
9370.000000;0.870057
9369.000000;0.871133
9368.000000;0.871983
9367.000000;0.872183
9366.000000;0.871729
9365.000000;0.870694
9364.000000;0.869051
9363.000000;0.867055
9362.000000;0.865404
9361.000000;0.864725
9360.000000;0.865043
9359.000000;0.865917
9358.000000;0.866871
9357.000000;0.867531
9356.000000;0.867659
9355.000000;0.867386
9354.000000;0.867217
9353.000000;0.867512
9352.000000;0.868038
9351.000000;0.868300
9350.000000;0.868133
9349.000000;0.867661
9348.000000;0.866839
9347.000000;0.865482
9346.000000;0.863753
9345.000000;0.862247
9344.000000;0.861466
9343.000000;0.861482
9342.000000;0.862123
9341.000000;0.863115
9340.000000;0.863947
9339.000000;0.864037
9338.000000;0.863362
9337.000000;0.862696
9336.000000;0.862857
9335.000000;0.863836
9334.000000;0.864879
9333.000000;0.865330
9332.000000;0.865126
9331.000000;0.864508
9330.000000;0.863601
9329.000000;0.862458
9328.000000;0.861293
9327.000000;0.860412
9326.000000;0.859905
9325.000000;0.859561
9324.000000;0.859132
9323.000000;0.858622
9322.000000;0.858261
9321.000000;0.858242
9320.000000;0.858553
9319.000000;0.859002
9318.000000;0.859294
9317.000000;0.859136
9316.000000;0.858445
9315.000000;0.857515
9314.000000;0.856824
9313.000000;0.856563
9312.000000;0.856507
9311.000000;0.856424
9310.000000;0.856424
9309.000000;0.856704
9308.000000;0.857104
9307.000000;0.857221
9306.000000;0.856896
9305.000000;0.856353
9304.000000;0.855870
9303.000000;0.855619
9302.000000;0.855781
9301.000000;0.856443
9300.000000;0.857252
9299.000000;0.857491
9298.000000;0.856778
9297.000000;0.855548
9296.000000;0.854633
9295.000000;0.854503
9294.000000;0.854999
9293.000000;0.855627
9292.000000;0.855919
9291.000000;0.855693
9290.000000;0.855192
9289.000000;0.854872
9288.000000;0.854889
9287.000000;0.854885
9286.000000;0.854436
9285.000000;0.853624
9284.000000;0.852953
9283.000000;0.852791
9282.000000;0.853093
9281.000000;0.853584
9280.000000;0.853949
9279.000000;0.853885
9278.000000;0.853326
9277.000000;0.852678
9276.000000;0.852548
9275.000000;0.853070
9274.000000;0.853721
9273.000000;0.853933
9272.000000;0.853694
9271.000000;0.853344
9270.000000;0.852997
9269.000000;0.852504
9268.000000;0.851929
9267.000000;0.851626
9266.000000;0.851701
9265.000000;0.851687
9264.000000;0.851068
9263.000000;0.850034
9262.000000;0.849402
9261.000000;0.849711
9260.000000;0.850585
9259.000000;0.851100
9258.000000;0.850681
9257.000000;0.849528
9256.000000;0.848279
9255.000000;0.847426
9254.000000;0.847018
9253.000000;0.846799
9252.000000;0.846579
9251.000000;0.846446
9250.000000;0.846559
9249.000000;0.846761
9248.000000;0.846606
9247.000000;0.845910
9246.000000;0.845121
9245.000000;0.844884
9244.000000;0.845318
9243.000000;0.845981
9242.000000;0.846533
9241.000000;0.847050
9240.000000;0.847573
9239.000000;0.847695
9238.000000;0.846989
9237.000000;0.845700
9236.000000;0.844681
9235.000000;0.844601
9234.000000;0.845380
9233.000000;0.846368
9232.000000;0.846889
9231.000000;0.846630
9230.000000;0.845727
9229.000000;0.844618
9228.000000;0.843710
9227.000000;0.843114
9226.000000;0.842739
9225.000000;0.842658
9224.000000;0.843208
9223.000000;0.844550
9222.000000;0.846191
9221.000000;0.847155
9220.000000;0.846805
9219.000000;0.845402
9218.000000;0.843798
9217.000000;0.842670
9216.000000;0.842199
9215.000000;0.842320
9214.000000;0.842926
9213.000000;0.843713
9212.000000;0.844137
9211.000000;0.843848
9210.000000;0.843112
9209.000000;0.842561
9208.000000;0.842537
9207.000000;0.842817
9206.000000;0.842929
9205.000000;0.842548
9204.000000;0.841674
9203.000000;0.840653
9202.000000;0.840017
9201.000000;0.840036
9200.000000;0.840426
9199.000000;0.840744
9198.000000;0.841011
9197.000000;0.841563
9196.000000;0.842268
9195.000000;0.842388
9194.000000;0.841517
9193.000000;0.840248
9192.000000;0.839501
9191.000000;0.839467
9190.000000;0.839600
9189.000000;0.839491
9188.000000;0.839289
9187.000000;0.839280
9186.000000;0.839424
9185.000000;0.839460
9184.000000;0.839230
9183.000000;0.838737
9182.000000;0.838027
9181.000000;0.837115
9180.000000;0.836049
9179.000000;0.835060
9178.000000;0.834612
9177.000000;0.835096
9176.000000;0.836327
9175.000000;0.837522
9174.000000;0.838027
9173.000000;0.837978
9172.000000;0.838011
9171.000000;0.838396
9170.000000;0.838722
9169.000000;0.838445
9168.000000;0.837519
9167.000000;0.836396
9166.000000;0.835582
9165.000000;0.835278
9164.000000;0.835336
9163.000000;0.835498
9162.000000;0.835687
9161.000000;0.836028
9160.000000;0.836543
9159.000000;0.836962
9158.000000;0.837000
9157.000000;0.836712
9156.000000;0.836331
9155.000000;0.835852
9154.000000;0.835087
9153.000000;0.834162
9152.000000;0.833651
9151.000000;0.834028
9150.000000;0.835146
9149.000000;0.836357
9148.000000;0.837012
9147.000000;0.836813
9146.000000;0.835888
9145.000000;0.834723
9144.000000;0.833911
9143.000000;0.833762
9142.000000;0.834061
9141.000000;0.834248
9140.000000;0.833889
9139.000000;0.833068
9138.000000;0.832348
9137.000000;0.832260
9136.000000;0.832730
9135.000000;0.833099
9134.000000;0.832847
9133.000000;0.832188
9132.000000;0.831755
9131.000000;0.831812
9130.000000;0.832052
9129.000000;0.832151
9128.000000;0.832166
9127.000000;0.832252
9126.000000;0.832328
9125.000000;0.832267
9124.000000;0.832203
9123.000000;0.832389
9122.000000;0.832841
9121.000000;0.833351
9120.000000;0.833729
9119.000000;0.833815
9118.000000;0.833373
9117.000000;0.832319
9116.000000;0.831084
9115.000000;0.830400
9114.000000;0.830504
9113.000000;0.830775
9112.000000;0.830390
9111.000000;0.829309
9110.000000;0.828326
9109.000000;0.828087
9108.000000;0.828348
9107.000000;0.828372
9106.000000;0.827890
9105.000000;0.827325
9104.000000;0.827121
9103.000000;0.827213
9102.000000;0.827323
9101.000000;0.827448
9100.000000;0.827777
9099.000000;0.828289
9098.000000;0.828782
9097.000000;0.829214
9096.000000;0.829691
9095.000000;0.830114
9094.000000;0.830161
9093.000000;0.829731
9092.000000;0.829144
9091.000000;0.828781
9090.000000;0.828712
9089.000000;0.828787
9088.000000;0.828886
9087.000000;0.828912
9086.000000;0.828746
9085.000000;0.828389
9084.000000;0.828027
9083.000000;0.827801
9082.000000;0.827601
9081.000000;0.827282
9080.000000;0.826952
9079.000000;0.826854
9078.000000;0.826972
9077.000000;0.827020
9076.000000;0.826826
9075.000000;0.826564
9074.000000;0.826529
9073.000000;0.826792
9072.000000;0.827129
9071.000000;0.827206
9070.000000;0.826796
9069.000000;0.825951
9068.000000;0.825048
9067.000000;0.824636
9066.000000;0.825084
9065.000000;0.826265
9064.000000;0.827538
9063.000000;0.828131
9062.000000;0.827695
9061.000000;0.826554
9060.000000;0.825397
9059.000000;0.824720
9058.000000;0.824578
9057.000000;0.824747
9056.000000;0.824956
9055.000000;0.824931
9054.000000;0.824466
9053.000000;0.823670
