Criado como novo conjunto de dados;"e0108.spp","-4222421.7 Secs"
cm-1;Abs
10000.000000;2.073421
9999.000000;2.072675
9998.000000;2.072839
9997.000000;2.070010
9996.000000;2.061356
9995.000000;2.048975
9994.000000;2.037335
9993.000000;2.029356
9992.000000;2.025321
9991.000000;2.024019
9990.000000;2.024094
9989.000000;2.024698
9988.000000;2.025511
9987.000000;2.026620
9986.000000;2.028928
9985.000000;2.033845
9984.000000;2.041161
9983.000000;2.047413
9982.000000;2.048256
9981.000000;2.043651
9980.000000;2.038511
9979.000000;2.036717
9978.000000;2.036640
9977.000000;2.033940
9976.000000;2.027986
9975.000000;2.022972
9974.000000;2.022250
9973.000000;2.024425
9972.000000;2.026419
9971.000000;2.028386
9970.000000;2.032302
9969.000000;2.036368
9968.000000;2.035430
9967.000000;2.027993
9966.000000;2.018760
9965.000000;2.013007
9964.000000;2.011469
9963.000000;2.011827
9962.000000;2.012717
9961.000000;2.013706
9960.000000;2.013508
9959.000000;2.011998
9958.000000;2.012596
9957.000000;2.019251
9956.000000;2.031002
9955.000000;2.041092
9954.000000;2.043531
9953.000000;2.040166
9952.000000;2.036974
9951.000000;2.036225
9950.000000;2.036364
9949.000000;2.035110
9948.000000;2.030900
9947.000000;2.024061
9946.000000;2.016271
9945.000000;2.008762
9944.000000;2.001848
9943.000000;1.995960
9942.000000;1.992972
9941.000000;1.995595
9940.000000;2.004405
9939.000000;2.015893
9938.000000;2.024407
9937.000000;2.026110
9936.000000;2.020188
9935.000000;2.007552
9934.000000;1.991357
9933.000000;1.978176
9932.000000;1.975357
9931.000000;1.985032
9930.000000;2.000612
9929.000000;2.012208
9928.000000;2.017246
9927.000000;2.021078
9926.000000;2.026697
9925.000000;2.029746
9924.000000;2.026181
9923.000000;2.021230
9922.000000;2.024305
9921.000000;2.036033
9920.000000;2.044730
9919.000000;2.039021
9918.000000;2.022310
9917.000000;2.007612
9916.000000;2.002599
9915.000000;2.005637
9914.000000;2.011733
9913.000000;2.017789
9912.000000;2.022498
9911.000000;2.025333
9910.000000;2.027481
9909.000000;2.030238
9908.000000;2.031271
9907.000000;2.026705
9906.000000;2.017840
9905.000000;2.010639
9904.000000;2.008305
9903.000000;2.008094
9902.000000;2.005636
9901.000000;2.000292
9900.000000;1.994408
9899.000000;1.990040
9898.000000;1.988909
9897.000000;1.992667
9896.000000;2.000583
9895.000000;2.007746
9894.000000;2.008972
9893.000000;2.005490
9892.000000;2.004264
9891.000000;2.010232
9890.000000;2.021070
9889.000000;2.028627
9888.000000;2.025593
9887.000000;2.012848
9886.000000;2.000011
9885.000000;1.997666
9884.000000;2.007967
9883.000000;2.021235
9882.000000;2.024065
9881.000000;2.013407
9880.000000;1.998498
9879.000000;1.989083
9878.000000;1.987487
9877.000000;1.989929
9876.000000;1.991415
9875.000000;1.989618
9874.000000;1.985882
9873.000000;1.983975
9872.000000;1.986771
9871.000000;1.992605
9870.000000;1.995867
9869.000000;1.992846
9868.000000;1.986292
9867.000000;1.982955
9866.000000;1.986983
9865.000000;1.996409
9864.000000;2.006162
9863.000000;2.012997
9862.000000;2.016290
9861.000000;2.016214
9860.000000;2.013707
9859.000000;2.011048
9858.000000;2.009788
9857.000000;2.008006
9856.000000;2.002171
9855.000000;1.992522
9854.000000;1.984235
9853.000000;1.981675
9852.000000;1.982604
9851.000000;1.980497
9850.000000;1.973544
9849.000000;1.966954
9848.000000;1.965040
9847.000000;1.966618
9846.000000;1.968640
9845.000000;1.970088
9844.000000;1.971140
9843.000000;1.972148
9842.000000;1.975082
9841.000000;1.981963
9840.000000;1.989217
9839.000000;1.987884
9838.000000;1.975000
9837.000000;1.960855
9836.000000;1.958491
9835.000000;1.969819
9834.000000;1.984318
9833.000000;1.990241
9832.000000;1.986081
9831.000000;1.978857
9830.000000;1.975159
9829.000000;1.977017
9828.000000;1.981942
9827.000000;1.984433
9826.000000;1.980354
9825.000000;1.971472
9824.000000;1.963980
9823.000000;1.962462
9822.000000;1.966672
9821.000000;1.973301
9820.000000;1.978794
9819.000000;1.980674
9818.000000;1.978750
9817.000000;1.975610
9816.000000;1.974094
9815.000000;1.974273
9814.000000;1.974004
9813.000000;1.972353
9812.000000;1.971072
9811.000000;1.972289
9810.000000;1.976122
9809.000000;1.980607
9808.000000;1.982925
9807.000000;1.981768
9806.000000;1.979545
9805.000000;1.980485
9804.000000;1.985284
9803.000000;1.988869
9802.000000;1.985794
9801.000000;1.977544
9800.000000;1.970670
9799.000000;1.968855
9798.000000;1.970316
9797.000000;1.972275
9796.000000;1.973946
9795.000000;1.974541
9794.000000;1.973295
9793.000000;1.971226
9792.000000;1.969759
9791.000000;1.967720
9790.000000;1.962449
9789.000000;1.955442
9788.000000;1.953150
9787.000000;1.959618
9786.000000;1.970770
9785.000000;1.978440
9784.000000;1.979010
9783.000000;1.975173
9782.000000;1.970825
9781.000000;1.968046
9780.000000;1.967799
9779.000000;1.970127
9778.000000;1.973412
9777.000000;1.975592
9776.000000;1.976076
9775.000000;1.975081
9774.000000;1.972360
9773.000000;1.967604
9772.000000;1.961685
9771.000000;1.956814
9770.000000;1.954747
9769.000000;1.955658
9768.000000;1.958978
9767.000000;1.964034
9766.000000;1.969448
9765.000000;1.972794
9764.000000;1.971952
9763.000000;1.967134
9762.000000;1.961214
9761.000000;1.957515
9760.000000;1.956823
9759.000000;1.956998
9758.000000;1.956370
9757.000000;1.956773
9756.000000;1.961340
9755.000000;1.969470
9754.000000;1.975840
9753.000000;1.975227
9752.000000;1.967131
9751.000000;1.955260
9750.000000;1.944791
9749.000000;1.940568
9748.000000;1.944881
9747.000000;1.954816
9746.000000;1.962936
9745.000000;1.962911
9744.000000;1.954238
9743.000000;1.940667
9742.000000;1.927019
9741.000000;1.918720
9740.000000;1.920267
9739.000000;1.930801
9738.000000;1.942516
9737.000000;1.947036
9736.000000;1.943597
9735.000000;1.937582
9734.000000;1.932754
9733.000000;1.929413
9732.000000;1.928446
9731.000000;1.931760
9730.000000;1.938243
9729.000000;1.944046
9728.000000;1.948383
9727.000000;1.955242
9726.000000;1.967178
9725.000000;1.979867
9724.000000;1.985343
9723.000000;1.980073
9722.000000;1.967585
9721.000000;1.954438
9720.000000;1.946528
9719.000000;1.947329
9718.000000;1.955725
9717.000000;1.964894
9716.000000;1.966494
9715.000000;1.958316
9714.000000;1.945925
9713.000000;1.936397
9712.000000;1.932700
9711.000000;1.933252
9710.000000;1.934739
9709.000000;1.934791
9708.000000;1.933562
9707.000000;1.934231
9706.000000;1.940131
9705.000000;1.950303
9704.000000;1.958769
9703.000000;1.959257
9702.000000;1.951128
9701.000000;1.939539
9700.000000;1.930698
9699.000000;1.928176
9698.000000;1.931456
9697.000000;1.936260
9696.000000;1.937419
9695.000000;1.933411
9694.000000;1.928059
9693.000000;1.926411
9692.000000;1.929371
9691.000000;1.933218
9690.000000;1.934457
9689.000000;1.934083
9688.000000;1.935606
9687.000000;1.940621
9686.000000;1.948479
9685.000000;1.957534
9684.000000;1.963818
9683.000000;1.961075
9682.000000;1.946346
9681.000000;1.925193
9680.000000;1.907772
9679.000000;1.900142
9678.000000;1.901151
9677.000000;1.906541
9676.000000;1.914289
9675.000000;1.924192
9674.000000;1.933499
9673.000000;1.937875
9672.000000;1.937020
9671.000000;1.935760
9670.000000;1.939182
9669.000000;1.948306
9668.000000;1.960143
9667.000000;1.969898
9666.000000;1.972686
9665.000000;1.964990
9664.000000;1.947616
9663.000000;1.927729
9662.000000;1.914164
9661.000000;1.911007
9660.000000;1.916620
9659.000000;1.925978
9658.000000;1.934021
9657.000000;1.938295
9656.000000;1.938651
9655.000000;1.935690
9654.000000;1.929790
9653.000000;1.921784
9652.000000;1.914195
9651.000000;1.910203
9650.000000;1.911408
9649.000000;1.917429
9648.000000;1.926811
9647.000000;1.936698
9646.000000;1.942478
9645.000000;1.940980
9644.000000;1.934793
9643.000000;1.930728
9642.000000;1.933557
9641.000000;1.942174
9640.000000;1.950923
9639.000000;1.953850
9638.000000;1.948375
9637.000000;1.936734
9636.000000;1.925079
9635.000000;1.919814
9634.000000;1.922944
9633.000000;1.930587
9632.000000;1.937072
9631.000000;1.940505
9630.000000;1.942333
9629.000000;1.943402
9628.000000;1.943484
9627.000000;1.942595
9626.000000;1.940305
9625.000000;1.934427
9624.000000;1.922652
9623.000000;1.906619
9622.000000;1.892499
9621.000000;1.886378
9620.000000;1.890355
9619.000000;1.902006
9618.000000;1.915221
9617.000000;1.923279
9616.000000;1.924366
9615.000000;1.923094
9614.000000;1.925593
9613.000000;1.933851
9612.000000;1.943911
9611.000000;1.948892
9610.000000;1.944573
9609.000000;1.933112
9608.000000;1.921958
9607.000000;1.918716
9606.000000;1.925328
9605.000000;1.935617
9604.000000;1.939629
9603.000000;1.932897
9602.000000;1.920438
9601.000000;1.910430
9600.000000;1.906510
9599.000000;1.906832
9598.000000;1.908302
9597.000000;1.910062
9596.000000;1.912996
9595.000000;1.917153
9594.000000;1.920327
9593.000000;1.919419
9592.000000;1.913881
9591.000000;1.907231
9590.000000;1.904064
9589.000000;1.905636
9588.000000;1.908867
9587.000000;1.909862
9586.000000;1.907133
9585.000000;1.901045
9584.000000;1.892692
9583.000000;1.885015
9582.000000;1.883204
9581.000000;1.891271
9580.000000;1.907526
9579.000000;1.924013
9578.000000;1.931615
9577.000000;1.927103
9576.000000;1.914768
9575.000000;1.901138
9574.000000;1.890191
9573.000000;1.883366
9572.000000;1.881708
9571.000000;1.886545
9570.000000;1.897579
9569.000000;1.910471
9568.000000;1.917773
9567.000000;1.914713
9566.000000;1.904061
9565.000000;1.893141
9564.000000;1.886849
9563.000000;1.884630
9562.000000;1.882608
9561.000000;1.877668
9560.000000;1.870381
9559.000000;1.864356
9558.000000;1.862775
9557.000000;1.865900
9556.000000;1.871330
9555.000000;1.876163
9554.000000;1.878851
9553.000000;1.879112
9552.000000;1.877527
9551.000000;1.876061
9550.000000;1.877207
9549.000000;1.880877
9548.000000;1.883218
9547.000000;1.881219
9546.000000;1.878374
9545.000000;1.882137
9544.000000;1.895117
9543.000000;1.910731
9542.000000;1.918709
9541.000000;1.914942
9540.000000;1.903613
9539.000000;1.890941
9538.000000;1.881422
9537.000000;1.878600
9536.000000;1.883912
9535.000000;1.893515
9534.000000;1.899687
9533.000000;1.898114
9532.000000;1.892532
9531.000000;1.889531
9530.000000;1.890583
9529.000000;1.891341
9528.000000;1.887560
9527.000000;1.880283
9526.000000;1.874994
9525.000000;1.876547
9524.000000;1.885209
9523.000000;1.896484
9522.000000;1.904580
9521.000000;1.906810
9520.000000;1.904360
9519.000000;1.899504
9518.000000;1.894010
9517.000000;1.889697
9516.000000;1.888109
9515.000000;1.888540
9514.000000;1.888129
9513.000000;1.885404
9512.000000;1.882306
9511.000000;1.881171
9510.000000;1.881452
9509.000000;1.881224
9508.000000;1.880373
9507.000000;1.880083
9506.000000;1.880244
9505.000000;1.879933
9504.000000;1.879869
9503.000000;1.881696
9502.000000;1.884324
9501.000000;1.883518
9500.000000;1.876661
9499.000000;1.866016
9498.000000;1.856302
9497.000000;1.851340
9496.000000;1.853251
9495.000000;1.861531
9494.000000;1.871047
9493.000000;1.873798
9492.000000;1.866673
9491.000000;1.855739
9490.000000;1.849863
9489.000000;1.852766
9488.000000;1.862399
9487.000000;1.875108
9486.000000;1.887618
9485.000000;1.895935
9484.000000;1.896451
9483.000000;1.889452
9482.000000;1.879742
9481.000000;1.872994
9480.000000;1.871899
9479.000000;1.874695
9478.000000;1.876208
9477.000000;1.872245
9476.000000;1.864756
9475.000000;1.860878
9474.000000;1.865190
9473.000000;1.874070
9472.000000;1.879524
9471.000000;1.878430
9470.000000;1.874313
9469.000000;1.870042
9468.000000;1.864713
9467.000000;1.858589
9466.000000;1.855519
9465.000000;1.857969
9464.000000;1.862566
9463.000000;1.863318
9462.000000;1.859076
9461.000000;1.854868
9460.000000;1.856068
9459.000000;1.863694
9458.000000;1.874550
9457.000000;1.883873
9456.000000;1.887593
9455.000000;1.884872
9454.000000;1.879365
9453.000000;1.875309
9452.000000;1.873280
9451.000000;1.871419
9450.000000;1.869245
9449.000000;1.868391
9448.000000;1.869659
9447.000000;1.871025
9446.000000;1.869478
9445.000000;1.864143
9444.000000;1.856905
9443.000000;1.850829
9442.000000;1.848650
9441.000000;1.851591
9440.000000;1.858180
9439.000000;1.864869
9438.000000;1.869385
9437.000000;1.873061
9436.000000;1.878907
9435.000000;1.887006
9434.000000;1.892352
9433.000000;1.889483
9432.000000;1.879765
9431.000000;1.871362
9430.000000;1.870879
9429.000000;1.876472
9428.000000;1.880066
9427.000000;1.876563
9426.000000;1.868929
9425.000000;1.862994
9424.000000;1.861121
9423.000000;1.862427
9422.000000;1.865758
9421.000000;1.870042
9420.000000;1.873228
9419.000000;1.873405
9418.000000;1.870986
9417.000000;1.867938
9416.000000;1.864970
9415.000000;1.861218
9414.000000;1.856237
9413.000000;1.850747
9412.000000;1.845944
9411.000000;1.843459
9410.000000;1.845277
9409.000000;1.851895
9408.000000;1.860719
9407.000000;1.867873
9406.000000;1.871500
9405.000000;1.872241
9404.000000;1.871390
9403.000000;1.870055
9402.000000;1.870105
9401.000000;1.872829
9400.000000;1.875040
9399.000000;1.870609
9398.000000;1.858225
9397.000000;1.843588
9396.000000;1.832729
9395.000000;1.826999
9394.000000;1.824902
9393.000000;1.825813
9392.000000;1.830117
9391.000000;1.836911
9390.000000;1.843700
9389.000000;1.848302
9388.000000;1.850067
9387.000000;1.849713
9386.000000;1.848956
9385.000000;1.849795
9384.000000;1.852467
9383.000000;1.854499
9382.000000;1.853637
9381.000000;1.851136
9380.000000;1.850068
9379.000000;1.850777
9378.000000;1.850378
9377.000000;1.847152
9376.000000;1.843164
9375.000000;1.841626
9374.000000;1.843364
9373.000000;1.846342
9372.000000;1.847655
9371.000000;1.845560
9370.000000;1.840425
9369.000000;1.834822
9368.000000;1.831941
9367.000000;1.833468
9366.000000;1.838976
9365.000000;1.846480
9364.000000;1.853529
9363.000000;1.858090
9362.000000;1.858930
9361.000000;1.855917
9360.000000;1.850150
9359.000000;1.843801
9358.000000;1.839512
9357.000000;1.838864
9356.000000;1.840786
9355.000000;1.842079
9354.000000;1.840583
9353.000000;1.837792
9352.000000;1.837130
9351.000000;1.839699
9350.000000;1.843002
9349.000000;1.844151
9348.000000;1.843228
9347.000000;1.842472
9346.000000;1.843013
9345.000000;1.843816
9344.000000;1.843789
9343.000000;1.843627
9342.000000;1.844571
9341.000000;1.846003
9340.000000;1.845604
9339.000000;1.842124
9338.000000;1.837642
9337.000000;1.835818
9336.000000;1.837298
9335.000000;1.838508
9334.000000;1.836093
9333.000000;1.831426
9332.000000;1.829041
9331.000000;1.831184
9330.000000;1.835586
9329.000000;1.838498
9328.000000;1.838653
9327.000000;1.837773
9326.000000;1.837707
9325.000000;1.838088
9324.000000;1.837308
9323.000000;1.835205
9322.000000;1.834004
9321.000000;1.836387
9320.000000;1.842894
9319.000000;1.850856
9318.000000;1.855456
9317.000000;1.853449
9316.000000;1.846576
9315.000000;1.840038
9314.000000;1.837919
9313.000000;1.840302
9312.000000;1.843848
9311.000000;1.844889
9310.000000;1.842417
9309.000000;1.838534
9308.000000;1.836336
9307.000000;1.837153
9306.000000;1.839165
9305.000000;1.838794
9304.000000;1.834291
9303.000000;1.827631
9302.000000;1.822133
9301.000000;1.819339
9300.000000;1.819185
9299.000000;1.821847
9298.000000;1.827363
9297.000000;1.833544
9296.000000;1.836824
9295.000000;1.836458
9294.000000;1.835803
9293.000000;1.838228
9292.000000;1.842930
9291.000000;1.846061
9290.000000;1.845731
9289.000000;1.843806
9288.000000;1.842449
9287.000000;1.841640
9286.000000;1.841137
9285.000000;1.842279
9284.000000;1.846040
9283.000000;1.850090
9282.000000;1.849509
9281.000000;1.842119
9280.000000;1.832320
9279.000000;1.827242
9278.000000;1.829295
9277.000000;1.833720
9276.000000;1.833966
9275.000000;1.829325
9274.000000;1.825255
9273.000000;1.826011
9272.000000;1.829891
9271.000000;1.832643
9270.000000;1.833312
9269.000000;1.834480
9268.000000;1.837940
9267.000000;1.842581
9266.000000;1.846068
9265.000000;1.846785
9264.000000;1.844459
9263.000000;1.840599
9262.000000;1.837728
9261.000000;1.836401
9260.000000;1.833815
9259.000000;1.827677
9258.000000;1.820762
9257.000000;1.818687
9256.000000;1.823510
9255.000000;1.831505
9254.000000;1.836928
9253.000000;1.836236
9252.000000;1.828715
9251.000000;1.816588
9250.000000;1.805892
9249.000000;1.803847
9248.000000;1.813083
9247.000000;1.828925
9246.000000;1.843244
9245.000000;1.850778
9244.000000;1.850562
9243.000000;1.843544
9242.000000;1.832569
9241.000000;1.822912
9240.000000;1.818667
9239.000000;1.818443
9238.000000;1.816847
9237.000000;1.811360
9236.000000;1.805977
9235.000000;1.806491
9234.000000;1.814224
9233.000000;1.824627
9232.000000;1.830783
9231.000000;1.829095
9230.000000;1.821959
9229.000000;1.814594
9228.000000;1.810237
9227.000000;1.808898
9226.000000;1.809820
9225.000000;1.813413
9224.000000;1.819400
9223.000000;1.824554
9222.000000;1.825342
9221.000000;1.822611
9220.000000;1.820827
9219.000000;1.822523
9218.000000;1.825743
9217.000000;1.827483
9216.000000;1.827917
9215.000000;1.829377
9214.000000;1.832267
9213.000000;1.834219
9212.000000;1.832679
9211.000000;1.827209
9210.000000;1.819567
9209.000000;1.812448
9208.000000;1.808375
9207.000000;1.808654
9206.000000;1.812371
9205.000000;1.816602
9204.000000;1.818353
9203.000000;1.816869
9202.000000;1.813918
9201.000000;1.811506
9200.000000;1.809623
9199.000000;1.806683
9198.000000;1.802055
9197.000000;1.797534
9196.000000;1.796193
9195.000000;1.800171
9194.000000;1.809018
9193.000000;1.819052
9192.000000;1.824773
9191.000000;1.823127
9190.000000;1.816980
9189.000000;1.812363
9188.000000;1.812247
9187.000000;1.814701
9186.000000;1.816818
9185.000000;1.818403
9184.000000;1.820775
9183.000000;1.823867
9182.000000;1.825899
9181.000000;1.825494
9180.000000;1.822839
9179.000000;1.818777
9178.000000;1.814685
9177.000000;1.812621
9176.000000;1.813645
9175.000000;1.816299
9174.000000;1.818036
9173.000000;1.817956
9172.000000;1.816838
9171.000000;1.815046
9170.000000;1.812294
9169.000000;1.809096
9168.000000;1.806576
9167.000000;1.804988
9166.000000;1.804050
9165.000000;1.804612
9164.000000;1.808133
9163.000000;1.814047
9162.000000;1.819155
9161.000000;1.820516
9160.000000;1.818136
9159.000000;1.814352
9158.000000;1.811851
9157.000000;1.812690
9156.000000;1.817458
9155.000000;1.824119
9154.000000;1.828630
9153.000000;1.827912
9152.000000;1.822123
9151.000000;1.814070
9150.000000;1.807378
9149.000000;1.805007
9148.000000;1.807536
9147.000000;1.811894
9146.000000;1.813570
9145.000000;1.811607
9144.000000;1.809193
9143.000000;1.808645
9142.000000;1.808614
9141.000000;1.806708
9140.000000;1.803173
9139.000000;1.800576
9138.000000;1.800538
9137.000000;1.802379
9136.000000;1.804648
9135.000000;1.806658
9134.000000;1.808290
9133.000000;1.809237
9132.000000;1.808933
9131.000000;1.806971
9130.000000;1.803625
9129.000000;1.800071
9128.000000;1.797646
9127.000000;1.796732
9126.000000;1.796717
9125.000000;1.796990
9124.000000;1.797480
9123.000000;1.797935
9122.000000;1.797265
9121.000000;1.794443
9120.000000;1.790147
9119.000000;1.786919
9118.000000;1.787180
9117.000000;1.790978
9116.000000;1.795799
9115.000000;1.799020
9114.000000;1.800682
9113.000000;1.803119
9112.000000;1.807620
9111.000000;1.812405
9110.000000;1.814659
9109.000000;1.814116
9108.000000;1.813199
9107.000000;1.813546
9106.000000;1.814069
9105.000000;1.812853
9104.000000;1.809773
9103.000000;1.806463
9102.000000;1.804352
9101.000000;1.803696
9100.000000;1.803945
9099.000000;1.804012
9098.000000;1.802563
9097.000000;1.799124
9096.000000;1.795053
9095.000000;1.792880
9094.000000;1.794342
9093.000000;1.798925
9092.000000;1.804117
9091.000000;1.807185
9090.000000;1.807222
9089.000000;1.805751
9088.000000;1.805252
9087.000000;1.806967
9086.000000;1.809898
9085.000000;1.811737
9084.000000;1.810919
9083.000000;1.807960
9082.000000;1.804886
9081.000000;1.803401
9080.000000;1.803495
9079.000000;1.803809
9078.000000;1.803450
9077.000000;1.803050
9076.000000;1.803566
9075.000000;1.804449
9074.000000;1.803848
9073.000000;1.800911
9072.000000;1.797422
9071.000000;1.796669
9070.000000;1.800655
9069.000000;1.808038
9068.000000;1.814633
9067.000000;1.816782
9066.000000;1.814495
9065.000000;1.810539
9064.000000;1.806944
9063.000000;1.803647
9062.000000;1.800456
9061.000000;1.798844
9060.000000;1.800202
9059.000000;1.802881
9058.000000;1.803103
9057.000000;1.799219
9056.000000;1.793402
9055.000000;1.788613
9054.000000;1.785958
9053.000000;1.785197
