Criado como novo conjunto de dados;"e0108.spp","-4243122.8 Secs"
cm-1;Abs
10000.000000;0.999234
9999.000000;0.999528
9998.000000;1.000135
9997.000000;1.000331
9996.000000;0.999436
9995.000000;0.997824
9994.000000;0.996638
9993.000000;0.996519
9992.000000;0.997058
9991.000000;0.997531
9990.000000;0.997634
9989.000000;0.997304
9988.000000;0.996415
9987.000000;0.995065
9986.000000;0.993832
9985.000000;0.993221
9984.000000;0.993016
9983.000000;0.992630
9982.000000;0.991955
9981.000000;0.991429
9980.000000;0.991365
9979.000000;0.991641
9978.000000;0.992041
9977.000000;0.992528
9976.000000;0.993112
9975.000000;0.993725
9974.000000;0.994244
9973.000000;0.994362
9972.000000;0.993529
9971.000000;0.991456
9970.000000;0.988731
9969.000000;0.986534
9968.000000;0.985592
9967.000000;0.985679
9966.000000;0.986130
9965.000000;0.986431
9964.000000;0.986281
9963.000000;0.985627
9962.000000;0.984924
9961.000000;0.984886
9960.000000;0.985617
9959.000000;0.986311
9958.000000;0.986181
9957.000000;0.985411
9956.000000;0.984834
9955.000000;0.984920
9954.000000;0.985464
9953.000000;0.986010
9952.000000;0.986071
9951.000000;0.985104
9950.000000;0.982937
9949.000000;0.980298
9948.000000;0.978366
9947.000000;0.977638
9946.000000;0.977660
9945.000000;0.977910
9944.000000;0.978437
9943.000000;0.979357
9942.000000;0.980188
9941.000000;0.980187
9940.000000;0.979181
9939.000000;0.977701
9938.000000;0.976443
9937.000000;0.975850
9936.000000;0.976023
9935.000000;0.976683
9934.000000;0.977241
9933.000000;0.977233
9932.000000;0.976797
9931.000000;0.976518
9930.000000;0.976716
9929.000000;0.977143
9928.000000;0.977402
9927.000000;0.977373
9926.000000;0.977091
9925.000000;0.976407
9924.000000;0.975058
9923.000000;0.973113
9922.000000;0.971182
9921.000000;0.970024
9920.000000;0.969997
9919.000000;0.970921
9918.000000;0.972381
9917.000000;0.974013
9916.000000;0.975430
9915.000000;0.976065
9914.000000;0.975400
9913.000000;0.973468
9912.000000;0.971043
9911.000000;0.969147
9910.000000;0.968311
9909.000000;0.968312
9908.000000;0.968492
9907.000000;0.968258
9906.000000;0.967465
9905.000000;0.966541
9904.000000;0.966201
9903.000000;0.966802
9902.000000;0.967838
9901.000000;0.968268
9900.000000;0.967513
9899.000000;0.966024
9898.000000;0.964716
9897.000000;0.964059
9896.000000;0.963938
9895.000000;0.964203
9894.000000;0.964839
9893.000000;0.965485
9892.000000;0.965345
9891.000000;0.964064
9890.000000;0.962467
9889.000000;0.961852
9888.000000;0.962588
9887.000000;0.963811
9886.000000;0.964561
9885.000000;0.964690
9884.000000;0.964388
9883.000000;0.963355
9882.000000;0.961125
9881.000000;0.958082
9880.000000;0.955508
9879.000000;0.954398
9878.000000;0.954563
9877.000000;0.955049
9876.000000;0.955206
9875.000000;0.955137
9874.000000;0.955239
9873.000000;0.955619
9872.000000;0.956016
9871.000000;0.956203
9870.000000;0.956298
9869.000000;0.956540
9868.000000;0.956796
9867.000000;0.956478
9866.000000;0.955124
9865.000000;0.952960
9864.000000;0.950707
9863.000000;0.948956
9862.000000;0.947919
9861.000000;0.947678
9860.000000;0.948275
9859.000000;0.949448
9858.000000;0.950572
9857.000000;0.951106
9856.000000;0.951047
9855.000000;0.950831
9854.000000;0.950861
9853.000000;0.951173
9852.000000;0.951482
9851.000000;0.951481
9850.000000;0.951146
9849.000000;0.950710
9848.000000;0.950217
9847.000000;0.949318
9846.000000;0.947811
9845.000000;0.946322
9844.000000;0.946004
9843.000000;0.947313
9842.000000;0.949391
9841.000000;0.950892
9840.000000;0.951194
9839.000000;0.950529
9838.000000;0.949225
9837.000000;0.947412
9836.000000;0.945440
9835.000000;0.944031
9834.000000;0.943652
9833.000000;0.943910
9832.000000;0.943836
9831.000000;0.942830
9830.000000;0.941308
9829.000000;0.940348
9828.000000;0.940642
9827.000000;0.941810
9826.000000;0.942741
9825.000000;0.942635
9824.000000;0.941675
9823.000000;0.940739
9822.000000;0.940591
9821.000000;0.941340
9820.000000;0.942437
9819.000000;0.943050
9818.000000;0.942700
9817.000000;0.941738
9816.000000;0.941086
9815.000000;0.941275
9814.000000;0.941807
9813.000000;0.941671
9812.000000;0.940452
9811.000000;0.938673
9810.000000;0.937073
9809.000000;0.935909
9808.000000;0.935074
9807.000000;0.934585
9806.000000;0.934584
9805.000000;0.934937
9804.000000;0.935127
9803.000000;0.934693
9802.000000;0.933703
9801.000000;0.932635
9800.000000;0.931784
9799.000000;0.930943
9798.000000;0.929794
9797.000000;0.928523
9796.000000;0.927815
9795.000000;0.928133
9794.000000;0.929136
9793.000000;0.929960
9792.000000;0.929994
9791.000000;0.929287
9790.000000;0.928309
9789.000000;0.927570
9788.000000;0.927371
9787.000000;0.927653
9786.000000;0.928025
9785.000000;0.928114
9784.000000;0.927950
9783.000000;0.927857
9782.000000;0.927972
9781.000000;0.928140
9780.000000;0.928350
9779.000000;0.928951
9778.000000;0.930093
9777.000000;0.931126
9776.000000;0.931011
9775.000000;0.929458
9774.000000;0.927338
9773.000000;0.925777
9772.000000;0.925098
9771.000000;0.924827
9770.000000;0.924420
9769.000000;0.923691
9768.000000;0.922739
9767.000000;0.921827
9766.000000;0.921308
9765.000000;0.921253
9764.000000;0.921127
9763.000000;0.920237
9762.000000;0.918709
9761.000000;0.917591
9760.000000;0.917657
9759.000000;0.918454
9758.000000;0.918938
9757.000000;0.918807
9756.000000;0.918626
9755.000000;0.918729
9754.000000;0.918695
9753.000000;0.918106
9752.000000;0.917244
9751.000000;0.916688
9750.000000;0.916635
9749.000000;0.916979
9748.000000;0.917702
9747.000000;0.918726
9746.000000;0.919585
9745.000000;0.919733
9744.000000;0.919147
9743.000000;0.918273
9742.000000;0.917458
9741.000000;0.916741
9740.000000;0.916102
9739.000000;0.915522
9738.000000;0.914807
9737.000000;0.913774
9736.000000;0.912673
9735.000000;0.912086
9734.000000;0.912246
9733.000000;0.912759
9732.000000;0.913144
9731.000000;0.913397
9730.000000;0.913811
9729.000000;0.914428
9728.000000;0.914866
9727.000000;0.914639
9726.000000;0.913535
9725.000000;0.911836
9724.000000;0.910243
9723.000000;0.909425
9722.000000;0.909432
9721.000000;0.909631
9720.000000;0.909358
9719.000000;0.908587
9718.000000;0.907818
9717.000000;0.907437
9716.000000;0.907379
9715.000000;0.907341
9714.000000;0.907092
9713.000000;0.906578
9712.000000;0.905989
9711.000000;0.905764
9710.000000;0.906277
9709.000000;0.907345
9708.000000;0.908200
9707.000000;0.908203
9706.000000;0.907509
9705.000000;0.906772
9704.000000;0.906249
9703.000000;0.905571
9702.000000;0.904516
9701.000000;0.903581
9700.000000;0.903354
9699.000000;0.903513
9698.000000;0.903060
9697.000000;0.901637
9696.000000;0.900132
9695.000000;0.899743
9694.000000;0.900750
9693.000000;0.902401
9692.000000;0.903712
9691.000000;0.904113
9690.000000;0.903557
9689.000000;0.902448
9688.000000;0.901393
9687.000000;0.900683
9686.000000;0.900033
9685.000000;0.899052
9684.000000;0.897869
9683.000000;0.897032
9682.000000;0.896873
9681.000000;0.897302
9680.000000;0.898130
9679.000000;0.899161
9678.000000;0.899988
9677.000000;0.900155
9676.000000;0.899677
9675.000000;0.899023
9674.000000;0.898395
9673.000000;0.897439
9672.000000;0.895931
9671.000000;0.894391
9670.000000;0.893606
9669.000000;0.893736
9668.000000;0.894266
9667.000000;0.894710
9666.000000;0.894963
9665.000000;0.894978
9664.000000;0.894525
9663.000000;0.893496
9662.000000;0.892237
9661.000000;0.891367
9660.000000;0.891266
9659.000000;0.891766
9658.000000;0.892288
9657.000000;0.892320
9656.000000;0.891840
9655.000000;0.891293
9654.000000;0.891100
9653.000000;0.891232
9652.000000;0.891317
9651.000000;0.891094
9650.000000;0.890643
9649.000000;0.890176
9648.000000;0.889723
9647.000000;0.889085
9646.000000;0.888080
9645.000000;0.886836
9644.000000;0.885821
9643.000000;0.885471
9642.000000;0.885740
9641.000000;0.886085
9640.000000;0.885975
9639.000000;0.885340
9638.000000;0.884483
9637.000000;0.883716
9636.000000;0.883190
9635.000000;0.882900
9634.000000;0.882657
9633.000000;0.882191
9632.000000;0.881564
9631.000000;0.881376
9630.000000;0.882228
9629.000000;0.883933
9628.000000;0.885533
9627.000000;0.886179
9626.000000;0.885767
9625.000000;0.884687
9624.000000;0.883335
9623.000000;0.882098
9622.000000;0.881435
9621.000000;0.881576
9620.000000;0.882205
9619.000000;0.882741
9618.000000;0.882912
9617.000000;0.882901
9616.000000;0.882983
9615.000000;0.883234
9614.000000;0.883487
9613.000000;0.883368
9612.000000;0.882458
9611.000000;0.880692
9610.000000;0.878624
9609.000000;0.877066
9608.000000;0.876448
9607.000000;0.876630
9606.000000;0.877252
9605.000000;0.877988
9604.000000;0.878465
9603.000000;0.878303
9602.000000;0.877415
9601.000000;0.876113
9600.000000;0.874827
9599.000000;0.873853
9598.000000;0.873376
9597.000000;0.873424
9596.000000;0.873715
9595.000000;0.873808
9594.000000;0.873637
9593.000000;0.873623
9592.000000;0.874079
9591.000000;0.874680
9590.000000;0.874801
9589.000000;0.874200
9588.000000;0.873092
9587.000000;0.871728
9586.000000;0.870285
9585.000000;0.869074
9584.000000;0.868444
9583.000000;0.868440
9582.000000;0.868799
9581.000000;0.869309
9580.000000;0.869887
9579.000000;0.870330
9578.000000;0.870342
9577.000000;0.869910
9576.000000;0.869337
9575.000000;0.868825
9574.000000;0.868305
9573.000000;0.867805
9572.000000;0.867623
9571.000000;0.867873
9570.000000;0.868157
9569.000000;0.868013
9568.000000;0.867501
9567.000000;0.867059
9566.000000;0.866906
9565.000000;0.866903
9564.000000;0.866938
9563.000000;0.867090
9562.000000;0.867362
9561.000000;0.867528
9560.000000;0.867328
9559.000000;0.866670
9558.000000;0.865612
9557.000000;0.864330
9556.000000;0.863164
9555.000000;0.862488
9554.000000;0.862409
9553.000000;0.862673
9552.000000;0.862951
9551.000000;0.863129
9550.000000;0.863223
9549.000000;0.863102
9548.000000;0.862512
9547.000000;0.861443
9546.000000;0.860320
9545.000000;0.859677
9544.000000;0.859637
9543.000000;0.859828
9542.000000;0.859816
9541.000000;0.859555
9540.000000;0.859355
9539.000000;0.859505
9538.000000;0.860019
9537.000000;0.860690
9536.000000;0.861230
9535.000000;0.861342
9534.000000;0.860856
9533.000000;0.859858
9532.000000;0.858668
9531.000000;0.857643
9530.000000;0.857009
9529.000000;0.856787
9528.000000;0.856766
9527.000000;0.856613
9526.000000;0.856217
9525.000000;0.855857
9524.000000;0.855817
9523.000000;0.855845
9522.000000;0.855351
9521.000000;0.854225
9520.000000;0.853090
9519.000000;0.852510
9518.000000;0.852304
9517.000000;0.852004
9516.000000;0.851701
9515.000000;0.851892
9514.000000;0.852598
9513.000000;0.853126
9512.000000;0.852887
9511.000000;0.852170
9510.000000;0.851860
9509.000000;0.852507
9508.000000;0.853745
9507.000000;0.854537
9506.000000;0.854011
9505.000000;0.852222
9504.000000;0.850128
9503.000000;0.848717
9502.000000;0.848214
9501.000000;0.848236
9500.000000;0.848544
9499.000000;0.849235
9498.000000;0.850210
9497.000000;0.850914
9496.000000;0.850891
9495.000000;0.850314
9494.000000;0.849712
9493.000000;0.849346
9492.000000;0.849106
9491.000000;0.848853
9490.000000;0.848556
9489.000000;0.848149
9488.000000;0.847509
9487.000000;0.846610
9486.000000;0.845566
9485.000000;0.844561
9484.000000;0.843920
9483.000000;0.844127
9482.000000;0.845443
9481.000000;0.847386
9480.000000;0.848785
9479.000000;0.848625
9478.000000;0.846885
9477.000000;0.844530
9476.000000;0.842711
9475.000000;0.841999
9474.000000;0.842170
9473.000000;0.842559
9472.000000;0.842628
9471.000000;0.842332
9470.000000;0.841994
9469.000000;0.841875
9468.000000;0.841914
9467.000000;0.841915
9466.000000;0.841847
9465.000000;0.841813
9464.000000;0.841793
9463.000000;0.841618
9462.000000;0.841257
9461.000000;0.840939
9460.000000;0.840888
9459.000000;0.841076
9458.000000;0.841346
9457.000000;0.841649
9456.000000;0.841945
9455.000000;0.841995
9454.000000;0.841506
9453.000000;0.840533
9452.000000;0.839503
9451.000000;0.838736
9450.000000;0.838165
9449.000000;0.837657
9448.000000;0.837391
9447.000000;0.837680
9446.000000;0.838498
9445.000000;0.839428
9444.000000;0.840065
9443.000000;0.840293
9442.000000;0.840149
9441.000000;0.839630
9440.000000;0.838724
9439.000000;0.837585
9438.000000;0.836560
9437.000000;0.836002
9436.000000;0.835954
9435.000000;0.835997
9434.000000;0.835545
9433.000000;0.834463
9432.000000;0.833318
9431.000000;0.832854
9430.000000;0.833253
9429.000000;0.834063
9428.000000;0.834791
9427.000000;0.835295
9426.000000;0.835605
9425.000000;0.835672
9424.000000;0.835456
9423.000000;0.835037
9422.000000;0.834464
9421.000000;0.833647
9420.000000;0.832617
9419.000000;0.831760
9418.000000;0.831485
9417.000000;0.831700
9416.000000;0.831877
9415.000000;0.831710
9414.000000;0.831472
9413.000000;0.831610
9412.000000;0.832115
9411.000000;0.832465
9410.000000;0.832141
9409.000000;0.831135
9408.000000;0.829991
9407.000000;0.829435
9406.000000;0.829881
9405.000000;0.831091
9404.000000;0.832251
9403.000000;0.832566
9402.000000;0.831893
9401.000000;0.830759
9400.000000;0.829781
9399.000000;0.829149
9398.000000;0.828659
9397.000000;0.828105
9396.000000;0.827483
9395.000000;0.826889
9394.000000;0.826423
9393.000000;0.826201
9392.000000;0.826284
9391.000000;0.826503
9390.000000;0.826487
9389.000000;0.826012
9388.000000;0.825288
9387.000000;0.824783
9386.000000;0.824764
9385.000000;0.825077
9384.000000;0.825355
9383.000000;0.825360
9382.000000;0.825122
9381.000000;0.824817
9380.000000;0.824530
9379.000000;0.824131
9378.000000;0.823446
9377.000000;0.822610
9376.000000;0.822122
9375.000000;0.822360
9374.000000;0.823056
9373.000000;0.823477
9372.000000;0.823254
9371.000000;0.822863
9370.000000;0.823062
9369.000000;0.823945
9368.000000;0.824778
9367.000000;0.824809
9366.000000;0.824009
9365.000000;0.822909
9364.000000;0.821931
9363.000000;0.821169
9362.000000;0.820707
9361.000000;0.820751
9360.000000;0.821305
9359.000000;0.821953
9358.000000;0.822209
9357.000000;0.822009
9356.000000;0.821679
9355.000000;0.821490
9354.000000;0.821435
9353.000000;0.821368
9352.000000;0.821140
9351.000000;0.820615
9350.000000;0.819753
9349.000000;0.818732
9348.000000;0.817811
9347.000000;0.817071
9346.000000;0.816457
9345.000000;0.816066
9344.000000;0.816127
9343.000000;0.816560
9342.000000;0.816800
9341.000000;0.816280
9340.000000;0.815066
9339.000000;0.813882
9338.000000;0.813491
9337.000000;0.814081
9336.000000;0.815153
9335.000000;0.815938
9334.000000;0.816035
9333.000000;0.815703
9332.000000;0.815475
9331.000000;0.815511
9330.000000;0.815510
9329.000000;0.815241
9328.000000;0.814898
9327.000000;0.814805
9326.000000;0.815011
9325.000000;0.815361
9324.000000;0.815736
9323.000000;0.815965
9322.000000;0.815708
9321.000000;0.814791
9320.000000;0.813598
9319.000000;0.812835
9318.000000;0.812857
9317.000000;0.813408
9316.000000;0.813992
9315.000000;0.814290
9314.000000;0.814219
9313.000000;0.813812
9312.000000;0.813156
9311.000000;0.812366
9310.000000;0.811577
9309.000000;0.810962
9308.000000;0.810657
9307.000000;0.810548
9306.000000;0.810269
9305.000000;0.809608
9304.000000;0.808880
9303.000000;0.808669
9302.000000;0.809188
9301.000000;0.810036
9300.000000;0.810559
9299.000000;0.810359
9298.000000;0.809503
9297.000000;0.808464
9296.000000;0.807840
9295.000000;0.807915
9294.000000;0.808392
9293.000000;0.808671
9292.000000;0.808414
9291.000000;0.807762
9290.000000;0.807068
9289.000000;0.806590
9288.000000;0.806402
9287.000000;0.806404
9286.000000;0.806379
9285.000000;0.806215
9284.000000;0.806091
9283.000000;0.806263
9282.000000;0.806660
9281.000000;0.806889
9280.000000;0.806668
9279.000000;0.806095
9278.000000;0.805476
9277.000000;0.805084
9276.000000;0.805108
9275.000000;0.805590
9274.000000;0.806270
9273.000000;0.806651
9272.000000;0.806376
9271.000000;0.805500
9270.000000;0.804382
9269.000000;0.803468
9268.000000;0.803159
9267.000000;0.803596
9266.000000;0.804427
9265.000000;0.804946
9264.000000;0.804648
9263.000000;0.803624
9262.000000;0.802416
9261.000000;0.801643
9260.000000;0.801718
9259.000000;0.802605
9258.000000;0.803667
9257.000000;0.803998
9256.000000;0.803181
9255.000000;0.801694
9254.000000;0.800416
9253.000000;0.799838
9252.000000;0.799837
9251.000000;0.800046
9250.000000;0.800189
9249.000000;0.800148
9248.000000;0.799956
9247.000000;0.799798
9246.000000;0.799873
9245.000000;0.800203
9244.000000;0.800635
9243.000000;0.801012
9242.000000;0.801231
9241.000000;0.801193
9240.000000;0.800810
9239.000000;0.800150
9238.000000;0.799504
9237.000000;0.799224
9236.000000;0.799418
9235.000000;0.799833
9234.000000;0.800076
9233.000000;0.800001
9232.000000;0.799818
9231.000000;0.799761
9230.000000;0.799773
9229.000000;0.799622
9228.000000;0.799230
9227.000000;0.798721
9226.000000;0.798226
9225.000000;0.797810
9224.000000;0.797566
9223.000000;0.797556
9222.000000;0.797669
9221.000000;0.797723
9220.000000;0.797698
9219.000000;0.797686
9218.000000;0.797606
9217.000000;0.797241
9216.000000;0.796614
9215.000000;0.796042
9214.000000;0.795745
9213.000000;0.795646
9212.000000;0.795646
9211.000000;0.795829
9210.000000;0.796210
9209.000000;0.796529
9208.000000;0.796524
9207.000000;0.796236
9206.000000;0.795856
9205.000000;0.795448
9204.000000;0.795006
9203.000000;0.794615
9202.000000;0.794348
9201.000000;0.794124
9200.000000;0.793870
9199.000000;0.793699
9198.000000;0.793757
9197.000000;0.793992
9196.000000;0.794266
9195.000000;0.794558
9194.000000;0.794838
9193.000000;0.794868
9192.000000;0.794367
9191.000000;0.793393
9190.000000;0.792398
9189.000000;0.791932
9188.000000;0.792306
9187.000000;0.793323
9186.000000;0.794222
9185.000000;0.794169
9184.000000;0.793119
9183.000000;0.792000
9182.000000;0.791752
9181.000000;0.792283
9180.000000;0.792686
9179.000000;0.792365
9178.000000;0.791574
9177.000000;0.790892
9176.000000;0.790573
9175.000000;0.790527
9174.000000;0.790630
9173.000000;0.790821
9172.000000;0.791025
9171.000000;0.791087
9170.000000;0.790769
9169.000000;0.789872
9168.000000;0.788542
9167.000000;0.787378
9166.000000;0.786996
9165.000000;0.787457
9164.000000;0.788281
9163.000000;0.789022
9162.000000;0.789585
9161.000000;0.790002
9160.000000;0.790132
9159.000000;0.789763
9158.000000;0.788894
9157.000000;0.787861
9156.000000;0.787207
9155.000000;0.787292
9154.000000;0.787854
9153.000000;0.788097
9152.000000;0.787503
9151.000000;0.786502
9150.000000;0.786005
9149.000000;0.786296
9148.000000;0.786774
9147.000000;0.786825
9146.000000;0.786536
9145.000000;0.786360
9144.000000;0.786448
9143.000000;0.786635
9142.000000;0.786844
9141.000000;0.787139
9140.000000;0.787471
9139.000000;0.787621
9138.000000;0.787410
9137.000000;0.786822
9136.000000;0.786029
9135.000000;0.785375
9134.000000;0.785186
9133.000000;0.785389
9132.000000;0.785466
9131.000000;0.785000
9130.000000;0.784170
9129.000000;0.783498
9128.000000;0.783211
9127.000000;0.783117
9126.000000;0.783072
9125.000000;0.783275
9124.000000;0.783942
9123.000000;0.784883
9122.000000;0.785579
9121.000000;0.785639
9120.000000;0.785128
9119.000000;0.784470
9118.000000;0.784085
9117.000000;0.784115
9116.000000;0.784438
9115.000000;0.784827
9114.000000;0.785027
9113.000000;0.784762
9112.000000;0.783899
9111.000000;0.782674
9110.000000;0.781599
9109.000000;0.781003
9108.000000;0.780756
9107.000000;0.780532
9106.000000;0.780239
9105.000000;0.780055
9104.000000;0.780167
9103.000000;0.780647
9102.000000;0.781489
9101.000000;0.782528
9100.000000;0.783336
9099.000000;0.783427
9098.000000;0.782693
9097.000000;0.781551
9096.000000;0.780575
9095.000000;0.780069
9094.000000;0.779999
9093.000000;0.780198
9092.000000;0.780533
9091.000000;0.780897
9090.000000;0.781165
9089.000000;0.781216
9088.000000;0.781002
9087.000000;0.780603
9086.000000;0.780191
9085.000000;0.779909
9084.000000;0.779784
9083.000000;0.779751
9082.000000;0.779702
9081.000000;0.779505
9080.000000;0.779093
9079.000000;0.778621
9078.000000;0.778456
9077.000000;0.778848
9076.000000;0.779592
9075.000000;0.780151
9074.000000;0.780152
9073.000000;0.779678
9072.000000;0.779054
9071.000000;0.778521
9070.000000;0.778184
9069.000000;0.778112
9068.000000;0.778239
9067.000000;0.778264
9066.000000;0.777902
9065.000000;0.777248
9064.000000;0.776704
9063.000000;0.776479
9062.000000;0.776371
9061.000000;0.776156
9060.000000;0.776010
9059.000000;0.776308
9058.000000;0.777112
9057.000000;0.778056
9056.000000;0.778698
9055.000000;0.778794
9054.000000;0.778298
9053.000000;0.777400
