Criado como novo conjunto de dados;"e0108.spp","-4279304.5 Secs"
cm-1;Abs
10000.000000;1.085918
9999.000000;1.087325
9998.000000;1.088736
9997.000000;1.090152
9996.000000;1.091572
9995.000000;1.092999
9994.000000;1.094424
9993.000000;1.095869
9992.000000;1.097291
9991.000000;1.098766
9990.000000;1.100151
9989.000000;1.101855
9988.000000;1.103365
9987.000000;1.103914
9986.000000;1.103694
9985.000000;1.102694
9984.000000;1.100937
9983.000000;1.098786
9982.000000;1.097044
9981.000000;1.096254
9980.000000;1.096233
9979.000000;1.096461
9978.000000;1.096804
9977.000000;1.097488
9976.000000;1.098426
9975.000000;1.099032
9974.000000;1.098883
9973.000000;1.098186
9972.000000;1.097377
9971.000000;1.096602
9970.000000;1.095923
9969.000000;1.095675
9968.000000;1.096114
9967.000000;1.096792
9966.000000;1.096840
9965.000000;1.095962
9964.000000;1.094801
9963.000000;1.094261
9962.000000;1.094712
9961.000000;1.095836
9960.000000;1.096973
9959.000000;1.097512
9958.000000;1.097164
9957.000000;1.096064
9956.000000;1.094580
9955.000000;1.093001
9954.000000;1.091414
9953.000000;1.089838
9952.000000;1.088377
9951.000000;1.087258
9950.000000;1.086692
9949.000000;1.086614
9948.000000;1.086630
9947.000000;1.086412
9946.000000;1.086076
9945.000000;1.085919
9944.000000;1.085948
9943.000000;1.086030
9942.000000;1.086379
9941.000000;1.087319
9940.000000;1.088468
9939.000000;1.088845
9938.000000;1.088130
9937.000000;1.087183
9936.000000;1.086776
9935.000000;1.086469
9934.000000;1.085412
9933.000000;1.083829
9932.000000;1.082852
9931.000000;1.083029
9930.000000;1.083745
9929.000000;1.084126
9928.000000;1.083836
9927.000000;1.082939
9926.000000;1.081612
9925.000000;1.080276
9924.000000;1.079493
9923.000000;1.079393
9922.000000;1.079504
9921.000000;1.079383
9920.000000;1.079102
9919.000000;1.078911
9918.000000;1.078734
9917.000000;1.078257
9916.000000;1.077395
9915.000000;1.076483
9914.000000;1.076005
9913.000000;1.076152
9912.000000;1.076589
9911.000000;1.076777
9910.000000;1.076629
9909.000000;1.076586
9908.000000;1.076822
9907.000000;1.076704
9906.000000;1.075476
9905.000000;1.073373
9904.000000;1.071648
9903.000000;1.071424
9902.000000;1.072781
9901.000000;1.074838
9900.000000;1.076344
9899.000000;1.076310
9898.000000;1.074675
9897.000000;1.072433
9896.000000;1.070717
9895.000000;1.069774
9894.000000;1.069120
9893.000000;1.068547
9892.000000;1.068481
9891.000000;1.069182
9890.000000;1.070069
9889.000000;1.070179
9888.000000;1.069148
9887.000000;1.067551
9886.000000;1.066372
9885.000000;1.066162
9884.000000;1.066539
9883.000000;1.066530
9882.000000;1.065598
9881.000000;1.064248
9880.000000;1.063379
9879.000000;1.063201
9878.000000;1.063190
9877.000000;1.063010
9876.000000;1.062917
9875.000000;1.063132
9874.000000;1.063297
9873.000000;1.062864
9872.000000;1.061800
9871.000000;1.060680
9870.000000;1.060228
9869.000000;1.060762
9868.000000;1.061837
9867.000000;1.062419
9866.000000;1.061784
9865.000000;1.060361
9864.000000;1.059369
9863.000000;1.059516
9862.000000;1.060346
9861.000000;1.060911
9860.000000;1.060746
9859.000000;1.060029
9858.000000;1.059133
9857.000000;1.058292
9856.000000;1.057607
9855.000000;1.057133
9854.000000;1.056971
9853.000000;1.057225
9852.000000;1.057836
9851.000000;1.058551
9850.000000;1.059161
9849.000000;1.059553
9848.000000;1.059296
9847.000000;1.057546
9846.000000;1.054025
9845.000000;1.050057
9844.000000;1.047890
9843.000000;1.048712
9842.000000;1.051574
9841.000000;1.054373
9840.000000;1.055593
9839.000000;1.055011
9838.000000;1.053244
9837.000000;1.051211
9836.000000;1.049774
9835.000000;1.049318
9834.000000;1.049594
9833.000000;1.050049
9832.000000;1.050218
9831.000000;1.049939
9830.000000;1.049490
9829.000000;1.049482
9828.000000;1.050244
9827.000000;1.051254
9826.000000;1.051547
9825.000000;1.050779
9824.000000;1.049473
9823.000000;1.048098
9822.000000;1.046470
9821.000000;1.044394
9820.000000;1.042406
9819.000000;1.041388
9818.000000;1.041659
9817.000000;1.042754
9816.000000;1.043869
9815.000000;1.044243
9814.000000;1.043450
9813.000000;1.041818
9812.000000;1.040425
9811.000000;1.040308
9810.000000;1.041636
9809.000000;1.043753
9808.000000;1.045772
9807.000000;1.046910
9806.000000;1.046622
9805.000000;1.044986
9804.000000;1.042892
9803.000000;1.041336
9802.000000;1.040474
9801.000000;1.039712
9800.000000;1.038737
9799.000000;1.038019
9798.000000;1.038083
9797.000000;1.038632
9796.000000;1.038767
9795.000000;1.038064
9794.000000;1.037183
9793.000000;1.037235
9792.000000;1.038593
9791.000000;1.040377
9790.000000;1.041190
9789.000000;1.040452
9788.000000;1.038898
9787.000000;1.037685
9786.000000;1.037236
9785.000000;1.037083
9784.000000;1.036612
9783.000000;1.035709
9782.000000;1.034681
9781.000000;1.033814
9780.000000;1.033171
9779.000000;1.032732
9778.000000;1.032565
9777.000000;1.032739
9776.000000;1.033086
9775.000000;1.033234
9774.000000;1.033070
9773.000000;1.033084
9772.000000;1.033884
9771.000000;1.035265
9770.000000;1.036064
9769.000000;1.035264
9768.000000;1.033122
9767.000000;1.030907
9766.000000;1.029575
9765.000000;1.028985
9764.000000;1.028367
9763.000000;1.027291
9762.000000;1.026073
9761.000000;1.025392
9760.000000;1.025680
9759.000000;1.026834
9758.000000;1.028365
9757.000000;1.029732
9756.000000;1.030560
9755.000000;1.030657
9754.000000;1.029956
9753.000000;1.028565
9752.000000;1.026863
9751.000000;1.025423
9750.000000;1.024715
9749.000000;1.024810
9748.000000;1.025282
9747.000000;1.025433
9746.000000;1.024717
9745.000000;1.023130
9744.000000;1.021278
9743.000000;1.020048
9742.000000;1.020036
9741.000000;1.021095
9740.000000;1.022347
9739.000000;1.022763
9738.000000;1.021909
9737.000000;1.020166
9736.000000;1.018303
9735.000000;1.017015
9734.000000;1.016822
9733.000000;1.018000
9732.000000;1.020182
9731.000000;1.022193
9730.000000;1.022815
9729.000000;1.021929
9728.000000;1.020567
9727.000000;1.019691
9726.000000;1.019203
9725.000000;1.018338
9724.000000;1.016756
9723.000000;1.014928
9722.000000;1.013521
9721.000000;1.012747
9720.000000;1.012442
9719.000000;1.012515
9718.000000;1.013066
9717.000000;1.014095
9716.000000;1.015277
9715.000000;1.016106
9714.000000;1.016198
9713.000000;1.015452
9712.000000;1.014068
9711.000000;1.012629
9710.000000;1.011994
9709.000000;1.012659
9708.000000;1.014058
9707.000000;1.014771
9706.000000;1.013795
9705.000000;1.011569
9704.000000;1.009484
9703.000000;1.008441
9702.000000;1.008217
9701.000000;1.008175
9700.000000;1.008189
9699.000000;1.008610
9698.000000;1.009551
9697.000000;1.010548
9696.000000;1.010988
9695.000000;1.010754
9694.000000;1.010302
9693.000000;1.010106
9692.000000;1.010145
9691.000000;1.010068
9690.000000;1.009719
9689.000000;1.009210
9688.000000;1.008465
9687.000000;1.007100
9686.000000;1.005039
9685.000000;1.002971
9684.000000;1.001840
9683.000000;1.001982
9682.000000;1.003022
9681.000000;1.004393
9680.000000;1.005620
9679.000000;1.006294
9678.000000;1.006302
9677.000000;1.006160
9676.000000;1.006617
9675.000000;1.007643
9674.000000;1.008175
9673.000000;1.007191
9672.000000;1.004893
9671.000000;1.002563
9670.000000;1.001388
9669.000000;1.001608
9668.000000;1.002630
9667.000000;1.003692
9666.000000;1.004335
9665.000000;1.004320
9664.000000;1.003368
9663.000000;1.001306
9662.000000;0.998566
9661.000000;0.996305
9660.000000;0.995645
9659.000000;0.996652
9658.000000;0.998191
9657.000000;0.998911
9656.000000;0.998385
9655.000000;0.997317
9654.000000;0.996747
9653.000000;0.997044
9652.000000;0.997619
9651.000000;0.997667
9650.000000;0.997169
9649.000000;0.996865
9648.000000;0.997146
9647.000000;0.997416
9646.000000;0.996928
9645.000000;0.995879
9644.000000;0.995091
9643.000000;0.994839
9642.000000;0.994692
9641.000000;0.994449
9640.000000;0.994438
9639.000000;0.994724
9638.000000;0.994755
9637.000000;0.994182
9636.000000;0.993510
9635.000000;0.993430
9634.000000;0.993891
9633.000000;0.994269
9632.000000;0.994164
9631.000000;0.993628
9630.000000;0.992790
9629.000000;0.991721
9628.000000;0.990573
9627.000000;0.989535
9626.000000;0.988687
9625.000000;0.988114
9624.000000;0.988019
9623.000000;0.988433
9622.000000;0.988860
9621.000000;0.988531
9620.000000;0.987157
9619.000000;0.985324
9618.000000;0.984107
9617.000000;0.984223
9616.000000;0.985407
9615.000000;0.986555
9614.000000;0.986706
9613.000000;0.985965
9612.000000;0.985293
9611.000000;0.985347
9610.000000;0.985854
9609.000000;0.986137
9608.000000;0.985883
9607.000000;0.985192
9606.000000;0.984284
9605.000000;0.983460
9604.000000;0.983014
9603.000000;0.982810
9602.000000;0.982193
9601.000000;0.980750
9600.000000;0.979049
9599.000000;0.978185
9598.000000;0.978641
9597.000000;0.979899
9596.000000;0.981086
9595.000000;0.981707
9594.000000;0.981811
9593.000000;0.981768
9592.000000;0.981901
9591.000000;0.982111
9590.000000;0.981927
9589.000000;0.981150
9588.000000;0.980279
9587.000000;0.979929
9586.000000;0.979890
9585.000000;0.979332
9584.000000;0.978018
9583.000000;0.976742
9582.000000;0.976306
9581.000000;0.976525
9580.000000;0.976641
9579.000000;0.976323
9578.000000;0.975813
9577.000000;0.975331
9576.000000;0.974869
9575.000000;0.974529
9574.000000;0.974519
9573.000000;0.974682
9572.000000;0.974490
9571.000000;0.973723
9570.000000;0.972840
9569.000000;0.972414
9568.000000;0.972464
9567.000000;0.972582
9566.000000;0.972545
9565.000000;0.972518
9564.000000;0.972735
9563.000000;0.973239
9562.000000;0.973890
9561.000000;0.974317
9560.000000;0.973928
9559.000000;0.972338
9558.000000;0.969903
9557.000000;0.967575
9556.000000;0.966147
9555.000000;0.965801
9554.000000;0.966285
9553.000000;0.967154
9552.000000;0.967789
9551.000000;0.967635
9550.000000;0.966740
9549.000000;0.965800
9548.000000;0.965445
9547.000000;0.965664
9546.000000;0.966114
9545.000000;0.966640
9544.000000;0.967186
9543.000000;0.967522
9542.000000;0.967434
9541.000000;0.966996
9540.000000;0.966359
9539.000000;0.965531
9538.000000;0.964671
9537.000000;0.964347
9536.000000;0.965022
9535.000000;0.966395
9534.000000;0.967654
9533.000000;0.968265
9532.000000;0.968123
9531.000000;0.967170
9530.000000;0.965487
9529.000000;0.963702
9528.000000;0.962662
9527.000000;0.962550
9526.000000;0.962806
9525.000000;0.962977
9524.000000;0.963137
9523.000000;0.963316
9522.000000;0.963135
9521.000000;0.962276
9520.000000;0.960960
9519.000000;0.959723
9518.000000;0.959005
9517.000000;0.959078
9516.000000;0.959971
9515.000000;0.961244
9514.000000;0.962187
9513.000000;0.962459
9512.000000;0.962242
9511.000000;0.961682
9510.000000;0.960677
9509.000000;0.959420
9508.000000;0.958565
9507.000000;0.958472
9506.000000;0.958725
9505.000000;0.958813
9504.000000;0.958853
9503.000000;0.959112
9502.000000;0.959175
9501.000000;0.958294
9500.000000;0.956512
9499.000000;0.954813
9498.000000;0.954014
9497.000000;0.953979
9496.000000;0.954113
9495.000000;0.954240
9494.000000;0.954631
9493.000000;0.955269
9492.000000;0.955550
9491.000000;0.954934
9490.000000;0.953715
9489.000000;0.952767
9488.000000;0.952524
9487.000000;0.952583
9486.000000;0.952484
9485.000000;0.952469
9484.000000;0.953043
9483.000000;0.954060
9482.000000;0.954822
9481.000000;0.954981
9480.000000;0.954788
9479.000000;0.954436
9478.000000;0.953766
9477.000000;0.952747
9476.000000;0.951687
9475.000000;0.950747
9474.000000;0.949781
9473.000000;0.948833
9472.000000;0.948226
9471.000000;0.947958
9470.000000;0.947594
9469.000000;0.947066
9468.000000;0.946979
9467.000000;0.947705
9466.000000;0.948664
9465.000000;0.949052
9464.000000;0.948834
9463.000000;0.948488
9462.000000;0.948172
9461.000000;0.947771
9460.000000;0.947497
9459.000000;0.947757
9458.000000;0.948482
9457.000000;0.949132
9456.000000;0.949348
9455.000000;0.949218
9454.000000;0.948990
9453.000000;0.948875
9452.000000;0.949022
9451.000000;0.949282
9450.000000;0.949138
9449.000000;0.948258
9448.000000;0.947032
9447.000000;0.946187
9446.000000;0.945950
9445.000000;0.945933
9444.000000;0.945724
9443.000000;0.945216
9442.000000;0.944450
9441.000000;0.943560
9440.000000;0.942829
9439.000000;0.942457
9438.000000;0.942307
9437.000000;0.942134
9436.000000;0.941957
9435.000000;0.941919
9434.000000;0.941941
9433.000000;0.941870
9432.000000;0.941832
9431.000000;0.942061
9430.000000;0.942518
9429.000000;0.943038
9428.000000;0.943645
9427.000000;0.944258
9426.000000;0.944302
9425.000000;0.943275
9424.000000;0.941673
9423.000000;0.940736
9422.000000;0.941134
9421.000000;0.942333
9420.000000;0.943274
9419.000000;0.943270
9418.000000;0.942250
9417.000000;0.940648
9416.000000;0.939208
9415.000000;0.938448
9414.000000;0.938108
9413.000000;0.937506
9412.000000;0.936562
9411.000000;0.936042
9410.000000;0.936536
9409.000000;0.937600
9408.000000;0.938203
9407.000000;0.937803
9406.000000;0.936743
9405.000000;0.935784
9404.000000;0.935463
9403.000000;0.935729
9402.000000;0.936023
9401.000000;0.935797
9400.000000;0.935064
9399.000000;0.934325
9398.000000;0.933958
9397.000000;0.933917
9396.000000;0.934006
9395.000000;0.934098
9394.000000;0.934024
9393.000000;0.933653
9392.000000;0.933265
9391.000000;0.933484
9390.000000;0.934551
9389.000000;0.935930
9388.000000;0.936870
9387.000000;0.937117
9386.000000;0.936838
9385.000000;0.936136
9384.000000;0.935022
9383.000000;0.933735
9382.000000;0.932680
9381.000000;0.932054
9380.000000;0.931779
9379.000000;0.931778
9378.000000;0.932044
9377.000000;0.932406
9376.000000;0.932444
9375.000000;0.931840
9374.000000;0.930774
9373.000000;0.929873
9372.000000;0.929700
9371.000000;0.930268
9370.000000;0.931041
9369.000000;0.931425
9368.000000;0.931228
9367.000000;0.930643
9366.000000;0.929931
9365.000000;0.929261
9364.000000;0.928773
9363.000000;0.928548
9362.000000;0.928511
9361.000000;0.928510
9360.000000;0.928517
9359.000000;0.928585
9358.000000;0.928615
9357.000000;0.928369
9356.000000;0.927777
9355.000000;0.927045
9354.000000;0.926396
9353.000000;0.925881
9352.000000;0.925496
9351.000000;0.925287
9350.000000;0.925155
9349.000000;0.924769
9348.000000;0.923911
9347.000000;0.922893
9346.000000;0.922419
9345.000000;0.922935
9344.000000;0.924114
9343.000000;0.925027
9342.000000;0.924898
9341.000000;0.923801
9340.000000;0.922590
9339.000000;0.922082
9338.000000;0.922356
9337.000000;0.922911
9336.000000;0.923363
9335.000000;0.923742
9334.000000;0.924128
9333.000000;0.924297
9332.000000;0.923892
9331.000000;0.922829
9330.000000;0.921385
9329.000000;0.919995
9328.000000;0.918991
9327.000000;0.918447
9326.000000;0.918151
9325.000000;0.917819
9324.000000;0.917422
9323.000000;0.917224
9322.000000;0.917462
9321.000000;0.918129
9320.000000;0.919087
9319.000000;0.920208
9318.000000;0.921292
9317.000000;0.921960
9316.000000;0.921846
9315.000000;0.920897
9314.000000;0.919422
9313.000000;0.917913
9312.000000;0.916843
9311.000000;0.916523
9310.000000;0.916935
9309.000000;0.917664
9308.000000;0.918081
9307.000000;0.917784
9306.000000;0.916921
9305.000000;0.916109
9304.000000;0.915927
9303.000000;0.916399
9302.000000;0.916986
9301.000000;0.917169
9300.000000;0.916973
9299.000000;0.916852
9298.000000;0.917134
9297.000000;0.917757
9296.000000;0.918488
9295.000000;0.919144
9294.000000;0.919482
9293.000000;0.919117
9292.000000;0.917823
9291.000000;0.915930
9290.000000;0.914288
9289.000000;0.913683
9288.000000;0.914236
9287.000000;0.915326
9286.000000;0.916115
9285.000000;0.916181
9284.000000;0.915666
9283.000000;0.914889
9282.000000;0.914015
9281.000000;0.913162
9280.000000;0.912592
9279.000000;0.912507
9278.000000;0.912759
9277.000000;0.913011
9276.000000;0.913157
9275.000000;0.913310
9274.000000;0.913432
9273.000000;0.913311
9272.000000;0.912995
9271.000000;0.912914
9270.000000;0.913339
9269.000000;0.913888
9268.000000;0.913851
9267.000000;0.912977
9266.000000;0.911707
9265.000000;0.910622
9264.000000;0.909882
9263.000000;0.909320
9262.000000;0.908981
9261.000000;0.909324
9260.000000;0.910708
9259.000000;0.912688
9258.000000;0.914077
9257.000000;0.913952
9256.000000;0.912566
9255.000000;0.911027
9254.000000;0.910101
9253.000000;0.909582
9252.000000;0.908849
9251.000000;0.907731
9250.000000;0.906613
9249.000000;0.905877
9248.000000;0.905552
9247.000000;0.905479
9246.000000;0.905603
9245.000000;0.905982
9244.000000;0.906602
9243.000000;0.907246
9242.000000;0.907620
9241.000000;0.907642
9240.000000;0.907596
9239.000000;0.907871
9238.000000;0.908447
9237.000000;0.908754
9236.000000;0.908232
9235.000000;0.907022
9234.000000;0.905967
9233.000000;0.905795
9232.000000;0.906408
9231.000000;0.907049
9230.000000;0.907158
9229.000000;0.906936
9228.000000;0.906985
9227.000000;0.907535
9226.000000;0.908181
9225.000000;0.908335
9224.000000;0.907775
9223.000000;0.906745
9222.000000;0.905664
9221.000000;0.904842
9220.000000;0.904326
9219.000000;0.903879
9218.000000;0.903190
9217.000000;0.902230
9216.000000;0.901345
9215.000000;0.900955
9214.000000;0.901252
9213.000000;0.902282
9212.000000;0.904035
9211.000000;0.906175
9210.000000;0.907873
9209.000000;0.908362
9208.000000;0.907716
9207.000000;0.906754
9206.000000;0.906073
9205.000000;0.905519
9204.000000;0.904720
9203.000000;0.903782
9202.000000;0.903105
9201.000000;0.902669
9200.000000;0.901927
9199.000000;0.900532
9198.000000;0.898953
9197.000000;0.898142
9196.000000;0.898595
9195.000000;0.899821
9194.000000;0.900765
9193.000000;0.900776
9192.000000;0.900118
9191.000000;0.899538
9190.000000;0.899472
9189.000000;0.899789
9188.000000;0.900146
9187.000000;0.900352
9186.000000;0.900368
9185.000000;0.900204
9184.000000;0.899968
9183.000000;0.899866
9182.000000;0.899969
9181.000000;0.900010
9180.000000;0.899561
9179.000000;0.898475
9178.000000;0.897104
9177.000000;0.896031
9176.000000;0.895572
9175.000000;0.895574
9174.000000;0.895728
9173.000000;0.896013
9172.000000;0.896658
9171.000000;0.897626
9170.000000;0.898371
9169.000000;0.898356
9168.000000;0.897715
9167.000000;0.897109
9166.000000;0.896949
9165.000000;0.897093
9164.000000;0.897342
9163.000000;0.897799
9162.000000;0.898462
9161.000000;0.898813
9160.000000;0.898299
9159.000000;0.897160
9158.000000;0.896348
9157.000000;0.896469
9156.000000;0.897083
9155.000000;0.897210
9154.000000;0.896375
9153.000000;0.894986
9152.000000;0.893797
9151.000000;0.893263
9150.000000;0.893396
9149.000000;0.893980
9148.000000;0.894715
9147.000000;0.895241
9146.000000;0.895215
9145.000000;0.894520
9144.000000;0.893396
9143.000000;0.892338
9142.000000;0.891806
9141.000000;0.891949
9140.000000;0.892543
9139.000000;0.893226
9138.000000;0.893862
9137.000000;0.894605
9136.000000;0.895556
9135.000000;0.896413
9134.000000;0.896613
9133.000000;0.895900
9132.000000;0.894651
9131.000000;0.893572
9130.000000;0.893143
9129.000000;0.893325
9128.000000;0.893626
9127.000000;0.893440
9126.000000;0.892538
9125.000000;0.891345
9124.000000;0.890586
9123.000000;0.890584
9122.000000;0.891053
9121.000000;0.891622
9120.000000;0.892274
9119.000000;0.893008
9118.000000;0.893342
9117.000000;0.892670
9116.000000;0.891137
9115.000000;0.889735
9114.000000;0.889311
9113.000000;0.889700
9112.000000;0.890020
9111.000000;0.889652
9110.000000;0.888759
9109.000000;0.887920
9108.000000;0.887525
9107.000000;0.887567
9106.000000;0.887841
9105.000000;0.888163
9104.000000;0.888390
9103.000000;0.888390
9102.000000;0.888138
9101.000000;0.887830
9100.000000;0.887726
9099.000000;0.887849
9098.000000;0.887969
9097.000000;0.887936
9096.000000;0.887852
9095.000000;0.887829
9094.000000;0.887760
9093.000000;0.887530
9092.000000;0.887307
9091.000000;0.887346
9090.000000;0.887581
9089.000000;0.887664
9088.000000;0.887396
9087.000000;0.886919
9086.000000;0.886491
9085.000000;0.886261
9084.000000;0.886270
9083.000000;0.886490
9082.000000;0.886820
9081.000000;0.887166
9080.000000;0.887516
9079.000000;0.887866
9078.000000;0.888100
9077.000000;0.888072
9076.000000;0.887720
9075.000000;0.887021
9074.000000;0.885999
9073.000000;0.884936
9072.000000;0.884365
9071.000000;0.884562
9070.000000;0.885200
9069.000000;0.885790
9068.000000;0.886311
9067.000000;0.886997
9066.000000;0.887652
9065.000000;0.887722
9064.000000;0.887101
9063.000000;0.886373
9062.000000;0.886095
9061.000000;0.886263
9060.000000;0.886605
9059.000000;0.886927
9058.000000;0.886996
9057.000000;0.886542
9056.000000;0.885693
9055.000000;0.885033
9054.000000;0.884931
9053.000000;0.885128
