Criado como novo conjunto de dados;"e0108.spp","-4251763.0 Secs"
cm-1;Abs
10000.000000;1.025923
9999.000000;1.026864
9998.000000;1.029342
9997.000000;1.031541
9996.000000;1.031869
9995.000000;1.030650
9994.000000;1.028619
9993.000000;1.026553
9992.000000;1.024586
9991.000000;1.022747
9990.000000;1.021164
9989.000000;1.020293
9988.000000;1.020422
9987.000000;1.021132
9986.000000;1.021550
9985.000000;1.021362
9984.000000;1.021157
9983.000000;1.021501
9982.000000;1.022048
9981.000000;1.021975
9980.000000;1.021017
9979.000000;1.019746
9978.000000;1.019049
9977.000000;1.019530
9976.000000;1.021093
9975.000000;1.022783
9974.000000;1.023429
9973.000000;1.022871
9972.000000;1.022217
9971.000000;1.022392
9970.000000;1.022803
9969.000000;1.022037
9968.000000;1.019713
9967.000000;1.016955
9966.000000;1.015006
9965.000000;1.014158
9964.000000;1.014088
9963.000000;1.014453
9962.000000;1.014891
9961.000000;1.015030
9960.000000;1.014804
9959.000000;1.014426
9958.000000;1.013936
9957.000000;1.013165
9956.000000;1.012331
9955.000000;1.012152
9954.000000;1.012903
9953.000000;1.013744
9952.000000;1.013464
9951.000000;1.011764
9950.000000;1.009435
9949.000000;1.007432
9948.000000;1.006213
9947.000000;1.005839
9946.000000;1.006181
9945.000000;1.006845
9944.000000;1.007285
9943.000000;1.007279
9942.000000;1.007164
9941.000000;1.007391
9940.000000;1.007990
9939.000000;1.008667
9938.000000;1.009321
9937.000000;1.010109
9936.000000;1.010940
9935.000000;1.011259
9934.000000;1.010560
9933.000000;1.008942
9932.000000;1.006942
9931.000000;1.005008
9930.000000;1.003393
9929.000000;1.002393
9928.000000;1.002220
9927.000000;1.002592
9926.000000;1.002841
9925.000000;1.002593
9924.000000;1.002059
9923.000000;1.001539
9922.000000;1.000986
9921.000000;1.000310
9920.000000;0.999790
9919.000000;0.999798
9918.000000;1.000299
9917.000000;1.001023
9916.000000;1.001991
9915.000000;1.003395
9914.000000;1.004923
9913.000000;1.005638
9912.000000;1.004753
9911.000000;1.002384
9910.000000;0.999470
9909.000000;0.997110
9908.000000;0.995918
9907.000000;0.995692
9906.000000;0.995636
9905.000000;0.995173
9904.000000;0.994591
9903.000000;0.994639
9902.000000;0.995467
9901.000000;0.996330
9900.000000;0.996475
9899.000000;0.996009
9898.000000;0.995616
9897.000000;0.995635
9896.000000;0.995739
9895.000000;0.995456
9894.000000;0.994741
9893.000000;0.994015
9892.000000;0.993694
9891.000000;0.993676
9890.000000;0.993337
9889.000000;0.992150
9888.000000;0.990364
9887.000000;0.988869
9886.000000;0.988300
9885.000000;0.988389
9884.000000;0.988360
9883.000000;0.987803
9882.000000;0.986957
9881.000000;0.986250
9880.000000;0.985855
9879.000000;0.985716
9878.000000;0.985744
9877.000000;0.985831
9876.000000;0.985792
9875.000000;0.985475
9874.000000;0.984917
9873.000000;0.984299
9872.000000;0.983804
9871.000000;0.983556
9870.000000;0.983607
9869.000000;0.983857
9868.000000;0.984024
9867.000000;0.983847
9866.000000;0.983405
9865.000000;0.983064
9864.000000;0.982968
9863.000000;0.982735
9862.000000;0.981923
9861.000000;0.980744
9860.000000;0.980016
9859.000000;0.980338
9858.000000;0.981557
9857.000000;0.983067
9856.000000;0.984256
9855.000000;0.984504
9854.000000;0.983277
9853.000000;0.980767
9852.000000;0.978255
9851.000000;0.977205
9850.000000;0.977871
9849.000000;0.979135
9848.000000;0.979777
9847.000000;0.979500
9846.000000;0.978654
9845.000000;0.977580
9844.000000;0.976676
9843.000000;0.976576
9842.000000;0.977530
9841.000000;0.978657
9840.000000;0.978508
9839.000000;0.976612
9838.000000;0.974078
9837.000000;0.972399
9836.000000;0.971965
9835.000000;0.971933
9834.000000;0.971365
9833.000000;0.970175
9832.000000;0.969001
9831.000000;0.968422
9830.000000;0.968468
9829.000000;0.968750
9828.000000;0.968912
9827.000000;0.968921
9826.000000;0.969014
9825.000000;0.969436
9824.000000;0.970220
9823.000000;0.971126
9822.000000;0.971730
9821.000000;0.971665
9820.000000;0.970853
9819.000000;0.969532
9818.000000;0.968058
9817.000000;0.966741
9816.000000;0.965860
9815.000000;0.965641
9814.000000;0.966002
9813.000000;0.966408
9812.000000;0.966253
9811.000000;0.965453
9810.000000;0.964513
9809.000000;0.963955
9808.000000;0.963836
9807.000000;0.963933
9806.000000;0.964188
9805.000000;0.964711
9804.000000;0.965357
9803.000000;0.965602
9802.000000;0.965037
9801.000000;0.963876
9800.000000;0.962783
9799.000000;0.962169
9798.000000;0.961812
9797.000000;0.961286
9796.000000;0.960637
9795.000000;0.960355
9794.000000;0.960650
9793.000000;0.960997
9792.000000;0.960650
9791.000000;0.959574
9790.000000;0.958607
9789.000000;0.958549
9788.000000;0.959216
9787.000000;0.959608
9786.000000;0.959030
9785.000000;0.957832
9784.000000;0.956909
9783.000000;0.956690
9782.000000;0.956865
9781.000000;0.957009
9780.000000;0.957118
9779.000000;0.957392
9778.000000;0.957734
9777.000000;0.957758
9776.000000;0.957247
9775.000000;0.956353
9774.000000;0.955339
9773.000000;0.954346
9772.000000;0.953477
9771.000000;0.952860
9770.000000;0.952491
9769.000000;0.952183
9768.000000;0.951830
9767.000000;0.951577
9766.000000;0.951576
9765.000000;0.951699
9764.000000;0.951674
9763.000000;0.951478
9762.000000;0.951370
9761.000000;0.951538
9760.000000;0.951859
9759.000000;0.952017
9758.000000;0.951730
9757.000000;0.950879
9756.000000;0.949581
9755.000000;0.948127
9754.000000;0.946747
9753.000000;0.945483
9752.000000;0.944413
9751.000000;0.943897
9750.000000;0.944292
9749.000000;0.945367
9748.000000;0.946274
9747.000000;0.946310
9746.000000;0.945564
9745.000000;0.944613
9744.000000;0.943790
9743.000000;0.943032
9742.000000;0.942347
9741.000000;0.942034
9740.000000;0.942289
9739.000000;0.942757
9738.000000;0.942767
9737.000000;0.941987
9736.000000;0.940747
9735.000000;0.939688
9734.000000;0.939172
9733.000000;0.939081
9732.000000;0.939133
9731.000000;0.939249
9730.000000;0.939551
9729.000000;0.940081
9728.000000;0.940689
9727.000000;0.941154
9726.000000;0.941264
9725.000000;0.940809
9724.000000;0.939743
9723.000000;0.938454
9722.000000;0.937625
9721.000000;0.937583
9720.000000;0.937947
9719.000000;0.938092
9718.000000;0.937852
9717.000000;0.937582
9716.000000;0.937604
9715.000000;0.937839
9714.000000;0.937951
9713.000000;0.937662
9712.000000;0.936965
9711.000000;0.936215
9710.000000;0.935946
9709.000000;0.936319
9708.000000;0.936773
9707.000000;0.936495
9706.000000;0.935333
9705.000000;0.933997
9704.000000;0.933257
9703.000000;0.933181
9702.000000;0.933285
9701.000000;0.933134
9700.000000;0.932641
9699.000000;0.931974
9698.000000;0.931444
9697.000000;0.931345
9696.000000;0.931675
9695.000000;0.932057
9694.000000;0.932166
9693.000000;0.932112
9692.000000;0.932194
9691.000000;0.932342
9690.000000;0.932082
9689.000000;0.931054
9688.000000;0.929433
9687.000000;0.927800
9686.000000;0.926780
9685.000000;0.926721
9684.000000;0.927479
9683.000000;0.928410
9682.000000;0.928781
9681.000000;0.928298
9680.000000;0.927202
9679.000000;0.925926
9678.000000;0.924877
9677.000000;0.924476
9676.000000;0.925016
9675.000000;0.926248
9674.000000;0.927306
9673.000000;0.927351
9672.000000;0.926302
9671.000000;0.924784
9670.000000;0.923425
9669.000000;0.922378
9668.000000;0.921460
9667.000000;0.920548
9666.000000;0.919771
9665.000000;0.919403
9664.000000;0.919645
9663.000000;0.920481
9662.000000;0.921641
9661.000000;0.922655
9660.000000;0.922990
9659.000000;0.922312
9658.000000;0.920784
9657.000000;0.919089
9656.000000;0.917990
9655.000000;0.917743
9654.000000;0.917989
9653.000000;0.918256
9652.000000;0.918448
9651.000000;0.918688
9650.000000;0.918827
9649.000000;0.918431
9648.000000;0.917352
9647.000000;0.916091
9646.000000;0.915385
9645.000000;0.915498
9644.000000;0.916059
9643.000000;0.916531
9642.000000;0.916661
9641.000000;0.916427
9640.000000;0.915794
9639.000000;0.914732
9638.000000;0.913467
9637.000000;0.912516
9636.000000;0.912331
9635.000000;0.912910
9634.000000;0.913771
9633.000000;0.914305
9632.000000;0.914165
9631.000000;0.913411
9630.000000;0.912392
9629.000000;0.911540
9628.000000;0.911173
9627.000000;0.911307
9626.000000;0.911530
9625.000000;0.911133
9624.000000;0.909630
9623.000000;0.907290
9622.000000;0.905125
9621.000000;0.904186
9620.000000;0.904792
9619.000000;0.906379
9618.000000;0.908039
9617.000000;0.909193
9616.000000;0.909821
9615.000000;0.910168
9614.000000;0.910298
9613.000000;0.909996
9612.000000;0.909128
9611.000000;0.908015
9610.000000;0.907203
9609.000000;0.906818
9608.000000;0.906371
9607.000000;0.905471
9606.000000;0.904551
9605.000000;0.904479
9604.000000;0.905421
9603.000000;0.906478
9602.000000;0.906602
9601.000000;0.905618
9600.000000;0.904169
9599.000000;0.902939
9598.000000;0.902223
9597.000000;0.902030
9596.000000;0.902161
9595.000000;0.902173
9594.000000;0.901648
9593.000000;0.900691
9592.000000;0.899979
9591.000000;0.900136
9590.000000;0.901119
9589.000000;0.902262
9588.000000;0.902853
9587.000000;0.902662
9586.000000;0.902010
9585.000000;0.901436
9584.000000;0.901250
9583.000000;0.901330
9582.000000;0.901316
9581.000000;0.900944
9580.000000;0.900189
9579.000000;0.899179
9578.000000;0.898146
9577.000000;0.897410
9576.000000;0.897198
9575.000000;0.897389
9574.000000;0.897593
9573.000000;0.897538
9572.000000;0.897302
9571.000000;0.897095
9570.000000;0.896897
9569.000000;0.896449
9568.000000;0.895607
9567.000000;0.894627
9566.000000;0.894019
9565.000000;0.894073
9564.000000;0.894539
9563.000000;0.894905
9562.000000;0.895015
9561.000000;0.895271
9560.000000;0.896020
9559.000000;0.896842
9558.000000;0.896741
9557.000000;0.895190
9556.000000;0.892847
9555.000000;0.891069
9554.000000;0.890713
9553.000000;0.891413
9552.000000;0.891963
9551.000000;0.891447
9550.000000;0.890147
9549.000000;0.889277
9548.000000;0.889694
9547.000000;0.890888
9546.000000;0.891463
9545.000000;0.890641
9544.000000;0.889057
9543.000000;0.887961
9542.000000;0.887908
9541.000000;0.888402
9540.000000;0.888600
9539.000000;0.888090
9538.000000;0.887115
9537.000000;0.886309
9536.000000;0.886253
9535.000000;0.887007
9534.000000;0.887938
9533.000000;0.888108
9532.000000;0.887024
9531.000000;0.885075
9530.000000;0.883274
9529.000000;0.882563
9528.000000;0.883193
9527.000000;0.884579
9526.000000;0.885772
9525.000000;0.886208
9524.000000;0.885992
9523.000000;0.885481
9522.000000;0.884805
9521.000000;0.883983
9520.000000;0.883277
9519.000000;0.883068
9518.000000;0.883352
9517.000000;0.883659
9516.000000;0.883612
9515.000000;0.883340
9514.000000;0.883194
9513.000000;0.883238
9512.000000;0.883179
9511.000000;0.882751
9510.000000;0.882030
9509.000000;0.881376
9508.000000;0.881128
9507.000000;0.881291
9506.000000;0.881485
9505.000000;0.881284
9504.000000;0.880688
9503.000000;0.880172
9502.000000;0.880186
9501.000000;0.880665
9500.000000;0.881132
9499.000000;0.881235
9498.000000;0.881061
9497.000000;0.880950
9496.000000;0.881092
9495.000000;0.881349
9494.000000;0.881354
9493.000000;0.880769
9492.000000;0.879550
9491.000000;0.878044
9490.000000;0.876836
9489.000000;0.876370
9488.000000;0.876577
9487.000000;0.876861
9486.000000;0.876613
9485.000000;0.875814
9484.000000;0.875008
9483.000000;0.874598
9482.000000;0.874353
9481.000000;0.873830
9480.000000;0.873108
9479.000000;0.872698
9478.000000;0.872717
9477.000000;0.872663
9476.000000;0.872241
9475.000000;0.872020
9474.000000;0.872791
9473.000000;0.874421
9472.000000;0.875798
9471.000000;0.875945
9470.000000;0.874875
9469.000000;0.873316
9468.000000;0.871969
9467.000000;0.871176
9466.000000;0.870961
9465.000000;0.871092
9464.000000;0.871191
9463.000000;0.871001
9462.000000;0.870597
9461.000000;0.870308
9460.000000;0.870438
9459.000000;0.871032
9458.000000;0.871782
9457.000000;0.872169
9456.000000;0.871902
9455.000000;0.871217
9454.000000;0.870609
9453.000000;0.870267
9452.000000;0.869985
9451.000000;0.869620
9450.000000;0.869284
9449.000000;0.869022
9448.000000;0.868635
9447.000000;0.868067
9446.000000;0.867686
9445.000000;0.867858
9444.000000;0.868451
9443.000000;0.869060
9442.000000;0.869539
9441.000000;0.869950
9440.000000;0.870079
9439.000000;0.869469
9438.000000;0.868062
9437.000000;0.866483
9436.000000;0.865489
9435.000000;0.865284
9434.000000;0.865440
9433.000000;0.865355
9432.000000;0.864766
9431.000000;0.864001
9430.000000;0.863737
9429.000000;0.864306
9428.000000;0.865227
9427.000000;0.865630
9426.000000;0.865206
9425.000000;0.864484
9424.000000;0.864095
9423.000000;0.864046
9422.000000;0.863876
9421.000000;0.863298
9420.000000;0.862454
9419.000000;0.861709
9418.000000;0.861409
9417.000000;0.861756
9416.000000;0.862652
9415.000000;0.863602
9414.000000;0.863952
9413.000000;0.863336
9412.000000;0.861924
9411.000000;0.860280
9410.000000;0.858995
9409.000000;0.858380
9408.000000;0.858403
9407.000000;0.858906
9406.000000;0.859775
9405.000000;0.860771
9404.000000;0.861296
9403.000000;0.860716
9402.000000;0.859109
9401.000000;0.857411
9400.000000;0.856530
9399.000000;0.856454
9398.000000;0.856466
9397.000000;0.856150
9396.000000;0.855834
9395.000000;0.855956
9394.000000;0.856417
9393.000000;0.856804
9392.000000;0.857037
9391.000000;0.857380
9390.000000;0.857851
9389.000000;0.857985
9388.000000;0.857404
9387.000000;0.856428
9386.000000;0.855818
9385.000000;0.855886
9384.000000;0.856140
9383.000000;0.855909
9382.000000;0.855132
9381.000000;0.854295
9380.000000;0.853748
9379.000000;0.853388
9378.000000;0.853018
9377.000000;0.852714
9376.000000;0.852710
9375.000000;0.853096
9374.000000;0.853755
9373.000000;0.854456
9372.000000;0.854884
9371.000000;0.854748
9370.000000;0.854063
9369.000000;0.853242
9368.000000;0.852721
9367.000000;0.852504
9366.000000;0.852210
9365.000000;0.851559
9364.000000;0.850697
9363.000000;0.850087
9362.000000;0.850130
9361.000000;0.850832
9360.000000;0.851739
9359.000000;0.852246
9358.000000;0.852102
9357.000000;0.851561
9356.000000;0.850999
9355.000000;0.850551
9354.000000;0.850208
9353.000000;0.850085
9352.000000;0.850264
9351.000000;0.850417
9350.000000;0.849907
9349.000000;0.848455
9348.000000;0.846580
9347.000000;0.845218
9346.000000;0.844936
9345.000000;0.845577
9344.000000;0.846526
9343.000000;0.847267
9342.000000;0.847684
9341.000000;0.847907
9340.000000;0.847959
9339.000000;0.847650
9338.000000;0.846830
9337.000000;0.845693
9336.000000;0.844714
9335.000000;0.844276
9334.000000;0.844396
9333.000000;0.844766
9332.000000;0.844989
9331.000000;0.844833
9330.000000;0.844387
9329.000000;0.843977
9328.000000;0.843879
9327.000000;0.844061
9326.000000;0.844248
9325.000000;0.844259
9324.000000;0.844183
9323.000000;0.844233
9322.000000;0.844539
9321.000000;0.845122
9320.000000;0.845918
9319.000000;0.846734
9318.000000;0.847205
9317.000000;0.846938
9316.000000;0.845803
9315.000000;0.844113
9314.000000;0.842477
9313.000000;0.841392
9312.000000;0.840904
9311.000000;0.840663
9310.000000;0.840318
9309.000000;0.839848
9308.000000;0.839523
9307.000000;0.839597
9306.000000;0.840104
9305.000000;0.840913
9304.000000;0.841853
9303.000000;0.842728
9302.000000;0.843258
9301.000000;0.843123
9300.000000;0.842181
9299.000000;0.840687
9298.000000;0.839224
9297.000000;0.838302
9296.000000;0.838001
9295.000000;0.838055
9294.000000;0.838237
9293.000000;0.838493
9292.000000;0.838740
9291.000000;0.838753
9290.000000;0.838401
9289.000000;0.837825
9288.000000;0.837258
9287.000000;0.836814
9286.000000;0.836573
9285.000000;0.836678
9284.000000;0.837076
9283.000000;0.837313
9282.000000;0.836898
9281.000000;0.835898
9280.000000;0.834902
9279.000000;0.834403
9278.000000;0.834451
9277.000000;0.834915
9276.000000;0.835748
9275.000000;0.836827
9274.000000;0.837779
9273.000000;0.838227
9272.000000;0.838120
9271.000000;0.837668
9270.000000;0.837058
9269.000000;0.836373
9268.000000;0.835682
9267.000000;0.835041
9266.000000;0.834428
9265.000000;0.833842
9264.000000;0.833421
9263.000000;0.833348
9262.000000;0.833629
9261.000000;0.834066
9260.000000;0.834427
9259.000000;0.834573
9258.000000;0.834470
9257.000000;0.834206
9256.000000;0.833982
9255.000000;0.833924
9254.000000;0.833889
9253.000000;0.833606
9252.000000;0.833047
9251.000000;0.832489
9250.000000;0.832119
9249.000000;0.831721
9248.000000;0.830939
9247.000000;0.829783
9246.000000;0.828687
9245.000000;0.828074
9244.000000;0.828051
9243.000000;0.828529
9242.000000;0.829427
9241.000000;0.830594
9240.000000;0.831707
9239.000000;0.832450
9238.000000;0.832738
9237.000000;0.832596
9236.000000;0.831938
9235.000000;0.830719
9234.000000;0.829315
9233.000000;0.828422
9232.000000;0.828412
9231.000000;0.828944
9230.000000;0.829346
9229.000000;0.829258
9228.000000;0.828768
9227.000000;0.828115
9226.000000;0.827490
9225.000000;0.827093
9224.000000;0.827150
9223.000000;0.827733
9222.000000;0.828597
9221.000000;0.829226
9220.000000;0.829117
9219.000000;0.828186
9218.000000;0.826935
9217.000000;0.826074
9216.000000;0.825917
9215.000000;0.826265
9214.000000;0.826867
9213.000000;0.827672
9212.000000;0.828440
9211.000000;0.828490
9210.000000;0.827287
9209.000000;0.825199
9208.000000;0.823282
9207.000000;0.822310
9206.000000;0.822310
9205.000000;0.822936
9204.000000;0.823891
9203.000000;0.824865
9202.000000;0.825459
9201.000000;0.825421
9200.000000;0.824842
9199.000000;0.824006
9198.000000;0.823237
9197.000000;0.822875
9196.000000;0.823097
9195.000000;0.823622
9194.000000;0.823908
9193.000000;0.823803
9192.000000;0.823711
9191.000000;0.823919
9190.000000;0.824086
9189.000000;0.823737
9188.000000;0.822994
9187.000000;0.822387
9186.000000;0.822093
9185.000000;0.821827
9184.000000;0.821461
9183.000000;0.821286
9182.000000;0.821501
9181.000000;0.821800
9180.000000;0.821751
9179.000000;0.821375
9178.000000;0.821096
9177.000000;0.821159
9176.000000;0.821344
9175.000000;0.821267
9174.000000;0.820836
9173.000000;0.820298
9172.000000;0.819925
9171.000000;0.819740
9170.000000;0.819618
9169.000000;0.819539
9168.000000;0.819592
9167.000000;0.819758
9166.000000;0.819862
9165.000000;0.819790
9164.000000;0.819601
9163.000000;0.819337
9162.000000;0.818890
9161.000000;0.818225
9160.000000;0.817589
9159.000000;0.817303
9158.000000;0.817419
9157.000000;0.817741
9156.000000;0.818082
9155.000000;0.818328
9154.000000;0.818353
9153.000000;0.818142
9152.000000;0.817906
9151.000000;0.817808
9150.000000;0.817619
9149.000000;0.816994
9148.000000;0.816085
9147.000000;0.815505
9146.000000;0.815594
9145.000000;0.816072
9144.000000;0.816583
9143.000000;0.817203
9142.000000;0.818065
9141.000000;0.818821
9140.000000;0.818933
9139.000000;0.818417
9138.000000;0.817830
9137.000000;0.817532
9136.000000;0.817353
9135.000000;0.817052
9134.000000;0.816721
9133.000000;0.816569
9132.000000;0.816604
9131.000000;0.816701
9130.000000;0.816757
9129.000000;0.816599
9128.000000;0.816003
9127.000000;0.815072
9126.000000;0.814414
9125.000000;0.814598
9124.000000;0.815478
9123.000000;0.816312
9122.000000;0.816572
9121.000000;0.816359
9120.000000;0.816012
9119.000000;0.815640
9118.000000;0.815175
9117.000000;0.814627
9116.000000;0.814062
9115.000000;0.813450
9114.000000;0.812765
9113.000000;0.812169
9112.000000;0.811908
9111.000000;0.811993
9110.000000;0.812119
9109.000000;0.811912
9108.000000;0.811221
9107.000000;0.810227
9106.000000;0.809370
9105.000000;0.809099
9104.000000;0.809536
9103.000000;0.810388
9102.000000;0.811258
9101.000000;0.811964
9100.000000;0.812465
9099.000000;0.812652
9098.000000;0.812475
9097.000000;0.812201
9096.000000;0.812231
9095.000000;0.812571
9094.000000;0.812786
9093.000000;0.812604
9092.000000;0.812268
9091.000000;0.812108
9090.000000;0.812029
9089.000000;0.811694
9088.000000;0.811057
9087.000000;0.810387
9086.000000;0.809905
9085.000000;0.809682
9084.000000;0.809807
9083.000000;0.810272
9082.000000;0.810699
9081.000000;0.810593
9080.000000;0.810014
9079.000000;0.809680
9078.000000;0.810167
9077.000000;0.811205
9076.000000;0.811976
9075.000000;0.811965
9074.000000;0.811289
9073.000000;0.810321
9072.000000;0.809292
9071.000000;0.808301
9070.000000;0.807501
9069.000000;0.807107
9068.000000;0.807220
9067.000000;0.807654
9066.000000;0.807992
9065.000000;0.807915
9064.000000;0.807515
9063.000000;0.807214
9062.000000;0.807301
9061.000000;0.807629
9060.000000;0.807848
9059.000000;0.807806
9058.000000;0.807608
9057.000000;0.807361
9056.000000;0.807087
9055.000000;0.806878
9054.000000;0.806963
9053.000000;0.807465
