Criado como novo conjunto de dados;"e0108.spp","-4291905.2 Secs"
cm-1;Abs
10000.000000;0.325672
9999.000000;0.324932
9998.000000;0.324091
9997.000000;0.323255
9996.000000;0.322640
9995.000000;0.322504
9994.000000;0.322886
9993.000000;0.323404
9992.000000;0.323611
9991.000000;0.323398
9990.000000;0.322918
9989.000000;0.322233
9988.000000;0.321301
9987.000000;0.320266
9986.000000;0.319493
9985.000000;0.319238
9984.000000;0.319413
9983.000000;0.319652
9982.000000;0.319559
9981.000000;0.318969
9980.000000;0.318140
9979.000000;0.317629
9978.000000;0.317771
9977.000000;0.318306
9976.000000;0.318673
9975.000000;0.318622
9974.000000;0.318315
9973.000000;0.317884
9972.000000;0.317182
9971.000000;0.316076
9970.000000;0.314753
9969.000000;0.313586
9968.000000;0.312817
9967.000000;0.312477
9966.000000;0.312457
9965.000000;0.312535
9964.000000;0.312469
9963.000000;0.312221
9962.000000;0.312030
9961.000000;0.312113
9960.000000;0.312322
9959.000000;0.312231
9958.000000;0.311577
9957.000000;0.310563
9956.000000;0.309706
9955.000000;0.309386
9954.000000;0.309516
9953.000000;0.309632
9952.000000;0.309333
9951.000000;0.308614
9950.000000;0.307773
9949.000000;0.307041
9948.000000;0.306439
9947.000000;0.305925
9946.000000;0.305537
9945.000000;0.305308
9944.000000;0.305197
9943.000000;0.305164
9942.000000;0.305194
9941.000000;0.305152
9940.000000;0.304766
9939.000000;0.303951
9938.000000;0.303091
9937.000000;0.302817
9936.000000;0.303384
9935.000000;0.304317
9934.000000;0.304749
9933.000000;0.304123
9932.000000;0.302649
9931.000000;0.301089
9930.000000;0.300096
9929.000000;0.299745
9928.000000;0.299681
9927.000000;0.299634
9926.000000;0.299622
9925.000000;0.299697
9924.000000;0.299687
9923.000000;0.299368
9922.000000;0.298754
9921.000000;0.298077
9920.000000;0.297522
9919.000000;0.297120
9918.000000;0.296877
9917.000000;0.296835
9916.000000;0.296955
9915.000000;0.297056
9914.000000;0.296904
9913.000000;0.296346
9912.000000;0.295399
9911.000000;0.294328
9910.000000;0.293611
9909.000000;0.293606
9908.000000;0.294152
9907.000000;0.294600
9906.000000;0.294397
9905.000000;0.293614
9904.000000;0.292834
9903.000000;0.292536
9902.000000;0.292648
9901.000000;0.292693
9900.000000;0.292293
9899.000000;0.291508
9898.000000;0.290716
9897.000000;0.290205
9896.000000;0.289909
9895.000000;0.289532
9894.000000;0.288877
9893.000000;0.288019
9892.000000;0.287218
9891.000000;0.286754
9890.000000;0.286788
9889.000000;0.287227
9888.000000;0.287708
9887.000000;0.287858
9886.000000;0.287637
9885.000000;0.287302
9884.000000;0.286998
9883.000000;0.286543
9882.000000;0.285742
9881.000000;0.284764
9880.000000;0.284014
9879.000000;0.283688
9878.000000;0.283631
9877.000000;0.283580
9876.000000;0.283386
9875.000000;0.283018
9874.000000;0.282557
9873.000000;0.282183
9872.000000;0.281999
9871.000000;0.281835
9870.000000;0.281398
9869.000000;0.280664
9868.000000;0.279951
9867.000000;0.279537
9866.000000;0.279362
9865.000000;0.279211
9864.000000;0.278982
9863.000000;0.278669
9862.000000;0.278235
9861.000000;0.277704
9860.000000;0.277257
9859.000000;0.277034
9858.000000;0.276930
9857.000000;0.276774
9856.000000;0.276657
9855.000000;0.276829
9854.000000;0.277260
9853.000000;0.277562
9852.000000;0.277447
9851.000000;0.277083
9850.000000;0.276830
9849.000000;0.276753
9848.000000;0.276551
9847.000000;0.275941
9846.000000;0.274992
9845.000000;0.274061
9844.000000;0.273516
9843.000000;0.273490
9842.000000;0.273782
9841.000000;0.273939
9840.000000;0.273513
9839.000000;0.272418
9838.000000;0.271079
9837.000000;0.270151
9836.000000;0.269962
9835.000000;0.270227
9834.000000;0.270329
9833.000000;0.269896
9832.000000;0.269064
9831.000000;0.268239
9830.000000;0.267720
9829.000000;0.267526
9828.000000;0.267445
9827.000000;0.267211
9826.000000;0.266758
9825.000000;0.266327
9824.000000;0.266203
9823.000000;0.266276
9822.000000;0.266064
9821.000000;0.265319
9820.000000;0.264428
9819.000000;0.263972
9818.000000;0.264030
9817.000000;0.264159
9816.000000;0.263998
9815.000000;0.263587
9814.000000;0.263100
9813.000000;0.262586
9812.000000;0.262113
9811.000000;0.261867
9810.000000;0.261942
9809.000000;0.262159
9808.000000;0.262262
9807.000000;0.262180
9806.000000;0.261997
9805.000000;0.261777
9804.000000;0.261534
9803.000000;0.261268
9802.000000;0.260891
9801.000000;0.260255
9800.000000;0.259385
9799.000000;0.258571
9798.000000;0.258073
9797.000000;0.257817
9796.000000;0.257561
9795.000000;0.257280
9794.000000;0.257170
9793.000000;0.257307
9792.000000;0.257492
9791.000000;0.257506
9790.000000;0.257351
9789.000000;0.257191
9788.000000;0.257149
9787.000000;0.257221
9786.000000;0.257305
9785.000000;0.257242
9784.000000;0.256885
9783.000000;0.256198
9782.000000;0.255295
9781.000000;0.254360
9780.000000;0.253517
9779.000000;0.252776
9778.000000;0.252110
9777.000000;0.251595
9776.000000;0.251431
9775.000000;0.251706
9774.000000;0.252167
9773.000000;0.252369
9772.000000;0.252122
9771.000000;0.251660
9770.000000;0.251257
9769.000000;0.250845
9768.000000;0.250200
9767.000000;0.249395
9766.000000;0.248793
9765.000000;0.248584
9764.000000;0.248560
9763.000000;0.248417
9762.000000;0.248090
9761.000000;0.247692
9760.000000;0.247320
9759.000000;0.247039
9758.000000;0.246935
9757.000000;0.247025
9756.000000;0.247164
9755.000000;0.247157
9754.000000;0.246937
9753.000000;0.246540
9752.000000;0.245982
9751.000000;0.245267
9750.000000;0.244465
9749.000000;0.243690
9748.000000;0.243019
9747.000000;0.242514
9746.000000;0.242264
9745.000000;0.242277
9744.000000;0.242360
9743.000000;0.242254
9742.000000;0.241954
9741.000000;0.241755
9740.000000;0.241887
9739.000000;0.242179
9738.000000;0.242202
9737.000000;0.241702
9736.000000;0.240824
9735.000000;0.239933
9734.000000;0.239315
9733.000000;0.239052
9732.000000;0.239070
9731.000000;0.239196
9730.000000;0.239216
9729.000000;0.239000
9728.000000;0.238592
9727.000000;0.238128
9726.000000;0.237645
9725.000000;0.237067
9724.000000;0.236433
9723.000000;0.235990
9722.000000;0.235917
9721.000000;0.235989
9720.000000;0.235733
9719.000000;0.234985
9718.000000;0.234157
9717.000000;0.233820
9716.000000;0.234058
9715.000000;0.234385
9714.000000;0.234287
9713.000000;0.233748
9712.000000;0.233227
9711.000000;0.233171
9710.000000;0.233582
9709.000000;0.234005
9708.000000;0.233953
9707.000000;0.233368
9706.000000;0.232675
9705.000000;0.232361
9704.000000;0.232463
9703.000000;0.232542
9702.000000;0.232131
9701.000000;0.231195
9700.000000;0.230116
9699.000000;0.229308
9698.000000;0.228875
9697.000000;0.228626
9696.000000;0.228392
9695.000000;0.228289
9694.000000;0.228621
9693.000000;0.229437
9692.000000;0.230253
9691.000000;0.230367
9690.000000;0.229521
9689.000000;0.228154
9688.000000;0.226941
9687.000000;0.226204
9686.000000;0.225855
9685.000000;0.225729
9684.000000;0.225729
9683.000000;0.225690
9682.000000;0.225381
9681.000000;0.224776
9680.000000;0.224159
9679.000000;0.223831
9678.000000;0.223798
9677.000000;0.223841
9676.000000;0.223796
9675.000000;0.223655
9674.000000;0.223450
9673.000000;0.223189
9672.000000;0.222889
9671.000000;0.222585
9670.000000;0.222274
9669.000000;0.221909
9668.000000;0.221462
9667.000000;0.220966
9666.000000;0.220526
9665.000000;0.220280
9664.000000;0.220260
9663.000000;0.220272
9662.000000;0.220004
9661.000000;0.219381
9660.000000;0.218689
9659.000000;0.218222
9658.000000;0.217894
9657.000000;0.217409
9656.000000;0.216784
9655.000000;0.216430
9654.000000;0.216626
9653.000000;0.217150
9652.000000;0.217572
9651.000000;0.217710
9650.000000;0.217600
9649.000000;0.217182
9648.000000;0.216343
9647.000000;0.215255
9646.000000;0.214390
9645.000000;0.214063
9644.000000;0.214135
9643.000000;0.214254
9642.000000;0.214239
9641.000000;0.214112
9640.000000;0.213869
9639.000000;0.213442
9638.000000;0.212871
9637.000000;0.212359
9636.000000;0.212106
9635.000000;0.212126
9634.000000;0.212264
9633.000000;0.212295
9632.000000;0.212020
9631.000000;0.211376
9630.000000;0.210543
9629.000000;0.209874
9628.000000;0.209597
9627.000000;0.209595
9626.000000;0.209548
9625.000000;0.209260
9624.000000;0.208788
9623.000000;0.208285
9622.000000;0.207858
9621.000000;0.207609
9620.000000;0.207663
9619.000000;0.208006
9618.000000;0.208380
9617.000000;0.208480
9616.000000;0.208271
9615.000000;0.207990
9614.000000;0.207817
9613.000000;0.207643
9612.000000;0.207225
9611.000000;0.206469
9610.000000;0.205502
9609.000000;0.204556
9608.000000;0.203848
9607.000000;0.203514
9606.000000;0.203532
9605.000000;0.203720
9604.000000;0.203872
9603.000000;0.203888
9602.000000;0.203733
9601.000000;0.203323
9600.000000;0.202621
9599.000000;0.201840
9598.000000;0.201405
9597.000000;0.201553
9596.000000;0.202023
9595.000000;0.202245
9594.000000;0.201853
9593.000000;0.200979
9592.000000;0.200070
9591.000000;0.199490
9590.000000;0.199302
9589.000000;0.199336
9588.000000;0.199375
9587.000000;0.199303
9586.000000;0.199113
9585.000000;0.198856
9584.000000;0.198584
9583.000000;0.198352
9582.000000;0.198231
9581.000000;0.198265
9580.000000;0.198379
9579.000000;0.198375
9578.000000;0.198069
9577.000000;0.197443
9576.000000;0.196657
9575.000000;0.195908
9574.000000;0.195310
9573.000000;0.194902
9572.000000;0.194704
9571.000000;0.194690
9570.000000;0.194722
9569.000000;0.194603
9568.000000;0.194246
9567.000000;0.193750
9566.000000;0.193285
9565.000000;0.192926
9564.000000;0.192679
9563.000000;0.192633
9562.000000;0.192923
9561.000000;0.193475
9560.000000;0.193870
9559.000000;0.193631
9558.000000;0.192688
9557.000000;0.191496
9556.000000;0.190657
9555.000000;0.190446
9554.000000;0.190671
9553.000000;0.190893
9552.000000;0.190747
9551.000000;0.190153
9550.000000;0.189345
9549.000000;0.188699
9548.000000;0.188437
9547.000000;0.188441
9546.000000;0.188377
9545.000000;0.187997
9544.000000;0.187321
9543.000000;0.186571
9542.000000;0.186002
9541.000000;0.185758
9540.000000;0.185816
9539.000000;0.186029
9538.000000;0.186258
9537.000000;0.186482
9536.000000;0.186733
9535.000000;0.186961
9534.000000;0.187039
9533.000000;0.186913
9532.000000;0.186648
9531.000000;0.186284
9530.000000;0.185769
9529.000000;0.185124
9528.000000;0.184570
9527.000000;0.184358
9526.000000;0.184499
9525.000000;0.184765
9524.000000;0.184929
9523.000000;0.184855
9522.000000;0.184393
9521.000000;0.183434
9520.000000;0.182192
9519.000000;0.181238
9518.000000;0.181023
9517.000000;0.181406
9516.000000;0.181840
9515.000000;0.181997
9514.000000;0.182021
9513.000000;0.182126
9512.000000;0.182184
9511.000000;0.181889
9510.000000;0.181241
9509.000000;0.180643
9508.000000;0.180484
9507.000000;0.180717
9506.000000;0.180912
9505.000000;0.180689
9504.000000;0.180066
9503.000000;0.179420
9502.000000;0.179109
9501.000000;0.179147
9500.000000;0.179265
9499.000000;0.179263
9498.000000;0.179172
9497.000000;0.179039
9496.000000;0.178739
9495.000000;0.178180
9494.000000;0.177588
9493.000000;0.177312
9492.000000;0.177311
9491.000000;0.177147
9490.000000;0.176583
9489.000000;0.175945
9488.000000;0.175671
9487.000000;0.175694
9486.000000;0.175570
9485.000000;0.175124
9484.000000;0.174673
9483.000000;0.174543
9482.000000;0.174642
9481.000000;0.174627
9480.000000;0.174312
9479.000000;0.173775
9478.000000;0.173169
9477.000000;0.172597
9476.000000;0.172132
9475.000000;0.171850
9474.000000;0.171804
9473.000000;0.171942
9472.000000;0.172031
9471.000000;0.171739
9470.000000;0.170943
9469.000000;0.169975
9468.000000;0.169432
9467.000000;0.169654
9466.000000;0.170405
9465.000000;0.171099
9464.000000;0.171246
9463.000000;0.170699
9462.000000;0.169670
9461.000000;0.168620
9460.000000;0.167998
9459.000000;0.167935
9458.000000;0.168188
9457.000000;0.168427
9456.000000;0.168513
9455.000000;0.168464
9454.000000;0.168308
9453.000000;0.168114
9452.000000;0.168051
9451.000000;0.168218
9450.000000;0.168444
9449.000000;0.168396
9448.000000;0.167929
9447.000000;0.167227
9446.000000;0.166622
9445.000000;0.166356
9444.000000;0.166488
9443.000000;0.166872
9442.000000;0.167160
9441.000000;0.166969
9440.000000;0.166177
9439.000000;0.165098
9438.000000;0.164285
9437.000000;0.164106
9436.000000;0.164436
9435.000000;0.164773
9434.000000;0.164684
9433.000000;0.164172
9432.000000;0.163593
9431.000000;0.163255
9430.000000;0.163182
9429.000000;0.163234
9428.000000;0.163284
9427.000000;0.163231
9426.000000;0.163013
9425.000000;0.162713
9424.000000;0.162533
9423.000000;0.162508
9422.000000;0.162368
9421.000000;0.161866
9420.000000;0.161151
9419.000000;0.160641
9418.000000;0.160553
9417.000000;0.160757
9416.000000;0.161032
9415.000000;0.161244
9414.000000;0.161243
9413.000000;0.160855
9412.000000;0.160113
9411.000000;0.159332
9410.000000;0.158800
9409.000000;0.158478
9408.000000;0.158145
9407.000000;0.157770
9406.000000;0.157571
9405.000000;0.157710
9404.000000;0.158020
9403.000000;0.158127
9402.000000;0.157813
9401.000000;0.157214
9400.000000;0.156640
9399.000000;0.156233
9398.000000;0.155881
9397.000000;0.155462
9396.000000;0.155045
9395.000000;0.154787
9394.000000;0.154750
9393.000000;0.154925
9392.000000;0.155337
9391.000000;0.155935
9390.000000;0.156453
9389.000000;0.156564
9388.000000;0.156198
9387.000000;0.155575
9386.000000;0.154955
9385.000000;0.154493
9384.000000;0.154272
9383.000000;0.154236
9382.000000;0.154108
9381.000000;0.153617
9380.000000;0.152885
9379.000000;0.152327
9378.000000;0.152120
9377.000000;0.152033
9376.000000;0.151874
9375.000000;0.151836
9374.000000;0.152149
9373.000000;0.152657
9372.000000;0.153000
9371.000000;0.153095
9370.000000;0.153121
9369.000000;0.153131
9368.000000;0.152971
9367.000000;0.152567
9366.000000;0.152010
9365.000000;0.151339
9364.000000;0.150486
9363.000000;0.149538
9362.000000;0.148840
9361.000000;0.148704
9360.000000;0.149109
9359.000000;0.149749
9358.000000;0.150256
9357.000000;0.150358
9356.000000;0.149975
9355.000000;0.149300
9354.000000;0.148699
9353.000000;0.148413
9352.000000;0.148370
9351.000000;0.148326
9350.000000;0.148104
9349.000000;0.147648
9348.000000;0.146963
9347.000000;0.146144
9346.000000;0.145426
9345.000000;0.145080
9344.000000;0.145173
9343.000000;0.145491
9342.000000;0.145748
9341.000000;0.145851
9340.000000;0.145944
9339.000000;0.146185
9338.000000;0.146529
9337.000000;0.146763
9336.000000;0.146738
9335.000000;0.146482
9334.000000;0.146109
9333.000000;0.145697
9332.000000;0.145287
9331.000000;0.144924
9330.000000;0.144634
9329.000000;0.144408
9328.000000;0.144240
9327.000000;0.144141
9326.000000;0.144037
9325.000000;0.143762
9324.000000;0.143268
9323.000000;0.142770
9322.000000;0.142555
9321.000000;0.142655
9320.000000;0.142832
9319.000000;0.142877
9318.000000;0.142782
9317.000000;0.142637
9316.000000;0.142495
9315.000000;0.142387
9314.000000;0.142307
9313.000000;0.142120
9312.000000;0.141624
9311.000000;0.140822
9310.000000;0.140035
9309.000000;0.139610
9308.000000;0.139578
9307.000000;0.139697
9306.000000;0.139763
9305.000000;0.139769
9304.000000;0.139802
9303.000000;0.139923
9302.000000;0.140114
9301.000000;0.140242
9300.000000;0.140084
9299.000000;0.139520
9298.000000;0.138741
9297.000000;0.138161
9296.000000;0.138071
9295.000000;0.138414
9294.000000;0.138866
9293.000000;0.139073
9292.000000;0.138839
9291.000000;0.138251
9290.000000;0.137677
9289.000000;0.137496
9288.000000;0.137701
9287.000000;0.137874
9286.000000;0.137664
9285.000000;0.137184
9284.000000;0.136808
9283.000000;0.136671
9282.000000;0.136579
9281.000000;0.136397
9280.000000;0.136247
9279.000000;0.136250
9278.000000;0.136262
9277.000000;0.136071
9276.000000;0.135734
9275.000000;0.135516
9274.000000;0.135525
9273.000000;0.135583
9272.000000;0.135458
9271.000000;0.135100
9270.000000;0.134620
9269.000000;0.134168
9268.000000;0.133867
9267.000000;0.133774
9266.000000;0.133798
9265.000000;0.133731
9264.000000;0.133429
9263.000000;0.132961
9262.000000;0.132579
9261.000000;0.132543
9260.000000;0.132948
9259.000000;0.133609
9258.000000;0.134083
9257.000000;0.133930
9256.000000;0.133088
9255.000000;0.131962
9254.000000;0.131085
9253.000000;0.130693
9252.000000;0.130656
9251.000000;0.130732
9250.000000;0.130783
9249.000000;0.130759
9248.000000;0.130600
9247.000000;0.130253
9246.000000;0.129763
9245.000000;0.129313
9244.000000;0.129135
9243.000000;0.129322
9242.000000;0.129732
9241.000000;0.130104
9240.000000;0.130316
9239.000000;0.130476
9238.000000;0.130718
9237.000000;0.130968
9236.000000;0.131016
9235.000000;0.130794
9234.000000;0.130488
9233.000000;0.130331
9232.000000;0.130361
9231.000000;0.130414
9230.000000;0.130319
9229.000000;0.130038
9228.000000;0.129632
9227.000000;0.129146
9226.000000;0.128570
9225.000000;0.127918
9224.000000;0.127326
9223.000000;0.127011
9222.000000;0.127076
9221.000000;0.127365
9220.000000;0.127554
9219.000000;0.127422
9218.000000;0.127024
9217.000000;0.126616
9216.000000;0.126431
9215.000000;0.126522
9214.000000;0.126773
9213.000000;0.127028
9212.000000;0.127197
9211.000000;0.127234
9210.000000;0.127063
9209.000000;0.126627
9208.000000;0.126064
9207.000000;0.125748
9206.000000;0.125986
9205.000000;0.126635
9204.000000;0.127135
9203.000000;0.127020
9202.000000;0.126366
9201.000000;0.125627
9200.000000;0.125101
9199.000000;0.124689
9198.000000;0.124215
9197.000000;0.123782
9196.000000;0.123668
9195.000000;0.123957
9194.000000;0.124441
9193.000000;0.124881
9192.000000;0.125177
9191.000000;0.125265
9190.000000;0.125046
9189.000000;0.124555
9188.000000;0.124078
9187.000000;0.123865
9186.000000;0.123794
9185.000000;0.123510
9184.000000;0.122914
9183.000000;0.122316
9182.000000;0.122037
9181.000000;0.122034
9180.000000;0.122043
9179.000000;0.121934
9178.000000;0.121772
9177.000000;0.121609
9176.000000;0.121391
9175.000000;0.121087
9174.000000;0.120791
9173.000000;0.120637
9172.000000;0.120665
9171.000000;0.120760
9170.000000;0.120714
9169.000000;0.120400
9168.000000;0.119932
9167.000000;0.119603
9166.000000;0.119600
9165.000000;0.119831
9164.000000;0.120079
9163.000000;0.120256
9162.000000;0.120391
9161.000000;0.120451
9160.000000;0.120368
9159.000000;0.120215
9158.000000;0.120198
9157.000000;0.120380
9156.000000;0.120545
9155.000000;0.120421
9154.000000;0.119982
9153.000000;0.119465
9152.000000;0.119120
9151.000000;0.119000
9150.000000;0.118966
9149.000000;0.118850
9148.000000;0.118616
9147.000000;0.118384
9146.000000;0.118284
9145.000000;0.118308
9144.000000;0.118344
9143.000000;0.118303
9142.000000;0.118149
9141.000000;0.117829
9140.000000;0.117332
9139.000000;0.116831
9138.000000;0.116631
9137.000000;0.116846
9136.000000;0.117218
9135.000000;0.117373
9134.000000;0.117207
9133.000000;0.116916
9132.000000;0.116689
9131.000000;0.116522
9130.000000;0.116342
9129.000000;0.116190
9128.000000;0.116156
9127.000000;0.116229
9126.000000;0.116296
9125.000000;0.116301
9124.000000;0.116294
9123.000000;0.116309
9122.000000;0.116260
9121.000000;0.116041
9120.000000;0.115690
9119.000000;0.115387
9118.000000;0.115257
9117.000000;0.115261
9116.000000;0.115290
9115.000000;0.115304
9114.000000;0.115303
9113.000000;0.115233
9112.000000;0.115013
9111.000000;0.114669
9110.000000;0.114337
9109.000000;0.114093
9108.000000;0.113864
9107.000000;0.113543
9106.000000;0.113155
9105.000000;0.112843
9104.000000;0.112721
9103.000000;0.112798
9102.000000;0.113023
9101.000000;0.113333
9100.000000;0.113633
9099.000000;0.113804
9098.000000;0.113781
9097.000000;0.113610
9096.000000;0.113413
9095.000000;0.113293
9094.000000;0.113279
9093.000000;0.113324
9092.000000;0.113300
9091.000000;0.113053
9090.000000;0.112527
9089.000000;0.111883
9088.000000;0.111407
9087.000000;0.111271
9086.000000;0.111404
9085.000000;0.111622
9084.000000;0.111794
9083.000000;0.111838
9082.000000;0.111684
9081.000000;0.111384
9080.000000;0.111205
9079.000000;0.111421
9078.000000;0.111976
9077.000000;0.112504
9076.000000;0.112714
9075.000000;0.112619
9074.000000;0.112352
9073.000000;0.111935
9072.000000;0.111357
9071.000000;0.110754
9070.000000;0.110354
9069.000000;0.110264
9068.000000;0.110407
9067.000000;0.110614
9066.000000;0.110713
9065.000000;0.110602
9064.000000;0.110349
9063.000000;0.110152
9062.000000;0.110109
9061.000000;0.110074
9060.000000;0.109861
9059.000000;0.109511
9058.000000;0.109236
9057.000000;0.109138
9056.000000;0.109148
9055.000000;0.109173
9054.000000;0.109170
9053.000000;0.109099
