Criado como novo conjunto de dados;"e0108.spp","-4257883.6 Secs"
cm-1;Abs
10000.000000;1.052425
9999.000000;1.051740
9998.000000;1.051055
9997.000000;1.050371
9996.000000;1.049689
9995.000000;1.049006
9994.000000;1.048329
9993.000000;1.047644
9992.000000;1.046977
9991.000000;1.046280
9990.000000;1.045645
9989.000000;1.044792
9988.000000;1.043976
9987.000000;1.043714
9986.000000;1.043628
9985.000000;1.042996
9984.000000;1.041444
9983.000000;1.039425
9982.000000;1.037796
9981.000000;1.037195
9980.000000;1.037772
9979.000000;1.039341
9978.000000;1.041656
9977.000000;1.044524
9976.000000;1.047535
9975.000000;1.049682
9974.000000;1.049618
9973.000000;1.046795
9972.000000;1.042370
9971.000000;1.038551
9970.000000;1.036895
9969.000000;1.037340
9968.000000;1.038723
9967.000000;1.039910
9966.000000;1.040365
9965.000000;1.040045
9964.000000;1.039229
9963.000000;1.038427
9962.000000;1.038132
9961.000000;1.038451
9960.000000;1.039016
9959.000000;1.039214
9958.000000;1.038530
9957.000000;1.036864
9956.000000;1.034689
9955.000000;1.032797
9954.000000;1.031712
9953.000000;1.031358
9952.000000;1.031383
9951.000000;1.031691
9950.000000;1.032397
9949.000000;1.033219
9948.000000;1.033236
9947.000000;1.031585
9946.000000;1.028481
9945.000000;1.025381
9944.000000;1.023952
9943.000000;1.024796
9942.000000;1.027058
9941.000000;1.029147
9940.000000;1.029862
9939.000000;1.029056
9938.000000;1.027549
9937.000000;1.026526
9936.000000;1.026727
9935.000000;1.027848
9934.000000;1.028680
9933.000000;1.028077
9932.000000;1.025993
9931.000000;1.023580
9930.000000;1.022238
9929.000000;1.022612
9928.000000;1.024311
9927.000000;1.026274
9926.000000;1.027372
9925.000000;1.026950
9924.000000;1.025125
9923.000000;1.022644
9922.000000;1.020436
9921.000000;1.019201
9920.000000;1.019238
9919.000000;1.020390
9918.000000;1.022087
9917.000000;1.023583
9916.000000;1.024333
9915.000000;1.024251
9914.000000;1.023673
9913.000000;1.023069
9912.000000;1.022661
9911.000000;1.022164
9910.000000;1.020980
9909.000000;1.018845
9908.000000;1.016368
9907.000000;1.014743
9906.000000;1.014737
9905.000000;1.015963
9904.000000;1.017144
9903.000000;1.017158
9902.000000;1.015878
9901.000000;1.014079
9900.000000;1.012677
9899.000000;1.012133
9898.000000;1.012437
9897.000000;1.013388
9896.000000;1.014679
9895.000000;1.015843
9894.000000;1.016507
9893.000000;1.016812
9892.000000;1.017271
9891.000000;1.017898
9890.000000;1.017707
9889.000000;1.015626
9888.000000;1.011957
9887.000000;1.008434
9886.000000;1.006583
9885.000000;1.006321
9884.000000;1.006361
9883.000000;1.005820
9882.000000;1.005112
9881.000000;1.005251
9880.000000;1.006618
9879.000000;1.008566
9878.000000;1.010083
9877.000000;1.010612
9876.000000;1.010231
9875.000000;1.009268
9874.000000;1.008017
9873.000000;1.006827
9872.000000;1.006149
9871.000000;1.006129
9870.000000;1.006239
9869.000000;1.005675
9868.000000;1.004275
9867.000000;1.002793
9866.000000;1.002138
9865.000000;1.002534
9864.000000;1.003535
9863.000000;1.004625
9862.000000;1.005515
9861.000000;1.006001
9860.000000;1.005919
9859.000000;1.005355
9858.000000;1.004673
9857.000000;1.004208
9856.000000;1.004004
9855.000000;1.003863
9854.000000;1.003511
9853.000000;1.002698
9852.000000;1.001410
9851.000000;1.000113
9850.000000;0.999542
9849.000000;0.999974
9848.000000;1.000783
9847.000000;1.000997
9846.000000;1.000305
9845.000000;0.999270
9844.000000;0.998543
9843.000000;0.998160
9842.000000;0.997737
9841.000000;0.997024
9840.000000;0.996008
9839.000000;0.994771
9838.000000;0.993628
9837.000000;0.993278
9836.000000;0.994306
9835.000000;0.996373
9834.000000;0.998212
9833.000000;0.998618
9832.000000;0.997300
9831.000000;0.994806
9830.000000;0.992009
9829.000000;0.989840
9828.000000;0.989040
9827.000000;0.989622
9826.000000;0.990685
9825.000000;0.991142
9824.000000;0.990656
9823.000000;0.989682
9822.000000;0.988735
9821.000000;0.988009
9820.000000;0.987601
9819.000000;0.987586
9818.000000;0.987753
9817.000000;0.987670
9816.000000;0.987206
9815.000000;0.986682
9814.000000;0.986375
9813.000000;0.986177
9812.000000;0.985948
9811.000000;0.985871
9810.000000;0.986159
9809.000000;0.986595
9808.000000;0.986691
9807.000000;0.986240
9806.000000;0.985502
9805.000000;0.984898
9804.000000;0.984696
9803.000000;0.984870
9802.000000;0.985057
9801.000000;0.984770
9800.000000;0.983875
9799.000000;0.982750
9798.000000;0.981797
9797.000000;0.980950
9796.000000;0.979960
9795.000000;0.979004
9794.000000;0.978538
9793.000000;0.978588
9792.000000;0.978640
9791.000000;0.978374
9790.000000;0.978068
9789.000000;0.978111
9788.000000;0.978462
9787.000000;0.978906
9786.000000;0.979500
9785.000000;0.980314
9784.000000;0.980870
9783.000000;0.980401
9782.000000;0.978777
9781.000000;0.976807
9780.000000;0.975455
9779.000000;0.975022
9778.000000;0.975195
9777.000000;0.975563
9776.000000;0.975841
9775.000000;0.975816
9774.000000;0.975472
9773.000000;0.975122
9772.000000;0.975141
9771.000000;0.975473
9770.000000;0.975580
9769.000000;0.975056
9768.000000;0.974211
9767.000000;0.973865
9766.000000;0.974502
9765.000000;0.975650
9764.000000;0.976157
9763.000000;0.975132
9762.000000;0.972684
9761.000000;0.969768
9760.000000;0.967427
9759.000000;0.966292
9758.000000;0.966646
9757.000000;0.968477
9756.000000;0.971188
9755.000000;0.973555
9754.000000;0.974453
9753.000000;0.973695
9752.000000;0.971939
9751.000000;0.969878
9750.000000;0.967897
9749.000000;0.966389
9748.000000;0.965816
9747.000000;0.966191
9746.000000;0.966894
9745.000000;0.967324
9744.000000;0.967455
9743.000000;0.967527
9742.000000;0.967519
9741.000000;0.967295
9740.000000;0.966994
9739.000000;0.966761
9738.000000;0.966251
9737.000000;0.965014
9736.000000;0.963393
9735.000000;0.962426
9734.000000;0.962627
9733.000000;0.963350
9732.000000;0.963662
9731.000000;0.963487
9730.000000;0.963491
9729.000000;0.964074
9728.000000;0.964881
9727.000000;0.965230
9726.000000;0.964705
9725.000000;0.963377
9724.000000;0.961690
9723.000000;0.960152
9722.000000;0.958984
9721.000000;0.958056
9720.000000;0.957271
9719.000000;0.956855
9718.000000;0.957089
9717.000000;0.957859
9716.000000;0.958724
9715.000000;0.959393
9714.000000;0.959894
9713.000000;0.960252
9712.000000;0.960314
9711.000000;0.959953
9710.000000;0.959257
9709.000000;0.958391
9708.000000;0.957413
9707.000000;0.956314
9706.000000;0.955138
9705.000000;0.953999
9704.000000;0.953060
9703.000000;0.952499
9702.000000;0.952405
9701.000000;0.952625
9700.000000;0.952813
9699.000000;0.952723
9698.000000;0.952377
9697.000000;0.951924
9696.000000;0.951470
9695.000000;0.951123
9694.000000;0.951022
9693.000000;0.951216
9692.000000;0.951574
9691.000000;0.951890
9690.000000;0.951966
9689.000000;0.951542
9688.000000;0.950381
9687.000000;0.948613
9686.000000;0.946864
9685.000000;0.945777
9684.000000;0.945448
9683.000000;0.945501
9682.000000;0.945681
9681.000000;0.946122
9680.000000;0.946943
9679.000000;0.947829
9678.000000;0.948201
9677.000000;0.947739
9676.000000;0.946622
9675.000000;0.945321
9674.000000;0.944259
9673.000000;0.943589
9672.000000;0.943159
9671.000000;0.942682
9670.000000;0.942010
9669.000000;0.941269
9668.000000;0.940733
9667.000000;0.940651
9666.000000;0.941173
9665.000000;0.942280
9664.000000;0.943654
9663.000000;0.944750
9662.000000;0.945223
9661.000000;0.945247
9660.000000;0.945228
9659.000000;0.945188
9658.000000;0.944666
9657.000000;0.943350
9656.000000;0.941651
9655.000000;0.940460
9654.000000;0.940348
9653.000000;0.941100
9652.000000;0.941924
9651.000000;0.942003
9650.000000;0.940950
9649.000000;0.939012
9648.000000;0.936952
9647.000000;0.935570
9646.000000;0.935137
9645.000000;0.935290
9644.000000;0.935532
9643.000000;0.935801
9642.000000;0.936415
9641.000000;0.937440
9640.000000;0.938294
9639.000000;0.938162
9638.000000;0.936776
9637.000000;0.934706
9636.000000;0.932933
9635.000000;0.932222
9634.000000;0.932772
9633.000000;0.934123
9632.000000;0.935314
9631.000000;0.935431
9630.000000;0.934349
9629.000000;0.932944
9628.000000;0.932351
9627.000000;0.932949
9626.000000;0.934121
9625.000000;0.934928
9624.000000;0.934859
9623.000000;0.933995
9622.000000;0.932744
9621.000000;0.931659
9620.000000;0.931325
9619.000000;0.932024
9618.000000;0.933328
9617.000000;0.934179
9616.000000;0.933657
9615.000000;0.931822
9614.000000;0.929754
9613.000000;0.928643
9612.000000;0.928792
9611.000000;0.929484
9610.000000;0.929820
9609.000000;0.929625
9608.000000;0.929425
9607.000000;0.929619
9606.000000;0.929983
9605.000000;0.930040
9604.000000;0.929641
9603.000000;0.928940
9602.000000;0.927990
9601.000000;0.926700
9600.000000;0.925204
9599.000000;0.923955
9598.000000;0.923322
9597.000000;0.923255
9596.000000;0.923424
9595.000000;0.923513
9594.000000;0.923291
9593.000000;0.922636
9592.000000;0.921719
9591.000000;0.921010
9590.000000;0.920826
9589.000000;0.920948
9588.000000;0.920907
9587.000000;0.920610
9586.000000;0.920420
9585.000000;0.920612
9584.000000;0.921019
9583.000000;0.921365
9582.000000;0.921658
9581.000000;0.921984
9580.000000;0.922095
9579.000000;0.921561
9578.000000;0.920350
9577.000000;0.918946
9576.000000;0.917770
9575.000000;0.916784
9574.000000;0.915875
9573.000000;0.915412
9572.000000;0.915998
9571.000000;0.917607
9570.000000;0.919226
9569.000000;0.919636
9568.000000;0.918546
9567.000000;0.916774
9566.000000;0.915313
9565.000000;0.914447
9564.000000;0.913898
9563.000000;0.913583
9562.000000;0.913886
9561.000000;0.915077
9560.000000;0.916688
9559.000000;0.917660
9558.000000;0.917157
9557.000000;0.915242
9556.000000;0.912845
9555.000000;0.911165
9554.000000;0.910898
9553.000000;0.911772
9552.000000;0.912768
9551.000000;0.913002
9550.000000;0.912494
9549.000000;0.911974
9548.000000;0.911932
9547.000000;0.912073
9546.000000;0.911777
9545.000000;0.910905
9544.000000;0.909918
9543.000000;0.909308
9542.000000;0.909138
9541.000000;0.909162
9540.000000;0.909207
9539.000000;0.909312
9538.000000;0.909580
9537.000000;0.909993
9536.000000;0.910383
9535.000000;0.910521
9534.000000;0.910255
9533.000000;0.909597
9532.000000;0.908752
9531.000000;0.908008
9530.000000;0.907506
9529.000000;0.907069
9528.000000;0.906362
9527.000000;0.905366
9526.000000;0.904613
9525.000000;0.904695
9524.000000;0.905502
9523.000000;0.906134
9522.000000;0.905680
9521.000000;0.904076
9520.000000;0.902141
9519.000000;0.900905
9518.000000;0.900929
9517.000000;0.902054
9516.000000;0.903607
9515.000000;0.904899
9514.000000;0.905645
9513.000000;0.905906
9512.000000;0.905670
9511.000000;0.904714
9510.000000;0.903085
9509.000000;0.901506
9508.000000;0.900887
9507.000000;0.901406
9506.000000;0.902332
9505.000000;0.902855
9504.000000;0.902874
9503.000000;0.902824
9502.000000;0.902918
9501.000000;0.902837
9500.000000;0.902194
9499.000000;0.901085
9498.000000;0.899995
9497.000000;0.899253
9496.000000;0.898778
9495.000000;0.898428
9494.000000;0.898343
9493.000000;0.898665
9492.000000;0.899049
9491.000000;0.898898
9490.000000;0.898164
9489.000000;0.897509
9488.000000;0.897446
9487.000000;0.897675
9486.000000;0.897610
9485.000000;0.897229
9484.000000;0.896966
9483.000000;0.896974
9482.000000;0.897040
9481.000000;0.897116
9480.000000;0.897315
9479.000000;0.897401
9478.000000;0.896891
9477.000000;0.895823
9476.000000;0.894899
9475.000000;0.894632
9474.000000;0.894820
9473.000000;0.895068
9472.000000;0.895327
9471.000000;0.895560
9470.000000;0.895368
9469.000000;0.894439
9468.000000;0.893140
9467.000000;0.892131
9466.000000;0.891603
9465.000000;0.891312
9464.000000;0.891191
9463.000000;0.891438
9462.000000;0.892108
9461.000000;0.893010
9460.000000;0.893953
9459.000000;0.894714
9458.000000;0.894871
9457.000000;0.894129
9456.000000;0.892833
9455.000000;0.891724
9454.000000;0.891148
9453.000000;0.890856
9452.000000;0.890560
9451.000000;0.890238
9450.000000;0.889848
9449.000000;0.889244
9448.000000;0.888581
9447.000000;0.888365
9446.000000;0.888818
9445.000000;0.889496
9444.000000;0.889816
9443.000000;0.889678
9442.000000;0.889282
9441.000000;0.888620
9440.000000;0.887591
9439.000000;0.886477
9438.000000;0.885892
9437.000000;0.886141
9436.000000;0.886896
9435.000000;0.887601
9434.000000;0.887996
9433.000000;0.888169
9432.000000;0.888215
9431.000000;0.888015
9430.000000;0.887366
9429.000000;0.886274
9428.000000;0.885029
9427.000000;0.883953
9426.000000;0.883140
9425.000000;0.882542
9424.000000;0.882227
9423.000000;0.882367
9422.000000;0.882941
9421.000000;0.883680
9420.000000;0.884329
9419.000000;0.884723
9418.000000;0.884578
9417.000000;0.883619
9416.000000;0.882130
9415.000000;0.881034
9414.000000;0.881008
9413.000000;0.881658
9412.000000;0.881913
9411.000000;0.881223
9410.000000;0.880021
9409.000000;0.878995
9408.000000;0.878327
9407.000000;0.877849
9406.000000;0.877637
9405.000000;0.878036
9404.000000;0.879091
9403.000000;0.880199
9402.000000;0.880549
9401.000000;0.879939
9400.000000;0.879018
9399.000000;0.878559
9398.000000;0.878527
9397.000000;0.878115
9396.000000;0.876803
9395.000000;0.875093
9394.000000;0.873973
9393.000000;0.873899
9392.000000;0.874543
9391.000000;0.875345
9390.000000;0.875906
9389.000000;0.875982
9388.000000;0.875599
9387.000000;0.875264
9386.000000;0.875581
9385.000000;0.876436
9384.000000;0.876955
9383.000000;0.876513
9382.000000;0.875467
9381.000000;0.874651
9380.000000;0.874464
9379.000000;0.874759
9378.000000;0.875288
9377.000000;0.875812
9376.000000;0.875984
9375.000000;0.875615
9374.000000;0.874998
9373.000000;0.874556
9372.000000;0.874249
9371.000000;0.873732
9370.000000;0.873058
9369.000000;0.872734
9368.000000;0.872997
9367.000000;0.873466
9366.000000;0.873665
9365.000000;0.873507
9364.000000;0.873093
9363.000000;0.872408
9362.000000;0.871521
9361.000000;0.870800
9360.000000;0.870608
9359.000000;0.870954
9358.000000;0.871642
9357.000000;0.872530
9356.000000;0.873394
9355.000000;0.873784
9354.000000;0.873351
9353.000000;0.872297
9352.000000;0.871214
9351.000000;0.870507
9350.000000;0.870160
9349.000000;0.869917
9348.000000;0.869514
9347.000000;0.868893
9346.000000;0.868313
9345.000000;0.868105
9344.000000;0.868167
9343.000000;0.867914
9342.000000;0.866971
9341.000000;0.865760
9340.000000;0.865098
9339.000000;0.865357
9338.000000;0.866291
9337.000000;0.867437
9336.000000;0.868281
9335.000000;0.868202
9334.000000;0.866927
9333.000000;0.865108
9332.000000;0.863899
9331.000000;0.863739
9330.000000;0.863970
9329.000000;0.863818
9328.000000;0.863307
9327.000000;0.862947
9326.000000;0.862944
9325.000000;0.863138
9324.000000;0.863463
9323.000000;0.863998
9322.000000;0.864628
9321.000000;0.865041
9320.000000;0.865085
9319.000000;0.864888
9318.000000;0.864648
9317.000000;0.864485
9316.000000;0.864441
9315.000000;0.864435
9314.000000;0.864245
9313.000000;0.863697
9312.000000;0.862846
9311.000000;0.861854
9310.000000;0.860828
9309.000000;0.859934
9308.000000;0.859518
9307.000000;0.859845
9306.000000;0.860775
9305.000000;0.861893
9304.000000;0.862868
9303.000000;0.863485
9302.000000;0.863472
9301.000000;0.862696
9300.000000;0.861520
9299.000000;0.860625
9298.000000;0.860364
9297.000000;0.860520
9296.000000;0.860767
9295.000000;0.861055
9294.000000;0.861394
9293.000000;0.861549
9292.000000;0.861239
9291.000000;0.860524
9290.000000;0.859738
9289.000000;0.859075
9288.000000;0.858460
9287.000000;0.857846
9286.000000;0.857421
9285.000000;0.857411
9284.000000;0.857781
9283.000000;0.858239
9282.000000;0.858545
9281.000000;0.858706
9280.000000;0.858822
9279.000000;0.858841
9278.000000;0.858572
9277.000000;0.857976
9276.000000;0.857324
9275.000000;0.856962
9274.000000;0.856929
9273.000000;0.856866
9272.000000;0.856307
9271.000000;0.855102
9270.000000;0.853632
9269.000000;0.852623
9268.000000;0.852631
9267.000000;0.853556
9266.000000;0.854671
9265.000000;0.855238
9264.000000;0.855078
9263.000000;0.854524
9262.000000;0.853940
9261.000000;0.853441
9260.000000;0.853019
9259.000000;0.852682
9258.000000;0.852390
9257.000000;0.851985
9256.000000;0.851332
9255.000000;0.850513
9254.000000;0.849814
9253.000000;0.849529
9252.000000;0.849751
9251.000000;0.850304
9250.000000;0.850841
9249.000000;0.851061
9248.000000;0.850895
9247.000000;0.850467
9246.000000;0.849945
9245.000000;0.849489
9244.000000;0.849310
9243.000000;0.849616
9242.000000;0.850386
9241.000000;0.851269
9240.000000;0.851862
9239.000000;0.852124
9238.000000;0.852400
9237.000000;0.852969
9236.000000;0.853635
9235.000000;0.853903
9234.000000;0.853563
9233.000000;0.852920
9232.000000;0.852373
9231.000000;0.851962
9230.000000;0.851507
9229.000000;0.851043
9228.000000;0.850791
9227.000000;0.850723
9226.000000;0.850477
9225.000000;0.849859
9224.000000;0.849173
9223.000000;0.848824
9222.000000;0.848802
9221.000000;0.848763
9220.000000;0.848518
9219.000000;0.848224
9218.000000;0.848145
9217.000000;0.848423
9216.000000;0.849030
9215.000000;0.849743
9214.000000;0.850221
9213.000000;0.850298
9212.000000;0.850154
9211.000000;0.850012
9210.000000;0.849721
9209.000000;0.848906
9208.000000;0.847566
9207.000000;0.846271
9206.000000;0.845633
9205.000000;0.845754
9204.000000;0.846300
9203.000000;0.846947
9202.000000;0.847550
9201.000000;0.847959
9200.000000;0.847918
9199.000000;0.847312
9198.000000;0.846437
9197.000000;0.845832
9196.000000;0.845738
9195.000000;0.845816
9194.000000;0.845570
9193.000000;0.844991
9192.000000;0.844503
9191.000000;0.844213
9190.000000;0.843584
9189.000000;0.842194
9188.000000;0.840568
9187.000000;0.839805
9186.000000;0.840362
9185.000000;0.841567
9184.000000;0.842412
9183.000000;0.842541
9182.000000;0.842324
9181.000000;0.842192
9180.000000;0.842187
9179.000000;0.842064
9178.000000;0.841636
9177.000000;0.840989
9176.000000;0.840441
9175.000000;0.840277
9174.000000;0.840522
9173.000000;0.840957
9172.000000;0.841324
9171.000000;0.841475
9170.000000;0.841369
9169.000000;0.841058
9168.000000;0.840673
9167.000000;0.840346
9166.000000;0.840141
9165.000000;0.840136
9164.000000;0.840446
9163.000000;0.841045
9162.000000;0.841659
9161.000000;0.841987
9160.000000;0.841972
9159.000000;0.841687
9158.000000;0.841129
9157.000000;0.840373
9156.000000;0.839772
9155.000000;0.839621
9154.000000;0.839678
9153.000000;0.839462
9152.000000;0.839055
9151.000000;0.839110
9150.000000;0.839887
9149.000000;0.840733
9148.000000;0.840826
9147.000000;0.840114
9146.000000;0.839191
9145.000000;0.838521
9144.000000;0.838151
9143.000000;0.837994
9142.000000;0.837974
9141.000000;0.837926
9140.000000;0.837659
9139.000000;0.837150
9138.000000;0.836526
9137.000000;0.835951
9136.000000;0.835651
9135.000000;0.835859
9134.000000;0.836486
9133.000000;0.836988
9132.000000;0.836853
9131.000000;0.836172
9130.000000;0.835505
9129.000000;0.835240
9128.000000;0.835328
9127.000000;0.835527
9126.000000;0.835651
9125.000000;0.835617
9124.000000;0.835455
9123.000000;0.835275
9122.000000;0.835059
9121.000000;0.834619
9120.000000;0.833930
9119.000000;0.833346
9118.000000;0.833200
9117.000000;0.833335
9116.000000;0.833359
9115.000000;0.833239
9114.000000;0.833267
9113.000000;0.833474
9112.000000;0.833517
9111.000000;0.833206
9110.000000;0.832774
9109.000000;0.832494
9108.000000;0.832391
9107.000000;0.832447
9106.000000;0.832738
9105.000000;0.833213
9104.000000;0.833611
9103.000000;0.833823
9102.000000;0.834027
9101.000000;0.834275
9100.000000;0.834224
9099.000000;0.833578
9098.000000;0.832582
9097.000000;0.831776
9096.000000;0.831425
9095.000000;0.831466
9094.000000;0.831815
9093.000000;0.832377
9092.000000;0.832794
9091.000000;0.832576
9090.000000;0.831611
9089.000000;0.830316
9088.000000;0.829231
9087.000000;0.828648
9086.000000;0.828622
9085.000000;0.829078
9084.000000;0.829731
9083.000000;0.830096
9082.000000;0.829851
9081.000000;0.829203
9080.000000;0.828751
9079.000000;0.828950
9078.000000;0.829705
9077.000000;0.830479
9076.000000;0.830727
9075.000000;0.830292
9074.000000;0.829498
9073.000000;0.828902
9072.000000;0.828861
9071.000000;0.829252
9070.000000;0.829616
9069.000000;0.829639
9068.000000;0.829470
9067.000000;0.829500
9066.000000;0.829871
9065.000000;0.830278
9064.000000;0.830250
9063.000000;0.829531
9062.000000;0.828251
9061.000000;0.826906
9060.000000;0.826177
9059.000000;0.826527
9058.000000;0.827780
9057.000000;0.829174
9056.000000;0.829983
9055.000000;0.830013
9054.000000;0.829453
9053.000000;0.828527
