Criado como novo conjunto de dados;"e0108.spp","-4229982.1 Secs"
cm-1;Abs
10000.000000;1.834263
9999.000000;1.836364
9998.000000;1.838475
9997.000000;1.840597
9996.000000;1.842726
9995.000000;1.844878
9994.000000;1.847011
9993.000000;1.849214
9992.000000;1.851325
9991.000000;1.853632
9990.000000;1.855577
9989.000000;1.858964
9988.000000;1.863289
9987.000000;1.867103
9986.000000;1.871265
9985.000000;1.873484
9984.000000;1.870108
9983.000000;1.861541
9982.000000;1.853564
9981.000000;1.850404
9980.000000;1.850053
9979.000000;1.847848
9978.000000;1.843346
9977.000000;1.840995
9976.000000;1.844360
9975.000000;1.851583
9974.000000;1.856583
9973.000000;1.855289
9972.000000;1.850449
9971.000000;1.848343
9970.000000;1.850897
9969.000000;1.852835
9968.000000;1.848292
9967.000000;1.839371
9966.000000;1.834217
9965.000000;1.837188
9964.000000;1.844185
9963.000000;1.847844
9962.000000;1.845313
9961.000000;1.839644
9960.000000;1.835311
9959.000000;1.834475
9958.000000;1.837064
9957.000000;1.841247
9956.000000;1.843535
9955.000000;1.841900
9954.000000;1.838695
9953.000000;1.837996
9952.000000;1.840806
9951.000000;1.844561
9950.000000;1.846960
9949.000000;1.848493
9948.000000;1.850233
9947.000000;1.851411
9946.000000;1.850797
9945.000000;1.848741
9944.000000;1.846686
9943.000000;1.845496
9942.000000;1.845188
9941.000000;1.845917
9940.000000;1.847614
9939.000000;1.848300
9938.000000;1.844465
9937.000000;1.834804
9936.000000;1.823088
9935.000000;1.815343
9934.000000;1.814377
9933.000000;1.818307
9932.000000;1.823851
9931.000000;1.829351
9930.000000;1.833741
9929.000000;1.834965
9928.000000;1.832442
9927.000000;1.829706
9926.000000;1.831199
9925.000000;1.836477
9924.000000;1.840302
9923.000000;1.839329
9922.000000;1.835573
9921.000000;1.832008
9920.000000;1.828278
9919.000000;1.823063
9918.000000;1.818232
9917.000000;1.816798
9916.000000;1.818554
9915.000000;1.821214
9914.000000;1.823794
9913.000000;1.826116
9912.000000;1.826576
9911.000000;1.823177
9910.000000;1.817736
9909.000000;1.816639
9908.000000;1.824962
9907.000000;1.840986
9906.000000;1.857076
9905.000000;1.865444
9904.000000;1.863371
9903.000000;1.853779
9902.000000;1.842353
9901.000000;1.834459
9900.000000;1.833063
9899.000000;1.837669
9898.000000;1.844492
9897.000000;1.848370
9896.000000;1.846341
9895.000000;1.839950
9894.000000;1.833433
9893.000000;1.829873
9892.000000;1.829057
9891.000000;1.828561
9890.000000;1.826560
9889.000000;1.822976
9888.000000;1.818800
9887.000000;1.815539
9886.000000;1.814427
9885.000000;1.815322
9884.000000;1.816789
9883.000000;1.817526
9882.000000;1.817310
9881.000000;1.816157
9880.000000;1.813384
9879.000000;1.808879
9878.000000;1.804817
9877.000000;1.804446
9876.000000;1.808984
9875.000000;1.816428
9874.000000;1.823352
9873.000000;1.827225
9872.000000;1.827143
9871.000000;1.823782
9870.000000;1.819519
9869.000000;1.817298
9868.000000;1.818195
9867.000000;1.820826
9866.000000;1.823547
9865.000000;1.826125
9864.000000;1.828584
9863.000000;1.829658
9862.000000;1.827694
9861.000000;1.822586
9860.000000;1.816210
9859.000000;1.811299
9858.000000;1.809878
9857.000000;1.812008
9856.000000;1.815610
9855.000000;1.818339
9854.000000;1.820083
9853.000000;1.822156
9852.000000;1.823905
9851.000000;1.822433
9850.000000;1.816664
9849.000000;1.809622
9848.000000;1.804975
9847.000000;1.802743
9846.000000;1.800107
9845.000000;1.795461
9844.000000;1.789944
9843.000000;1.785893
9842.000000;1.785437
9841.000000;1.789476
9840.000000;1.796115
9839.000000;1.800635
9838.000000;1.799348
9837.000000;1.793920
9836.000000;1.789962
9835.000000;1.791481
9834.000000;1.798215
9833.000000;1.807270
9832.000000;1.815115
9831.000000;1.818366
9830.000000;1.815448
9829.000000;1.808495
9828.000000;1.801794
9827.000000;1.798076
9826.000000;1.797438
9825.000000;1.799159
9824.000000;1.802894
9823.000000;1.807476
9822.000000;1.810090
9821.000000;1.808825
9820.000000;1.805237
9819.000000;1.802241
9818.000000;1.800306
9817.000000;1.797687
9816.000000;1.793696
9815.000000;1.789928
9814.000000;1.788648
9813.000000;1.790945
9812.000000;1.795893
9811.000000;1.801056
9810.000000;1.803681
9809.000000;1.801366
9808.000000;1.793434
9807.000000;1.782433
9806.000000;1.773433
9805.000000;1.771230
9804.000000;1.776697
9803.000000;1.785265
9802.000000;1.790382
9801.000000;1.789619
9800.000000;1.786424
9799.000000;1.785279
9798.000000;1.786843
9797.000000;1.788861
9796.000000;1.790020
9795.000000;1.790758
9794.000000;1.791122
9793.000000;1.790248
9792.000000;1.787952
9791.000000;1.785040
9790.000000;1.782032
9789.000000;1.779261
9788.000000;1.778227
9787.000000;1.780816
9786.000000;1.786501
9785.000000;1.791915
9784.000000;1.794248
9783.000000;1.794033
9782.000000;1.793348
9781.000000;1.792365
9780.000000;1.789436
9779.000000;1.784305
9778.000000;1.779374
9777.000000;1.777141
9776.000000;1.777378
9775.000000;1.777696
9774.000000;1.776799
9773.000000;1.775972
9772.000000;1.776443
9771.000000;1.776689
9770.000000;1.774352
9769.000000;1.770189
9768.000000;1.767601
9767.000000;1.768085
9766.000000;1.769101
9765.000000;1.767791
9764.000000;1.765670
9763.000000;1.766887
9762.000000;1.772199
9761.000000;1.777265
9760.000000;1.777890
9759.000000;1.775547
9758.000000;1.775520
9757.000000;1.780465
9756.000000;1.787405
9755.000000;1.790546
9754.000000;1.786657
9753.000000;1.778004
9752.000000;1.770369
9751.000000;1.768056
9750.000000;1.770313
9749.000000;1.772617
9748.000000;1.771870
9747.000000;1.769818
9746.000000;1.770827
9745.000000;1.777144
9744.000000;1.786663
9743.000000;1.794392
9742.000000;1.795860
9741.000000;1.790656
9740.000000;1.783166
9739.000000;1.778572
9738.000000;1.778526
9737.000000;1.781116
9736.000000;1.783614
9735.000000;1.784052
9734.000000;1.781063
9733.000000;1.775050
9732.000000;1.769795
9731.000000;1.769574
9730.000000;1.773610
9729.000000;1.775642
9728.000000;1.771022
9727.000000;1.762667
9726.000000;1.757185
9725.000000;1.757505
9724.000000;1.761865
9723.000000;1.767823
9722.000000;1.774078
9721.000000;1.778695
9720.000000;1.779267
9719.000000;1.776082
9718.000000;1.772405
9717.000000;1.770567
9716.000000;1.770022
9715.000000;1.769642
9714.000000;1.769382
9713.000000;1.768857
9712.000000;1.766750
9711.000000;1.763137
9710.000000;1.760264
9709.000000;1.759454
9708.000000;1.759206
9707.000000;1.757909
9706.000000;1.756752
9705.000000;1.757685
9704.000000;1.759650
9703.000000;1.759567
9702.000000;1.757037
9701.000000;1.755413
9700.000000;1.757574
9699.000000;1.762616
9698.000000;1.767229
9697.000000;1.769230
9696.000000;1.769087
9695.000000;1.768584
9694.000000;1.768764
9693.000000;1.769002
9692.000000;1.767957
9691.000000;1.765615
9690.000000;1.763804
9689.000000;1.763843
9688.000000;1.764269
9687.000000;1.762289
9686.000000;1.757714
9685.000000;1.753746
9684.000000;1.753321
9683.000000;1.756244
9682.000000;1.760031
9681.000000;1.762590
9680.000000;1.763617
9679.000000;1.764003
9678.000000;1.764571
9677.000000;1.765071
9676.000000;1.764118
9675.000000;1.760603
9674.000000;1.755449
9673.000000;1.751284
9672.000000;1.749728
9671.000000;1.749828
9670.000000;1.750159
9669.000000;1.751402
9668.000000;1.755196
9667.000000;1.760873
9666.000000;1.764957
9665.000000;1.764561
9664.000000;1.760387
9663.000000;1.755431
9662.000000;1.751607
9661.000000;1.748664
9660.000000;1.746081
9659.000000;1.745062
9658.000000;1.747461
9657.000000;1.752543
9656.000000;1.756042
9655.000000;1.753856
9654.000000;1.746994
9653.000000;1.741167
9652.000000;1.741096
9651.000000;1.746470
9650.000000;1.753220
9649.000000;1.757824
9648.000000;1.759399
9647.000000;1.757988
9646.000000;1.753510
9645.000000;1.746940
9644.000000;1.740643
9643.000000;1.736672
9642.000000;1.735365
9641.000000;1.735796
9640.000000;1.736829
9639.000000;1.737354
9638.000000;1.736580
9637.000000;1.734987
9636.000000;1.734014
9635.000000;1.734029
9634.000000;1.733584
9633.000000;1.731699
9632.000000;1.730244
9631.000000;1.732400
9630.000000;1.738920
9629.000000;1.747102
9628.000000;1.752852
9627.000000;1.752719
9626.000000;1.745546
9625.000000;1.734227
9624.000000;1.724542
9623.000000;1.720962
9622.000000;1.723741
9621.000000;1.729826
9620.000000;1.736127
9619.000000;1.741052
9618.000000;1.743267
9617.000000;1.741658
9616.000000;1.737655
9615.000000;1.735095
9614.000000;1.735619
9613.000000;1.735758
9612.000000;1.730958
9611.000000;1.721655
9610.000000;1.713088
9609.000000;1.709836
9608.000000;1.712400
9607.000000;1.718438
9606.000000;1.725150
9605.000000;1.730005
9604.000000;1.731309
9603.000000;1.729688
9602.000000;1.727587
9601.000000;1.725896
9600.000000;1.722918
9599.000000;1.718308
9598.000000;1.716111
9597.000000;1.721216
9596.000000;1.733006
9595.000000;1.744096
9594.000000;1.746738
9593.000000;1.740305
9592.000000;1.730678
9591.000000;1.723573
9590.000000;1.720674
9589.000000;1.720650
9588.000000;1.721475
9587.000000;1.721606
9586.000000;1.720297
9585.000000;1.717974
9584.000000;1.716171
9583.000000;1.716476
9582.000000;1.719414
9581.000000;1.724144
9580.000000;1.728981
9579.000000;1.732457
9578.000000;1.734236
9577.000000;1.734796
9576.000000;1.734157
9575.000000;1.731449
9574.000000;1.726291
9573.000000;1.720251
9572.000000;1.715865
9571.000000;1.714086
9570.000000;1.713566
9569.000000;1.712726
9568.000000;1.711757
9567.000000;1.711859
9566.000000;1.712922
9565.000000;1.713107
9564.000000;1.710943
9563.000000;1.706973
9562.000000;1.703142
9561.000000;1.701445
9560.000000;1.702917
9559.000000;1.707054
9558.000000;1.711857
9557.000000;1.714890
9556.000000;1.715072
9555.000000;1.713413
9554.000000;1.711883
9553.000000;1.711769
9552.000000;1.713011
9551.000000;1.714585
9550.000000;1.715337
9549.000000;1.715090
9548.000000;1.715303
9547.000000;1.717854
9546.000000;1.722482
9545.000000;1.725971
9544.000000;1.725184
9543.000000;1.720885
9542.000000;1.716807
9541.000000;1.714974
9540.000000;1.713715
9539.000000;1.710751
9538.000000;1.706694
9537.000000;1.703928
9536.000000;1.703145
9535.000000;1.703172
9534.000000;1.703671
9533.000000;1.705714
9532.000000;1.709313
9531.000000;1.712256
9530.000000;1.712504
9529.000000;1.710626
9528.000000;1.708708
9527.000000;1.707901
9526.000000;1.708004
9525.000000;1.708562
9524.000000;1.709346
9523.000000;1.709864
9522.000000;1.709434
9521.000000;1.707871
9520.000000;1.705612
9519.000000;1.703611
9518.000000;1.703264
9517.000000;1.705431
9516.000000;1.708735
9515.000000;1.709746
9514.000000;1.706423
9513.000000;1.700997
9512.000000;1.697808
9511.000000;1.698374
9510.000000;1.699914
9509.000000;1.699038
9508.000000;1.695700
9507.000000;1.692739
9506.000000;1.692655
9505.000000;1.695988
9504.000000;1.701937
9503.000000;1.708949
9502.000000;1.714573
9501.000000;1.716207
9500.000000;1.713209
9499.000000;1.707890
9498.000000;1.703624
9497.000000;1.702120
9496.000000;1.702651
9495.000000;1.703389
9494.000000;1.703092
9493.000000;1.701574
9492.000000;1.699033
9491.000000;1.695938
9490.000000;1.693519
9489.000000;1.693053
9488.000000;1.694797
9487.000000;1.697794
9486.000000;1.700266
9485.000000;1.700865
9484.000000;1.699773
9483.000000;1.698300
9482.000000;1.697572
9481.000000;1.697335
9480.000000;1.695806
9479.000000;1.691373
9478.000000;1.685021
9477.000000;1.680380
9476.000000;1.680615
9475.000000;1.685380
9474.000000;1.691054
9473.000000;1.694092
9472.000000;1.693801
9471.000000;1.691631
9470.000000;1.689293
9469.000000;1.688464
9468.000000;1.690532
9467.000000;1.695043
9466.000000;1.699138
9465.000000;1.699833
9464.000000;1.697108
9463.000000;1.694143
9462.000000;1.693897
9461.000000;1.695829
9460.000000;1.696486
9459.000000;1.693357
9458.000000;1.687637
9457.000000;1.682744
9456.000000;1.680795
9455.000000;1.681320
9454.000000;1.683114
9453.000000;1.686418
9452.000000;1.692431
9451.000000;1.700633
9450.000000;1.707455
9449.000000;1.708712
9448.000000;1.703641
9447.000000;1.695662
9446.000000;1.689067
9445.000000;1.685916
9444.000000;1.685872
9443.000000;1.687672
9442.000000;1.690121
9441.000000;1.692481
9440.000000;1.694750
9439.000000;1.697442
9438.000000;1.700551
9437.000000;1.702552
9436.000000;1.701183
9435.000000;1.696071
9434.000000;1.689613
9433.000000;1.684627
9432.000000;1.682375
9431.000000;1.682913
9430.000000;1.685579
9429.000000;1.688320
9428.000000;1.688046
9427.000000;1.683542
9426.000000;1.677654
9425.000000;1.674779
9424.000000;1.676272
9423.000000;1.679472
9422.000000;1.681076
9421.000000;1.680381
9420.000000;1.678842
9419.000000;1.677649
9418.000000;1.677053
9417.000000;1.677321
9416.000000;1.678567
9415.000000;1.680073
9414.000000;1.681091
9413.000000;1.681960
9412.000000;1.683592
9411.000000;1.686208
9410.000000;1.688968
9409.000000;1.690365
9408.000000;1.688720
9407.000000;1.683234
9406.000000;1.675621
9405.000000;1.669985
9404.000000;1.669359
9403.000000;1.672363
9402.000000;1.674349
9401.000000;1.672257
9400.000000;1.667606
9399.000000;1.664205
9398.000000;1.664121
9397.000000;1.666383
9396.000000;1.668690
9395.000000;1.669925
9394.000000;1.671004
9393.000000;1.673259
9392.000000;1.675992
9391.000000;1.676239
9390.000000;1.672029
9389.000000;1.665403
9388.000000;1.660667
9387.000000;1.660051
9386.000000;1.662307
9385.000000;1.665185
9384.000000;1.667855
9383.000000;1.670528
9382.000000;1.673174
9381.000000;1.675644
9380.000000;1.678175
9379.000000;1.680806
9378.000000;1.682711
9377.000000;1.682826
9376.000000;1.680790
9375.000000;1.676985
9374.000000;1.672303
9373.000000;1.668249
9372.000000;1.666437
9371.000000;1.667195
9370.000000;1.669012
9369.000000;1.669887
9368.000000;1.669081
9367.000000;1.667257
9366.000000;1.665243
9365.000000;1.663161
9364.000000;1.660914
9363.000000;1.658806
9362.000000;1.657499
9361.000000;1.657826
9360.000000;1.659929
9359.000000;1.662547
9358.000000;1.664181
9357.000000;1.664838
9356.000000;1.665873
9355.000000;1.668192
9354.000000;1.671361
9353.000000;1.674594
9352.000000;1.677525
9351.000000;1.679686
9350.000000;1.680442
9349.000000;1.679788
9348.000000;1.678105
9347.000000;1.675094
9346.000000;1.670029
9345.000000;1.663335
9344.000000;1.657227
9343.000000;1.653908
9342.000000;1.653575
9341.000000;1.654951
9340.000000;1.656789
9339.000000;1.658096
9338.000000;1.658277
9337.000000;1.658235
9336.000000;1.660129
9335.000000;1.664744
9334.000000;1.669705
9333.000000;1.671460
9332.000000;1.668970
9331.000000;1.664294
9330.000000;1.659950
9329.000000;1.657221
9328.000000;1.656362
9327.000000;1.656574
9326.000000;1.655891
9325.000000;1.652913
9324.000000;1.649073
9323.000000;1.647795
9322.000000;1.650990
9321.000000;1.657206
9320.000000;1.663206
9319.000000;1.666664
9318.000000;1.667209
9317.000000;1.665788
9316.000000;1.663639
9315.000000;1.661391
9314.000000;1.658789
9313.000000;1.655629
9312.000000;1.652685
9311.000000;1.650952
9310.000000;1.650398
9309.000000;1.650196
9308.000000;1.650152
9307.000000;1.651229
9306.000000;1.654249
9305.000000;1.658660
9304.000000;1.662910
9303.000000;1.665521
9302.000000;1.665623
9301.000000;1.663062
9300.000000;1.658626
9299.000000;1.653911
9298.000000;1.650336
9297.000000;1.648318
9296.000000;1.647492
9295.000000;1.647426
9294.000000;1.647925
9293.000000;1.648878
9292.000000;1.649947
9291.000000;1.650399
9290.000000;1.649647
9289.000000;1.648034
9288.000000;1.646602
9287.000000;1.645825
9286.000000;1.644948
9285.000000;1.643258
9284.000000;1.641566
9283.000000;1.641598
9282.000000;1.644152
9281.000000;1.648223
9280.000000;1.651739
9279.000000;1.652960
9278.000000;1.651660
9277.000000;1.649418
9276.000000;1.648363
9275.000000;1.649302
9274.000000;1.651310
9273.000000;1.653210
9272.000000;1.654947
9271.000000;1.656779
9270.000000;1.657661
9269.000000;1.655921
9268.000000;1.651599
9267.000000;1.646795
9266.000000;1.643623
9265.000000;1.642827
9264.000000;1.644148
9263.000000;1.646769
9262.000000;1.649249
9261.000000;1.650122
9260.000000;1.649081
9259.000000;1.647038
9258.000000;1.644876
9257.000000;1.642852
9256.000000;1.641242
9255.000000;1.640560
9254.000000;1.640830
9253.000000;1.641358
9252.000000;1.641574
9251.000000;1.641666
9250.000000;1.642034
9249.000000;1.642554
9248.000000;1.642813
9247.000000;1.642646
9246.000000;1.642125
9245.000000;1.641408
9244.000000;1.640674
9243.000000;1.639877
9242.000000;1.638675
9241.000000;1.637201
9240.000000;1.636765
9239.000000;1.638792
9238.000000;1.642791
9237.000000;1.646030
9236.000000;1.646219
9235.000000;1.644154
9234.000000;1.642489
9233.000000;1.642491
9232.000000;1.642828
9231.000000;1.641470
9230.000000;1.638443
9229.000000;1.636242
9228.000000;1.637302
9227.000000;1.641129
9226.000000;1.644359
9225.000000;1.644110
9224.000000;1.640821
9223.000000;1.637163
9222.000000;1.634896
9221.000000;1.633803
9220.000000;1.632993
9219.000000;1.631880
9218.000000;1.630185
9217.000000;1.628279
9216.000000;1.627566
9215.000000;1.629404
9214.000000;1.633464
9213.000000;1.637929
9212.000000;1.641471
9211.000000;1.644191
9210.000000;1.646320
9209.000000;1.647306
9208.000000;1.646868
9207.000000;1.645655
9206.000000;1.644170
9205.000000;1.642062
9204.000000;1.639128
9203.000000;1.636035
9202.000000;1.633406
9201.000000;1.631193
9200.000000;1.629577
9199.000000;1.629422
9198.000000;1.630930
9197.000000;1.632667
9196.000000;1.632921
9195.000000;1.631706
9194.000000;1.630771
9193.000000;1.631833
9192.000000;1.635108
9191.000000;1.638971
9190.000000;1.640700
9189.000000;1.638648
9188.000000;1.634364
9187.000000;1.631531
9186.000000;1.632222
9185.000000;1.635010
9184.000000;1.637212
9183.000000;1.638057
9182.000000;1.638480
9181.000000;1.638632
9180.000000;1.637479
9179.000000;1.634748
9178.000000;1.631667
9177.000000;1.629440
9176.000000;1.628047
9175.000000;1.626803
9174.000000;1.625414
9173.000000;1.624238
9172.000000;1.623892
9171.000000;1.624745
9170.000000;1.626460
9169.000000;1.627936
9168.000000;1.628071
9167.000000;1.626854
9166.000000;1.625502
9165.000000;1.625604
9164.000000;1.628181
9163.000000;1.632775
9162.000000;1.637234
9161.000000;1.639105
9160.000000;1.637691
9159.000000;1.634599
9158.000000;1.631943
9157.000000;1.630245
9156.000000;1.628522
9155.000000;1.626186
9154.000000;1.624159
9153.000000;1.624112
9152.000000;1.627037
9151.000000;1.632263
9150.000000;1.637515
9149.000000;1.640445
9148.000000;1.640513
9147.000000;1.638871
9146.000000;1.636278
9145.000000;1.632208
9144.000000;1.626617
9143.000000;1.621356
9142.000000;1.618775
9141.000000;1.619576
9140.000000;1.622762
9139.000000;1.627159
9138.000000;1.631977
9137.000000;1.636067
9136.000000;1.637793
9135.000000;1.636008
9134.000000;1.630729
9133.000000;1.623106
9132.000000;1.615360
9131.000000;1.610209
9130.000000;1.609201
9129.000000;1.611437
9128.000000;1.614480
9127.000000;1.616566
9126.000000;1.617476
9125.000000;1.617521
9124.000000;1.616909
9123.000000;1.616330
9122.000000;1.616957
9121.000000;1.619181
9120.000000;1.621859
9119.000000;1.623365
9118.000000;1.623251
9117.000000;1.622622
9116.000000;1.622989
9115.000000;1.624749
9114.000000;1.626404
9113.000000;1.625541
9112.000000;1.621314
9111.000000;1.615805
9110.000000;1.612185
9109.000000;1.611636
9108.000000;1.612562
9107.000000;1.612758
9106.000000;1.611774
9105.000000;1.610925
9104.000000;1.611639
9103.000000;1.614151
9102.000000;1.617305
9101.000000;1.619286
9100.000000;1.618920
9099.000000;1.616644
9098.000000;1.614131
9097.000000;1.612930
9096.000000;1.613544
9095.000000;1.615412
9094.000000;1.617272
9093.000000;1.617755
9092.000000;1.616355
9091.000000;1.614058
9090.000000;1.612577
9089.000000;1.612753
9088.000000;1.613942
9087.000000;1.614876
9086.000000;1.614729
9085.000000;1.613273
9084.000000;1.610675
9083.000000;1.607654
9082.000000;1.605465
9081.000000;1.605017
9080.000000;1.605866
9079.000000;1.606482
9078.000000;1.605916
9077.000000;1.605174
9076.000000;1.606376
9075.000000;1.610191
9074.000000;1.614434
9073.000000;1.615929
9072.000000;1.613874
9071.000000;1.610320
9070.000000;1.607228
9069.000000;1.604595
9068.000000;1.602133
9067.000000;1.601198
9066.000000;1.603268
9065.000000;1.607181
9064.000000;1.609765
9063.000000;1.609630
9062.000000;1.608881
9061.000000;1.610084
9060.000000;1.612974
9059.000000;1.615388
9058.000000;1.616312
9057.000000;1.616701
9056.000000;1.617833
9055.000000;1.619662
9054.000000;1.620884
9053.000000;1.620410
