Criado como novo conjunto de dados;"e0108.spp","-4271024.3 Secs"
cm-1;Abs
10000.000000;1.044024
9999.000000;1.044196
9998.000000;1.043915
9997.000000;1.042932
9996.000000;1.041613
9995.000000;1.040683
9994.000000;1.040450
9993.000000;1.040371
9992.000000;1.039786
9991.000000;1.038870
9990.000000;1.038470
9989.000000;1.038967
9988.000000;1.039762
9987.000000;1.040007
9986.000000;1.039510
9985.000000;1.038752
9984.000000;1.038250
9983.000000;1.038121
9982.000000;1.038177
9981.000000;1.038264
9980.000000;1.038506
9979.000000;1.039130
9978.000000;1.039926
9977.000000;1.040084
9976.000000;1.038999
9975.000000;1.037194
9974.000000;1.035923
9973.000000;1.035728
9972.000000;1.035821
9971.000000;1.035125
9970.000000;1.033570
9969.000000;1.032070
9968.000000;1.031458
9967.000000;1.031781
9966.000000;1.032448
9965.000000;1.032731
9964.000000;1.032266
9963.000000;1.031392
9962.000000;1.030902
9961.000000;1.031143
9960.000000;1.031407
9959.000000;1.030513
9958.000000;1.028032
9957.000000;1.024824
9956.000000;1.022457
9955.000000;1.022192
9954.000000;1.024181
9953.000000;1.027228
9952.000000;1.029471
9951.000000;1.029749
9950.000000;1.028425
9949.000000;1.026747
9948.000000;1.025646
9947.000000;1.025369
9946.000000;1.025797
9945.000000;1.026467
9944.000000;1.026499
9943.000000;1.025282
9942.000000;1.023355
9941.000000;1.021953
9940.000000;1.021606
9939.000000;1.021769
9938.000000;1.021929
9937.000000;1.022326
9936.000000;1.023182
9935.000000;1.023850
9934.000000;1.023459
9933.000000;1.022073
9932.000000;1.020568
9931.000000;1.019595
9930.000000;1.019232
9929.000000;1.019469
9928.000000;1.020372
9927.000000;1.021695
9926.000000;1.022836
9925.000000;1.023326
9924.000000;1.023085
9923.000000;1.022176
9922.000000;1.020683
9921.000000;1.018986
9920.000000;1.017796
9919.000000;1.017624
9918.000000;1.018277
9917.000000;1.019031
9916.000000;1.019306
9915.000000;1.019122
9914.000000;1.018934
9913.000000;1.019018
9912.000000;1.019034
9911.000000;1.018355
9910.000000;1.016928
9909.000000;1.015555
9908.000000;1.015052
9907.000000;1.015241
9906.000000;1.015064
9905.000000;1.013687
9904.000000;1.011350
9903.000000;1.009153
9902.000000;1.008159
9901.000000;1.008637
9900.000000;1.009933
9899.000000;1.011004
9898.000000;1.011310
9897.000000;1.011207
9896.000000;1.011281
9895.000000;1.011439
9894.000000;1.011068
9893.000000;1.010035
9892.000000;1.009021
9891.000000;1.008628
9890.000000;1.008572
9889.000000;1.008117
9888.000000;1.007100
9887.000000;1.006100
9886.000000;1.005667
9885.000000;1.005757
9884.000000;1.005968
9883.000000;1.005999
9882.000000;1.005714
9881.000000;1.005013
9880.000000;1.003931
9879.000000;1.002835
9878.000000;1.002288
9877.000000;1.002574
9876.000000;1.003396
9875.000000;1.004074
9874.000000;1.004075
9873.000000;1.003400
9872.000000;1.002509
9871.000000;1.001872
9870.000000;1.001553
9869.000000;1.001207
9868.000000;1.000463
9867.000000;0.999327
9866.000000;0.998194
9865.000000;0.997463
9864.000000;0.997213
9863.000000;0.997238
9862.000000;0.997241
9861.000000;0.996987
9860.000000;0.996437
9859.000000;0.995872
9858.000000;0.995721
9857.000000;0.996092
9856.000000;0.996554
9855.000000;0.996565
9854.000000;0.996042
9853.000000;0.995361
9852.000000;0.994920
9851.000000;0.994921
9850.000000;0.995396
9849.000000;0.996058
9848.000000;0.996201
9847.000000;0.995292
9846.000000;0.993767
9845.000000;0.992776
9844.000000;0.992920
9843.000000;0.993593
9842.000000;0.993814
9841.000000;0.993383
9840.000000;0.992842
9839.000000;0.992596
9838.000000;0.992514
9837.000000;0.992284
9836.000000;0.991842
9835.000000;0.991436
9834.000000;0.991431
9833.000000;0.991952
9832.000000;0.992604
9831.000000;0.992741
9830.000000;0.992156
9829.000000;0.991262
9828.000000;0.990406
9827.000000;0.989407
9826.000000;0.988072
9825.000000;0.986735
9824.000000;0.985794
9823.000000;0.985055
9822.000000;0.984094
9821.000000;0.983042
9820.000000;0.982370
9819.000000;0.981999
9818.000000;0.981356
9817.000000;0.980354
9816.000000;0.979651
9815.000000;0.979791
9814.000000;0.980648
9813.000000;0.981849
9812.000000;0.983114
9811.000000;0.983909
9810.000000;0.983498
9809.000000;0.981930
9808.000000;0.980451
9807.000000;0.980252
9806.000000;0.981051
9805.000000;0.981458
9804.000000;0.980618
9803.000000;0.979078
9802.000000;0.977985
9801.000000;0.977800
9800.000000;0.978011
9799.000000;0.977840
9798.000000;0.977059
9797.000000;0.976166
9796.000000;0.975822
9795.000000;0.976143
9794.000000;0.976543
9793.000000;0.976339
9792.000000;0.975449
9791.000000;0.974455
9790.000000;0.974008
9789.000000;0.974194
9788.000000;0.974487
9787.000000;0.974396
9786.000000;0.974104
9785.000000;0.974238
9784.000000;0.974907
9783.000000;0.975300
9782.000000;0.974624
9781.000000;0.973228
9780.000000;0.972252
9779.000000;0.972186
9778.000000;0.972363
9777.000000;0.971968
9776.000000;0.970984
9775.000000;0.969832
9774.000000;0.968640
9773.000000;0.967414
9772.000000;0.966614
9771.000000;0.966923
9770.000000;0.968366
9769.000000;0.969996
9768.000000;0.970597
9767.000000;0.969658
9766.000000;0.967720
9765.000000;0.965948
9764.000000;0.965258
9763.000000;0.965689
9762.000000;0.966523
9761.000000;0.967003
9760.000000;0.966871
9759.000000;0.966321
9758.000000;0.965703
9757.000000;0.965367
9756.000000;0.965452
9755.000000;0.965704
9754.000000;0.965773
9753.000000;0.965748
9752.000000;0.965995
9751.000000;0.966338
9750.000000;0.965972
9749.000000;0.964626
9748.000000;0.963314
9747.000000;0.963254
9746.000000;0.964307
9745.000000;0.965093
9744.000000;0.964579
9743.000000;0.962998
9742.000000;0.961295
9741.000000;0.960272
9740.000000;0.960241
9739.000000;0.960790
9738.000000;0.960760
9737.000000;0.959140
9736.000000;0.956353
9735.000000;0.954160
9734.000000;0.953940
9733.000000;0.955392
9732.000000;0.957109
9731.000000;0.958000
9730.000000;0.957883
9729.000000;0.957118
9728.000000;0.956233
9727.000000;0.955755
9726.000000;0.955879
9725.000000;0.956260
9724.000000;0.956393
9723.000000;0.956156
9722.000000;0.955738
9721.000000;0.955189
9720.000000;0.954440
9719.000000;0.953713
9718.000000;0.953521
9717.000000;0.954099
9716.000000;0.955019
9715.000000;0.955436
9714.000000;0.954704
9713.000000;0.952861
9712.000000;0.950756
9711.000000;0.949586
9710.000000;0.949952
9709.000000;0.951211
9708.000000;0.951985
9707.000000;0.951451
9706.000000;0.950044
9705.000000;0.948822
9704.000000;0.948333
9703.000000;0.948262
9702.000000;0.948054
9701.000000;0.947680
9700.000000;0.947659
9699.000000;0.948359
9698.000000;0.949411
9697.000000;0.949994
9696.000000;0.949728
9695.000000;0.949076
9694.000000;0.948694
9693.000000;0.948603
9692.000000;0.948294
9691.000000;0.947497
9690.000000;0.946502
9689.000000;0.945736
9688.000000;0.945371
9687.000000;0.945412
9686.000000;0.945797
9685.000000;0.946142
9684.000000;0.945694
9683.000000;0.943938
9682.000000;0.941253
9681.000000;0.938771
9680.000000;0.937583
9679.000000;0.938075
9678.000000;0.939799
9677.000000;0.941820
9676.000000;0.943298
9675.000000;0.943946
9674.000000;0.943958
9673.000000;0.943566
9672.000000;0.942872
9671.000000;0.942101
9670.000000;0.941585
9669.000000;0.941255
9668.000000;0.940521
9667.000000;0.939062
9666.000000;0.937529
9665.000000;0.937023
9664.000000;0.937868
9663.000000;0.939260
9662.000000;0.940130
9661.000000;0.940056
9660.000000;0.939342
9659.000000;0.938582
9658.000000;0.938234
9657.000000;0.938289
9656.000000;0.938182
9655.000000;0.937318
9654.000000;0.935839
9653.000000;0.934614
9652.000000;0.934296
9651.000000;0.934626
9650.000000;0.934814
9649.000000;0.934406
9648.000000;0.933629
9647.000000;0.933030
9646.000000;0.932992
9645.000000;0.933482
9644.000000;0.934068
9643.000000;0.934242
9642.000000;0.933833
9641.000000;0.933054
9640.000000;0.932153
9639.000000;0.931243
9638.000000;0.930499
9637.000000;0.930184
9636.000000;0.930288
9635.000000;0.930411
9634.000000;0.930274
9633.000000;0.930184
9632.000000;0.930633
9631.000000;0.931538
9630.000000;0.932182
9629.000000;0.931920
9628.000000;0.930740
9627.000000;0.929162
9626.000000;0.927787
9625.000000;0.926973
9624.000000;0.926708
9623.000000;0.926661
9622.000000;0.926486
9621.000000;0.926168
9620.000000;0.926042
9619.000000;0.926452
9618.000000;0.927374
9617.000000;0.928320
9616.000000;0.928620
9615.000000;0.927927
9614.000000;0.926547
9613.000000;0.925185
9612.000000;0.924316
9611.000000;0.923880
9610.000000;0.923568
9609.000000;0.923187
9608.000000;0.922683
9607.000000;0.922093
9606.000000;0.921639
9605.000000;0.921667
9604.000000;0.922221
9603.000000;0.922822
9602.000000;0.922877
9601.000000;0.922239
9600.000000;0.921239
9599.000000;0.920356
9598.000000;0.920035
9597.000000;0.920554
9596.000000;0.921643
9595.000000;0.922373
9594.000000;0.921873
9593.000000;0.920265
9592.000000;0.918590
9591.000000;0.917776
9590.000000;0.917923
9589.000000;0.918525
9588.000000;0.918999
9587.000000;0.918965
9586.000000;0.918384
9585.000000;0.917661
9584.000000;0.917405
9583.000000;0.917880
9582.000000;0.918731
9581.000000;0.919311
9580.000000;0.919199
9579.000000;0.918441
9578.000000;0.917484
9577.000000;0.916853
9576.000000;0.916656
9575.000000;0.916362
9574.000000;0.915341
9573.000000;0.913706
9572.000000;0.912383
9571.000000;0.912172
9570.000000;0.912942
9569.000000;0.913846
9568.000000;0.914121
9567.000000;0.913569
9566.000000;0.912432
9565.000000;0.911090
9564.000000;0.909907
9563.000000;0.909190
9562.000000;0.909136
9561.000000;0.909712
9560.000000;0.910567
9559.000000;0.911144
9558.000000;0.911032
9557.000000;0.910293
9556.000000;0.909372
9555.000000;0.908701
9554.000000;0.908440
9553.000000;0.908484
9552.000000;0.908543
9551.000000;0.908268
9550.000000;0.907549
9549.000000;0.906736
9548.000000;0.906321
9547.000000;0.906291
9546.000000;0.905990
9545.000000;0.904812
9544.000000;0.903005
9543.000000;0.901611
9542.000000;0.901547
9541.000000;0.902727
9540.000000;0.904103
9539.000000;0.904651
9538.000000;0.904336
9537.000000;0.903977
9536.000000;0.904215
9535.000000;0.904892
9534.000000;0.905501
9533.000000;0.905894
9532.000000;0.906170
9531.000000;0.906138
9530.000000;0.905418
9529.000000;0.904102
9528.000000;0.902840
9527.000000;0.902152
9526.000000;0.901961
9525.000000;0.901919
9524.000000;0.901854
9523.000000;0.901729
9522.000000;0.901430
9521.000000;0.900874
9520.000000;0.900208
9519.000000;0.899758
9518.000000;0.899791
9517.000000;0.900326
9516.000000;0.901026
9515.000000;0.901386
9514.000000;0.901256
9513.000000;0.901140
9512.000000;0.901566
9511.000000;0.902162
9510.000000;0.901889
9509.000000;0.900388
9508.000000;0.898571
9507.000000;0.897518
9506.000000;0.897215
9505.000000;0.896840
9504.000000;0.895980
9503.000000;0.895030
9502.000000;0.894543
9501.000000;0.894744
9500.000000;0.895673
9499.000000;0.897254
9498.000000;0.899052
9497.000000;0.900294
9496.000000;0.900433
9495.000000;0.899612
9494.000000;0.898490
9493.000000;0.897708
9492.000000;0.897492
9491.000000;0.897585
9490.000000;0.897491
9489.000000;0.896933
9488.000000;0.896106
9487.000000;0.895381
9486.000000;0.894835
9485.000000;0.894299
9484.000000;0.893851
9483.000000;0.893936
9482.000000;0.894760
9481.000000;0.895772
9480.000000;0.896039
9479.000000;0.895146
9478.000000;0.893573
9477.000000;0.892137
9476.000000;0.891231
9475.000000;0.890659
9474.000000;0.890093
9473.000000;0.889484
9472.000000;0.888976
9471.000000;0.888587
9470.000000;0.888161
9469.000000;0.887638
9468.000000;0.887233
9467.000000;0.887234
9466.000000;0.887672
9465.000000;0.888202
9464.000000;0.888333
9463.000000;0.887806
9462.000000;0.886807
9461.000000;0.885833
9460.000000;0.885312
9459.000000;0.885309
9458.000000;0.885626
9457.000000;0.886101
9456.000000;0.886688
9455.000000;0.887272
9454.000000;0.887612
9453.000000;0.887552
9452.000000;0.887139
9451.000000;0.886481
9450.000000;0.885605
9449.000000;0.884614
9448.000000;0.883904
9447.000000;0.884032
9446.000000;0.885281
9445.000000;0.887331
9444.000000;0.889344
9443.000000;0.890361
9442.000000;0.889823
9441.000000;0.887873
9440.000000;0.885281
9439.000000;0.883025
9438.000000;0.881846
9437.000000;0.881974
9436.000000;0.883066
9435.000000;0.884419
9434.000000;0.885381
9433.000000;0.885680
9432.000000;0.885372
9431.000000;0.884573
9430.000000;0.883404
9429.000000;0.882137
9428.000000;0.881138
9427.000000;0.880599
9426.000000;0.880474
9425.000000;0.880700
9424.000000;0.881270
9423.000000;0.881993
9422.000000;0.882462
9421.000000;0.882441
9420.000000;0.882089
9419.000000;0.881606
9418.000000;0.880891
9417.000000;0.879834
9416.000000;0.878775
9415.000000;0.878283
9414.000000;0.878508
9413.000000;0.879035
9412.000000;0.879417
9411.000000;0.879541
9410.000000;0.879430
9409.000000;0.879004
9408.000000;0.878289
9407.000000;0.877618
9406.000000;0.877341
9405.000000;0.877394
9404.000000;0.877396
9403.000000;0.877109
9402.000000;0.876599
9401.000000;0.875953
9400.000000;0.875113
9399.000000;0.874134
9398.000000;0.873395
9397.000000;0.873306
9396.000000;0.873827
9395.000000;0.874468
9394.000000;0.874800
9393.000000;0.874808
9392.000000;0.874696
9391.000000;0.874515
9390.000000;0.874146
9389.000000;0.873536
9388.000000;0.872767
9387.000000;0.871956
9386.000000;0.871278
9385.000000;0.871053
9384.000000;0.871585
9383.000000;0.872785
9382.000000;0.874099
9381.000000;0.874874
9380.000000;0.874760
9379.000000;0.873756
9378.000000;0.872116
9377.000000;0.870352
9376.000000;0.869165
9375.000000;0.869036
9374.000000;0.869800
9373.000000;0.870746
9372.000000;0.871226
9371.000000;0.871169
9370.000000;0.871014
9369.000000;0.871232
9368.000000;0.871864
9367.000000;0.872419
9366.000000;0.872246
9365.000000;0.871140
9364.000000;0.869604
9363.000000;0.868394
9362.000000;0.867826
9361.000000;0.867635
9360.000000;0.867491
9359.000000;0.867414
9358.000000;0.867543
9357.000000;0.867711
9356.000000;0.867553
9355.000000;0.866975
9354.000000;0.866279
9353.000000;0.865798
9352.000000;0.865627
9351.000000;0.865712
9350.000000;0.865921
9349.000000;0.865908
9348.000000;0.865253
9347.000000;0.864001
9346.000000;0.862853
9345.000000;0.862501
9344.000000;0.862860
9343.000000;0.863223
9342.000000;0.863089
9341.000000;0.862572
9340.000000;0.862082
9339.000000;0.861945
9338.000000;0.862319
9337.000000;0.863126
9336.000000;0.864007
9335.000000;0.864630
9334.000000;0.865067
9333.000000;0.865522
9332.000000;0.865686
9331.000000;0.864840
9330.000000;0.862852
9329.000000;0.860665
9328.000000;0.859482
9327.000000;0.859739
9326.000000;0.861016
9325.000000;0.862547
9324.000000;0.863537
9323.000000;0.863407
9322.000000;0.862278
9321.000000;0.861086
9320.000000;0.860761
9319.000000;0.861345
9318.000000;0.862131
9317.000000;0.862484
9316.000000;0.862215
9315.000000;0.861408
9314.000000;0.860333
9313.000000;0.859427
9312.000000;0.858930
9311.000000;0.858610
9310.000000;0.858166
9309.000000;0.857770
9308.000000;0.857824
9307.000000;0.858325
9306.000000;0.858931
9305.000000;0.859491
9304.000000;0.860004
9303.000000;0.860151
9302.000000;0.859513
9301.000000;0.858320
9300.000000;0.857323
9299.000000;0.856816
9298.000000;0.856364
9297.000000;0.855711
9296.000000;0.855336
9295.000000;0.855758
9294.000000;0.856746
9293.000000;0.857603
9292.000000;0.857892
9291.000000;0.857536
9290.000000;0.856581
9289.000000;0.855251
9288.000000;0.853966
9287.000000;0.852980
9286.000000;0.852236
9285.000000;0.851811
9284.000000;0.852142
9283.000000;0.853436
9282.000000;0.855106
9281.000000;0.856213
9280.000000;0.856343
9279.000000;0.855779
9278.000000;0.855027
9277.000000;0.854499
9276.000000;0.854444
9275.000000;0.854772
9274.000000;0.855010
9273.000000;0.854741
9272.000000;0.854008
9271.000000;0.853082
9270.000000;0.852076
9269.000000;0.851121
9268.000000;0.850665
9267.000000;0.851099
9266.000000;0.852100
9265.000000;0.852748
9264.000000;0.852378
9263.000000;0.851119
9262.000000;0.849631
9261.000000;0.848609
9260.000000;0.848465
9259.000000;0.849114
9258.000000;0.849969
9257.000000;0.850375
9256.000000;0.850132
9255.000000;0.849511
9254.000000;0.848840
9253.000000;0.848280
9252.000000;0.847951
9251.000000;0.847948
9250.000000;0.848150
9249.000000;0.848243
9248.000000;0.847981
9247.000000;0.847310
9246.000000;0.846319
9245.000000;0.845280
9244.000000;0.844681
9243.000000;0.844930
9242.000000;0.845954
9241.000000;0.847226
9240.000000;0.848198
9239.000000;0.848617
9238.000000;0.848495
9237.000000;0.848028
9236.000000;0.847528
9235.000000;0.847233
9234.000000;0.847120
9233.000000;0.847036
9232.000000;0.846952
9231.000000;0.846890
9230.000000;0.846680
9229.000000;0.846078
9228.000000;0.845144
9227.000000;0.844269
9226.000000;0.843753
9225.000000;0.843579
9224.000000;0.843601
9223.000000;0.843696
9222.000000;0.843681
9221.000000;0.843346
9220.000000;0.842743
9219.000000;0.842257
9218.000000;0.842230
9217.000000;0.842623
9216.000000;0.843148
9215.000000;0.843638
9214.000000;0.844132
9213.000000;0.844665
9212.000000;0.845115
9211.000000;0.845261
9210.000000;0.844925
9209.000000;0.844101
9208.000000;0.843020
9207.000000;0.842091
9206.000000;0.841689
9205.000000;0.841899
9204.000000;0.842405
9203.000000;0.842687
9202.000000;0.842432
9201.000000;0.841828
9200.000000;0.841373
9199.000000;0.841365
9198.000000;0.841658
9197.000000;0.841910
9196.000000;0.841912
9195.000000;0.841606
9194.000000;0.841023
9193.000000;0.840397
9192.000000;0.840100
9191.000000;0.840203
9190.000000;0.840244
9189.000000;0.839802
9188.000000;0.839206
9187.000000;0.839241
9186.000000;0.840076
9185.000000;0.840888
9184.000000;0.840750
9183.000000;0.839629
9182.000000;0.838287
9181.000000;0.837401
9180.000000;0.837090
9179.000000;0.837152
9178.000000;0.837392
9177.000000;0.837633
9176.000000;0.837621
9175.000000;0.837160
9174.000000;0.836397
9173.000000;0.835868
9172.000000;0.836115
9171.000000;0.837126
9170.000000;0.838176
9169.000000;0.838418
9168.000000;0.837699
9167.000000;0.836728
9166.000000;0.836394
9165.000000;0.837010
9164.000000;0.838195
9163.000000;0.839294
9162.000000;0.839828
9161.000000;0.839704
9160.000000;0.839217
9159.000000;0.838791
9158.000000;0.838600
9157.000000;0.838416
9156.000000;0.837931
9155.000000;0.837194
9154.000000;0.836591
9153.000000;0.836388
9152.000000;0.836414
9151.000000;0.836280
9150.000000;0.835846
9149.000000;0.835388
9148.000000;0.835286
9147.000000;0.835626
9146.000000;0.836121
9145.000000;0.836398
9144.000000;0.836336
9143.000000;0.836115
9142.000000;0.835972
9141.000000;0.835935
9140.000000;0.835825
9139.000000;0.835502
9138.000000;0.835032
9137.000000;0.834553
9136.000000;0.834035
9135.000000;0.833405
9134.000000;0.832924
9133.000000;0.833141
9132.000000;0.834205
9131.000000;0.835380
9130.000000;0.835664
9129.000000;0.834945
9128.000000;0.834153
9127.000000;0.834088
9126.000000;0.834501
9125.000000;0.834572
9124.000000;0.834021
9123.000000;0.833299
9122.000000;0.832806
9121.000000;0.832431
9120.000000;0.831964
9119.000000;0.831560
9118.000000;0.831561
9117.000000;0.832042
9116.000000;0.832679
9115.000000;0.833010
9114.000000;0.832732
9113.000000;0.831900
9112.000000;0.830961
9111.000000;0.830474
9110.000000;0.830608
9109.000000;0.830961
9108.000000;0.830986
9107.000000;0.830589
9106.000000;0.830148
9105.000000;0.829959
9104.000000;0.829840
9103.000000;0.829438
9102.000000;0.828798
9101.000000;0.828397
9100.000000;0.828537
9099.000000;0.828905
9098.000000;0.828924
9097.000000;0.828459
9096.000000;0.827975
9095.000000;0.827977
9094.000000;0.828487
9093.000000;0.829122
9092.000000;0.829491
9091.000000;0.829425
9090.000000;0.828984
9089.000000;0.828410
9088.000000;0.828026
9087.000000;0.828029
9086.000000;0.828403
9085.000000;0.829024
9084.000000;0.829682
9083.000000;0.830001
9082.000000;0.829598
9081.000000;0.828556
9080.000000;0.827540
9079.000000;0.827188
9078.000000;0.827459
9077.000000;0.827816
9076.000000;0.827932
9075.000000;0.827933
9074.000000;0.827995
9073.000000;0.828039
9072.000000;0.827887
9071.000000;0.827516
9070.000000;0.827079
9069.000000;0.826829
9068.000000;0.827005
9067.000000;0.827550
9066.000000;0.827944
9065.000000;0.827600
9064.000000;0.826543
9063.000000;0.825491
9062.000000;0.825098
9061.000000;0.825271
9060.000000;0.825369
9059.000000;0.824988
9058.000000;0.824385
9057.000000;0.824172
9056.000000;0.824656
9055.000000;0.825497
9054.000000;0.826042
9053.000000;0.826020
