Criado como novo conjunto de dados;"e0108.spp","-4246542.8 Secs"
cm-1;Abs
10000.000000;0.997837
9999.000000;0.997695
9998.000000;0.997553
9997.000000;0.997412
9996.000000;0.997270
9995.000000;0.997129
9994.000000;0.996987
9993.000000;0.996847
9992.000000;0.996704
9991.000000;0.996566
9990.000000;0.996414
9989.000000;0.996368
9988.000000;0.996690
9987.000000;0.997211
9986.000000;0.997271
9985.000000;0.996312
9984.000000;0.994512
9983.000000;0.992791
9982.000000;0.992005
9981.000000;0.992176
9980.000000;0.992596
9979.000000;0.992615
9978.000000;0.992203
9977.000000;0.991824
9976.000000;0.991986
9975.000000;0.992874
9974.000000;0.994130
9973.000000;0.994929
9972.000000;0.994548
9971.000000;0.993010
9970.000000;0.991083
9969.000000;0.989604
9968.000000;0.988936
9967.000000;0.989025
9966.000000;0.989665
9965.000000;0.990533
9964.000000;0.991222
9963.000000;0.991510
9962.000000;0.991564
9961.000000;0.991674
9960.000000;0.991812
9959.000000;0.991581
9958.000000;0.990637
9957.000000;0.989058
9956.000000;0.987300
9955.000000;0.985860
9954.000000;0.985002
9953.000000;0.984760
9952.000000;0.985061
9951.000000;0.985665
9950.000000;0.985962
9949.000000;0.985151
9948.000000;0.983009
9947.000000;0.980418
9946.000000;0.978716
9945.000000;0.978427
9944.000000;0.978885
9943.000000;0.979171
9942.000000;0.979078
9941.000000;0.978945
9940.000000;0.978932
9939.000000;0.978939
9938.000000;0.979042
9937.000000;0.979518
9936.000000;0.980341
9935.000000;0.981030
9934.000000;0.981157
9933.000000;0.980763
9932.000000;0.980153
9931.000000;0.979507
9930.000000;0.978786
9929.000000;0.977872
9928.000000;0.976765
9927.000000;0.975713
9926.000000;0.975160
9925.000000;0.975360
9924.000000;0.975963
9923.000000;0.976113
9922.000000;0.975096
9921.000000;0.972973
9920.000000;0.970615
9919.000000;0.969177
9918.000000;0.969345
9917.000000;0.970799
9916.000000;0.972392
9915.000000;0.973112
9914.000000;0.972936
9913.000000;0.972526
9912.000000;0.972176
9911.000000;0.971442
9910.000000;0.969931
9909.000000;0.968040
9908.000000;0.966554
9907.000000;0.965745
9906.000000;0.965248
9905.000000;0.964735
9904.000000;0.964341
9903.000000;0.964321
9902.000000;0.964548
9901.000000;0.964597
9900.000000;0.964299
9899.000000;0.964053
9898.000000;0.964476
9897.000000;0.965636
9896.000000;0.966692
9895.000000;0.966532
9894.000000;0.964918
9893.000000;0.962809
9892.000000;0.961385
9891.000000;0.960908
9890.000000;0.960708
9889.000000;0.960163
9888.000000;0.959435
9887.000000;0.959181
9886.000000;0.959752
9885.000000;0.960824
9884.000000;0.961740
9883.000000;0.962102
9882.000000;0.961992
9881.000000;0.961627
9880.000000;0.960972
9879.000000;0.959884
9878.000000;0.958610
9877.000000;0.957817
9876.000000;0.957861
9875.000000;0.958225
9874.000000;0.958055
9873.000000;0.957212
9872.000000;0.956471
9871.000000;0.956580
9870.000000;0.957380
9869.000000;0.957945
9868.000000;0.957412
9867.000000;0.955647
9866.000000;0.953351
9865.000000;0.951648
9864.000000;0.951362
9863.000000;0.952456
9862.000000;0.954175
9861.000000;0.955722
9860.000000;0.956658
9859.000000;0.956726
9858.000000;0.955761
9857.000000;0.954048
9856.000000;0.952443
9855.000000;0.951682
9854.000000;0.951603
9853.000000;0.951418
9852.000000;0.950741
9851.000000;0.950024
9850.000000;0.949913
9849.000000;0.950503
9848.000000;0.951327
9847.000000;0.951792
9846.000000;0.951471
9845.000000;0.950236
9844.000000;0.948452
9843.000000;0.946932
9842.000000;0.946401
9841.000000;0.946863
9840.000000;0.947591
9839.000000;0.947802
9838.000000;0.947339
9837.000000;0.946694
9836.000000;0.946373
9835.000000;0.946315
9834.000000;0.946022
9833.000000;0.945163
9832.000000;0.943973
9831.000000;0.943077
9830.000000;0.943010
9829.000000;0.943879
9828.000000;0.945257
9827.000000;0.946324
9826.000000;0.946347
9825.000000;0.945306
9824.000000;0.943962
9823.000000;0.943060
9822.000000;0.942597
9821.000000;0.942133
9820.000000;0.941635
9819.000000;0.941509
9818.000000;0.941782
9817.000000;0.941773
9816.000000;0.940897
9815.000000;0.939410
9814.000000;0.938033
9813.000000;0.937068
9812.000000;0.936297
9811.000000;0.935563
9810.000000;0.935069
9809.000000;0.935098
9808.000000;0.935677
9807.000000;0.936596
9806.000000;0.937588
9805.000000;0.938433
9804.000000;0.938944
9803.000000;0.938883
9802.000000;0.937973
9801.000000;0.936228
9800.000000;0.934265
9799.000000;0.932968
9798.000000;0.932639
9797.000000;0.932742
9796.000000;0.932681
9795.000000;0.932539
9794.000000;0.932707
9793.000000;0.933051
9792.000000;0.932972
9791.000000;0.932285
9790.000000;0.931556
9789.000000;0.931478
9788.000000;0.932152
9787.000000;0.933044
9786.000000;0.933425
9785.000000;0.932867
9784.000000;0.931583
9783.000000;0.930301
9782.000000;0.929607
9781.000000;0.929386
9780.000000;0.929056
9779.000000;0.928252
9778.000000;0.927072
9777.000000;0.925817
9776.000000;0.924855
9775.000000;0.924618
9774.000000;0.925235
9773.000000;0.926156
9772.000000;0.926572
9771.000000;0.926257
9770.000000;0.925592
9769.000000;0.924787
9768.000000;0.923771
9767.000000;0.922952
9766.000000;0.923207
9765.000000;0.924698
9764.000000;0.926266
9763.000000;0.926570
9762.000000;0.925484
9761.000000;0.923906
9760.000000;0.922604
9759.000000;0.921779
9758.000000;0.921347
9757.000000;0.920928
9756.000000;0.919785
9755.000000;0.917531
9754.000000;0.914923
9753.000000;0.913319
9752.000000;0.913301
9751.000000;0.914238
9750.000000;0.915216
9749.000000;0.915892
9748.000000;0.916358
9747.000000;0.916701
9746.000000;0.916937
9745.000000;0.917053
9744.000000;0.916923
9743.000000;0.916450
9742.000000;0.915919
9741.000000;0.915844
9740.000000;0.916313
9739.000000;0.916788
9738.000000;0.916751
9737.000000;0.916295
9736.000000;0.915855
9735.000000;0.915618
9734.000000;0.915433
9733.000000;0.915163
9732.000000;0.914876
9731.000000;0.914770
9730.000000;0.915036
9729.000000;0.915668
9728.000000;0.916258
9727.000000;0.916129
9726.000000;0.914870
9725.000000;0.912785
9724.000000;0.910713
9723.000000;0.909436
9722.000000;0.909156
9721.000000;0.909376
9720.000000;0.909269
9719.000000;0.908399
9718.000000;0.907233
9717.000000;0.906776
9716.000000;0.907525
9715.000000;0.908901
9714.000000;0.909765
9713.000000;0.909444
9712.000000;0.908201
9711.000000;0.906881
9710.000000;0.906259
9709.000000;0.906638
9708.000000;0.907799
9707.000000;0.909196
9706.000000;0.910240
9705.000000;0.910538
9704.000000;0.910011
9703.000000;0.908919
9702.000000;0.907659
9701.000000;0.906396
9700.000000;0.904916
9699.000000;0.903015
9698.000000;0.901004
9697.000000;0.899633
9696.000000;0.899473
9695.000000;0.900421
9694.000000;0.901737
9693.000000;0.902483
9692.000000;0.902067
9691.000000;0.900666
9690.000000;0.899194
9689.000000;0.898610
9688.000000;0.899084
9687.000000;0.899947
9686.000000;0.900490
9685.000000;0.900606
9684.000000;0.900555
9683.000000;0.900434
9682.000000;0.900132
9681.000000;0.899611
9680.000000;0.898975
9679.000000;0.898365
9678.000000;0.897992
9677.000000;0.898102
9676.000000;0.898637
9675.000000;0.899035
9674.000000;0.898695
9673.000000;0.897716
9672.000000;0.896868
9671.000000;0.896764
9670.000000;0.897205
9669.000000;0.897414
9668.000000;0.896855
9667.000000;0.895739
9666.000000;0.894763
9665.000000;0.894422
9664.000000;0.894585
9663.000000;0.894677
9662.000000;0.894224
9661.000000;0.893182
9660.000000;0.891877
9659.000000;0.890810
9658.000000;0.890452
9657.000000;0.890947
9656.000000;0.891861
9655.000000;0.892405
9654.000000;0.892131
9653.000000;0.891358
9652.000000;0.890738
9651.000000;0.890525
9650.000000;0.890430
9649.000000;0.890130
9648.000000;0.889709
9647.000000;0.889505
9646.000000;0.889628
9645.000000;0.889758
9644.000000;0.889493
9643.000000;0.888870
9642.000000;0.888356
9641.000000;0.888203
9640.000000;0.888023
9639.000000;0.887275
9638.000000;0.886161
9637.000000;0.885597
9636.000000;0.886135
9635.000000;0.887185
9634.000000;0.887589
9633.000000;0.886825
9632.000000;0.885465
9631.000000;0.884561
9630.000000;0.884746
9629.000000;0.885782
9628.000000;0.886737
9627.000000;0.886757
9626.000000;0.885832
9625.000000;0.884726
9624.000000;0.884052
9623.000000;0.883685
9622.000000;0.883209
9621.000000;0.882653
9620.000000;0.882425
9619.000000;0.882708
9618.000000;0.883258
9617.000000;0.883689
9616.000000;0.883638
9615.000000;0.882840
9614.000000;0.881463
9613.000000;0.880251
9612.000000;0.879838
9611.000000;0.879923
9610.000000;0.879609
9609.000000;0.878649
9608.000000;0.877832
9607.000000;0.877907
9606.000000;0.878649
9605.000000;0.879301
9604.000000;0.879534
9603.000000;0.879511
9602.000000;0.879275
9601.000000;0.878650
9600.000000;0.877755
9599.000000;0.877162
9598.000000;0.877271
9597.000000;0.877735
9596.000000;0.877743
9595.000000;0.876862
9594.000000;0.875499
9593.000000;0.874476
9592.000000;0.874161
9591.000000;0.874159
9590.000000;0.873943
9589.000000;0.873585
9588.000000;0.873550
9587.000000;0.873850
9586.000000;0.873834
9585.000000;0.873010
9584.000000;0.871727
9583.000000;0.870770
9582.000000;0.870501
9581.000000;0.870660
9580.000000;0.870866
9579.000000;0.870988
9578.000000;0.871084
9577.000000;0.871195
9576.000000;0.871217
9575.000000;0.870864
9574.000000;0.869892
9573.000000;0.868548
9572.000000;0.867632
9571.000000;0.867787
9570.000000;0.868737
9569.000000;0.869488
9568.000000;0.869332
9567.000000;0.868445
9566.000000;0.867475
9565.000000;0.866838
9564.000000;0.866564
9563.000000;0.866534
9562.000000;0.866592
9561.000000;0.866503
9560.000000;0.866085
9559.000000;0.865459
9558.000000;0.865000
9557.000000;0.864973
9556.000000;0.865279
9555.000000;0.865630
9554.000000;0.865889
9553.000000;0.866121
9552.000000;0.866314
9551.000000;0.866232
9550.000000;0.865694
9549.000000;0.864874
9548.000000;0.864141
9547.000000;0.863602
9546.000000;0.863050
9545.000000;0.862353
9544.000000;0.861653
9543.000000;0.861074
9542.000000;0.860498
9541.000000;0.859854
9540.000000;0.859431
9539.000000;0.859638
9538.000000;0.860549
9537.000000;0.861861
9536.000000;0.863156
9535.000000;0.864025
9534.000000;0.864082
9533.000000;0.863220
9532.000000;0.861870
9531.000000;0.860693
9530.000000;0.859981
9529.000000;0.859565
9528.000000;0.859273
9527.000000;0.859092
9526.000000;0.858841
9525.000000;0.858137
9524.000000;0.856965
9523.000000;0.855951
9522.000000;0.855699
9521.000000;0.856032
9520.000000;0.856238
9519.000000;0.856002
9518.000000;0.855708
9517.000000;0.855755
9516.000000;0.855907
9515.000000;0.855573
9514.000000;0.854579
9513.000000;0.853462
9512.000000;0.852988
9511.000000;0.853479
9510.000000;0.854602
9509.000000;0.855710
9508.000000;0.856315
9507.000000;0.856313
9506.000000;0.855867
9505.000000;0.855239
9504.000000;0.854696
9503.000000;0.854381
9502.000000;0.854184
9501.000000;0.853869
9500.000000;0.853392
9499.000000;0.852986
9498.000000;0.852819
9497.000000;0.852705
9496.000000;0.852308
9495.000000;0.851589
9494.000000;0.850873
9493.000000;0.850491
9492.000000;0.850506
9491.000000;0.850776
9490.000000;0.851078
9489.000000;0.851151
9488.000000;0.850788
9487.000000;0.850034
9486.000000;0.849210
9485.000000;0.848655
9484.000000;0.848448
9483.000000;0.848388
9482.000000;0.848213
9481.000000;0.847808
9480.000000;0.847257
9479.000000;0.846719
9478.000000;0.846235
9477.000000;0.845677
9476.000000;0.844993
9475.000000;0.844436
9474.000000;0.844366
9473.000000;0.844748
9472.000000;0.845035
9471.000000;0.844715
9470.000000;0.843886
9469.000000;0.843160
9468.000000;0.843067
9467.000000;0.843669
9466.000000;0.844653
9465.000000;0.845572
9464.000000;0.845984
9463.000000;0.845603
9462.000000;0.844505
9461.000000;0.843137
9460.000000;0.842053
9459.000000;0.841633
9458.000000;0.841982
9457.000000;0.842932
9456.000000;0.844074
9455.000000;0.844939
9454.000000;0.845322
9453.000000;0.845372
9452.000000;0.845285
9451.000000;0.845018
9450.000000;0.844444
9449.000000;0.843716
9448.000000;0.843194
9447.000000;0.842969
9446.000000;0.842677
9445.000000;0.841973
9444.000000;0.841037
9443.000000;0.840377
9442.000000;0.840138
9441.000000;0.839863
9440.000000;0.839058
9439.000000;0.837880
9438.000000;0.837045
9437.000000;0.837037
9436.000000;0.837582
9435.000000;0.837989
9434.000000;0.837849
9433.000000;0.837220
9432.000000;0.836262
9431.000000;0.835049
9430.000000;0.833868
9429.000000;0.833324
9428.000000;0.833777
9427.000000;0.834762
9426.000000;0.835320
9425.000000;0.834992
9424.000000;0.834203
9423.000000;0.833612
9422.000000;0.833407
9421.000000;0.833397
9420.000000;0.833445
9419.000000;0.833476
9418.000000;0.833305
9417.000000;0.832852
9416.000000;0.832476
9415.000000;0.832688
9414.000000;0.833505
9413.000000;0.834338
9412.000000;0.834549
9411.000000;0.833922
9410.000000;0.832641
9409.000000;0.831140
9408.000000;0.830020
9407.000000;0.829734
9406.000000;0.830112
9405.000000;0.830441
9404.000000;0.830249
9403.000000;0.829789
9402.000000;0.829552
9401.000000;0.829559
9400.000000;0.829407
9399.000000;0.828839
9398.000000;0.827966
9397.000000;0.827013
9396.000000;0.826191
9395.000000;0.825785
9394.000000;0.826053
9393.000000;0.826901
9392.000000;0.827823
9391.000000;0.828259
9390.000000;0.827985
9389.000000;0.827188
9388.000000;0.826299
9387.000000;0.825752
9386.000000;0.825698
9385.000000;0.825873
9384.000000;0.825802
9383.000000;0.825182
9382.000000;0.824092
9381.000000;0.822919
9380.000000;0.822174
9379.000000;0.822204
9378.000000;0.822857
9377.000000;0.823497
9376.000000;0.823591
9375.000000;0.823263
9374.000000;0.823082
9373.000000;0.823349
9372.000000;0.823861
9371.000000;0.824317
9370.000000;0.824610
9369.000000;0.824682
9368.000000;0.824476
9367.000000;0.824176
9366.000000;0.824134
9365.000000;0.824288
9364.000000;0.823952
9363.000000;0.822574
9362.000000;0.820590
9361.000000;0.819129
9360.000000;0.818873
9359.000000;0.819506
9358.000000;0.820263
9357.000000;0.820731
9356.000000;0.820994
9355.000000;0.821236
9354.000000;0.821451
9353.000000;0.821510
9352.000000;0.821312
9351.000000;0.820813
9350.000000;0.820021
9349.000000;0.819057
9348.000000;0.818224
9347.000000;0.817853
9346.000000;0.817978
9345.000000;0.818185
9344.000000;0.817944
9343.000000;0.817164
9342.000000;0.816311
9341.000000;0.815966
9340.000000;0.816378
9339.000000;0.817424
9338.000000;0.818767
9337.000000;0.819929
9336.000000;0.820428
9335.000000;0.820136
9334.000000;0.819495
9333.000000;0.819162
9332.000000;0.819374
9331.000000;0.819768
9330.000000;0.819807
9329.000000;0.819303
9328.000000;0.818473
9327.000000;0.817594
9326.000000;0.816717
9325.000000;0.815735
9324.000000;0.814700
9323.000000;0.813977
9322.000000;0.813917
9321.000000;0.814406
9320.000000;0.814900
9319.000000;0.814995
9318.000000;0.814764
9317.000000;0.814437
9316.000000;0.813979
9315.000000;0.813244
9314.000000;0.812364
9313.000000;0.811646
9312.000000;0.811118
9311.000000;0.810492
9310.000000;0.809637
9309.000000;0.808852
9308.000000;0.808571
9307.000000;0.808978
9306.000000;0.809926
9305.000000;0.811019
9304.000000;0.811696
9303.000000;0.811549
9302.000000;0.810727
9301.000000;0.809875
9300.000000;0.809537
9299.000000;0.809773
9298.000000;0.810429
9297.000000;0.811487
9296.000000;0.812866
9295.000000;0.814055
9294.000000;0.814327
9293.000000;0.813410
9292.000000;0.811741
9291.000000;0.810067
9290.000000;0.808933
9289.000000;0.808492
9288.000000;0.808538
9287.000000;0.808665
9286.000000;0.808569
9285.000000;0.808317
9284.000000;0.808264
9283.000000;0.808649
9282.000000;0.809338
9281.000000;0.809908
9280.000000;0.809914
9279.000000;0.809166
9278.000000;0.807969
9277.000000;0.807033
9276.000000;0.806889
9275.000000;0.807295
9274.000000;0.807482
9273.000000;0.807075
9272.000000;0.806504
9271.000000;0.806321
9270.000000;0.806423
9269.000000;0.806298
9268.000000;0.805851
9267.000000;0.805539
9266.000000;0.805682
9265.000000;0.806029
9264.000000;0.806151
9263.000000;0.805943
9262.000000;0.805587
9261.000000;0.805271
9260.000000;0.805132
9259.000000;0.805235
9258.000000;0.805403
9257.000000;0.805202
9256.000000;0.804403
9255.000000;0.803374
9254.000000;0.802790
9253.000000;0.802958
9252.000000;0.803564
9251.000000;0.804002
9250.000000;0.803793
9249.000000;0.802821
9248.000000;0.801428
9247.000000;0.800291
9246.000000;0.799942
9245.000000;0.800321
9244.000000;0.800942
9243.000000;0.801483
9242.000000;0.802036
9241.000000;0.802770
9240.000000;0.803612
9239.000000;0.804327
9238.000000;0.804679
9237.000000;0.804447
9236.000000;0.803557
9235.000000;0.802355
9234.000000;0.801497
9233.000000;0.801317
9232.000000;0.801466
9231.000000;0.801381
9230.000000;0.800972
9229.000000;0.800566
9228.000000;0.800328
9227.000000;0.800050
9226.000000;0.799506
9225.000000;0.798718
9224.000000;0.797852
9223.000000;0.797106
9222.000000;0.796771
9221.000000;0.797080
9220.000000;0.797827
9219.000000;0.798340
9218.000000;0.798081
9217.000000;0.797226
9216.000000;0.796495
9215.000000;0.796435
9214.000000;0.797012
9213.000000;0.797819
9212.000000;0.798445
9211.000000;0.798598
9210.000000;0.798077
9209.000000;0.796900
9208.000000;0.795494
9207.000000;0.794579
9206.000000;0.794669
9205.000000;0.795658
9204.000000;0.796914
9203.000000;0.797801
9202.000000;0.798070
9201.000000;0.797820
9200.000000;0.797225
9199.000000;0.796383
9198.000000;0.795348
9197.000000;0.794239
9196.000000;0.793316
9195.000000;0.792948
9194.000000;0.793370
9193.000000;0.794367
9192.000000;0.795291
9191.000000;0.795563
9190.000000;0.795217
9189.000000;0.794818
9188.000000;0.794807
9187.000000;0.794986
9186.000000;0.794705
9185.000000;0.793603
9184.000000;0.792132
9183.000000;0.791298
9182.000000;0.791806
9181.000000;0.793386
9180.000000;0.794982
9179.000000;0.795607
9178.000000;0.795018
9177.000000;0.793655
9176.000000;0.792163
9175.000000;0.791067
9174.000000;0.790629
9173.000000;0.790726
9172.000000;0.790900
9171.000000;0.790738
9170.000000;0.790252
9169.000000;0.789778
9168.000000;0.789587
9167.000000;0.789740
9166.000000;0.790195
9165.000000;0.790789
9164.000000;0.791126
9163.000000;0.790860
9162.000000;0.790223
9161.000000;0.789973
9160.000000;0.790588
9159.000000;0.791646
9158.000000;0.792246
9157.000000;0.791930
9156.000000;0.791008
9155.000000;0.790060
9154.000000;0.789462
9153.000000;0.789379
9152.000000;0.789880
9151.000000;0.790826
9150.000000;0.791790
9149.000000;0.792287
9148.000000;0.792093
9147.000000;0.791310
9146.000000;0.790237
9145.000000;0.789265
9144.000000;0.788736
9143.000000;0.788660
9142.000000;0.788571
9141.000000;0.787902
9140.000000;0.786634
9139.000000;0.785423
9138.000000;0.784945
9137.000000;0.785186
9136.000000;0.785526
9135.000000;0.785465
9134.000000;0.785107
9133.000000;0.784897
9132.000000;0.785061
9131.000000;0.785424
9130.000000;0.785675
9129.000000;0.785690
9128.000000;0.785589
9127.000000;0.785547
9126.000000;0.785588
9125.000000;0.785548
9124.000000;0.785252
9123.000000;0.784711
9122.000000;0.784123
9121.000000;0.783722
9120.000000;0.783652
9119.000000;0.783940
9118.000000;0.784441
9117.000000;0.784842
9116.000000;0.784862
9115.000000;0.784519
9114.000000;0.784085
9113.000000;0.783762
9112.000000;0.783514
9111.000000;0.783274
9110.000000;0.783121
9109.000000;0.783100
9108.000000;0.783005
9107.000000;0.782561
9106.000000;0.781789
9105.000000;0.781064
9104.000000;0.780811
9103.000000;0.781205
9102.000000;0.782094
9101.000000;0.783059
9100.000000;0.783578
9099.000000;0.783351
9098.000000;0.782563
9097.000000;0.781768
9096.000000;0.781450
9095.000000;0.781702
9094.000000;0.782275
9093.000000;0.782841
9092.000000;0.783213
9091.000000;0.783377
9090.000000;0.783369
9089.000000;0.783189
9088.000000;0.782876
9087.000000;0.782646
9086.000000;0.782737
9085.000000;0.783060
9084.000000;0.783158
9083.000000;0.782695
9082.000000;0.781876
9081.000000;0.781194
9080.000000;0.780828
9079.000000;0.780549
9078.000000;0.780145
9077.000000;0.779720
9076.000000;0.779512
9075.000000;0.779679
9074.000000;0.780280
9073.000000;0.781222
9072.000000;0.782102
9071.000000;0.782338
9070.000000;0.781726
9069.000000;0.780758
9068.000000;0.780164
9067.000000;0.780155
9066.000000;0.780270
9065.000000;0.779950
9064.000000;0.779140
9063.000000;0.778314
9062.000000;0.777995
9061.000000;0.778290
9060.000000;0.778849
9059.000000;0.779197
9058.000000;0.779142
9057.000000;0.778873
9056.000000;0.778688
9055.000000;0.778666
9054.000000;0.778616
9053.000000;0.778326
