Criado como novo conjunto de dados;"e0108.spp","-4254822.9 Secs"
cm-1;Abs
10000.000000;1.042417
9999.000000;1.042180
9998.000000;1.042711
9997.000000;1.042756
9996.000000;1.041596
9995.000000;1.039695
9994.000000;1.038416
9993.000000;1.038896
9992.000000;1.041017
9991.000000;1.043525
9990.000000;1.045175
9989.000000;1.045568
9988.000000;1.044909
9987.000000;1.043456
9986.000000;1.041496
9985.000000;1.039532
9984.000000;1.038083
9983.000000;1.037340
9982.000000;1.037160
9981.000000;1.037227
9980.000000;1.037093
9979.000000;1.036319
9978.000000;1.034848
9977.000000;1.033126
9976.000000;1.031708
9975.000000;1.030866
9974.000000;1.030705
9973.000000;1.031323
9972.000000;1.032488
9971.000000;1.033334
9970.000000;1.032969
9969.000000;1.031540
9968.000000;1.030332
9967.000000;1.030564
9966.000000;1.032180
9965.000000;1.033848
9964.000000;1.034082
9963.000000;1.032505
9962.000000;1.030143
9961.000000;1.028491
9960.000000;1.028176
9959.000000;1.028529
9958.000000;1.028455
9957.000000;1.027593
9956.000000;1.026535
9955.000000;1.026135
9954.000000;1.026805
9953.000000;1.028296
9952.000000;1.029782
9951.000000;1.030192
9950.000000;1.028930
9949.000000;1.026471
9948.000000;1.024054
9947.000000;1.022691
9946.000000;1.022538
9945.000000;1.023062
9944.000000;1.023614
9943.000000;1.023886
9942.000000;1.023988
9941.000000;1.024131
9940.000000;1.024195
9939.000000;1.023772
9938.000000;1.022775
9937.000000;1.021753
9936.000000;1.021321
9935.000000;1.021432
9934.000000;1.021503
9933.000000;1.021156
9932.000000;1.020516
9931.000000;1.019854
9930.000000;1.019301
9929.000000;1.018887
9928.000000;1.018514
9927.000000;1.017865
9926.000000;1.016740
9925.000000;1.015570
9924.000000;1.015230
9923.000000;1.016139
9922.000000;1.017753
9921.000000;1.019105
9920.000000;1.019698
9919.000000;1.019741
9918.000000;1.019693
9917.000000;1.019728
9916.000000;1.019561
9915.000000;1.018760
9914.000000;1.017316
9913.000000;1.015815
9912.000000;1.014878
9911.000000;1.014534
9910.000000;1.014387
9909.000000;1.014296
9908.000000;1.014429
9907.000000;1.014599
9906.000000;1.014116
9905.000000;1.012704
9904.000000;1.011200
9903.000000;1.010746
9902.000000;1.011338
9901.000000;1.011691
9900.000000;1.010713
9899.000000;1.008761
9898.000000;1.007122
9897.000000;1.006510
9896.000000;1.006461
9895.000000;1.006169
9894.000000;1.005510
9893.000000;1.004965
9892.000000;1.004838
9891.000000;1.004991
9890.000000;1.005306
9889.000000;1.005897
9888.000000;1.006729
9887.000000;1.007405
9886.000000;1.007584
9885.000000;1.007338
9884.000000;1.006800
9883.000000;1.005796
9882.000000;1.004300
9881.000000;1.002964
9880.000000;1.002521
9879.000000;1.002727
9878.000000;1.002508
9877.000000;1.001326
9876.000000;0.999866
9875.000000;0.999137
9874.000000;0.999363
9873.000000;1.000071
9872.000000;1.000853
9871.000000;1.001578
9870.000000;1.002063
9869.000000;1.002023
9868.000000;1.001409
9867.000000;1.000503
9866.000000;0.999564
9865.000000;0.998575
9864.000000;0.997468
9863.000000;0.996479
9862.000000;0.996045
9861.000000;0.996216
9860.000000;0.996325
9859.000000;0.995576
9858.000000;0.994093
9857.000000;0.993036
9856.000000;0.993402
9855.000000;0.994974
9854.000000;0.996740
9853.000000;0.997994
9852.000000;0.998542
9851.000000;0.998097
9850.000000;0.996350
9849.000000;0.993830
9848.000000;0.991870
9847.000000;0.991252
9846.000000;0.991422
9845.000000;0.991372
9844.000000;0.990804
9843.000000;0.990003
9842.000000;0.989000
9841.000000;0.987589
9840.000000;0.985981
9839.000000;0.984835
9838.000000;0.984628
9837.000000;0.985400
9836.000000;0.986992
9835.000000;0.989061
9834.000000;0.990876
9833.000000;0.991619
9832.000000;0.991120
9831.000000;0.990026
9830.000000;0.989080
9829.000000;0.988458
9828.000000;0.987909
9827.000000;0.987261
9826.000000;0.986596
9825.000000;0.986082
9824.000000;0.985694
9823.000000;0.985070
9822.000000;0.983773
9821.000000;0.981903
9820.000000;0.980320
9819.000000;0.979885
9818.000000;0.980494
9817.000000;0.981164
9816.000000;0.981175
9815.000000;0.980774
9814.000000;0.980573
9813.000000;0.980624
9812.000000;0.980483
9811.000000;0.979977
9810.000000;0.979496
9809.000000;0.979494
9808.000000;0.980004
9807.000000;0.980707
9806.000000;0.981247
9805.000000;0.981350
9804.000000;0.980814
9803.000000;0.979627
9802.000000;0.978157
9801.000000;0.977062
9800.000000;0.976843
9799.000000;0.977350
9798.000000;0.977755
9797.000000;0.977175
9796.000000;0.975466
9795.000000;0.973434
9794.000000;0.972184
9793.000000;0.972210
9792.000000;0.973068
9791.000000;0.973896
9790.000000;0.974204
9789.000000;0.974173
9788.000000;0.974249
9787.000000;0.974570
9786.000000;0.974822
9785.000000;0.974644
9784.000000;0.974033
9783.000000;0.973299
9782.000000;0.972669
9781.000000;0.972079
9780.000000;0.971400
9779.000000;0.970699
9778.000000;0.970149
9777.000000;0.969735
9776.000000;0.969304
9775.000000;0.968903
9774.000000;0.968813
9773.000000;0.969114
9772.000000;0.969460
9771.000000;0.969430
9770.000000;0.968923
9769.000000;0.968023
9768.000000;0.966756
9767.000000;0.965337
9766.000000;0.964417
9765.000000;0.964524
9764.000000;0.965250
9763.000000;0.965520
9762.000000;0.964819
9761.000000;0.963682
9760.000000;0.962760
9759.000000;0.962007
9758.000000;0.961204
9757.000000;0.960768
9756.000000;0.961375
9755.000000;0.962956
9754.000000;0.964645
9753.000000;0.965730
9752.000000;0.966171
9751.000000;0.966140
9750.000000;0.965518
9749.000000;0.964072
9748.000000;0.961957
9747.000000;0.959836
9746.000000;0.958513
9745.000000;0.958289
9744.000000;0.958523
9743.000000;0.958098
9742.000000;0.956721
9741.000000;0.955584
9740.000000;0.956150
9739.000000;0.958356
9738.000000;0.960538
9737.000000;0.961229
9736.000000;0.960544
9735.000000;0.959565
9734.000000;0.958950
9733.000000;0.958601
9732.000000;0.958265
9731.000000;0.957845
9730.000000;0.957260
9729.000000;0.956465
9728.000000;0.955645
9727.000000;0.955123
9726.000000;0.955085
9725.000000;0.955489
9724.000000;0.956149
9723.000000;0.956772
9722.000000;0.957002
9721.000000;0.956628
9720.000000;0.955782
9719.000000;0.954793
9718.000000;0.953946
9717.000000;0.953394
9716.000000;0.953106
9715.000000;0.952810
9714.000000;0.952169
9713.000000;0.951212
9712.000000;0.950485
9711.000000;0.950554
9710.000000;0.951389
9709.000000;0.952334
9708.000000;0.952710
9707.000000;0.952386
9706.000000;0.951785
9705.000000;0.951363
9704.000000;0.951102
9703.000000;0.950546
9702.000000;0.949381
9701.000000;0.947898
9700.000000;0.946699
9699.000000;0.945999
9698.000000;0.945452
9697.000000;0.944655
9696.000000;0.943637
9695.000000;0.942815
9694.000000;0.942648
9693.000000;0.943334
9692.000000;0.944592
9691.000000;0.945715
9690.000000;0.946037
9689.000000;0.945444
9688.000000;0.944315
9687.000000;0.943044
9686.000000;0.941892
9685.000000;0.941201
9684.000000;0.941250
9683.000000;0.941747
9682.000000;0.941932
9681.000000;0.941448
9680.000000;0.940815
9679.000000;0.940745
9678.000000;0.941274
9677.000000;0.941879
9676.000000;0.942198
9675.000000;0.942260
9674.000000;0.942127
9673.000000;0.941697
9672.000000;0.940923
9671.000000;0.940018
9670.000000;0.939382
9669.000000;0.939367
9668.000000;0.940039
9667.000000;0.941047
9666.000000;0.941797
9665.000000;0.941853
9664.000000;0.941180
9663.000000;0.940054
9662.000000;0.938871
9661.000000;0.937992
9660.000000;0.937486
9659.000000;0.937032
9658.000000;0.936365
9657.000000;0.935807
9656.000000;0.935934
9655.000000;0.936606
9654.000000;0.936892
9653.000000;0.936276
9652.000000;0.935443
9651.000000;0.935321
9650.000000;0.935751
9649.000000;0.935698
9648.000000;0.934580
9647.000000;0.932834
9646.000000;0.931165
9645.000000;0.929868
9644.000000;0.928976
9643.000000;0.928592
9642.000000;0.928766
9641.000000;0.929328
9640.000000;0.930039
9639.000000;0.930699
9638.000000;0.931032
9637.000000;0.930760
9636.000000;0.930020
9635.000000;0.929467
9634.000000;0.929637
9633.000000;0.930241
9632.000000;0.930317
9631.000000;0.929221
9630.000000;0.927373
9629.000000;0.925908
9628.000000;0.925562
9627.000000;0.925970
9626.000000;0.926126
9625.000000;0.925472
9624.000000;0.924391
9623.000000;0.923648
9622.000000;0.923578
9621.000000;0.923943
9620.000000;0.924370
9619.000000;0.924722
9618.000000;0.925053
9617.000000;0.925356
9616.000000;0.925364
9615.000000;0.924644
9614.000000;0.923022
9613.000000;0.920998
9612.000000;0.919559
9611.000000;0.919374
9610.000000;0.920230
9609.000000;0.921340
9608.000000;0.922135
9607.000000;0.922657
9606.000000;0.923239
9605.000000;0.923910
9604.000000;0.924179
9603.000000;0.923447
9602.000000;0.921758
9601.000000;0.920050
9600.000000;0.919402
9599.000000;0.919974
9598.000000;0.920883
9597.000000;0.921222
9596.000000;0.920896
9595.000000;0.920412
9594.000000;0.920250
9593.000000;0.920615
9592.000000;0.921361
9591.000000;0.921826
9590.000000;0.921167
9589.000000;0.919295
9588.000000;0.917234
9587.000000;0.916091
9586.000000;0.915906
9585.000000;0.915905
9584.000000;0.915692
9583.000000;0.915601
9582.000000;0.915896
9581.000000;0.916215
9580.000000;0.916029
9579.000000;0.915275
9578.000000;0.914344
9577.000000;0.913687
9576.000000;0.913567
9575.000000;0.913899
9574.000000;0.914184
9573.000000;0.913859
9572.000000;0.912880
9571.000000;0.911830
9570.000000;0.911366
9569.000000;0.911678
9568.000000;0.912424
9567.000000;0.912938
9566.000000;0.912556
9565.000000;0.911089
9564.000000;0.909168
9563.000000;0.907877
9562.000000;0.907868
9561.000000;0.908834
9560.000000;0.909828
9559.000000;0.909980
9558.000000;0.908984
9557.000000;0.907207
9556.000000;0.905477
9555.000000;0.904561
9554.000000;0.904646
9553.000000;0.905320
9552.000000;0.906022
9551.000000;0.906379
9550.000000;0.906205
9549.000000;0.905574
9548.000000;0.905036
9547.000000;0.905352
9546.000000;0.906644
9545.000000;0.907927
9544.000000;0.907920
9543.000000;0.906424
9542.000000;0.904585
9541.000000;0.903623
9540.000000;0.903565
9539.000000;0.903491
9538.000000;0.902859
9537.000000;0.902212
9536.000000;0.902417
9535.000000;0.903516
9534.000000;0.904628
9533.000000;0.904916
9532.000000;0.904333
9531.000000;0.903379
9530.000000;0.902471
9529.000000;0.901755
9528.000000;0.901291
9527.000000;0.901145
9526.000000;0.901362
9525.000000;0.901985
9524.000000;0.903002
9523.000000;0.904107
9522.000000;0.904629
9521.000000;0.903978
9520.000000;0.902244
9519.000000;0.900228
9518.000000;0.898820
9517.000000;0.898291
9516.000000;0.898196
9515.000000;0.897913
9514.000000;0.897315
9513.000000;0.896855
9512.000000;0.896891
9511.000000;0.897105
9510.000000;0.896909
9509.000000;0.896411
9508.000000;0.896466
9507.000000;0.897488
9506.000000;0.898621
9505.000000;0.898533
9504.000000;0.896902
9503.000000;0.894717
9502.000000;0.893166
9501.000000;0.892627
9500.000000;0.892716
9499.000000;0.892897
9498.000000;0.892915
9497.000000;0.892896
9496.000000;0.893132
9495.000000;0.893694
9494.000000;0.894280
9493.000000;0.894547
9492.000000;0.894522
9491.000000;0.894498
9490.000000;0.894602
9489.000000;0.894655
9488.000000;0.894432
9487.000000;0.893863
9486.000000;0.893023
9485.000000;0.892081
9484.000000;0.891223
9483.000000;0.890515
9482.000000;0.889897
9481.000000;0.889428
9480.000000;0.889320
9479.000000;0.889532
9478.000000;0.889545
9477.000000;0.888889
9476.000000;0.887842
9475.000000;0.887214
9474.000000;0.887431
9473.000000;0.888106
9472.000000;0.888486
9471.000000;0.888101
9470.000000;0.887031
9469.000000;0.885810
9468.000000;0.885066
9467.000000;0.885018
9466.000000;0.885301
9465.000000;0.885413
9464.000000;0.885259
9463.000000;0.885094
9462.000000;0.885129
9461.000000;0.885418
9460.000000;0.885967
9459.000000;0.886604
9458.000000;0.886902
9457.000000;0.886627
9456.000000;0.886139
9455.000000;0.885986
9454.000000;0.886194
9453.000000;0.886377
9452.000000;0.886391
9451.000000;0.886373
9450.000000;0.886205
9449.000000;0.885583
9448.000000;0.884713
9447.000000;0.884307
9446.000000;0.884657
9445.000000;0.885192
9444.000000;0.885250
9443.000000;0.884862
9442.000000;0.884455
9441.000000;0.884195
9440.000000;0.883955
9439.000000;0.883661
9438.000000;0.883328
9437.000000;0.882932
9436.000000;0.882508
9435.000000;0.882148
9434.000000;0.881762
9433.000000;0.881133
9432.000000;0.880397
9431.000000;0.880101
9430.000000;0.880483
9429.000000;0.881025
9428.000000;0.881085
9427.000000;0.880703
9426.000000;0.880386
9425.000000;0.880302
9424.000000;0.880151
9423.000000;0.879716
9422.000000;0.879068
9421.000000;0.878250
9420.000000;0.877189
9419.000000;0.876013
9418.000000;0.875133
9417.000000;0.874839
9416.000000;0.874978
9415.000000;0.875122
9414.000000;0.874962
9413.000000;0.874540
9412.000000;0.874175
9411.000000;0.874185
9410.000000;0.874560
9409.000000;0.874934
9408.000000;0.874954
9407.000000;0.874645
9406.000000;0.874346
9405.000000;0.874337
9404.000000;0.874611
9403.000000;0.874943
9402.000000;0.875087
9401.000000;0.874912
9400.000000;0.874455
9399.000000;0.873866
9398.000000;0.873289
9397.000000;0.872804
9396.000000;0.872416
9395.000000;0.872076
9394.000000;0.871744
9393.000000;0.871552
9392.000000;0.871778
9391.000000;0.872430
9390.000000;0.872972
9389.000000;0.872793
9388.000000;0.871970
9387.000000;0.871228
9386.000000;0.871094
9385.000000;0.871426
9384.000000;0.871801
9383.000000;0.871915
9382.000000;0.871496
9381.000000;0.870359
9380.000000;0.868891
9379.000000;0.868020
9378.000000;0.868233
9377.000000;0.868951
9376.000000;0.869320
9375.000000;0.869299
9374.000000;0.869427
9373.000000;0.869750
9372.000000;0.869721
9371.000000;0.869146
9370.000000;0.868511
9369.000000;0.868187
9368.000000;0.867939
9367.000000;0.867509
9366.000000;0.867169
9365.000000;0.867263
9364.000000;0.867536
9363.000000;0.867392
9362.000000;0.866709
9361.000000;0.865994
9360.000000;0.865772
9359.000000;0.866095
9358.000000;0.866658
9357.000000;0.867107
9356.000000;0.867160
9355.000000;0.866725
9354.000000;0.866022
9353.000000;0.865429
9352.000000;0.865076
9351.000000;0.864686
9350.000000;0.863911
9349.000000;0.862839
9348.000000;0.862030
9347.000000;0.862025
9346.000000;0.862860
9345.000000;0.864054
9344.000000;0.864925
9343.000000;0.864882
9342.000000;0.863700
9341.000000;0.861814
9340.000000;0.860230
9339.000000;0.859748
9338.000000;0.860148
9337.000000;0.860447
9336.000000;0.860047
9335.000000;0.859334
9334.000000;0.858970
9333.000000;0.858994
9332.000000;0.858983
9331.000000;0.858808
9330.000000;0.858745
9329.000000;0.858909
9328.000000;0.859074
9327.000000;0.859081
9326.000000;0.859075
9325.000000;0.859194
9324.000000;0.859327
9323.000000;0.859303
9322.000000;0.859078
9321.000000;0.858645
9320.000000;0.858003
9319.000000;0.857322
9318.000000;0.856911
9317.000000;0.856845
9316.000000;0.856844
9315.000000;0.856660
9314.000000;0.856382
9313.000000;0.856222
9312.000000;0.856185
9311.000000;0.856184
9310.000000;0.856276
9309.000000;0.856532
9308.000000;0.856797
9307.000000;0.856840
9306.000000;0.856684
9305.000000;0.856523
9304.000000;0.856358
9303.000000;0.855976
9302.000000;0.855317
9301.000000;0.854619
9300.000000;0.854153
9299.000000;0.853988
9298.000000;0.854090
9297.000000;0.854414
9296.000000;0.854774
9295.000000;0.854826
9294.000000;0.854379
9293.000000;0.853624
9292.000000;0.852919
9291.000000;0.852448
9290.000000;0.852187
9289.000000;0.852108
9288.000000;0.852200
9287.000000;0.852366
9286.000000;0.852506
9285.000000;0.852712
9284.000000;0.853135
9283.000000;0.853646
9282.000000;0.853843
9281.000000;0.853538
9280.000000;0.853026
9279.000000;0.852704
9278.000000;0.852573
9277.000000;0.852316
9276.000000;0.851794
9275.000000;0.851242
9274.000000;0.850979
9273.000000;0.851050
9272.000000;0.851185
9271.000000;0.850990
9270.000000;0.850256
9269.000000;0.849261
9268.000000;0.848706
9267.000000;0.849087
9266.000000;0.850070
9265.000000;0.850681
9264.000000;0.850295
9263.000000;0.849294
9262.000000;0.848604
9261.000000;0.848726
9260.000000;0.849355
9259.000000;0.849830
9258.000000;0.849738
9257.000000;0.849104
9256.000000;0.848239
9255.000000;0.847510
9254.000000;0.847141
9253.000000;0.847088
9252.000000;0.847079
9251.000000;0.846825
9250.000000;0.846281
9249.000000;0.845706
9248.000000;0.845397
9247.000000;0.845286
9246.000000;0.844902
9245.000000;0.843943
9244.000000;0.842860
9243.000000;0.842582
9242.000000;0.843503
9241.000000;0.844945
9240.000000;0.845840
9239.000000;0.845838
9238.000000;0.845471
9237.000000;0.845298
9236.000000;0.845259
9235.000000;0.845008
9234.000000;0.844571
9233.000000;0.844356
9232.000000;0.844589
9231.000000;0.845011
9230.000000;0.845156
9229.000000;0.844757
9228.000000;0.843841
9227.000000;0.842614
9226.000000;0.841433
9225.000000;0.840779
9224.000000;0.841018
9223.000000;0.842091
9222.000000;0.843516
9221.000000;0.844745
9220.000000;0.845474
9219.000000;0.845616
9218.000000;0.845176
9217.000000;0.844345
9216.000000;0.843597
9215.000000;0.843445
9214.000000;0.843991
9213.000000;0.844809
9212.000000;0.845297
9211.000000;0.845081
9210.000000;0.844148
9209.000000;0.842822
9208.000000;0.841668
9207.000000;0.841213
9206.000000;0.841536
9205.000000;0.842152
9204.000000;0.842419
9203.000000;0.842032
9202.000000;0.841107
9201.000000;0.839935
9200.000000;0.838819
9199.000000;0.838041
9198.000000;0.837785
9197.000000;0.838007
9196.000000;0.838482
9195.000000;0.838981
9194.000000;0.839366
9193.000000;0.839534
9192.000000;0.839421
9191.000000;0.839105
9190.000000;0.838789
9189.000000;0.838604
9188.000000;0.838492
9187.000000;0.838310
9186.000000;0.837991
9185.000000;0.837543
9184.000000;0.836958
9183.000000;0.836253
9182.000000;0.835601
9181.000000;0.835270
9180.000000;0.835340
9179.000000;0.835531
9178.000000;0.835463
9177.000000;0.835076
9176.000000;0.834679
9175.000000;0.834552
9174.000000;0.834645
9173.000000;0.834746
9172.000000;0.834778
9171.000000;0.834746
9170.000000;0.834525
9169.000000;0.833987
9168.000000;0.833369
9167.000000;0.833209
9166.000000;0.833753
9165.000000;0.834581
9164.000000;0.834988
9163.000000;0.834705
9162.000000;0.834085
9161.000000;0.833662
9160.000000;0.833636
9159.000000;0.833805
9158.000000;0.833845
9157.000000;0.833630
9156.000000;0.833297
9155.000000;0.833049
9154.000000;0.832950
9153.000000;0.832984
9152.000000;0.833211
9151.000000;0.833701
9150.000000;0.834273
9149.000000;0.834527
9148.000000;0.834281
9147.000000;0.833858
9146.000000;0.833761
9145.000000;0.834146
9144.000000;0.834720
9143.000000;0.835074
9142.000000;0.834953
9141.000000;0.834283
9140.000000;0.833190
9139.000000;0.832036
9138.000000;0.831259
9137.000000;0.831041
9136.000000;0.831167
9135.000000;0.831252
9134.000000;0.831103
9133.000000;0.830889
9132.000000;0.830984
9131.000000;0.831617
9130.000000;0.832585
9129.000000;0.833293
9128.000000;0.833164
9127.000000;0.832111
9126.000000;0.830662
9125.000000;0.829638
9124.000000;0.829601
9123.000000;0.830455
9122.000000;0.831511
9121.000000;0.832061
9120.000000;0.831963
9119.000000;0.831605
9118.000000;0.831283
9117.000000;0.830859
9116.000000;0.830140
9115.000000;0.829353
9114.000000;0.828940
9113.000000;0.828972
9112.000000;0.829056
9111.000000;0.828841
9110.000000;0.828371
9109.000000;0.827874
9108.000000;0.827432
9107.000000;0.826974
9106.000000;0.826483
9105.000000;0.826081
9104.000000;0.825982
9103.000000;0.826365
9102.000000;0.827196
9101.000000;0.828120
9100.000000;0.828689
9099.000000;0.828783
9098.000000;0.828668
9097.000000;0.828583
9096.000000;0.828414
9095.000000;0.827936
9094.000000;0.827233
9093.000000;0.826661
9092.000000;0.826414
9091.000000;0.826303
9090.000000;0.825990
9089.000000;0.825356
9088.000000;0.824617
9087.000000;0.824197
9086.000000;0.824467
9085.000000;0.825430
9084.000000;0.826564
9083.000000;0.827083
9082.000000;0.826573
9081.000000;0.825389
9080.000000;0.824356
9079.000000;0.824073
9078.000000;0.824520
9077.000000;0.825251
9076.000000;0.825814
9075.000000;0.825977
9074.000000;0.825753
9073.000000;0.825359
9072.000000;0.825079
9071.000000;0.825044
9070.000000;0.825129
9069.000000;0.825157
9068.000000;0.825144
9067.000000;0.825197
9066.000000;0.825237
9065.000000;0.825005
9064.000000;0.824395
9063.000000;0.823646
9062.000000;0.823100
9061.000000;0.822866
9060.000000;0.822789
9059.000000;0.822692
9058.000000;0.822621
9057.000000;0.822854
9056.000000;0.823593
9055.000000;0.824550
9054.000000;0.824924
9053.000000;0.824117
