Criado como novo conjunto de dados;"e0108.spp","-4286504.9 Secs"
cm-1;Abs
10000.000000;0.917072
9999.000000;0.917710
9998.000000;0.918348
9997.000000;0.918987
9996.000000;0.919627
9995.000000;0.920269
9994.000000;0.920909
9993.000000;0.921555
9992.000000;0.922194
9991.000000;0.922847
9990.000000;0.923479
9989.000000;0.924142
9988.000000;0.924439
9987.000000;0.924069
9986.000000;0.923271
9985.000000;0.922205
9984.000000;0.920925
9983.000000;0.919555
9982.000000;0.918457
9981.000000;0.918025
9980.000000;0.918305
9979.000000;0.918754
9978.000000;0.918552
9977.000000;0.917462
9976.000000;0.916351
9975.000000;0.916494
9974.000000;0.918151
9973.000000;0.920047
9972.000000;0.920480
9971.000000;0.918936
9970.000000;0.916461
9969.000000;0.914582
9968.000000;0.914125
9967.000000;0.914932
9966.000000;0.916262
9965.000000;0.917280
9964.000000;0.917445
9963.000000;0.916776
9962.000000;0.915814
9961.000000;0.915178
9960.000000;0.915059
9959.000000;0.915129
9958.000000;0.914874
9957.000000;0.913933
9956.000000;0.912273
9955.000000;0.910266
9954.000000;0.908610
9953.000000;0.907935
9952.000000;0.908302
9951.000000;0.909115
9950.000000;0.909615
9949.000000;0.909474
9948.000000;0.908890
9947.000000;0.908243
9946.000000;0.907782
9945.000000;0.907591
9944.000000;0.907610
9943.000000;0.907647
9942.000000;0.907443
9941.000000;0.906818
9940.000000;0.905811
9939.000000;0.904754
9938.000000;0.904232
9937.000000;0.904734
9936.000000;0.906107
9935.000000;0.907457
9934.000000;0.907822
9933.000000;0.906915
9932.000000;0.905141
9931.000000;0.903083
9930.000000;0.901275
9929.000000;0.900274
9928.000000;0.900411
9927.000000;0.901324
9926.000000;0.902067
9925.000000;0.901923
9924.000000;0.900972
9923.000000;0.899829
9922.000000;0.899038
9921.000000;0.898800
9920.000000;0.898911
9919.000000;0.898816
9918.000000;0.898065
9917.000000;0.896935
9916.000000;0.896357
9915.000000;0.897011
9914.000000;0.898612
9913.000000;0.900168
9912.000000;0.900725
9911.000000;0.899859
9910.000000;0.897861
9909.000000;0.895710
9908.000000;0.894538
9907.000000;0.894677
9906.000000;0.895324
9905.000000;0.895449
9904.000000;0.894908
9903.000000;0.894372
9902.000000;0.894302
9901.000000;0.894372
9900.000000;0.893919
9899.000000;0.892643
9898.000000;0.890814
9897.000000;0.889061
9896.000000;0.888040
9895.000000;0.888097
9894.000000;0.889032
9893.000000;0.890160
9892.000000;0.890702
9891.000000;0.890276
9890.000000;0.889167
9889.000000;0.888076
9888.000000;0.887489
9887.000000;0.887306
9886.000000;0.887207
9885.000000;0.887234
9884.000000;0.887684
9883.000000;0.888452
9882.000000;0.888915
9881.000000;0.888596
9880.000000;0.887652
9879.000000;0.886566
9878.000000;0.885714
9877.000000;0.885333
9876.000000;0.885503
9875.000000;0.885907
9874.000000;0.885980
9873.000000;0.885598
9872.000000;0.885273
9871.000000;0.885395
9870.000000;0.885655
9869.000000;0.885534
9868.000000;0.885001
9867.000000;0.884307
9866.000000;0.883456
9865.000000;0.882329
9864.000000;0.881112
9863.000000;0.880122
9862.000000;0.879388
9861.000000;0.878819
9860.000000;0.878578
9859.000000;0.878826
9858.000000;0.879278
9857.000000;0.879443
9856.000000;0.879224
9855.000000;0.878899
9854.000000;0.878670
9853.000000;0.878622
9852.000000;0.878912
9851.000000;0.879529
9850.000000;0.879988
9849.000000;0.879739
9848.000000;0.878804
9847.000000;0.877615
9846.000000;0.876414
9845.000000;0.875282
9844.000000;0.874530
9843.000000;0.874455
9842.000000;0.874725
9841.000000;0.874575
9840.000000;0.873654
9839.000000;0.872333
9838.000000;0.871244
9837.000000;0.870953
9836.000000;0.871840
9835.000000;0.873626
9834.000000;0.875091
9833.000000;0.874971
9832.000000;0.873321
9831.000000;0.871449
9830.000000;0.870390
9829.000000;0.869968
9828.000000;0.869459
9827.000000;0.868578
9826.000000;0.867596
9825.000000;0.866998
9824.000000;0.867203
9823.000000;0.868151
9822.000000;0.868989
9821.000000;0.868742
9820.000000;0.867485
9819.000000;0.866368
9818.000000;0.866223
9817.000000;0.866676
9816.000000;0.866860
9815.000000;0.866473
9814.000000;0.865765
9813.000000;0.864935
9812.000000;0.864032
9811.000000;0.863204
9810.000000;0.862637
9809.000000;0.862386
9808.000000;0.862451
9807.000000;0.862823
9806.000000;0.863283
9805.000000;0.863456
9804.000000;0.863217
9803.000000;0.862806
9802.000000;0.862439
9801.000000;0.862115
9800.000000;0.861846
9799.000000;0.861618
9798.000000;0.861068
9797.000000;0.859802
9796.000000;0.858234
9795.000000;0.857443
9794.000000;0.857816
9793.000000;0.858437
9792.000000;0.858354
9791.000000;0.857889
9790.000000;0.858033
9789.000000;0.858931
9788.000000;0.859678
9787.000000;0.859514
9786.000000;0.858557
9785.000000;0.857397
9784.000000;0.856523
9783.000000;0.856174
9782.000000;0.856273
9781.000000;0.856416
9780.000000;0.856239
9779.000000;0.855795
9778.000000;0.855303
9777.000000;0.854686
9776.000000;0.853736
9775.000000;0.852670
9774.000000;0.852091
9773.000000;0.852355
9772.000000;0.853249
9771.000000;0.854206
9770.000000;0.854602
9769.000000;0.854008
9768.000000;0.852555
9767.000000;0.851004
9766.000000;0.850078
9765.000000;0.849750
9764.000000;0.849479
9763.000000;0.849047
9762.000000;0.848745
9761.000000;0.848779
9760.000000;0.848958
9759.000000;0.849106
9758.000000;0.849359
9757.000000;0.849838
9756.000000;0.850341
9755.000000;0.850539
9754.000000;0.850303
9753.000000;0.849718
9752.000000;0.848952
9751.000000;0.848186
9750.000000;0.847514
9749.000000;0.846889
9748.000000;0.846321
9747.000000;0.846077
9746.000000;0.846362
9745.000000;0.846806
9744.000000;0.846681
9743.000000;0.845802
9742.000000;0.844863
9741.000000;0.844606
9740.000000;0.844931
9739.000000;0.845086
9738.000000;0.844600
9737.000000;0.843661
9736.000000;0.842647
9735.000000;0.841660
9734.000000;0.840654
9733.000000;0.839816
9732.000000;0.839560
9731.000000;0.840089
9730.000000;0.841033
9729.000000;0.841652
9728.000000;0.841445
9727.000000;0.840501
9726.000000;0.839222
9725.000000;0.837867
9724.000000;0.836579
9723.000000;0.835723
9722.000000;0.835789
9721.000000;0.836824
9720.000000;0.838199
9719.000000;0.839155
9718.000000;0.839457
9717.000000;0.839338
9716.000000;0.838935
9715.000000;0.838104
9714.000000;0.836824
9713.000000;0.835500
9712.000000;0.834703
9711.000000;0.834644
9710.000000;0.834985
9709.000000;0.835171
9708.000000;0.834922
9707.000000;0.834435
9706.000000;0.834117
9705.000000;0.834107
9704.000000;0.834069
9703.000000;0.833538
9702.000000;0.832487
9701.000000;0.831457
9700.000000;0.831025
9699.000000;0.831229
9698.000000;0.831634
9697.000000;0.831895
9696.000000;0.832088
9695.000000;0.832441
9694.000000;0.832926
9693.000000;0.833256
9692.000000;0.833186
9691.000000;0.832682
9690.000000;0.831846
9689.000000;0.830839
9688.000000;0.829896
9687.000000;0.829237
9686.000000;0.828911
9685.000000;0.828791
9684.000000;0.828738
9683.000000;0.828646
9682.000000;0.828367
9681.000000;0.827761
9680.000000;0.826934
9679.000000;0.826282
9678.000000;0.826193
9677.000000;0.826737
9676.000000;0.827661
9675.000000;0.828545
9674.000000;0.828887
9673.000000;0.828281
9672.000000;0.826792
9671.000000;0.825124
9670.000000;0.824188
9669.000000;0.824326
9668.000000;0.824982
9667.000000;0.825185
9666.000000;0.824395
9665.000000;0.822954
9664.000000;0.821766
9663.000000;0.821529
9662.000000;0.822193
9661.000000;0.823098
9660.000000;0.823630
9659.000000;0.823683
9658.000000;0.823487
9657.000000;0.823184
9656.000000;0.822748
9655.000000;0.822210
9654.000000;0.821705
9653.000000;0.821270
9652.000000;0.820814
9651.000000;0.820332
9650.000000;0.819961
9649.000000;0.819716
9648.000000;0.819342
9647.000000;0.818599
9646.000000;0.817583
9645.000000;0.816630
9644.000000;0.816008
9643.000000;0.815858
9642.000000;0.816268
9641.000000;0.817126
9640.000000;0.817904
9639.000000;0.817871
9638.000000;0.816709
9637.000000;0.814855
9636.000000;0.813223
9635.000000;0.812611
9634.000000;0.813266
9633.000000;0.814717
9632.000000;0.815981
9631.000000;0.816213
9630.000000;0.815405
9629.000000;0.814311
9628.000000;0.813565
9627.000000;0.813064
9626.000000;0.812400
9625.000000;0.811589
9624.000000;0.811004
9623.000000;0.810716
9622.000000;0.810356
9621.000000;0.809707
9620.000000;0.809049
9619.000000;0.808756
9618.000000;0.808877
9617.000000;0.809291
9616.000000;0.809975
9615.000000;0.810818
9614.000000;0.811386
9613.000000;0.811248
9612.000000;0.810528
9611.000000;0.809838
9610.000000;0.809614
9609.000000;0.809735
9608.000000;0.809811
9607.000000;0.809658
9606.000000;0.809370
9605.000000;0.809085
9604.000000;0.808798
9603.000000;0.808335
9602.000000;0.807422
9601.000000;0.805871
9600.000000;0.803823
9599.000000;0.801860
9598.000000;0.800756
9597.000000;0.800976
9596.000000;0.802277
9595.000000;0.803803
9594.000000;0.804665
9593.000000;0.804555
9592.000000;0.803859
9591.000000;0.803253
9590.000000;0.803196
9589.000000;0.803662
9588.000000;0.804178
9587.000000;0.804166
9586.000000;0.803461
9585.000000;0.802522
9584.000000;0.801957
9583.000000;0.801821
9582.000000;0.801617
9581.000000;0.801016
9580.000000;0.800301
9579.000000;0.799897
9578.000000;0.799747
9577.000000;0.799432
9576.000000;0.798792
9575.000000;0.798100
9574.000000;0.797650
9573.000000;0.797425
9572.000000;0.797225
9571.000000;0.796926
9570.000000;0.796556
9569.000000;0.796242
9568.000000;0.796113
9567.000000;0.796137
9566.000000;0.796069
9565.000000;0.795672
9564.000000;0.795019
9563.000000;0.794459
9562.000000;0.794282
9561.000000;0.794485
9560.000000;0.794795
9559.000000;0.794834
9558.000000;0.794317
9557.000000;0.793280
9556.000000;0.792164
9555.000000;0.791559
9554.000000;0.791753
9553.000000;0.792525
9552.000000;0.793366
9551.000000;0.793865
9550.000000;0.793971
9549.000000;0.793967
9548.000000;0.794129
9547.000000;0.794326
9546.000000;0.794048
9545.000000;0.792974
9544.000000;0.791453
9543.000000;0.790253
9542.000000;0.789822
9541.000000;0.789866
9540.000000;0.789692
9539.000000;0.788914
9538.000000;0.787846
9537.000000;0.787223
9536.000000;0.787507
9535.000000;0.788434
9534.000000;0.789271
9533.000000;0.789508
9532.000000;0.789192
9531.000000;0.788615
9530.000000;0.787922
9529.000000;0.787153
9528.000000;0.786429
9527.000000;0.785894
9526.000000;0.785594
9525.000000;0.785556
9524.000000;0.785794
9523.000000;0.786071
9522.000000;0.785897
9521.000000;0.785078
9520.000000;0.784144
9519.000000;0.783863
9518.000000;0.784365
9517.000000;0.785052
9516.000000;0.785356
9515.000000;0.785235
9514.000000;0.784906
9513.000000;0.784477
9512.000000;0.784011
9511.000000;0.783695
9510.000000;0.783716
9509.000000;0.784037
9508.000000;0.784358
9507.000000;0.784222
9506.000000;0.783252
9505.000000;0.781559
9504.000000;0.779943
9503.000000;0.779356
9502.000000;0.779963
9501.000000;0.780934
9500.000000;0.781324
9499.000000;0.781017
9498.000000;0.780630
9497.000000;0.780665
9496.000000;0.781051
9495.000000;0.781421
9494.000000;0.781536
9493.000000;0.781305
9492.000000;0.780629
9491.000000;0.779477
9490.000000;0.778119
9489.000000;0.777110
9488.000000;0.776895
9487.000000;0.777391
9486.000000;0.778057
9485.000000;0.778422
9484.000000;0.778509
9483.000000;0.778683
9482.000000;0.779143
9481.000000;0.779665
9480.000000;0.779798
9479.000000;0.779248
9478.000000;0.778061
9477.000000;0.776554
9476.000000;0.775133
9475.000000;0.774134
9474.000000;0.773734
9473.000000;0.773871
9472.000000;0.774195
9471.000000;0.774203
9470.000000;0.773670
9469.000000;0.772955
9468.000000;0.772707
9467.000000;0.773201
9466.000000;0.774110
9465.000000;0.774862
9464.000000;0.774976
9463.000000;0.774103
9462.000000;0.772239
9461.000000;0.770109
9460.000000;0.768891
9459.000000;0.769164
9458.000000;0.770313
9457.000000;0.771289
9456.000000;0.771690
9455.000000;0.771755
9454.000000;0.771629
9453.000000;0.771268
9452.000000;0.770910
9451.000000;0.770959
9450.000000;0.771301
9449.000000;0.771282
9448.000000;0.770595
9447.000000;0.769782
9446.000000;0.769639
9445.000000;0.770367
9444.000000;0.771410
9443.000000;0.771847
9442.000000;0.770933
9441.000000;0.768700
9440.000000;0.766220
9439.000000;0.764901
9438.000000;0.765238
9437.000000;0.766389
9436.000000;0.767126
9435.000000;0.766978
9434.000000;0.766301
9433.000000;0.765616
9432.000000;0.765244
9431.000000;0.765352
9430.000000;0.765919
9429.000000;0.766596
9428.000000;0.766878
9427.000000;0.766515
9426.000000;0.765740
9425.000000;0.765114
9424.000000;0.765132
9423.000000;0.765829
9422.000000;0.766672
9421.000000;0.766950
9420.000000;0.766388
9419.000000;0.765312
9418.000000;0.764254
9417.000000;0.763540
9416.000000;0.763237
9415.000000;0.763231
9414.000000;0.763314
9413.000000;0.763371
9412.000000;0.763543
9411.000000;0.763942
9410.000000;0.764219
9409.000000;0.763790
9408.000000;0.762601
9407.000000;0.761337
9406.000000;0.760675
9405.000000;0.760643
9404.000000;0.760909
9403.000000;0.761308
9402.000000;0.761751
9401.000000;0.761870
9400.000000;0.761258
9399.000000;0.760043
9398.000000;0.758910
9397.000000;0.758493
9396.000000;0.758901
9395.000000;0.759726
9394.000000;0.760337
9393.000000;0.760289
9392.000000;0.759648
9391.000000;0.758864
9390.000000;0.758274
9389.000000;0.757846
9388.000000;0.757501
9387.000000;0.757369
9386.000000;0.757522
9385.000000;0.757710
9384.000000;0.757684
9383.000000;0.757577
9382.000000;0.757631
9381.000000;0.757708
9380.000000;0.757441
9379.000000;0.756778
9378.000000;0.756008
9377.000000;0.755313
9376.000000;0.754669
9375.000000;0.754136
9374.000000;0.753860
9373.000000;0.753770
9372.000000;0.753652
9371.000000;0.753574
9370.000000;0.753889
9369.000000;0.754686
9368.000000;0.755535
9367.000000;0.755877
9366.000000;0.755437
9365.000000;0.754260
9364.000000;0.752690
9363.000000;0.751428
9362.000000;0.751179
9361.000000;0.751982
9360.000000;0.753117
9359.000000;0.753863
9358.000000;0.754114
9357.000000;0.754078
9356.000000;0.753711
9355.000000;0.752858
9354.000000;0.751735
9353.000000;0.750869
9352.000000;0.750573
9351.000000;0.750741
9350.000000;0.751078
9349.000000;0.751259
9348.000000;0.751005
9347.000000;0.750323
9346.000000;0.749651
9345.000000;0.749450
9344.000000;0.749601
9343.000000;0.749495
9342.000000;0.748776
9341.000000;0.747767
9340.000000;0.747117
9339.000000;0.747259
9338.000000;0.748193
9337.000000;0.749481
9336.000000;0.750357
9335.000000;0.750188
9334.000000;0.749136
9333.000000;0.748133
9332.000000;0.747951
9331.000000;0.748415
9330.000000;0.748757
9329.000000;0.748581
9328.000000;0.748201
9327.000000;0.748101
9326.000000;0.748370
9325.000000;0.748670
9324.000000;0.748551
9323.000000;0.747766
9322.000000;0.746492
9321.000000;0.745260
9320.000000;0.744530
9319.000000;0.744320
9318.000000;0.744341
9317.000000;0.744411
9316.000000;0.744534
9315.000000;0.744649
9314.000000;0.744598
9313.000000;0.744361
9312.000000;0.744070
9311.000000;0.743737
9310.000000;0.743235
9309.000000;0.742628
9308.000000;0.742211
9307.000000;0.742115
9306.000000;0.742120
9305.000000;0.742002
9304.000000;0.741833
9303.000000;0.741750
9302.000000;0.741691
9301.000000;0.741550
9300.000000;0.741401
9299.000000;0.741323
9298.000000;0.741216
9297.000000;0.741016
9296.000000;0.740918
9295.000000;0.741088
9294.000000;0.741321
9293.000000;0.741280
9292.000000;0.740987
9291.000000;0.740735
9290.000000;0.740590
9289.000000;0.740328
9288.000000;0.739877
9287.000000;0.739478
9286.000000;0.739350
9285.000000;0.739448
9284.000000;0.739626
9283.000000;0.739796
9282.000000;0.739841
9281.000000;0.739594
9280.000000;0.739039
9279.000000;0.738403
9278.000000;0.737987
9277.000000;0.737977
9276.000000;0.738362
9275.000000;0.738870
9274.000000;0.739047
9273.000000;0.738652
9272.000000;0.737974
9271.000000;0.737529
9270.000000;0.737475
9269.000000;0.737563
9268.000000;0.737639
9267.000000;0.737811
9266.000000;0.738022
9265.000000;0.737834
9264.000000;0.736945
9263.000000;0.735747
9262.000000;0.735073
9261.000000;0.735434
9260.000000;0.736576
9259.000000;0.737668
9258.000000;0.737866
9257.000000;0.736879
9256.000000;0.735188
9255.000000;0.733623
9254.000000;0.732683
9253.000000;0.732323
9252.000000;0.732363
9251.000000;0.732791
9250.000000;0.733518
9249.000000;0.734172
9248.000000;0.734415
9247.000000;0.734315
9246.000000;0.734123
9245.000000;0.733821
9244.000000;0.733234
9243.000000;0.732523
9242.000000;0.732203
9241.000000;0.732570
9240.000000;0.733325
9239.000000;0.733865
9238.000000;0.733819
9237.000000;0.733255
9236.000000;0.732538
9235.000000;0.732069
9234.000000;0.732031
9233.000000;0.732239
9232.000000;0.732267
9231.000000;0.731854
9230.000000;0.731188
9229.000000;0.730748
9228.000000;0.730855
9227.000000;0.731373
9226.000000;0.731842
9225.000000;0.731911
9224.000000;0.731681
9223.000000;0.731608
9222.000000;0.732014
9221.000000;0.732691
9220.000000;0.733026
9219.000000;0.732549
9218.000000;0.731407
9217.000000;0.730270
9216.000000;0.729746
9215.000000;0.729865
9214.000000;0.730103
9213.000000;0.729938
9212.000000;0.729373
9211.000000;0.728860
9210.000000;0.728730
9209.000000;0.728808
9208.000000;0.728681
9207.000000;0.728277
9206.000000;0.728047
9205.000000;0.728440
9204.000000;0.729292
9203.000000;0.729884
9202.000000;0.729654
9201.000000;0.728774
9200.000000;0.727910
9199.000000;0.727521
9198.000000;0.727555
9197.000000;0.727741
9196.000000;0.727911
9195.000000;0.727972
9194.000000;0.727808
9193.000000;0.727404
9192.000000;0.726928
9191.000000;0.726540
9190.000000;0.726230
9189.000000;0.725948
9188.000000;0.725778
9187.000000;0.725805
9186.000000;0.725948
9185.000000;0.726117
9184.000000;0.726379
9183.000000;0.726758
9182.000000;0.726942
9181.000000;0.726509
9180.000000;0.725459
9179.000000;0.724271
9178.000000;0.723441
9177.000000;0.723138
9176.000000;0.723270
9175.000000;0.723602
9174.000000;0.723794
9173.000000;0.723626
9172.000000;0.723253
9171.000000;0.723030
9170.000000;0.723021
9169.000000;0.722937
9168.000000;0.722636
9167.000000;0.722410
9166.000000;0.722626
9165.000000;0.723267
9164.000000;0.723963
9163.000000;0.724333
9162.000000;0.724186
9161.000000;0.723578
9160.000000;0.722822
9159.000000;0.722329
9158.000000;0.722287
9157.000000;0.722554
9156.000000;0.722858
9155.000000;0.722971
9154.000000;0.722703
9153.000000;0.722004
9152.000000;0.721186
9151.000000;0.720779
9150.000000;0.721016
9149.000000;0.721605
9148.000000;0.722118
9147.000000;0.722387
9146.000000;0.722409
9145.000000;0.722156
9144.000000;0.721712
9143.000000;0.721364
9142.000000;0.721240
9141.000000;0.721061
9140.000000;0.720547
9139.000000;0.719923
9138.000000;0.719646
9137.000000;0.719715
9136.000000;0.719665
9135.000000;0.719284
9134.000000;0.718979
9133.000000;0.719251
9132.000000;0.720050
9131.000000;0.720823
9130.000000;0.721056
9129.000000;0.720649
9128.000000;0.719883
9127.000000;0.719189
9126.000000;0.718906
9125.000000;0.719082
9124.000000;0.719440
9123.000000;0.719572
9122.000000;0.719253
9121.000000;0.718611
9120.000000;0.718010
9119.000000;0.717704
9118.000000;0.717618
9117.000000;0.717495
9116.000000;0.717252
9115.000000;0.717080
9114.000000;0.717151
9113.000000;0.717346
9112.000000;0.717367
9111.000000;0.717072
9110.000000;0.716610
9109.000000;0.716293
9108.000000;0.716395
9107.000000;0.716982
9106.000000;0.717808
9105.000000;0.718398
9104.000000;0.718359
9103.000000;0.717682
9102.000000;0.716764
9101.000000;0.716096
9100.000000;0.715893
9099.000000;0.715936
9098.000000;0.715811
9097.000000;0.715375
9096.000000;0.714971
9095.000000;0.715074
9094.000000;0.715727
9093.000000;0.716469
9092.000000;0.716816
9091.000000;0.716642
9090.000000;0.716099
9089.000000;0.715394
9088.000000;0.714761
9087.000000;0.714439
9086.000000;0.714485
9085.000000;0.714701
9084.000000;0.714809
9083.000000;0.714644
9082.000000;0.714140
9081.000000;0.713379
9080.000000;0.712713
9079.000000;0.712580
9078.000000;0.713016
9077.000000;0.713586
9076.000000;0.713956
9075.000000;0.714292
9074.000000;0.714810
9073.000000;0.715232
9072.000000;0.715063
9071.000000;0.714315
9070.000000;0.713526
9069.000000;0.713094
9068.000000;0.712936
9067.000000;0.712828
9066.000000;0.712716
9065.000000;0.712604
9064.000000;0.712416
9063.000000;0.712122
9062.000000;0.711781
9061.000000;0.711397
9060.000000;0.710945
9059.000000;0.710606
9058.000000;0.710747
9057.000000;0.711491
9056.000000;0.712438
9055.000000;0.712964
9054.000000;0.712756
9053.000000;0.712032
