Criado como novo conjunto de dados;"e0108.spp","-4291365.2 Secs"
cm-1;Abs
10000.000000;0.454932
9999.000000;0.453939
9998.000000;0.452900
9997.000000;0.452260
9996.000000;0.452233
9995.000000;0.452604
9994.000000;0.453096
9993.000000;0.453518
9992.000000;0.453813
9991.000000;0.453883
9990.000000;0.453583
9989.000000;0.452819
9988.000000;0.451691
9987.000000;0.450518
9986.000000;0.449668
9985.000000;0.449286
9984.000000;0.449188
9983.000000;0.449037
9982.000000;0.448637
9981.000000;0.448040
9980.000000;0.447467
9979.000000;0.447144
9978.000000;0.447175
9977.000000;0.447463
9976.000000;0.447790
9975.000000;0.448039
9974.000000;0.448270
9973.000000;0.448480
9972.000000;0.448412
9971.000000;0.447783
9970.000000;0.446705
9969.000000;0.445667
9968.000000;0.445028
9967.000000;0.444689
9966.000000;0.444333
9965.000000;0.443812
9964.000000;0.443191
9963.000000;0.442590
9962.000000;0.442140
9961.000000;0.441980
9960.000000;0.442095
9959.000000;0.442211
9958.000000;0.441989
9957.000000;0.441322
9956.000000;0.440374
9955.000000;0.439405
9954.000000;0.438653
9953.000000;0.438279
9952.000000;0.438248
9951.000000;0.438299
9950.000000;0.438159
9949.000000;0.437841
9948.000000;0.437592
9947.000000;0.437559
9946.000000;0.437609
9945.000000;0.437498
9944.000000;0.437132
9943.000000;0.436622
9942.000000;0.436118
9941.000000;0.435626
9940.000000;0.435003
9939.000000;0.434190
9938.000000;0.433449
9937.000000;0.433222
9936.000000;0.433648
9935.000000;0.434311
9934.000000;0.434591
9933.000000;0.434217
9932.000000;0.433400
9931.000000;0.432533
9930.000000;0.431861
9929.000000;0.431377
9928.000000;0.430874
9927.000000;0.430146
9926.000000;0.429270
9925.000000;0.428602
9924.000000;0.428351
9923.000000;0.428257
9922.000000;0.427930
9921.000000;0.427411
9920.000000;0.427114
9919.000000;0.427255
9918.000000;0.427661
9917.000000;0.428138
9916.000000;0.428659
9915.000000;0.429074
9914.000000;0.429031
9913.000000;0.428417
9912.000000;0.427618
9911.000000;0.427052
9910.000000;0.426643
9909.000000;0.426038
9908.000000;0.425186
9907.000000;0.424389
9906.000000;0.423831
9905.000000;0.423400
9904.000000;0.422976
9903.000000;0.422616
9902.000000;0.422368
9901.000000;0.422115
9900.000000;0.421760
9899.000000;0.421412
9898.000000;0.421250
9897.000000;0.421258
9896.000000;0.421186
9895.000000;0.420796
9894.000000;0.420111
9893.000000;0.419410
9892.000000;0.418957
9891.000000;0.418752
9890.000000;0.418570
9889.000000;0.418272
9888.000000;0.417958
9887.000000;0.417764
9886.000000;0.417593
9885.000000;0.417165
9884.000000;0.416346
9883.000000;0.415337
9882.000000;0.414541
9881.000000;0.414273
9880.000000;0.414549
9879.000000;0.415087
9878.000000;0.415508
9877.000000;0.415572
9876.000000;0.415233
9875.000000;0.414543
9874.000000;0.413657
9873.000000;0.412902
9872.000000;0.412622
9871.000000;0.412810
9870.000000;0.413001
9869.000000;0.412687
9868.000000;0.411780
9867.000000;0.410610
9866.000000;0.409605
9865.000000;0.409095
9864.000000;0.409241
9863.000000;0.409876
9862.000000;0.410484
9861.000000;0.410567
9860.000000;0.410071
9859.000000;0.409322
9858.000000;0.408629
9857.000000;0.408159
9856.000000;0.408081
9855.000000;0.408505
9854.000000;0.409167
9853.000000;0.409497
9852.000000;0.409173
9851.000000;0.408447
9850.000000;0.407792
9849.000000;0.407369
9848.000000;0.406965
9847.000000;0.406338
9846.000000;0.405457
9845.000000;0.404514
9844.000000;0.403830
9843.000000;0.403619
9842.000000;0.403713
9841.000000;0.403580
9840.000000;0.402824
9839.000000;0.401643
9838.000000;0.400667
9837.000000;0.400360
9836.000000;0.400664
9835.000000;0.401179
9834.000000;0.401514
9833.000000;0.401450
9832.000000;0.400945
9831.000000;0.400154
9830.000000;0.399413
9829.000000;0.399044
9828.000000;0.399097
9827.000000;0.399294
9826.000000;0.399279
9825.000000;0.398943
9824.000000;0.398445
9823.000000;0.397925
9822.000000;0.397286
9821.000000;0.396391
9820.000000;0.395403
9819.000000;0.394731
9818.000000;0.394569
9817.000000;0.394652
9816.000000;0.394548
9815.000000;0.394102
9814.000000;0.393500
9813.000000;0.393002
9812.000000;0.392737
9811.000000;0.392695
9810.000000;0.392759
9809.000000;0.392754
9808.000000;0.392588
9807.000000;0.392364
9806.000000;0.392262
9805.000000;0.392300
9804.000000;0.392280
9803.000000;0.391995
9802.000000;0.391445
9801.000000;0.390826
9800.000000;0.390355
9799.000000;0.390067
9798.000000;0.389755
9797.000000;0.389154
9796.000000;0.388274
9795.000000;0.387507
9794.000000;0.387292
9793.000000;0.387654
9792.000000;0.388177
9791.000000;0.388453
9790.000000;0.388429
9789.000000;0.388308
9788.000000;0.388217
9787.000000;0.388108
9786.000000;0.387887
9785.000000;0.387515
9784.000000;0.386947
9783.000000;0.386119
9782.000000;0.385077
9781.000000;0.384075
9780.000000;0.383432
9779.000000;0.383245
9778.000000;0.383304
9777.000000;0.383314
9776.000000;0.383186
9775.000000;0.383047
9774.000000;0.383002
9773.000000;0.383007
9772.000000;0.383001
9771.000000;0.383017
9770.000000;0.383059
9769.000000;0.382971
9768.000000;0.382567
9767.000000;0.381864
9766.000000;0.381042
9765.000000;0.380213
9764.000000;0.379386
9763.000000;0.378672
9762.000000;0.378297
9761.000000;0.378324
9760.000000;0.378501
9759.000000;0.378513
9758.000000;0.378310
9757.000000;0.378070
9756.000000;0.377918
9755.000000;0.377820
9754.000000;0.377686
9753.000000;0.377422
9752.000000;0.376930
9751.000000;0.376206
9750.000000;0.375454
9749.000000;0.374955
9748.000000;0.374780
9747.000000;0.374725
9746.000000;0.374547
9745.000000;0.374163
9744.000000;0.373608
9743.000000;0.372981
9742.000000;0.372499
9741.000000;0.372434
9740.000000;0.372828
9739.000000;0.373340
9738.000000;0.373544
9737.000000;0.373357
9736.000000;0.373032
9735.000000;0.372774
9734.000000;0.372520
9733.000000;0.372136
9732.000000;0.371632
9731.000000;0.371076
9730.000000;0.370464
9729.000000;0.369811
9728.000000;0.369262
9727.000000;0.368911
9726.000000;0.368568
9725.000000;0.367927
9724.000000;0.367013
9723.000000;0.366225
9722.000000;0.365802
9721.000000;0.365481
9720.000000;0.364886
9719.000000;0.364144
9718.000000;0.363809
9717.000000;0.364167
9716.000000;0.364871
9715.000000;0.365360
9714.000000;0.365434
9713.000000;0.365270
9712.000000;0.365071
9711.000000;0.364913
9710.000000;0.364842
9709.000000;0.364890
9708.000000;0.364944
9707.000000;0.364785
9706.000000;0.364314
9705.000000;0.363651
9704.000000;0.362989
9703.000000;0.362429
9702.000000;0.361977
9701.000000;0.361621
9700.000000;0.361370
9699.000000;0.361268
9698.000000;0.361350
9697.000000;0.361545
9696.000000;0.361659
9695.000000;0.361565
9694.000000;0.361375
9693.000000;0.361271
9692.000000;0.361173
9691.000000;0.360747
9690.000000;0.359817
9689.000000;0.358593
9688.000000;0.357424
9687.000000;0.356452
9686.000000;0.355657
9685.000000;0.355089
9684.000000;0.354867
9683.000000;0.355000
9682.000000;0.355362
9681.000000;0.355822
9680.000000;0.356249
9679.000000;0.356433
9678.000000;0.356203
9677.000000;0.355674
9676.000000;0.355199
9675.000000;0.354985
9674.000000;0.354839
9673.000000;0.354415
9672.000000;0.353628
9671.000000;0.352738
9670.000000;0.352051
9669.000000;0.351668
9668.000000;0.351529
9667.000000;0.351588
9666.000000;0.351817
9665.000000;0.352071
9664.000000;0.352087
9663.000000;0.351733
9662.000000;0.351180
9661.000000;0.350736
9660.000000;0.350504
9659.000000;0.350308
9658.000000;0.349936
9657.000000;0.349360
9656.000000;0.348694
9655.000000;0.348086
9654.000000;0.347699
9653.000000;0.347683
9652.000000;0.348002
9651.000000;0.348358
9650.000000;0.348411
9649.000000;0.348077
9648.000000;0.347527
9647.000000;0.346916
9646.000000;0.346278
9645.000000;0.345670
9644.000000;0.345276
9643.000000;0.345251
9642.000000;0.345499
9641.000000;0.345697
9640.000000;0.345559
9639.000000;0.345069
9638.000000;0.344441
9637.000000;0.343878
9636.000000;0.343410
9635.000000;0.342976
9634.000000;0.342587
9633.000000;0.342311
9632.000000;0.342110
9631.000000;0.341838
9630.000000;0.341433
9629.000000;0.341025
9628.000000;0.340769
9627.000000;0.340655
9626.000000;0.340564
9625.000000;0.340398
9624.000000;0.340095
9623.000000;0.339629
9622.000000;0.339139
9621.000000;0.338946
9620.000000;0.339252
9619.000000;0.339843
9618.000000;0.340268
9617.000000;0.340316
9616.000000;0.340137
9615.000000;0.339899
9614.000000;0.339524
9613.000000;0.338840
9612.000000;0.337859
9611.000000;0.336810
9610.000000;0.335972
9609.000000;0.335552
9608.000000;0.335622
9607.000000;0.336069
9606.000000;0.336624
9605.000000;0.336983
9604.000000;0.336907
9603.000000;0.336278
9602.000000;0.335179
9601.000000;0.333928
9600.000000;0.332933
9599.000000;0.332436
9598.000000;0.332428
9597.000000;0.332734
9596.000000;0.333085
9595.000000;0.333170
9594.000000;0.332813
9593.000000;0.332172
9592.000000;0.331630
9591.000000;0.331404
9590.000000;0.331367
9589.000000;0.331292
9588.000000;0.331130
9587.000000;0.330981
9586.000000;0.330896
9585.000000;0.330821
9584.000000;0.330662
9583.000000;0.330340
9582.000000;0.329844
9581.000000;0.329295
9580.000000;0.328881
9579.000000;0.328681
9578.000000;0.328632
9577.000000;0.328668
9576.000000;0.328755
9575.000000;0.328726
9574.000000;0.328267
9573.000000;0.327272
9572.000000;0.326092
9571.000000;0.325248
9570.000000;0.324929
9569.000000;0.324892
9568.000000;0.324812
9567.000000;0.324541
9566.000000;0.324093
9565.000000;0.323577
9564.000000;0.323225
9563.000000;0.323304
9562.000000;0.323843
9561.000000;0.324484
9560.000000;0.324721
9559.000000;0.324294
9558.000000;0.323358
9557.000000;0.322323
9556.000000;0.321571
9555.000000;0.321280
9554.000000;0.321372
9553.000000;0.321568
9552.000000;0.321545
9551.000000;0.321165
9550.000000;0.320610
9549.000000;0.320254
9548.000000;0.320314
9547.000000;0.320608
9546.000000;0.320722
9545.000000;0.320413
9544.000000;0.319821
9543.000000;0.319303
9542.000000;0.319120
9541.000000;0.319261
9540.000000;0.319482
9539.000000;0.319512
9538.000000;0.319295
9537.000000;0.319071
9536.000000;0.319124
9535.000000;0.319442
9534.000000;0.319692
9533.000000;0.319542
9532.000000;0.318934
9531.000000;0.318019
9530.000000;0.316966
9529.000000;0.315938
9528.000000;0.315161
9527.000000;0.314865
9526.000000;0.315138
9525.000000;0.315847
9524.000000;0.316661
9523.000000;0.317135
9522.000000;0.316914
9521.000000;0.316005
9520.000000;0.314817
9519.000000;0.313843
9518.000000;0.313296
9517.000000;0.313079
9516.000000;0.313033
9515.000000;0.313077
9514.000000;0.313144
9513.000000;0.313112
9512.000000;0.312877
9511.000000;0.312458
9510.000000;0.312020
9509.000000;0.311779
9508.000000;0.311833
9507.000000;0.312013
9506.000000;0.311998
9505.000000;0.311655
9504.000000;0.311243
9503.000000;0.311130
9502.000000;0.311337
9501.000000;0.311473
9500.000000;0.311183
9499.000000;0.310531
9498.000000;0.309868
9497.000000;0.309409
9496.000000;0.309099
9495.000000;0.308850
9494.000000;0.308739
9493.000000;0.308842
9492.000000;0.308983
9491.000000;0.308834
9490.000000;0.308311
9489.000000;0.307731
9488.000000;0.307460
9487.000000;0.307479
9486.000000;0.307417
9485.000000;0.307015
9484.000000;0.306407
9483.000000;0.305928
9482.000000;0.305770
9481.000000;0.305874
9480.000000;0.306044
9479.000000;0.306067
9478.000000;0.305782
9477.000000;0.305156
9476.000000;0.304347
9475.000000;0.303630
9474.000000;0.303233
9473.000000;0.303164
9472.000000;0.303178
9471.000000;0.302953
9470.000000;0.302396
9469.000000;0.301773
9468.000000;0.301460
9467.000000;0.301584
9466.000000;0.301969
9465.000000;0.302368
9464.000000;0.302604
9463.000000;0.302510
9462.000000;0.302000
9461.000000;0.301275
9460.000000;0.300784
9459.000000;0.300805
9458.000000;0.301166
9457.000000;0.301501
9456.000000;0.301649
9455.000000;0.301669
9454.000000;0.301599
9453.000000;0.301393
9452.000000;0.301083
9451.000000;0.300794
9450.000000;0.300602
9449.000000;0.300473
9448.000000;0.300355
9447.000000;0.300219
9446.000000;0.300016
9445.000000;0.299736
9444.000000;0.299501
9443.000000;0.299467
9442.000000;0.299569
9441.000000;0.299479
9440.000000;0.298904
9439.000000;0.297926
9438.000000;0.296992
9437.000000;0.296522
9436.000000;0.296544
9435.000000;0.296693
9434.000000;0.296604
9433.000000;0.296243
9432.000000;0.295843
9431.000000;0.295557
9430.000000;0.295318
9429.000000;0.295043
9428.000000;0.294803
9427.000000;0.294727
9426.000000;0.294843
9425.000000;0.295105
9424.000000;0.295429
9423.000000;0.295600
9422.000000;0.295294
9421.000000;0.294399
9420.000000;0.293256
9419.000000;0.292402
9418.000000;0.292076
9417.000000;0.292117
9416.000000;0.292257
9415.000000;0.292344
9414.000000;0.292315
9413.000000;0.292174
9412.000000;0.292053
9411.000000;0.292077
9410.000000;0.292114
9409.000000;0.291807
9408.000000;0.291019
9407.000000;0.290120
9406.000000;0.289677
9405.000000;0.289840
9404.000000;0.290163
9403.000000;0.290069
9402.000000;0.289461
9401.000000;0.288802
9400.000000;0.288561
9399.000000;0.288684
9398.000000;0.288705
9397.000000;0.288348
9396.000000;0.287813
9395.000000;0.287404
9394.000000;0.287126
9393.000000;0.286843
9392.000000;0.286673
9391.000000;0.286888
9390.000000;0.287462
9389.000000;0.287996
9388.000000;0.288161
9387.000000;0.287993
9386.000000;0.287685
9385.000000;0.287298
9384.000000;0.286807
9383.000000;0.286258
9382.000000;0.285737
9381.000000;0.285253
9380.000000;0.284793
9379.000000;0.284403
9378.000000;0.284144
9377.000000;0.284036
9376.000000;0.284118
9375.000000;0.284454
9374.000000;0.284996
9373.000000;0.285518
9372.000000;0.285820
9371.000000;0.285902
9370.000000;0.285864
9369.000000;0.285710
9368.000000;0.285361
9367.000000;0.284823
9366.000000;0.284189
9365.000000;0.283528
9364.000000;0.282873
9363.000000;0.282323
9362.000000;0.282032
9361.000000;0.282069
9360.000000;0.282337
9359.000000;0.282647
9358.000000;0.282801
9357.000000;0.282657
9356.000000;0.282240
9355.000000;0.281794
9354.000000;0.281609
9353.000000;0.281701
9352.000000;0.281753
9351.000000;0.281433
9350.000000;0.280720
9349.000000;0.279868
9348.000000;0.279120
9347.000000;0.278582
9346.000000;0.278354
9345.000000;0.278561
9344.000000;0.279156
9343.000000;0.279769
9342.000000;0.279945
9341.000000;0.279577
9340.000000;0.279011
9339.000000;0.278694
9338.000000;0.278753
9337.000000;0.278961
9336.000000;0.279012
9335.000000;0.278790
9334.000000;0.278391
9333.000000;0.277993
9332.000000;0.277685
9331.000000;0.277386
9330.000000;0.276953
9329.000000;0.276400
9328.000000;0.275945
9327.000000;0.275781
9326.000000;0.275860
9325.000000;0.275972
9324.000000;0.276001
9323.000000;0.275985
9322.000000;0.275946
9321.000000;0.275807
9320.000000;0.275517
9319.000000;0.275179
9318.000000;0.274965
9317.000000;0.274942
9316.000000;0.275030
9315.000000;0.275091
9314.000000;0.275005
9313.000000;0.274699
9312.000000;0.274169
9311.000000;0.273515
9310.000000;0.272920
9309.000000;0.272545
9308.000000;0.272399
9307.000000;0.272325
9306.000000;0.272171
9305.000000;0.271990
9304.000000;0.272025
9303.000000;0.272450
9302.000000;0.273138
9301.000000;0.273721
9300.000000;0.273866
9299.000000;0.273473
9298.000000;0.272697
9297.000000;0.271855
9296.000000;0.271256
9295.000000;0.271010
9294.000000;0.270959
9293.000000;0.270854
9292.000000;0.270594
9291.000000;0.270250
9290.000000;0.269917
9289.000000;0.269620
9288.000000;0.269364
9287.000000;0.269191
9286.000000;0.269154
9285.000000;0.269270
9284.000000;0.269494
9283.000000;0.269715
9282.000000;0.269801
9281.000000;0.269690
9280.000000;0.269382
9279.000000;0.268853
9278.000000;0.268097
9277.000000;0.267321
9276.000000;0.266922
9275.000000;0.267083
9274.000000;0.267473
9273.000000;0.267588
9272.000000;0.267323
9271.000000;0.266987
9270.000000;0.266779
9269.000000;0.266574
9268.000000;0.266293
9267.000000;0.266132
9266.000000;0.266230
9265.000000;0.266348
9264.000000;0.266173
9263.000000;0.265802
9262.000000;0.265654
9261.000000;0.265931
9260.000000;0.266383
9259.000000;0.266614
9258.000000;0.266430
9257.000000;0.265878
9256.000000;0.265132
9255.000000;0.264430
9254.000000;0.263998
9253.000000;0.263918
9252.000000;0.264079
9251.000000;0.264240
9250.000000;0.264140
9249.000000;0.263627
9248.000000;0.262794
9247.000000;0.261998
9246.000000;0.261620
9245.000000;0.261784
9244.000000;0.262332
9243.000000;0.263018
9242.000000;0.263646
9241.000000;0.264050
9240.000000;0.264127
9239.000000;0.263931
9238.000000;0.263656
9237.000000;0.263436
9236.000000;0.263239
9235.000000;0.262992
9234.000000;0.262746
9233.000000;0.262643
9232.000000;0.262734
9231.000000;0.262908
9230.000000;0.262977
9229.000000;0.262800
9228.000000;0.262353
9227.000000;0.261733
9226.000000;0.261115
9225.000000;0.260649
9224.000000;0.260375
9223.000000;0.260217
9222.000000;0.260068
9221.000000;0.259877
9220.000000;0.259664
9219.000000;0.259468
9218.000000;0.259298
9217.000000;0.259148
9216.000000;0.259031
9215.000000;0.258986
9214.000000;0.259055
9213.000000;0.259280
9212.000000;0.259659
9211.000000;0.260073
9210.000000;0.260264
9209.000000;0.260037
9208.000000;0.259502
9207.000000;0.259050
9206.000000;0.258963
9205.000000;0.259106
9204.000000;0.259092
9203.000000;0.258721
9202.000000;0.258171
9201.000000;0.257727
9200.000000;0.257450
9199.000000;0.257195
9198.000000;0.256855
9197.000000;0.256509
9196.000000;0.256306
9195.000000;0.256310
9194.000000;0.256485
9193.000000;0.256753
9192.000000;0.256994
9191.000000;0.257055
9190.000000;0.256881
9189.000000;0.256635
9188.000000;0.256563
9187.000000;0.256681
9186.000000;0.256689
9185.000000;0.256304
9184.000000;0.255627
9183.000000;0.255028
9182.000000;0.254705
9181.000000;0.254496
9180.000000;0.254168
9179.000000;0.253752
9178.000000;0.253502
9177.000000;0.253588
9176.000000;0.253922
9175.000000;0.254243
9174.000000;0.254343
9173.000000;0.254256
9172.000000;0.254232
9171.000000;0.254435
9170.000000;0.254639
9169.000000;0.254378
9168.000000;0.253491
9167.000000;0.252423
9166.000000;0.251811
9165.000000;0.251835
9164.000000;0.252126
9163.000000;0.252269
9162.000000;0.252208
9161.000000;0.252141
9160.000000;0.252211
9159.000000;0.252416
9158.000000;0.252668
9157.000000;0.252818
9156.000000;0.252686
9155.000000;0.252207
9154.000000;0.251562
9153.000000;0.251102
9152.000000;0.251100
9151.000000;0.251559
9150.000000;0.252202
9149.000000;0.252638
9148.000000;0.252621
9147.000000;0.252211
9146.000000;0.251687
9145.000000;0.251270
9144.000000;0.250962
9143.000000;0.250651
9142.000000;0.250296
9141.000000;0.249960
9140.000000;0.249702
9139.000000;0.249556
9138.000000;0.249567
9137.000000;0.249751
9136.000000;0.250003
9135.000000;0.250151
9134.000000;0.250131
9133.000000;0.250051
9132.000000;0.250038
9131.000000;0.250065
9130.000000;0.250003
9129.000000;0.249814
9128.000000;0.249612
9127.000000;0.249533
9126.000000;0.249579
9125.000000;0.249634
9124.000000;0.249600
9123.000000;0.249476
9122.000000;0.249325
9121.000000;0.249197
9120.000000;0.249104
9119.000000;0.249023
9118.000000;0.248890
9117.000000;0.248625
9116.000000;0.248231
9115.000000;0.247877
9114.000000;0.247782
9113.000000;0.247943
9112.000000;0.248051
9111.000000;0.247776
9110.000000;0.247147
9109.000000;0.246536
9108.000000;0.246242
9107.000000;0.246204
9106.000000;0.246177
9105.000000;0.246066
9104.000000;0.245960
9103.000000;0.245939
9102.000000;0.246013
9101.000000;0.246212
9100.000000;0.246554
9099.000000;0.246898
9098.000000;0.246986
9097.000000;0.246726
9096.000000;0.246304
9095.000000;0.245972
9094.000000;0.245821
9093.000000;0.245816
9092.000000;0.245913
9091.000000;0.246021
9090.000000;0.245975
9089.000000;0.245706
9088.000000;0.245363
9087.000000;0.245159
9086.000000;0.245146
9085.000000;0.245239
9084.000000;0.245346
9083.000000;0.245318
9082.000000;0.244925
9081.000000;0.244138
9080.000000;0.243376
9079.000000;0.243176
9078.000000;0.243557
9077.000000;0.243955
9076.000000;0.243890
9075.000000;0.243476
9074.000000;0.243149
9073.000000;0.243100
9072.000000;0.243174
9071.000000;0.243192
9070.000000;0.243155
9069.000000;0.243162
9068.000000;0.243280
9067.000000;0.243501
9066.000000;0.243722
9065.000000;0.243788
9064.000000;0.243616
9063.000000;0.243278
9062.000000;0.242915
9061.000000;0.242613
9060.000000;0.242399
9059.000000;0.242276
9058.000000;0.242217
9057.000000;0.242182
9056.000000;0.242181
9055.000000;0.242232
9054.000000;0.242253
9053.000000;0.242112
