Criado como novo conjunto de dados;"e0108.spp","-4273364.7 Secs"
cm-1;Abs
10000.000000;1.063564
9999.000000;1.063481
9998.000000;1.062425
9997.000000;1.061042
9996.000000;1.060101
9995.000000;1.059822
9994.000000;1.060090
9993.000000;1.060433
9992.000000;1.060692
9991.000000;1.061044
9990.000000;1.061463
9989.000000;1.061267
9988.000000;1.059824
9987.000000;1.057503
9986.000000;1.055375
9985.000000;1.053970
9984.000000;1.052836
9983.000000;1.051456
9982.000000;1.050132
9981.000000;1.049643
9980.000000;1.050336
9979.000000;1.051860
9978.000000;1.053603
9977.000000;1.055040
9976.000000;1.055695
9975.000000;1.055161
9974.000000;1.053507
9973.000000;1.051563
9972.000000;1.050459
9971.000000;1.050719
9970.000000;1.051834
9969.000000;1.052756
9968.000000;1.052854
9967.000000;1.052368
9966.000000;1.051972
9965.000000;1.052083
9964.000000;1.052598
9963.000000;1.053096
9962.000000;1.053175
9961.000000;1.052658
9960.000000;1.051644
9959.000000;1.050414
9958.000000;1.049286
9957.000000;1.048472
9956.000000;1.047900
9955.000000;1.047101
9954.000000;1.045554
9953.000000;1.043418
9952.000000;1.041769
9951.000000;1.041650
9950.000000;1.042852
9949.000000;1.043993
9948.000000;1.043976
9947.000000;1.043050
9946.000000;1.042193
9945.000000;1.041862
9944.000000;1.041774
9943.000000;1.041575
9942.000000;1.041186
9941.000000;1.040579
9940.000000;1.039684
9939.000000;1.038608
9938.000000;1.037661
9937.000000;1.037082
9936.000000;1.036990
9935.000000;1.037506
9934.000000;1.038569
9933.000000;1.039577
9932.000000;1.039683
9931.000000;1.038708
9930.000000;1.037453
9929.000000;1.036801
9928.000000;1.036751
9927.000000;1.036671
9926.000000;1.036304
9925.000000;1.035991
9924.000000;1.035897
9923.000000;1.035548
9922.000000;1.034472
9921.000000;1.032979
9920.000000;1.031887
9919.000000;1.031606
9918.000000;1.031928
9917.000000;1.032684
9916.000000;1.034048
9915.000000;1.035847
9914.000000;1.036999
9913.000000;1.036259
9912.000000;1.033598
9911.000000;1.030440
9910.000000;1.028442
9909.000000;1.028228
9908.000000;1.029168
9907.000000;1.029985
9906.000000;1.029599
9905.000000;1.027907
9904.000000;1.025947
9903.000000;1.025004
9902.000000;1.025322
9901.000000;1.025900
9900.000000;1.025716
9899.000000;1.024912
9898.000000;1.024408
9897.000000;1.024609
9896.000000;1.025031
9895.000000;1.025149
9894.000000;1.025106
9893.000000;1.025316
9892.000000;1.025695
9891.000000;1.025691
9890.000000;1.025113
9889.000000;1.024606
9888.000000;1.025007
9887.000000;1.026279
9886.000000;1.027353
9885.000000;1.027220
9884.000000;1.026015
9883.000000;1.024731
9882.000000;1.024003
9881.000000;1.023601
9880.000000;1.023085
9879.000000;1.022444
9878.000000;1.021851
9877.000000;1.021218
9876.000000;1.020389
9875.000000;1.019563
9874.000000;1.019166
9873.000000;1.019387
9872.000000;1.020039
9871.000000;1.020707
9870.000000;1.020823
9869.000000;1.019859
9868.000000;1.017846
9867.000000;1.015594
9866.000000;1.014021
9865.000000;1.013321
9864.000000;1.013001
9863.000000;1.012681
9862.000000;1.012520
9861.000000;1.012775
9860.000000;1.013247
9859.000000;1.013407
9858.000000;1.013009
9857.000000;1.012453
9856.000000;1.012409
9855.000000;1.013079
9854.000000;1.013932
9853.000000;1.014376
9852.000000;1.014575
9851.000000;1.015128
9850.000000;1.015941
9849.000000;1.016046
9848.000000;1.014872
9847.000000;1.013135
9846.000000;1.011848
9845.000000;1.010995
9844.000000;1.009976
9843.000000;1.008970
9842.000000;1.008811
9841.000000;1.009482
9840.000000;1.009721
9839.000000;1.008557
9838.000000;1.006599
9837.000000;1.005283
9836.000000;1.005272
9835.000000;1.006034
9834.000000;1.006647
9833.000000;1.006566
9832.000000;1.005830
9831.000000;1.004937
9830.000000;1.004469
9829.000000;1.004592
9828.000000;1.004964
9827.000000;1.005196
9826.000000;1.005238
9825.000000;1.005197
9824.000000;1.005039
9823.000000;1.004648
9822.000000;1.003985
9821.000000;1.003031
9820.000000;1.001810
9819.000000;1.000583
9818.000000;0.999798
9817.000000;0.999643
9816.000000;0.999855
9815.000000;1.000110
9814.000000;1.000346
9813.000000;1.000514
9812.000000;1.000245
9811.000000;0.999123
9810.000000;0.997213
9809.000000;0.995130
9808.000000;0.993657
9807.000000;0.993348
9806.000000;0.994238
9805.000000;0.995746
9804.000000;0.996987
9803.000000;0.997413
9802.000000;0.997090
9801.000000;0.996358
9800.000000;0.995437
9799.000000;0.994416
9798.000000;0.993319
9797.000000;0.992077
9796.000000;0.990756
9795.000000;0.989922
9794.000000;0.990330
9793.000000;0.991898
9792.000000;0.993367
9791.000000;0.993446
9790.000000;0.992182
9789.000000;0.990836
9788.000000;0.990522
9787.000000;0.991320
9786.000000;0.992569
9785.000000;0.993597
9784.000000;0.994065
9783.000000;0.993897
9782.000000;0.993074
9781.000000;0.991607
9780.000000;0.989833
9779.000000;0.988616
9778.000000;0.988767
9777.000000;0.989968
9776.000000;0.990658
9775.000000;0.989527
9774.000000;0.986959
9773.000000;0.984576
9772.000000;0.983586
9771.000000;0.984007
9770.000000;0.985182
9769.000000;0.986397
9768.000000;0.987037
9767.000000;0.986768
9766.000000;0.985853
9765.000000;0.984943
9764.000000;0.984313
9763.000000;0.983584
9762.000000;0.982347
9761.000000;0.980792
9760.000000;0.979508
9759.000000;0.978889
9758.000000;0.978946
9757.000000;0.979504
9756.000000;0.980348
9755.000000;0.981211
9754.000000;0.981807
9753.000000;0.981928
9752.000000;0.981477
9751.000000;0.980490
9750.000000;0.979213
9749.000000;0.978140
9748.000000;0.977793
9747.000000;0.978311
9746.000000;0.979135
9745.000000;0.979229
9744.000000;0.977965
9743.000000;0.975979
9742.000000;0.974852
9741.000000;0.975676
9740.000000;0.977980
9739.000000;0.980181
9738.000000;0.980957
9737.000000;0.980063
9736.000000;0.978075
9735.000000;0.975859
9734.000000;0.974262
9733.000000;0.973807
9732.000000;0.974336
9731.000000;0.975087
9730.000000;0.975354
9729.000000;0.975080
9728.000000;0.974731
9727.000000;0.974615
9726.000000;0.974428
9725.000000;0.973582
9724.000000;0.972018
9723.000000;0.970531
9722.000000;0.969998
9721.000000;0.970336
9720.000000;0.970649
9719.000000;0.970449
9718.000000;0.970225
9717.000000;0.970561
9716.000000;0.971231
9715.000000;0.971676
9714.000000;0.971953
9713.000000;0.972530
9712.000000;0.973366
9711.000000;0.973879
9710.000000;0.973766
9709.000000;0.973189
9708.000000;0.972209
9707.000000;0.970754
9706.000000;0.969265
9705.000000;0.968543
9704.000000;0.968601
9703.000000;0.968283
9702.000000;0.966582
9701.000000;0.963994
9700.000000;0.962069
9699.000000;0.961846
9698.000000;0.963091
9697.000000;0.964794
9696.000000;0.966015
9695.000000;0.966350
9694.000000;0.965978
9693.000000;0.965432
9692.000000;0.965216
9691.000000;0.965484
9690.000000;0.965931
9689.000000;0.965905
9688.000000;0.964853
9687.000000;0.962973
9686.000000;0.961280
9685.000000;0.960655
9684.000000;0.960858
9683.000000;0.960868
9682.000000;0.960219
9681.000000;0.959452
9680.000000;0.959140
9679.000000;0.959117
9678.000000;0.958981
9677.000000;0.958767
9676.000000;0.958687
9675.000000;0.958628
9674.000000;0.958466
9673.000000;0.958524
9672.000000;0.959133
9671.000000;0.959853
9670.000000;0.959774
9669.000000;0.958649
9668.000000;0.957252
9667.000000;0.956501
9666.000000;0.956598
9665.000000;0.957073
9664.000000;0.957300
9663.000000;0.956898
9662.000000;0.955949
9661.000000;0.955002
9660.000000;0.954667
9659.000000;0.955031
9658.000000;0.955522
9657.000000;0.955414
9656.000000;0.954434
9655.000000;0.952943
9654.000000;0.951724
9653.000000;0.951518
9652.000000;0.952491
9651.000000;0.953952
9650.000000;0.954729
9649.000000;0.954061
9648.000000;0.952255
9647.000000;0.950371
9646.000000;0.949256
9645.000000;0.948917
9644.000000;0.948811
9643.000000;0.948595
9642.000000;0.948434
9641.000000;0.948580
9640.000000;0.948914
9639.000000;0.949029
9638.000000;0.948608
9637.000000;0.947578
9636.000000;0.946145
9635.000000;0.944909
9634.000000;0.944668
9633.000000;0.945619
9632.000000;0.946829
9631.000000;0.947007
9630.000000;0.945954
9629.000000;0.944780
9628.000000;0.944583
9627.000000;0.945335
9626.000000;0.946223
9625.000000;0.946589
9624.000000;0.946242
9623.000000;0.945306
9622.000000;0.944171
9621.000000;0.943389
9620.000000;0.943201
9619.000000;0.943273
9618.000000;0.943133
9617.000000;0.942691
9616.000000;0.942137
9615.000000;0.941619
9614.000000;0.941281
9613.000000;0.941293
9612.000000;0.941475
9611.000000;0.941168
9610.000000;0.939949
9609.000000;0.938352
9608.000000;0.937374
9607.000000;0.937341
9606.000000;0.937704
9605.000000;0.937880
9604.000000;0.937815
9603.000000;0.937653
9602.000000;0.937282
9601.000000;0.936487
9600.000000;0.935359
9599.000000;0.934376
9598.000000;0.934100
9597.000000;0.934726
9596.000000;0.935763
9595.000000;0.936312
9594.000000;0.935875
9593.000000;0.934841
9592.000000;0.933969
9591.000000;0.933511
9590.000000;0.933148
9589.000000;0.932661
9588.000000;0.932290
9587.000000;0.932371
9586.000000;0.932932
9585.000000;0.933707
9584.000000;0.934327
9583.000000;0.934436
9582.000000;0.933891
9581.000000;0.932935
9580.000000;0.932054
9579.000000;0.931579
9578.000000;0.931502
9577.000000;0.931584
9576.000000;0.931492
9575.000000;0.930933
9574.000000;0.929903
9573.000000;0.928818
9572.000000;0.928207
9571.000000;0.928314
9570.000000;0.929052
9569.000000;0.930161
9568.000000;0.931120
9567.000000;0.931152
9566.000000;0.929843
9565.000000;0.927807
9564.000000;0.926295
9563.000000;0.926023
9562.000000;0.926654
9561.000000;0.927433
9560.000000;0.927940
9559.000000;0.928050
9558.000000;0.927555
9557.000000;0.926305
9556.000000;0.924670
9555.000000;0.923477
9554.000000;0.923322
9553.000000;0.923997
9552.000000;0.924682
9551.000000;0.924751
9550.000000;0.924366
9549.000000;0.924188
9548.000000;0.924489
9547.000000;0.924721
9546.000000;0.924112
9545.000000;0.922578
9544.000000;0.920859
9543.000000;0.919868
9542.000000;0.920024
9541.000000;0.921055
9540.000000;0.922223
9539.000000;0.922865
9538.000000;0.922931
9537.000000;0.922946
9536.000000;0.923288
9535.000000;0.923667
9534.000000;0.923546
9533.000000;0.922898
9532.000000;0.922168
9531.000000;0.921589
9530.000000;0.921001
9529.000000;0.920324
9528.000000;0.919747
9527.000000;0.919348
9526.000000;0.918925
9525.000000;0.918391
9524.000000;0.918008
9523.000000;0.918026
9522.000000;0.918357
9521.000000;0.918777
9520.000000;0.919222
9519.000000;0.919663
9518.000000;0.919926
9517.000000;0.919879
9516.000000;0.919664
9515.000000;0.919460
9514.000000;0.919117
9513.000000;0.918239
9512.000000;0.916666
9511.000000;0.914782
9510.000000;0.913330
9509.000000;0.912911
9508.000000;0.913504
9507.000000;0.914399
9506.000000;0.914709
9505.000000;0.914066
9504.000000;0.912838
9503.000000;0.911715
9502.000000;0.911153
9501.000000;0.911148
9500.000000;0.911396
9499.000000;0.911621
9498.000000;0.911827
9497.000000;0.912218
9496.000000;0.912881
9495.000000;0.913650
9494.000000;0.914293
9493.000000;0.914650
9492.000000;0.914522
9491.000000;0.913707
9490.000000;0.912370
9489.000000;0.911141
9488.000000;0.910486
9487.000000;0.910199
9486.000000;0.909840
9485.000000;0.909486
9484.000000;0.909562
9483.000000;0.910074
9482.000000;0.910513
9481.000000;0.910534
9480.000000;0.910210
9479.000000;0.909575
9478.000000;0.908452
9477.000000;0.906936
9476.000000;0.905623
9475.000000;0.905122
9474.000000;0.905594
9473.000000;0.906792
9472.000000;0.908176
9471.000000;0.908949
9470.000000;0.908517
9469.000000;0.907174
9468.000000;0.905888
9467.000000;0.905215
9466.000000;0.904854
9465.000000;0.904444
9464.000000;0.904193
9463.000000;0.904313
9462.000000;0.904356
9461.000000;0.903762
9460.000000;0.902791
9459.000000;0.902306
9458.000000;0.902680
9457.000000;0.903404
9456.000000;0.903820
9455.000000;0.903859
9454.000000;0.903981
9453.000000;0.904542
9452.000000;0.905294
9451.000000;0.905456
9450.000000;0.904478
9449.000000;0.902804
9448.000000;0.901599
9447.000000;0.901562
9446.000000;0.902257
9445.000000;0.902809
9444.000000;0.902945
9443.000000;0.902968
9442.000000;0.902973
9441.000000;0.902627
9440.000000;0.901719
9439.000000;0.900548
9438.000000;0.899719
9437.000000;0.899734
9436.000000;0.900637
9435.000000;0.901773
9434.000000;0.902041
9433.000000;0.900818
9432.000000;0.898674
9431.000000;0.896899
9430.000000;0.896285
9429.000000;0.896605
9428.000000;0.897136
9427.000000;0.897391
9426.000000;0.897326
9425.000000;0.897157
9424.000000;0.897103
9423.000000;0.897144
9422.000000;0.897019
9421.000000;0.896603
9420.000000;0.896185
9419.000000;0.896118
9418.000000;0.896304
9417.000000;0.896337
9416.000000;0.896113
9415.000000;0.895906
9414.000000;0.895781
9413.000000;0.895334
9412.000000;0.894297
9411.000000;0.893153
9410.000000;0.892782
9409.000000;0.893526
9408.000000;0.894795
9407.000000;0.895649
9406.000000;0.895614
9405.000000;0.894916
9404.000000;0.894019
9403.000000;0.893146
9402.000000;0.892323
9401.000000;0.891685
9400.000000;0.891432
9399.000000;0.891443
9398.000000;0.891198
9397.000000;0.890309
9396.000000;0.889007
9395.000000;0.887891
9394.000000;0.887327
9393.000000;0.887219
9392.000000;0.887259
9391.000000;0.887185
9390.000000;0.886913
9389.000000;0.886604
9388.000000;0.886536
9387.000000;0.886756
9386.000000;0.886919
9385.000000;0.886668
9384.000000;0.886127
9383.000000;0.885778
9382.000000;0.885917
9381.000000;0.886411
9380.000000;0.886931
9379.000000;0.887197
9378.000000;0.887038
9377.000000;0.886469
9376.000000;0.885783
9375.000000;0.885388
9374.000000;0.885456
9373.000000;0.885782
9372.000000;0.886011
9371.000000;0.885938
9370.000000;0.885629
9369.000000;0.885315
9368.000000;0.885126
9367.000000;0.884899
9366.000000;0.884394
9365.000000;0.883778
9364.000000;0.883624
9363.000000;0.884182
9362.000000;0.884894
9361.000000;0.885011
9360.000000;0.884573
9359.000000;0.884307
9358.000000;0.884593
9357.000000;0.885022
9356.000000;0.885071
9355.000000;0.884750
9354.000000;0.884366
9353.000000;0.883959
9352.000000;0.883327
9351.000000;0.882408
9350.000000;0.881384
9349.000000;0.880486
9348.000000;0.879897
9347.000000;0.879779
9346.000000;0.880174
9345.000000;0.880857
9344.000000;0.881392
9343.000000;0.881399
9342.000000;0.880845
9341.000000;0.880142
9340.000000;0.879887
9339.000000;0.880334
9338.000000;0.881091
9337.000000;0.881516
9336.000000;0.881411
9335.000000;0.881069
9334.000000;0.880645
9333.000000;0.879852
9332.000000;0.878473
9331.000000;0.876885
9330.000000;0.875773
9329.000000;0.875480
9328.000000;0.875863
9327.000000;0.876607
9326.000000;0.877382
9325.000000;0.877777
9324.000000;0.877487
9323.000000;0.876674
9322.000000;0.875962
9321.000000;0.875892
9320.000000;0.876459
9319.000000;0.877175
9318.000000;0.877511
9317.000000;0.877256
9316.000000;0.876573
9315.000000;0.875802
9314.000000;0.875151
9313.000000;0.874549
9312.000000;0.873836
9311.000000;0.873084
9310.000000;0.872615
9309.000000;0.872621
9308.000000;0.872914
9307.000000;0.873146
9306.000000;0.873252
9305.000000;0.873502
9304.000000;0.874053
9303.000000;0.874594
9302.000000;0.874613
9301.000000;0.873988
9300.000000;0.873179
9299.000000;0.872732
9298.000000;0.872742
9297.000000;0.872890
9296.000000;0.872910
9295.000000;0.872815
9294.000000;0.872645
9293.000000;0.872235
9292.000000;0.871416
9291.000000;0.870339
9290.000000;0.869422
9289.000000;0.868923
9288.000000;0.868701
9287.000000;0.868451
9286.000000;0.868073
9285.000000;0.867776
9284.000000;0.867853
9283.000000;0.868395
9282.000000;0.869193
9281.000000;0.869866
9280.000000;0.870143
9279.000000;0.870061
9278.000000;0.869862
9277.000000;0.869671
9276.000000;0.869394
9275.000000;0.869011
9274.000000;0.868802
9273.000000;0.868994
9272.000000;0.869283
9271.000000;0.869041
9270.000000;0.868150
9269.000000;0.867315
9268.000000;0.867266
9267.000000;0.867854
9266.000000;0.868244
9265.000000;0.867940
9264.000000;0.867278
9263.000000;0.866922
9262.000000;0.867215
9261.000000;0.868054
9260.000000;0.869054
9259.000000;0.869675
9258.000000;0.869459
9257.000000;0.868434
9256.000000;0.867138
9255.000000;0.866145
9254.000000;0.865652
9253.000000;0.865576
9252.000000;0.865784
9251.000000;0.866058
9250.000000;0.866072
9249.000000;0.865699
9248.000000;0.865196
9247.000000;0.864829
9246.000000;0.864483
9245.000000;0.863944
9244.000000;0.863450
9243.000000;0.863584
9242.000000;0.864516
9241.000000;0.865671
9240.000000;0.866279
9239.000000;0.866108
9238.000000;0.865527
9237.000000;0.864979
9236.000000;0.864591
9235.000000;0.864285
9234.000000;0.864113
9233.000000;0.864326
9232.000000;0.864992
9231.000000;0.865654
9230.000000;0.865609
9229.000000;0.864654
9228.000000;0.863368
9227.000000;0.862475
9226.000000;0.862103
9225.000000;0.861886
9224.000000;0.861621
9223.000000;0.861461
9222.000000;0.861477
9221.000000;0.861401
9220.000000;0.860947
9219.000000;0.860160
9218.000000;0.859320
9217.000000;0.858673
9216.000000;0.858380
9215.000000;0.858552
9214.000000;0.859183
9213.000000;0.860068
9212.000000;0.860907
9211.000000;0.861411
9210.000000;0.861319
9209.000000;0.860505
9208.000000;0.859207
9207.000000;0.858018
9206.000000;0.857462
9205.000000;0.857533
9204.000000;0.857767
9203.000000;0.857763
9202.000000;0.857547
9201.000000;0.857406
9200.000000;0.857460
9199.000000;0.857533
9198.000000;0.857489
9197.000000;0.857533
9196.000000;0.857942
9195.000000;0.858507
9194.000000;0.858539
9193.000000;0.857656
9192.000000;0.856347
9191.000000;0.855472
9190.000000;0.855357
9189.000000;0.855696
9188.000000;0.856228
9187.000000;0.857012
9186.000000;0.857908
9185.000000;0.858256
9184.000000;0.857493
9183.000000;0.855907
9182.000000;0.854391
9181.000000;0.853530
9180.000000;0.853207
9179.000000;0.853032
9178.000000;0.852815
9177.000000;0.852559
9176.000000;0.852298
9175.000000;0.852137
9174.000000;0.852273
9173.000000;0.852778
9172.000000;0.853394
9171.000000;0.853684
9170.000000;0.853409
9169.000000;0.852695
9168.000000;0.851880
9167.000000;0.851290
9166.000000;0.851120
9165.000000;0.851398
9164.000000;0.851950
9163.000000;0.852486
9162.000000;0.852797
9161.000000;0.852870
9160.000000;0.852821
9159.000000;0.852736
9158.000000;0.852630
9157.000000;0.852484
9156.000000;0.852263
9155.000000;0.851936
9154.000000;0.851574
9153.000000;0.851418
9152.000000;0.851697
9151.000000;0.852338
9150.000000;0.852958
9149.000000;0.853198
9148.000000;0.852985
9147.000000;0.852452
9146.000000;0.851759
9145.000000;0.851097
9144.000000;0.850706
9143.000000;0.850706
9142.000000;0.850932
9141.000000;0.851086
9140.000000;0.851049
9139.000000;0.850948
9138.000000;0.850897
9137.000000;0.850791
9136.000000;0.850371
9135.000000;0.849506
9134.000000;0.848434
9133.000000;0.847696
9132.000000;0.847686
9131.000000;0.848207
9130.000000;0.848644
9129.000000;0.848691
9128.000000;0.848724
9127.000000;0.849209
9126.000000;0.849940
9125.000000;0.850245
9124.000000;0.849891
9123.000000;0.849358
9122.000000;0.849095
9121.000000;0.848938
9120.000000;0.848495
9119.000000;0.847813
9118.000000;0.847295
9117.000000;0.847098
9116.000000;0.847000
9115.000000;0.846845
9114.000000;0.846806
9113.000000;0.847105
9112.000000;0.847693
9111.000000;0.848327
9110.000000;0.848778
9109.000000;0.848860
9108.000000;0.848440
9107.000000;0.847641
9106.000000;0.846952
9105.000000;0.846837
9104.000000;0.847190
9103.000000;0.847371
9102.000000;0.846919
9101.000000;0.846093
9100.000000;0.845528
9099.000000;0.845508
9098.000000;0.845802
9097.000000;0.846138
9096.000000;0.846508
9095.000000;0.846947
9094.000000;0.847304
9093.000000;0.847421
9092.000000;0.847335
9091.000000;0.847074
9090.000000;0.846443
9089.000000;0.845279
9088.000000;0.843869
9087.000000;0.842864
9086.000000;0.842742
9085.000000;0.843459
9084.000000;0.844510
9083.000000;0.845174
9082.000000;0.844885
9081.000000;0.843727
9080.000000;0.842549
9079.000000;0.842291
9078.000000;0.843070
9077.000000;0.844121
9076.000000;0.844649
9075.000000;0.844507
9074.000000;0.844015
9073.000000;0.843462
9072.000000;0.842991
9071.000000;0.842748
9070.000000;0.842855
9069.000000;0.843267
9068.000000;0.843794
9067.000000;0.844238
9066.000000;0.844479
9065.000000;0.844492
9064.000000;0.844351
9063.000000;0.844103
9062.000000;0.843668
9061.000000;0.843013
9060.000000;0.842422
9059.000000;0.842308
9058.000000;0.842674
9057.000000;0.843007
9056.000000;0.842877
9055.000000;0.842389
9054.000000;0.841874
9053.000000;0.841396
