Criado como novo conjunto de dados;"e0108.spp","-4294965.8 Secs"
cm-1;Abs
10000.000000;-0.350849
9999.000000;-0.350932
9998.000000;-0.351017
9997.000000;-0.351097
9996.000000;-0.351213
9995.000000;-0.351412
9994.000000;-0.351638
9993.000000;-0.351860
9992.000000;-0.352151
9991.000000;-0.352539
9990.000000;-0.352942
9989.000000;-0.353278
9988.000000;-0.353596
9987.000000;-0.354015
9986.000000;-0.354559
9985.000000;-0.355122
9984.000000;-0.355585
9983.000000;-0.355936
9982.000000;-0.356252
9981.000000;-0.356588
9980.000000;-0.356909
9979.000000;-0.357119
9978.000000;-0.357150
9977.000000;-0.357004
9976.000000;-0.356722
9975.000000;-0.356382
9974.000000;-0.356151
9973.000000;-0.356278
9972.000000;-0.356933
9971.000000;-0.358010
9970.000000;-0.359160
9969.000000;-0.360031
9968.000000;-0.360483
9967.000000;-0.360564
9966.000000;-0.360422
9965.000000;-0.360271
9964.000000;-0.360357
9963.000000;-0.360768
9962.000000;-0.361287
9961.000000;-0.361569
9960.000000;-0.361542
9959.000000;-0.361553
9958.000000;-0.362048
9957.000000;-0.363110
9956.000000;-0.364350
9955.000000;-0.365231
9954.000000;-0.365506
9953.000000;-0.365369
9952.000000;-0.365260
9951.000000;-0.365496
9950.000000;-0.366063
9949.000000;-0.366706
9948.000000;-0.367197
9947.000000;-0.367508
9946.000000;-0.367756
9945.000000;-0.368043
9944.000000;-0.368357
9943.000000;-0.368596
9942.000000;-0.368704
9941.000000;-0.368806
9940.000000;-0.369152
9939.000000;-0.369819
9938.000000;-0.370469
9937.000000;-0.370587
9936.000000;-0.370032
9935.000000;-0.369281
9934.000000;-0.369024
9933.000000;-0.369569
9932.000000;-0.370664
9931.000000;-0.371798
9930.000000;-0.372566
9929.000000;-0.372858
9928.000000;-0.372848
9927.000000;-0.372833
9926.000000;-0.372975
9925.000000;-0.373226
9924.000000;-0.373529
9923.000000;-0.373985
9922.000000;-0.374699
9921.000000;-0.375520
9920.000000;-0.376125
9919.000000;-0.376349
9918.000000;-0.376291
9917.000000;-0.376108
9916.000000;-0.375889
9915.000000;-0.375762
9914.000000;-0.375910
9913.000000;-0.376381
9912.000000;-0.377017
9911.000000;-0.377634
9910.000000;-0.378172
9909.000000;-0.378597
9908.000000;-0.378824
9907.000000;-0.378875
9906.000000;-0.378972
9905.000000;-0.379311
9904.000000;-0.379789
9903.000000;-0.380144
9902.000000;-0.380323
9901.000000;-0.380559
9900.000000;-0.381043
9899.000000;-0.381673
9898.000000;-0.382176
9897.000000;-0.382427
9896.000000;-0.382539
9895.000000;-0.382707
9894.000000;-0.383004
9893.000000;-0.383345
9892.000000;-0.383605
9891.000000;-0.383742
9890.000000;-0.383809
9889.000000;-0.383875
9888.000000;-0.383974
9887.000000;-0.384108
9886.000000;-0.384269
9885.000000;-0.384482
9884.000000;-0.384852
9883.000000;-0.385495
9882.000000;-0.386370
9881.000000;-0.387212
9880.000000;-0.387750
9879.000000;-0.387974
9878.000000;-0.388101
9877.000000;-0.388307
9876.000000;-0.388603
9875.000000;-0.388966
9874.000000;-0.389399
9873.000000;-0.389816
9872.000000;-0.390031
9871.000000;-0.389989
9870.000000;-0.389894
9869.000000;-0.390016
9868.000000;-0.390441
9867.000000;-0.391069
9866.000000;-0.391732
9865.000000;-0.392256
9864.000000;-0.392516
9863.000000;-0.392585
9862.000000;-0.392706
9861.000000;-0.393018
9860.000000;-0.393379
9859.000000;-0.393589
9858.000000;-0.393669
9857.000000;-0.393771
9856.000000;-0.393902
9855.000000;-0.393943
9854.000000;-0.393917
9853.000000;-0.394016
9852.000000;-0.394330
9851.000000;-0.394714
9850.000000;-0.394993
9849.000000;-0.395186
9848.000000;-0.395469
9847.000000;-0.395993
9846.000000;-0.396774
9845.000000;-0.397670
9844.000000;-0.398415
9843.000000;-0.398776
9842.000000;-0.398764
9841.000000;-0.398666
9840.000000;-0.398821
9839.000000;-0.399337
9838.000000;-0.399992
9837.000000;-0.400397
9836.000000;-0.400320
9835.000000;-0.399929
9834.000000;-0.399693
9833.000000;-0.399991
9832.000000;-0.400801
9831.000000;-0.401744
9830.000000;-0.402383
9829.000000;-0.402497
9828.000000;-0.402206
9827.000000;-0.401900
9826.000000;-0.401955
9825.000000;-0.402407
9824.000000;-0.402989
9823.000000;-0.403531
9822.000000;-0.404173
9821.000000;-0.405045
9820.000000;-0.405915
9819.000000;-0.406420
9818.000000;-0.406550
9817.000000;-0.406640
9816.000000;-0.406893
9815.000000;-0.407194
9814.000000;-0.407401
9813.000000;-0.407574
9812.000000;-0.407817
9811.000000;-0.408121
9810.000000;-0.408454
9809.000000;-0.408819
9808.000000;-0.409120
9807.000000;-0.409174
9806.000000;-0.408971
9805.000000;-0.408782
9804.000000;-0.408885
9803.000000;-0.409304
9802.000000;-0.409908
9801.000000;-0.410576
9800.000000;-0.411160
9799.000000;-0.411482
9798.000000;-0.411571
9797.000000;-0.411736
9796.000000;-0.412196
9795.000000;-0.412733
9794.000000;-0.412944
9793.000000;-0.412778
9792.000000;-0.412598
9791.000000;-0.412734
9790.000000;-0.413160
9789.000000;-0.413613
9788.000000;-0.413868
9787.000000;-0.413884
9786.000000;-0.413816
9785.000000;-0.413938
9784.000000;-0.414415
9783.000000;-0.415131
9782.000000;-0.415804
9781.000000;-0.416263
9780.000000;-0.416554
9779.000000;-0.416799
9778.000000;-0.417070
9777.000000;-0.417378
9776.000000;-0.417656
9775.000000;-0.417773
9774.000000;-0.417686
9773.000000;-0.417554
9772.000000;-0.417573
9771.000000;-0.417733
9770.000000;-0.417906
9769.000000;-0.418165
9768.000000;-0.418758
9767.000000;-0.419713
9766.000000;-0.420676
9765.000000;-0.421289
9764.000000;-0.421568
9763.000000;-0.421753
9762.000000;-0.421937
9761.000000;-0.422041
9760.000000;-0.422057
9759.000000;-0.422092
9758.000000;-0.422180
9757.000000;-0.422255
9756.000000;-0.422337
9755.000000;-0.422565
9754.000000;-0.422980
9753.000000;-0.423411
9752.000000;-0.423687
9751.000000;-0.423861
9750.000000;-0.424121
9749.000000;-0.424539
9748.000000;-0.424999
9747.000000;-0.425357
9746.000000;-0.425569
9745.000000;-0.425692
9744.000000;-0.425826
9743.000000;-0.426066
9742.000000;-0.426422
9741.000000;-0.426763
9740.000000;-0.426932
9739.000000;-0.426950
9738.000000;-0.427042
9737.000000;-0.427409
9736.000000;-0.427997
9735.000000;-0.428552
9734.000000;-0.428874
9733.000000;-0.428959
9732.000000;-0.428916
9731.000000;-0.428859
9730.000000;-0.428863
9729.000000;-0.428963
9728.000000;-0.429149
9727.000000;-0.429426
9726.000000;-0.429875
9725.000000;-0.430563
9724.000000;-0.431357
9723.000000;-0.431963
9722.000000;-0.432260
9721.000000;-0.432500
9720.000000;-0.433003
9719.000000;-0.433714
9718.000000;-0.434211
9717.000000;-0.434199
9716.000000;-0.433848
9715.000000;-0.433598
9714.000000;-0.433723
9713.000000;-0.434146
9712.000000;-0.434554
9711.000000;-0.434632
9710.000000;-0.434293
9709.000000;-0.433798
9708.000000;-0.433605
9707.000000;-0.433965
9706.000000;-0.434678
9705.000000;-0.435317
9704.000000;-0.435681
9703.000000;-0.435943
9702.000000;-0.436359
9701.000000;-0.436947
9700.000000;-0.437499
9699.000000;-0.437822
9698.000000;-0.437913
9697.000000;-0.437910
9696.000000;-0.437912
9695.000000;-0.437857
9694.000000;-0.437612
9693.000000;-0.437236
9692.000000;-0.437071
9691.000000;-0.437484
9690.000000;-0.438487
9689.000000;-0.439703
9688.000000;-0.440729
9687.000000;-0.441430
9686.000000;-0.441862
9685.000000;-0.442064
9684.000000;-0.442068
9683.000000;-0.442012
9682.000000;-0.442059
9681.000000;-0.442214
9680.000000;-0.442360
9679.000000;-0.442491
9678.000000;-0.442746
9677.000000;-0.443155
9676.000000;-0.443476
9675.000000;-0.443458
9674.000000;-0.443200
9673.000000;-0.443100
9672.000000;-0.443436
9671.000000;-0.444092
9670.000000;-0.444741
9669.000000;-0.445196
9668.000000;-0.445531
9667.000000;-0.445890
9666.000000;-0.446285
9665.000000;-0.446603
9664.000000;-0.446766
9663.000000;-0.446833
9662.000000;-0.446940
9661.000000;-0.447168
9660.000000;-0.447478
9659.000000;-0.447803
9658.000000;-0.448144
9657.000000;-0.448550
9656.000000;-0.449000
9655.000000;-0.449377
9654.000000;-0.449585
9653.000000;-0.449647
9652.000000;-0.449661
9651.000000;-0.449717
9650.000000;-0.449888
9649.000000;-0.450252
9648.000000;-0.450805
9647.000000;-0.451384
9646.000000;-0.451770
9645.000000;-0.451903
9644.000000;-0.451905
9643.000000;-0.451901
9642.000000;-0.451914
9641.000000;-0.451990
9640.000000;-0.452290
9639.000000;-0.452913
9638.000000;-0.453697
9637.000000;-0.454308
9636.000000;-0.454542
9635.000000;-0.454443
9634.000000;-0.454190
9633.000000;-0.453977
9632.000000;-0.453983
9631.000000;-0.454292
9630.000000;-0.454763
9629.000000;-0.455106
9628.000000;-0.455193
9627.000000;-0.455220
9626.000000;-0.455469
9625.000000;-0.455987
9624.000000;-0.456574
9623.000000;-0.457047
9622.000000;-0.457372
9621.000000;-0.457561
9620.000000;-0.457581
9619.000000;-0.457417
9618.000000;-0.457178
9617.000000;-0.457047
9616.000000;-0.457146
9615.000000;-0.457471
9614.000000;-0.457951
9613.000000;-0.458532
9612.000000;-0.459187
9611.000000;-0.459865
9610.000000;-0.460461
9609.000000;-0.460867
9608.000000;-0.461052
9607.000000;-0.461044
9606.000000;-0.460855
9605.000000;-0.460493
9604.000000;-0.460104
9603.000000;-0.460006
9602.000000;-0.460473
9601.000000;-0.461446
9600.000000;-0.462515
9599.000000;-0.463216
9598.000000;-0.463365
9597.000000;-0.463151
9596.000000;-0.462977
9595.000000;-0.463157
9594.000000;-0.463690
9593.000000;-0.464277
9592.000000;-0.464611
9591.000000;-0.464668
9590.000000;-0.464689
9589.000000;-0.464903
9588.000000;-0.465309
9587.000000;-0.465748
9586.000000;-0.466088
9585.000000;-0.466297
9584.000000;-0.466399
9583.000000;-0.466430
9582.000000;-0.466437
9581.000000;-0.466476
9580.000000;-0.466591
9579.000000;-0.466808
9578.000000;-0.467131
9577.000000;-0.467535
9576.000000;-0.467966
9575.000000;-0.468377
9574.000000;-0.468741
9573.000000;-0.469038
9572.000000;-0.469240
9571.000000;-0.469350
9570.000000;-0.469441
9569.000000;-0.469628
9568.000000;-0.469979
9567.000000;-0.470468
9566.000000;-0.470994
9565.000000;-0.471426
9564.000000;-0.471634
9563.000000;-0.471541
9562.000000;-0.471183
9561.000000;-0.470745
9560.000000;-0.470492
9559.000000;-0.470638
9558.000000;-0.471243
9557.000000;-0.472185
9556.000000;-0.473193
9555.000000;-0.473951
9554.000000;-0.474260
9553.000000;-0.474197
9552.000000;-0.474069
9551.000000;-0.474139
9550.000000;-0.474376
9549.000000;-0.474533
9548.000000;-0.474455
9547.000000;-0.474271
9546.000000;-0.474252
9545.000000;-0.474570
9544.000000;-0.475194
9543.000000;-0.475939
9542.000000;-0.476552
9541.000000;-0.476862
9540.000000;-0.476904
9539.000000;-0.476861
9538.000000;-0.476824
9537.000000;-0.476681
9536.000000;-0.476338
9535.000000;-0.475956
9534.000000;-0.475826
9533.000000;-0.476045
9532.000000;-0.476472
9531.000000;-0.476979
9530.000000;-0.477584
9529.000000;-0.478291
9528.000000;-0.478937
9527.000000;-0.479333
9526.000000;-0.479456
9525.000000;-0.479405
9524.000000;-0.479265
9523.000000;-0.479143
9522.000000;-0.479263
9521.000000;-0.479833
9520.000000;-0.480751
9519.000000;-0.481554
9518.000000;-0.481816
9517.000000;-0.481567
9516.000000;-0.481234
9515.000000;-0.481162
9514.000000;-0.481286
9513.000000;-0.481346
9512.000000;-0.481290
9511.000000;-0.481323
9510.000000;-0.481551
9509.000000;-0.481771
9508.000000;-0.481740
9507.000000;-0.481554
9506.000000;-0.481580
9505.000000;-0.482021
9504.000000;-0.482672
9503.000000;-0.483158
9502.000000;-0.483320
9501.000000;-0.483319
9500.000000;-0.483399
9499.000000;-0.483630
9498.000000;-0.483885
9497.000000;-0.484052
9496.000000;-0.484201
9495.000000;-0.484486
9494.000000;-0.484911
9493.000000;-0.485285
9492.000000;-0.485475
9491.000000;-0.485574
9490.000000;-0.485735
9489.000000;-0.485951
9488.000000;-0.486149
9487.000000;-0.486439
9486.000000;-0.487016
9485.000000;-0.487798
9484.000000;-0.488368
9483.000000;-0.488397
9482.000000;-0.488004
9481.000000;-0.487621
9480.000000;-0.487582
9479.000000;-0.487937
9478.000000;-0.488538
9477.000000;-0.489181
9476.000000;-0.489689
9475.000000;-0.489968
9474.000000;-0.490020
9473.000000;-0.489927
9472.000000;-0.489879
9471.000000;-0.490133
9470.000000;-0.490795
9469.000000;-0.491588
9468.000000;-0.491995
9467.000000;-0.491752
9466.000000;-0.491117
9465.000000;-0.490597
9464.000000;-0.490511
9463.000000;-0.490880
9462.000000;-0.491560
9461.000000;-0.492299
9460.000000;-0.492778
9459.000000;-0.492809
9458.000000;-0.492514
9457.000000;-0.492192
9456.000000;-0.492032
9455.000000;-0.492036
9454.000000;-0.492161
9453.000000;-0.492373
9452.000000;-0.492600
9451.000000;-0.492791
9450.000000;-0.493013
9449.000000;-0.493376
9448.000000;-0.493842
9447.000000;-0.494225
9446.000000;-0.494402
9445.000000;-0.494400
9444.000000;-0.494278
9443.000000;-0.494074
9442.000000;-0.493942
9441.000000;-0.494172
9440.000000;-0.494919
9439.000000;-0.495952
9438.000000;-0.496766
9437.000000;-0.497009
9436.000000;-0.496777
9435.000000;-0.496508
9434.000000;-0.496586
9433.000000;-0.497044
9432.000000;-0.497616
9431.000000;-0.498035
9430.000000;-0.498232
9429.000000;-0.498273
9428.000000;-0.498215
9427.000000;-0.498089
9426.000000;-0.497963
9425.000000;-0.497901
9424.000000;-0.497915
9423.000000;-0.498028
9422.000000;-0.498343
9421.000000;-0.498909
9420.000000;-0.499556
9419.000000;-0.499981
9418.000000;-0.500015
9417.000000;-0.499733
9416.000000;-0.499303
9415.000000;-0.498887
9414.000000;-0.498696
9413.000000;-0.498956
9412.000000;-0.499685
9411.000000;-0.500597
9410.000000;-0.501350
9409.000000;-0.501850
9408.000000;-0.502222
9407.000000;-0.502531
9406.000000;-0.502649
9405.000000;-0.502437
9404.000000;-0.502007
9403.000000;-0.501711
9402.000000;-0.501828
9401.000000;-0.502308
9400.000000;-0.502850
9399.000000;-0.503228
9398.000000;-0.503471
9397.000000;-0.503722
9396.000000;-0.504018
9395.000000;-0.504303
9394.000000;-0.504530
9393.000000;-0.504642
9392.000000;-0.504523
9391.000000;-0.504154
9390.000000;-0.503779
9389.000000;-0.503731
9388.000000;-0.504063
9387.000000;-0.504499
9386.000000;-0.504784
9385.000000;-0.504927
9384.000000;-0.505059
9383.000000;-0.505238
9382.000000;-0.505467
9381.000000;-0.505753
9380.000000;-0.506040
9379.000000;-0.506222
9378.000000;-0.506331
9377.000000;-0.506556
9376.000000;-0.506950
9375.000000;-0.507265
9374.000000;-0.507254
9373.000000;-0.507017
9372.000000;-0.506844
9371.000000;-0.506811
9370.000000;-0.506752
9369.000000;-0.506589
9368.000000;-0.506458
9367.000000;-0.506505
9366.000000;-0.506759
9365.000000;-0.507248
9364.000000;-0.508011
9363.000000;-0.508927
9362.000000;-0.509673
9361.000000;-0.509975
9360.000000;-0.509809
9359.000000;-0.509354
9358.000000;-0.508851
9357.000000;-0.508571
9356.000000;-0.508707
9355.000000;-0.509178
9354.000000;-0.509640
9353.000000;-0.509826
9352.000000;-0.509822
9351.000000;-0.509914
9350.000000;-0.510263
9349.000000;-0.510829
9348.000000;-0.511518
9347.000000;-0.512221
9346.000000;-0.512732
9345.000000;-0.512848
9344.000000;-0.512605
9343.000000;-0.512301
9342.000000;-0.512211
9341.000000;-0.512323
9340.000000;-0.512405
9339.000000;-0.512276
9338.000000;-0.511989
9337.000000;-0.511766
9336.000000;-0.511809
9335.000000;-0.512136
9334.000000;-0.512580
9333.000000;-0.512942
9332.000000;-0.513173
9331.000000;-0.513384
9330.000000;-0.513682
9329.000000;-0.514029
9328.000000;-0.514280
9327.000000;-0.514346
9326.000000;-0.514285
9325.000000;-0.514234
9324.000000;-0.514274
9323.000000;-0.514363
9322.000000;-0.514427
9321.000000;-0.514478
9320.000000;-0.514599
9319.000000;-0.514810
9318.000000;-0.515011
9317.000000;-0.515110
9316.000000;-0.515165
9315.000000;-0.515334
9314.000000;-0.515695
9313.000000;-0.516185
9312.000000;-0.516697
9311.000000;-0.517149
9310.000000;-0.517477
9309.000000;-0.517645
9308.000000;-0.517703
9307.000000;-0.517762
9306.000000;-0.517851
9305.000000;-0.517875
9304.000000;-0.517752
9303.000000;-0.517533
9302.000000;-0.517342
9301.000000;-0.517251
9300.000000;-0.517293
9299.000000;-0.517523
9298.000000;-0.517938
9297.000000;-0.518365
9296.000000;-0.518543
9295.000000;-0.518386
9294.000000;-0.518101
9293.000000;-0.518018
9292.000000;-0.518314
9291.000000;-0.518880
9290.000000;-0.519413
9289.000000;-0.519652
9288.000000;-0.519592
9287.000000;-0.519465
9286.000000;-0.519475
9285.000000;-0.519580
9284.000000;-0.519596
9283.000000;-0.519485
9282.000000;-0.519410
9281.000000;-0.519522
9280.000000;-0.519810
9279.000000;-0.520209
9278.000000;-0.520693
9277.000000;-0.521188
9276.000000;-0.521513
9275.000000;-0.521543
9274.000000;-0.521387
9273.000000;-0.521271
9272.000000;-0.521317
9271.000000;-0.521516
9270.000000;-0.521854
9269.000000;-0.522286
9268.000000;-0.522629
9267.000000;-0.522669
9266.000000;-0.522444
9265.000000;-0.522273
9264.000000;-0.522422
9263.000000;-0.522813
9262.000000;-0.523129
9261.000000;-0.523137
9260.000000;-0.522857
9259.000000;-0.522518
9258.000000;-0.522419
9257.000000;-0.522755
9256.000000;-0.523448
9255.000000;-0.524165
9254.000000;-0.524581
9253.000000;-0.524644
9252.000000;-0.524553
9251.000000;-0.524521
9250.000000;-0.524635
9249.000000;-0.524887
9248.000000;-0.525256
9247.000000;-0.525695
9246.000000;-0.526122
9245.000000;-0.526420
9244.000000;-0.526468
9243.000000;-0.526208
9242.000000;-0.525714
9241.000000;-0.525187
9240.000000;-0.524805
9239.000000;-0.524593
9238.000000;-0.524484
9237.000000;-0.524476
9236.000000;-0.524643
9235.000000;-0.524981
9234.000000;-0.525336
9233.000000;-0.525559
9232.000000;-0.525667
9231.000000;-0.525794
9230.000000;-0.526017
9229.000000;-0.526305
9228.000000;-0.526610
9227.000000;-0.526932
9226.000000;-0.527272
9225.000000;-0.527567
9224.000000;-0.527717
9223.000000;-0.527668
9222.000000;-0.527453
9221.000000;-0.527199
9220.000000;-0.527081
9219.000000;-0.527245
9218.000000;-0.527686
9217.000000;-0.528207
9216.000000;-0.528531
9215.000000;-0.528506
9214.000000;-0.528200
9213.000000;-0.527808
9212.000000;-0.527504
9211.000000;-0.527407
9210.000000;-0.527624
9209.000000;-0.528171
9208.000000;-0.528837
9207.000000;-0.529232
9206.000000;-0.529108
9205.000000;-0.528646
9204.000000;-0.528329
9203.000000;-0.528483
9202.000000;-0.529012
9201.000000;-0.529581
9200.000000;-0.529999
9199.000000;-0.530331
9198.000000;-0.530679
9197.000000;-0.530979
9196.000000;-0.531081
9195.000000;-0.530946
9194.000000;-0.530667
9193.000000;-0.530344
9192.000000;-0.530038
9191.000000;-0.529846
9190.000000;-0.529888
9189.000000;-0.530150
9188.000000;-0.530435
9187.000000;-0.530590
9186.000000;-0.530731
9185.000000;-0.531101
9184.000000;-0.531710
9183.000000;-0.532269
9182.000000;-0.532527
9181.000000;-0.532561
9180.000000;-0.532642
9179.000000;-0.532883
9178.000000;-0.533157
9177.000000;-0.533318
9176.000000;-0.533370
9175.000000;-0.533388
9174.000000;-0.533377
9173.000000;-0.533269
9172.000000;-0.533039
9171.000000;-0.532783
9170.000000;-0.532689
9169.000000;-0.532909
9168.000000;-0.533422
9167.000000;-0.533998
9166.000000;-0.534353
9165.000000;-0.534367
9164.000000;-0.534164
9163.000000;-0.533964
9162.000000;-0.533875
9161.000000;-0.533845
9160.000000;-0.533775
9159.000000;-0.533649
9158.000000;-0.533551
9157.000000;-0.533576
9156.000000;-0.533760
9155.000000;-0.534078
9154.000000;-0.534474
9153.000000;-0.534830
9152.000000;-0.534968
9151.000000;-0.534785
9150.000000;-0.534419
9149.000000;-0.534194
9148.000000;-0.534315
9147.000000;-0.534674
9146.000000;-0.535010
9145.000000;-0.535198
9144.000000;-0.535300
9143.000000;-0.535381
9142.000000;-0.535451
9141.000000;-0.535573
9140.000000;-0.535848
9139.000000;-0.536221
9138.000000;-0.536451
9137.000000;-0.536393
9136.000000;-0.536212
9135.000000;-0.536179
9134.000000;-0.536318
9133.000000;-0.536409
9132.000000;-0.536324
9131.000000;-0.536205
9130.000000;-0.536261
9129.000000;-0.536508
9128.000000;-0.536798
9127.000000;-0.537013
9126.000000;-0.537117
9125.000000;-0.537082
9124.000000;-0.536876
9123.000000;-0.536580
9122.000000;-0.536414
9121.000000;-0.536544
9120.000000;-0.536894
9119.000000;-0.537209
9118.000000;-0.537329
9117.000000;-0.537332
9116.000000;-0.537382
9115.000000;-0.537502
9114.000000;-0.537578
9113.000000;-0.537569
9112.000000;-0.537590
9111.000000;-0.537762
9110.000000;-0.538054
9109.000000;-0.538353
9108.000000;-0.538626
9107.000000;-0.538909
9106.000000;-0.539175
9105.000000;-0.539313
9104.000000;-0.539267
9103.000000;-0.539105
9102.000000;-0.538921
9101.000000;-0.538741
9100.000000;-0.538574
9099.000000;-0.538476
9098.000000;-0.538505
9097.000000;-0.538639
9096.000000;-0.538816
