Criado como novo conjunto de dados;"e0108.spp","-4241862.5 Secs"
cm-1;Abs
10000.000000;0.976137
9999.000000;0.975033
9998.000000;0.973705
9997.000000;0.973026
9996.000000;0.973193
9995.000000;0.973422
9994.000000;0.972863
9993.000000;0.971626
9992.000000;0.970501
9991.000000;0.969842
9990.000000;0.969270
9989.000000;0.968460
9988.000000;0.967704
9987.000000;0.967501
9986.000000;0.967882
9985.000000;0.968319
9984.000000;0.968218
9983.000000;0.967416
9982.000000;0.966291
9981.000000;0.965379
9980.000000;0.964831
9979.000000;0.964372
9978.000000;0.963892
9977.000000;0.963836
9976.000000;0.964736
9975.000000;0.966525
9974.000000;0.968516
9973.000000;0.969930
9972.000000;0.970256
9971.000000;0.969321
9970.000000;0.967419
9969.000000;0.965355
9968.000000;0.963943
9967.000000;0.963316
9966.000000;0.962934
9965.000000;0.962317
9964.000000;0.961552
9963.000000;0.961041
9962.000000;0.960980
9961.000000;0.961172
9960.000000;0.961225
9959.000000;0.960889
9958.000000;0.960253
9957.000000;0.959633
9956.000000;0.959218
9955.000000;0.958903
9954.000000;0.958467
9953.000000;0.957773
9952.000000;0.956776
9951.000000;0.955581
9950.000000;0.954638
9949.000000;0.954563
9948.000000;0.955412
9947.000000;0.956324
9946.000000;0.956313
9945.000000;0.955363
9944.000000;0.954369
9943.000000;0.953999
9942.000000;0.953981
9941.000000;0.953541
9940.000000;0.952319
9939.000000;0.950788
9938.000000;0.949895
9937.000000;0.950282
9936.000000;0.951648
9935.000000;0.952942
9934.000000;0.953308
9933.000000;0.952762
9932.000000;0.951849
9931.000000;0.950885
9930.000000;0.949814
9929.000000;0.948680
9928.000000;0.947843
9927.000000;0.947695
9926.000000;0.948353
9925.000000;0.949605
9924.000000;0.950916
9923.000000;0.951579
9922.000000;0.951133
9921.000000;0.949760
9920.000000;0.948178
9919.000000;0.947131
9918.000000;0.946932
9917.000000;0.947277
9916.000000;0.947389
9915.000000;0.946584
9914.000000;0.944932
9913.000000;0.943205
9912.000000;0.942103
9911.000000;0.941751
9910.000000;0.941996
9909.000000;0.942690
9908.000000;0.943366
9907.000000;0.943195
9906.000000;0.941969
9905.000000;0.940769
9904.000000;0.940906
9903.000000;0.942227
9902.000000;0.943168
9901.000000;0.942606
9900.000000;0.941053
9899.000000;0.939801
9898.000000;0.939491
9897.000000;0.939828
9896.000000;0.940267
9895.000000;0.940545
9894.000000;0.940682
9893.000000;0.940757
9892.000000;0.940637
9891.000000;0.939904
9890.000000;0.938317
9889.000000;0.936402
9888.000000;0.935230
9887.000000;0.935368
9886.000000;0.936254
9885.000000;0.936761
9884.000000;0.936238
9883.000000;0.934938
9882.000000;0.933660
9881.000000;0.933159
9880.000000;0.933650
9879.000000;0.934608
9878.000000;0.935131
9877.000000;0.934650
9876.000000;0.933292
9875.000000;0.931578
9874.000000;0.930034
9873.000000;0.929125
9872.000000;0.929180
9871.000000;0.930100
9870.000000;0.931266
9869.000000;0.931998
9868.000000;0.932074
9867.000000;0.931694
9866.000000;0.931031
9865.000000;0.930024
9864.000000;0.928585
9863.000000;0.926867
9862.000000;0.925271
9861.000000;0.924219
9860.000000;0.923899
9859.000000;0.924157
9858.000000;0.924605
9857.000000;0.924859
9856.000000;0.924774
9855.000000;0.924558
9854.000000;0.924620
9853.000000;0.925151
9852.000000;0.925838
9851.000000;0.926177
9850.000000;0.926074
9849.000000;0.925841
9848.000000;0.925510
9847.000000;0.924634
9846.000000;0.923086
9845.000000;0.921693
9844.000000;0.921547
9843.000000;0.922811
9842.000000;0.924632
9841.000000;0.926022
9840.000000;0.926388
9839.000000;0.925420
9838.000000;0.923204
9837.000000;0.920570
9836.000000;0.918665
9835.000000;0.917872
9834.000000;0.917598
9833.000000;0.917273
9832.000000;0.916997
9831.000000;0.916922
9830.000000;0.916654
9829.000000;0.915767
9828.000000;0.914526
9827.000000;0.913601
9826.000000;0.913339
9825.000000;0.913695
9824.000000;0.914538
9823.000000;0.915535
9822.000000;0.915969
9821.000000;0.915282
9820.000000;0.913826
9819.000000;0.912588
9818.000000;0.912127
9817.000000;0.912154
9816.000000;0.912199
9815.000000;0.912260
9814.000000;0.912635
9813.000000;0.913429
9812.000000;0.914410
9811.000000;0.915169
9810.000000;0.915273
9809.000000;0.914448
9808.000000;0.912871
9807.000000;0.911280
9806.000000;0.910529
9805.000000;0.910851
9804.000000;0.911596
9803.000000;0.911873
9802.000000;0.911539
9801.000000;0.911372
9800.000000;0.912080
9799.000000;0.913287
9798.000000;0.913772
9797.000000;0.912702
9796.000000;0.910381
9795.000000;0.907805
9794.000000;0.905861
9793.000000;0.905022
9792.000000;0.905367
9791.000000;0.906515
9790.000000;0.907717
9789.000000;0.908344
9788.000000;0.908283
9787.000000;0.907746
9786.000000;0.906893
9785.000000;0.905835
9784.000000;0.904795
9783.000000;0.903922
9782.000000;0.903028
9781.000000;0.901768
9780.000000;0.900078
9779.000000;0.898262
9778.000000;0.896737
9777.000000;0.895898
9776.000000;0.896090
9775.000000;0.897390
9774.000000;0.899332
9773.000000;0.901107
9772.000000;0.902098
9771.000000;0.902150
9770.000000;0.901410
9769.000000;0.900209
9768.000000;0.899075
9767.000000;0.898507
9766.000000;0.898506
9765.000000;0.898502
9764.000000;0.897967
9763.000000;0.897029
9762.000000;0.896321
9761.000000;0.896266
9760.000000;0.896602
9759.000000;0.896582
9758.000000;0.895632
9757.000000;0.893894
9756.000000;0.892161
9755.000000;0.891255
9754.000000;0.891435
9753.000000;0.892424
9752.000000;0.893841
9751.000000;0.895400
9750.000000;0.896661
9749.000000;0.896912
9748.000000;0.895619
9747.000000;0.893028
9746.000000;0.890138
9745.000000;0.887994
9744.000000;0.887057
9743.000000;0.887183
9742.000000;0.887987
9741.000000;0.889093
9740.000000;0.890109
9739.000000;0.890653
9738.000000;0.890585
9737.000000;0.890163
9736.000000;0.889827
9735.000000;0.889771
9734.000000;0.889829
9733.000000;0.889793
9732.000000;0.889677
9731.000000;0.889565
9730.000000;0.889342
9729.000000;0.888793
9728.000000;0.887936
9727.000000;0.887042
9726.000000;0.886280
9725.000000;0.885561
9724.000000;0.884816
9723.000000;0.884203
9722.000000;0.883821
9721.000000;0.883391
9720.000000;0.882556
9719.000000;0.881524
9718.000000;0.881048
9717.000000;0.881569
9716.000000;0.882555
9715.000000;0.883000
9714.000000;0.882538
9713.000000;0.881826
9712.000000;0.881729
9711.000000;0.882338
9710.000000;0.882882
9709.000000;0.882544
9708.000000;0.881258
9707.000000;0.879766
9706.000000;0.878980
9705.000000;0.879202
9704.000000;0.879848
9703.000000;0.879971
9702.000000;0.879175
9701.000000;0.877988
9700.000000;0.877276
9699.000000;0.877371
9698.000000;0.877863
9697.000000;0.878146
9696.000000;0.877990
9695.000000;0.877577
9694.000000;0.877165
9693.000000;0.876842
9692.000000;0.876515
9691.000000;0.876054
9690.000000;0.875467
9689.000000;0.874916
9688.000000;0.874514
9687.000000;0.874148
9686.000000;0.873645
9685.000000;0.873113
9684.000000;0.872944
9683.000000;0.873370
9682.000000;0.874163
9681.000000;0.874873
9680.000000;0.875246
9679.000000;0.875300
9678.000000;0.875115
9677.000000;0.874802
9676.000000;0.874584
9675.000000;0.874569
9674.000000;0.874395
9673.000000;0.873420
9672.000000;0.871487
9671.000000;0.869318
9670.000000;0.867883
9669.000000;0.867485
9668.000000;0.867631
9667.000000;0.867712
9666.000000;0.867540
9665.000000;0.867239
9664.000000;0.866894
9663.000000;0.866458
9662.000000;0.865861
9661.000000;0.865085
9660.000000;0.864274
9659.000000;0.863796
9658.000000;0.864007
9657.000000;0.864828
9656.000000;0.865697
9655.000000;0.866119
9654.000000;0.866157
9653.000000;0.866207
9652.000000;0.866456
9651.000000;0.866762
9650.000000;0.866938
9649.000000;0.866869
9648.000000;0.866399
9647.000000;0.865430
9646.000000;0.864164
9645.000000;0.863025
9644.000000;0.862285
9643.000000;0.861909
9642.000000;0.861729
9641.000000;0.861581
9640.000000;0.861291
9639.000000;0.860789
9638.000000;0.860279
9637.000000;0.860047
9636.000000;0.860062
9635.000000;0.859996
9634.000000;0.859703
9633.000000;0.859404
9632.000000;0.859299
9631.000000;0.859269
9630.000000;0.859086
9629.000000;0.858706
9628.000000;0.858200
9627.000000;0.857612
9626.000000;0.857046
9625.000000;0.856691
9624.000000;0.856594
9623.000000;0.856566
9622.000000;0.856476
9621.000000;0.856452
9620.000000;0.856650
9619.000000;0.856986
9618.000000;0.857267
9617.000000;0.857408
9616.000000;0.857340
9615.000000;0.856874
9614.000000;0.855879
9613.000000;0.854475
9612.000000;0.852933
9611.000000;0.851526
9610.000000;0.850586
9609.000000;0.850403
9608.000000;0.850852
9607.000000;0.851384
9606.000000;0.851653
9605.000000;0.851865
9604.000000;0.852182
9603.000000;0.852162
9602.000000;0.851311
9601.000000;0.850022
9600.000000;0.849314
9599.000000;0.849574
9598.000000;0.850083
9597.000000;0.849929
9596.000000;0.848964
9595.000000;0.847726
9594.000000;0.846783
9593.000000;0.846386
9592.000000;0.846480
9591.000000;0.846743
9590.000000;0.846760
9589.000000;0.846345
9588.000000;0.845648
9587.000000;0.844910
9586.000000;0.844286
9585.000000;0.843913
9584.000000;0.843911
9583.000000;0.844193
9582.000000;0.844439
9581.000000;0.844379
9580.000000;0.843981
9579.000000;0.843366
9578.000000;0.842731
9577.000000;0.842321
9576.000000;0.842217
9575.000000;0.842135
9574.000000;0.841745
9573.000000;0.841261
9572.000000;0.841311
9571.000000;0.842034
9570.000000;0.842685
9569.000000;0.842496
9568.000000;0.841669
9567.000000;0.841085
9566.000000;0.841166
9565.000000;0.841493
9564.000000;0.841537
9563.000000;0.841320
9562.000000;0.841156
9561.000000;0.841046
9560.000000;0.840655
9559.000000;0.839776
9558.000000;0.838609
9557.000000;0.837575
9556.000000;0.837032
9555.000000;0.837138
9554.000000;0.837796
9553.000000;0.838628
9552.000000;0.839113
9551.000000;0.838964
9550.000000;0.838386
9549.000000;0.837873
9548.000000;0.837672
9547.000000;0.837528
9546.000000;0.837009
9545.000000;0.836040
9544.000000;0.835057
9543.000000;0.834600
9542.000000;0.834757
9541.000000;0.834995
9540.000000;0.834678
9539.000000;0.833861
9538.000000;0.833372
9537.000000;0.833861
9536.000000;0.834866
9535.000000;0.835228
9534.000000;0.834503
9533.000000;0.833507
9532.000000;0.833238
9531.000000;0.833713
9530.000000;0.834230
9529.000000;0.834414
9528.000000;0.834402
9527.000000;0.834190
9526.000000;0.833526
9525.000000;0.832526
9524.000000;0.831774
9523.000000;0.831534
9522.000000;0.831316
9521.000000;0.830546
9520.000000;0.829373
9519.000000;0.828496
9518.000000;0.828362
9517.000000;0.828837
9516.000000;0.829562
9515.000000;0.830300
9514.000000;0.830913
9513.000000;0.831181
9512.000000;0.830815
9511.000000;0.829732
9510.000000;0.828354
9509.000000;0.827505
9508.000000;0.827766
9507.000000;0.828882
9506.000000;0.830008
9505.000000;0.830592
9504.000000;0.830774
9503.000000;0.830840
9502.000000;0.830596
9501.000000;0.829569
9500.000000;0.827685
9499.000000;0.825521
9498.000000;0.823851
9497.000000;0.823052
9496.000000;0.822907
9495.000000;0.822909
9494.000000;0.822785
9493.000000;0.822721
9492.000000;0.823028
9491.000000;0.823661
9490.000000;0.824251
9489.000000;0.824547
9488.000000;0.824584
9487.000000;0.824368
9486.000000;0.823727
9485.000000;0.822673
9484.000000;0.821673
9483.000000;0.821283
9482.000000;0.821563
9481.000000;0.822065
9480.000000;0.822332
9479.000000;0.822291
9478.000000;0.822159
9477.000000;0.822128
9476.000000;0.822154
9475.000000;0.821998
9474.000000;0.821488
9473.000000;0.820723
9472.000000;0.819962
9471.000000;0.819335
9470.000000;0.818758
9469.000000;0.818138
9468.000000;0.817509
9467.000000;0.816978
9466.000000;0.816708
9465.000000;0.816936
9464.000000;0.817719
9463.000000;0.818612
9462.000000;0.818882
9461.000000;0.818237
9460.000000;0.817158
9459.000000;0.816330
9458.000000;0.815993
9457.000000;0.816025
9456.000000;0.816405
9455.000000;0.817177
9454.000000;0.818071
9453.000000;0.818519
9452.000000;0.818173
9451.000000;0.817214
9450.000000;0.816065
9449.000000;0.815029
9448.000000;0.814268
9447.000000;0.813961
9446.000000;0.814250
9445.000000;0.815007
9444.000000;0.815747
9443.000000;0.815872
9442.000000;0.815095
9441.000000;0.813646
9440.000000;0.812060
9439.000000;0.810795
9438.000000;0.810089
9437.000000;0.810009
9436.000000;0.810394
9435.000000;0.810804
9434.000000;0.810793
9433.000000;0.810334
9432.000000;0.809779
9431.000000;0.809348
9430.000000;0.808903
9429.000000;0.808342
9428.000000;0.807919
9427.000000;0.807928
9426.000000;0.808275
9425.000000;0.808633
9424.000000;0.808862
9423.000000;0.808990
9422.000000;0.808927
9421.000000;0.808524
9420.000000;0.807903
9419.000000;0.807446
9418.000000;0.807407
9417.000000;0.807712
9416.000000;0.808131
9415.000000;0.808445
9414.000000;0.808447
9413.000000;0.807986
9412.000000;0.807075
9411.000000;0.805859
9410.000000;0.804478
9409.000000;0.803110
9408.000000;0.802093
9407.000000;0.801810
9406.000000;0.802369
9405.000000;0.803470
9404.000000;0.804610
9403.000000;0.805355
9402.000000;0.805501
9401.000000;0.805136
9400.000000;0.804565
9399.000000;0.804019
9398.000000;0.803462
9397.000000;0.802750
9396.000000;0.801923
9395.000000;0.801213
9394.000000;0.800836
9393.000000;0.800920
9392.000000;0.801520
9391.000000;0.802470
9390.000000;0.803273
9389.000000;0.803435
9388.000000;0.802962
9387.000000;0.802345
9386.000000;0.802003
9385.000000;0.801934
9384.000000;0.801904
9383.000000;0.801746
9382.000000;0.801404
9381.000000;0.800913
9380.000000;0.800437
9379.000000;0.800142
9378.000000;0.799913
9377.000000;0.799444
9376.000000;0.798749
9375.000000;0.798321
9374.000000;0.798542
9373.000000;0.799112
9372.000000;0.799361
9371.000000;0.799042
9370.000000;0.798508
9369.000000;0.798117
9368.000000;0.797807
9367.000000;0.797383
9366.000000;0.796961
9365.000000;0.796823
9364.000000;0.796930
9363.000000;0.796847
9362.000000;0.796250
9361.000000;0.795419
9360.000000;0.795074
9359.000000;0.795723
9358.000000;0.797153
9357.000000;0.798571
9356.000000;0.799280
9355.000000;0.799243
9354.000000;0.798982
9353.000000;0.798914
9352.000000;0.798850
9351.000000;0.798224
9350.000000;0.796774
9349.000000;0.794836
9348.000000;0.792955
9347.000000;0.791411
9346.000000;0.790296
9345.000000;0.789852
9344.000000;0.790365
9343.000000;0.791638
9342.000000;0.792880
9341.000000;0.793347
9340.000000;0.793035
9339.000000;0.792554
9338.000000;0.792409
9337.000000;0.792573
9336.000000;0.792679
9335.000000;0.792418
9334.000000;0.791768
9333.000000;0.791026
9332.000000;0.790623
9331.000000;0.790706
9330.000000;0.790869
9329.000000;0.790503
9328.000000;0.789543
9327.000000;0.788661
9326.000000;0.788532
9325.000000;0.789021
9324.000000;0.789334
9323.000000;0.788953
9322.000000;0.788214
9321.000000;0.787869
9320.000000;0.788251
9319.000000;0.789022
9318.000000;0.789611
9317.000000;0.789730
9316.000000;0.789442
9315.000000;0.788915
9314.000000;0.788276
9313.000000;0.787616
9312.000000;0.786946
9311.000000;0.786137
9310.000000;0.785067
9309.000000;0.783931
9308.000000;0.783289
9307.000000;0.783629
9306.000000;0.784831
9305.000000;0.786155
9304.000000;0.786829
9303.000000;0.786681
9302.000000;0.786185
9301.000000;0.785909
9300.000000;0.785959
9299.000000;0.785927
9298.000000;0.785350
9297.000000;0.784226
9296.000000;0.783075
9295.000000;0.782479
9294.000000;0.782582
9293.000000;0.783011
9292.000000;0.783280
9291.000000;0.783245
9290.000000;0.783195
9289.000000;0.783477
9288.000000;0.784027
9287.000000;0.784326
9286.000000;0.783893
9285.000000;0.782857
9284.000000;0.781909
9283.000000;0.781636
9282.000000;0.781963
9281.000000;0.782327
9280.000000;0.782310
9279.000000;0.781980
9278.000000;0.781655
9277.000000;0.781537
9276.000000;0.781661
9275.000000;0.782036
9274.000000;0.782645
9273.000000;0.783308
9272.000000;0.783670
9271.000000;0.783431
9270.000000;0.782617
9269.000000;0.781618
9268.000000;0.780928
9267.000000;0.780766
9266.000000;0.780854
9265.000000;0.780584
9264.000000;0.779547
9263.000000;0.778018
9262.000000;0.776864
9261.000000;0.776813
9260.000000;0.777738
9259.000000;0.778696
9258.000000;0.778817
9257.000000;0.778139
9256.000000;0.777486
9255.000000;0.777546
9254.000000;0.778214
9253.000000;0.778838
9252.000000;0.778930
9251.000000;0.778503
9250.000000;0.777790
9249.000000;0.776878
9248.000000;0.775717
9247.000000;0.774367
9246.000000;0.773085
9245.000000;0.772166
9244.000000;0.771771
9243.000000;0.771915
9242.000000;0.772551
9241.000000;0.773572
9240.000000;0.774770
9239.000000;0.775880
9238.000000;0.776698
9237.000000;0.777124
9236.000000;0.777080
9235.000000;0.776481
9234.000000;0.775366
9233.000000;0.774010
9232.000000;0.772813
9231.000000;0.772079
9230.000000;0.771898
9229.000000;0.772153
9228.000000;0.772551
9227.000000;0.772748
9226.000000;0.772642
9225.000000;0.772525
9224.000000;0.772775
9223.000000;0.773361
9222.000000;0.773830
9221.000000;0.773827
9220.000000;0.773479
9219.000000;0.773120
9218.000000;0.772818
9217.000000;0.772368
9216.000000;0.771737
9215.000000;0.771298
9214.000000;0.771517
9213.000000;0.772462
9212.000000;0.773633
9211.000000;0.774276
9210.000000;0.773940
9209.000000;0.772846
9208.000000;0.771748
9207.000000;0.771360
9206.000000;0.771819
9205.000000;0.772587
9204.000000;0.772863
9203.000000;0.772177
9202.000000;0.770764
9201.000000;0.769378
9200.000000;0.768660
9199.000000;0.768610
9198.000000;0.768726
9197.000000;0.768632
9196.000000;0.768431
9195.000000;0.768395
9194.000000;0.768551
9193.000000;0.768748
9192.000000;0.768956
9191.000000;0.769254
9190.000000;0.769575
9189.000000;0.769711
9188.000000;0.769577
9187.000000;0.769247
9186.000000;0.768709
9185.000000;0.767812
9184.000000;0.766589
9183.000000;0.765445
9182.000000;0.764844
9181.000000;0.764851
9180.000000;0.765100
9179.000000;0.765190
9178.000000;0.765008
9177.000000;0.764732
9176.000000;0.764647
9175.000000;0.764957
9174.000000;0.765651
9173.000000;0.766484
9172.000000;0.767089
9171.000000;0.767176
9170.000000;0.766695
9169.000000;0.765839
9168.000000;0.764937
9167.000000;0.764301
9166.000000;0.764091
9165.000000;0.764254
9164.000000;0.764546
9163.000000;0.764648
9162.000000;0.764354
9161.000000;0.763780
9160.000000;0.763374
9159.000000;0.763597
9158.000000;0.764462
9157.000000;0.765410
9156.000000;0.765764
9155.000000;0.765342
9154.000000;0.764592
9153.000000;0.764126
9152.000000;0.764206
9151.000000;0.764636
9150.000000;0.765020
9149.000000;0.765038
9148.000000;0.764552
9147.000000;0.763648
9146.000000;0.762610
9145.000000;0.761767
9144.000000;0.761289
9143.000000;0.761164
9142.000000;0.761334
9141.000000;0.761744
9140.000000;0.762210
9139.000000;0.762375
9138.000000;0.761946
9137.000000;0.760976
9136.000000;0.759841
9135.000000;0.758973
9134.000000;0.758659
9133.000000;0.758997
9132.000000;0.759845
9131.000000;0.760813
9130.000000;0.761445
9129.000000;0.761526
9128.000000;0.761154
9127.000000;0.760562
9126.000000;0.759961
9125.000000;0.759540
9124.000000;0.759431
9123.000000;0.759561
9122.000000;0.759660
9121.000000;0.759551
9120.000000;0.759357
9119.000000;0.759337
9118.000000;0.759548
9117.000000;0.759785
9116.000000;0.759822
9115.000000;0.759663
9114.000000;0.759521
9113.000000;0.759579
9112.000000;0.759748
9111.000000;0.759691
9110.000000;0.759159
9109.000000;0.758309
9108.000000;0.757597
9107.000000;0.757334
9106.000000;0.757454
9105.000000;0.757744
9104.000000;0.758123
9103.000000;0.758554
9102.000000;0.758838
9101.000000;0.758752
9100.000000;0.758365
9099.000000;0.758020
9098.000000;0.757926
9097.000000;0.757902
9096.000000;0.757607
9095.000000;0.756958
9094.000000;0.756250
9093.000000;0.755865
9092.000000;0.755897
9091.000000;0.756082
9090.000000;0.756107
9089.000000;0.755968
9088.000000;0.755933
9087.000000;0.756164
9086.000000;0.756551
9085.000000;0.756932
9084.000000;0.757252
9083.000000;0.757376
9082.000000;0.756992
9081.000000;0.755991
9080.000000;0.754820
9079.000000;0.754138
9078.000000;0.754119
9077.000000;0.754356
9076.000000;0.754466
9075.000000;0.754468
9074.000000;0.754501
9073.000000;0.754466
9072.000000;0.754162
9071.000000;0.753617
9070.000000;0.753101
9069.000000;0.752904
9068.000000;0.753154
9067.000000;0.753739
9066.000000;0.754281
9065.000000;0.754345
9064.000000;0.753835
9063.000000;0.753154
9062.000000;0.752833
9061.000000;0.753051
9060.000000;0.753528
9059.000000;0.753805
9058.000000;0.753581
9057.000000;0.752919
9056.000000;0.752215
9055.000000;0.751840
9054.000000;0.751746
9053.000000;0.751564
