Criado como novo conjunto de dados;"e0108.spp","-4257163.0 Secs"
cm-1;Abs
10000.000000;1.050000
9999.000000;1.049007
9998.000000;1.047863
9997.000000;1.047144
9996.000000;1.046879
9995.000000;1.046828
9994.000000;1.046945
9993.000000;1.047244
9992.000000;1.047459
9991.000000;1.047266
9990.000000;1.046770
9989.000000;1.046363
9988.000000;1.046070
9987.000000;1.045397
9986.000000;1.043956
9985.000000;1.041983
9984.000000;1.040102
9983.000000;1.038859
9982.000000;1.038646
9981.000000;1.039661
9980.000000;1.041550
9979.000000;1.043266
9978.000000;1.043755
9977.000000;1.042874
9976.000000;1.041360
9975.000000;1.039914
9974.000000;1.038607
9973.000000;1.037236
9972.000000;1.035889
9971.000000;1.034923
9970.000000;1.034546
9969.000000;1.034706
9968.000000;1.035323
9967.000000;1.036352
9966.000000;1.037501
9965.000000;1.038174
9964.000000;1.037956
9963.000000;1.037134
9962.000000;1.036562
9961.000000;1.036940
9960.000000;1.038163
9959.000000;1.039330
9958.000000;1.039400
9957.000000;1.038079
9956.000000;1.036181
9955.000000;1.034889
9954.000000;1.034578
9953.000000;1.034559
9952.000000;1.034087
9951.000000;1.033295
9950.000000;1.032801
9949.000000;1.032669
9948.000000;1.032314
9947.000000;1.031467
9946.000000;1.030602
9945.000000;1.030117
9944.000000;1.029585
9943.000000;1.028334
9942.000000;1.026518
9941.000000;1.025088
9940.000000;1.024752
9939.000000;1.025420
9938.000000;1.026680
9937.000000;1.028290
9936.000000;1.029925
9935.000000;1.030803
9934.000000;1.030087
9933.000000;1.027784
9932.000000;1.024987
9931.000000;1.023087
9930.000000;1.022718
9929.000000;1.023469
9928.000000;1.024498
9927.000000;1.025283
9926.000000;1.025765
9925.000000;1.026007
9924.000000;1.025977
9923.000000;1.025654
9922.000000;1.025046
9921.000000;1.023976
9920.000000;1.022156
9919.000000;1.019810
9918.000000;1.017996
9917.000000;1.017823
9916.000000;1.019282
9915.000000;1.021175
9914.000000;1.022315
9913.000000;1.022550
9912.000000;1.022466
9911.000000;1.022423
9910.000000;1.022243
9909.000000;1.021723
9908.000000;1.021054
9907.000000;1.020567
9906.000000;1.020215
9905.000000;1.019513
9904.000000;1.018094
9903.000000;1.016300
9902.000000;1.015036
9901.000000;1.014860
9900.000000;1.015350
9899.000000;1.015614
9898.000000;1.015364
9897.000000;1.015139
9896.000000;1.015423
9895.000000;1.015999
9894.000000;1.016401
9893.000000;1.016544
9892.000000;1.016409
9891.000000;1.015456
9890.000000;1.013104
9889.000000;1.009899
9888.000000;1.007570
9887.000000;1.007500
9886.000000;1.009314
9885.000000;1.011186
9884.000000;1.011530
9883.000000;1.010318
9882.000000;1.008767
9881.000000;1.007953
9880.000000;1.007856
9879.000000;1.007665
9878.000000;1.006889
9877.000000;1.005949
9876.000000;1.005576
9875.000000;1.005806
9874.000000;1.005886
9873.000000;1.005255
9872.000000;1.004299
9871.000000;1.003806
9870.000000;1.003857
9869.000000;1.003643
9868.000000;1.002465
9867.000000;1.000711
9866.000000;0.999603
9865.000000;0.999979
9864.000000;1.001380
9863.000000;1.002404
9862.000000;1.001983
9861.000000;1.000295
9860.000000;0.998423
9859.000000;0.997304
9858.000000;0.997181
9857.000000;0.997828
9856.000000;0.998887
9855.000000;0.999861
9854.000000;1.000169
9853.000000;0.999642
9852.000000;0.998901
9851.000000;0.998848
9850.000000;0.999697
9849.000000;1.000689
9848.000000;1.000891
9847.000000;1.000101
9846.000000;0.998838
9845.000000;0.997648
9844.000000;0.996672
9843.000000;0.995831
9842.000000;0.995092
9841.000000;0.994414
9840.000000;0.993616
9839.000000;0.992565
9838.000000;0.991440
9837.000000;0.990621
9836.000000;0.990281
9835.000000;0.990227
9834.000000;0.990163
9833.000000;0.989946
9832.000000;0.989499
9831.000000;0.988774
9830.000000;0.988027
9829.000000;0.987928
9828.000000;0.988969
9827.000000;0.990745
9826.000000;0.992181
9825.000000;0.992588
9824.000000;0.992246
9823.000000;0.991788
9822.000000;0.991404
9821.000000;0.990987
9820.000000;0.990755
9819.000000;0.991108
9818.000000;0.991859
9817.000000;0.992152
9816.000000;0.991383
9815.000000;0.989896
9814.000000;0.988512
9813.000000;0.987630
9812.000000;0.987088
9811.000000;0.986680
9810.000000;0.986432
9809.000000;0.986394
9808.000000;0.986488
9807.000000;0.986633
9806.000000;0.986738
9805.000000;0.986442
9804.000000;0.985122
9803.000000;0.982472
9802.000000;0.979132
9801.000000;0.976572
9800.000000;0.976181
9799.000000;0.978253
9798.000000;0.981607
9797.000000;0.984276
9796.000000;0.984912
9795.000000;0.983719
9794.000000;0.981901
9793.000000;0.980226
9792.000000;0.978470
9791.000000;0.976345
9790.000000;0.974497
9789.000000;0.974084
9788.000000;0.975385
9787.000000;0.977290
9786.000000;0.978376
9785.000000;0.978271
9784.000000;0.977739
9783.000000;0.977621
9782.000000;0.977989
9781.000000;0.978267
9780.000000;0.977897
9779.000000;0.976802
9778.000000;0.975360
9777.000000;0.974029
9776.000000;0.973056
9775.000000;0.972480
9774.000000;0.972276
9773.000000;0.972327
9772.000000;0.972316
9771.000000;0.971857
9770.000000;0.970920
9769.000000;0.969995
9768.000000;0.969657
9767.000000;0.969981
9766.000000;0.970508
9765.000000;0.970724
9764.000000;0.970477
9763.000000;0.969955
9762.000000;0.969441
9761.000000;0.969143
9760.000000;0.969092
9759.000000;0.969101
9758.000000;0.968868
9757.000000;0.968208
9756.000000;0.967215
9755.000000;0.966202
9754.000000;0.965517
9753.000000;0.965325
9752.000000;0.965476
9751.000000;0.965593
9750.000000;0.965418
9749.000000;0.965060
9748.000000;0.964818
9747.000000;0.964811
9746.000000;0.964882
9745.000000;0.964805
9744.000000;0.964430
9743.000000;0.963693
9742.000000;0.962704
9741.000000;0.961831
9740.000000;0.961412
9739.000000;0.961336
9738.000000;0.961147
9737.000000;0.960734
9736.000000;0.960656
9735.000000;0.961526
9734.000000;0.963197
9733.000000;0.964755
9732.000000;0.965276
9731.000000;0.964449
9730.000000;0.962643
9729.000000;0.960653
9728.000000;0.959294
9727.000000;0.958877
9726.000000;0.958965
9725.000000;0.958830
9724.000000;0.958227
9723.000000;0.957569
9722.000000;0.957328
9721.000000;0.957514
9720.000000;0.957799
9719.000000;0.957937
9718.000000;0.957897
9717.000000;0.957752
9716.000000;0.957592
9715.000000;0.957433
9714.000000;0.957114
9713.000000;0.956427
9712.000000;0.955482
9711.000000;0.954766
9710.000000;0.954692
9709.000000;0.955191
9708.000000;0.955909
9707.000000;0.956606
9706.000000;0.957120
9705.000000;0.957073
9704.000000;0.956034
9703.000000;0.954089
9702.000000;0.951985
9701.000000;0.950582
9700.000000;0.950276
9699.000000;0.950921
9698.000000;0.951978
9697.000000;0.952681
9696.000000;0.952443
9695.000000;0.951452
9694.000000;0.950683
9693.000000;0.950921
9692.000000;0.951825
9691.000000;0.952245
9690.000000;0.951475
9689.000000;0.949918
9688.000000;0.948465
9687.000000;0.947563
9686.000000;0.947091
9685.000000;0.946860
9684.000000;0.946896
9683.000000;0.947294
9682.000000;0.947989
9681.000000;0.948699
9680.000000;0.948992
9679.000000;0.948542
9678.000000;0.947485
9677.000000;0.946449
9676.000000;0.946001
9675.000000;0.946089
9674.000000;0.946207
9673.000000;0.946100
9672.000000;0.946031
9671.000000;0.946282
9670.000000;0.946655
9669.000000;0.946667
9668.000000;0.946136
9667.000000;0.945380
9666.000000;0.944874
9665.000000;0.944842
9664.000000;0.945099
9663.000000;0.945172
9662.000000;0.944629
9661.000000;0.943488
9660.000000;0.942247
9659.000000;0.941352
9658.000000;0.940674
9657.000000;0.939741
9656.000000;0.938468
9655.000000;0.937398
9654.000000;0.937076
9653.000000;0.937407
9652.000000;0.937843
9651.000000;0.938056
9650.000000;0.938159
9649.000000;0.938330
9648.000000;0.938512
9647.000000;0.938578
9646.000000;0.938617
9645.000000;0.938873
9644.000000;0.939439
9643.000000;0.940087
9642.000000;0.940408
9641.000000;0.940155
9640.000000;0.939496
9639.000000;0.938877
9638.000000;0.938565
9637.000000;0.938368
9636.000000;0.937928
9635.000000;0.937223
9634.000000;0.936520
9633.000000;0.935835
9632.000000;0.934789
9631.000000;0.933220
9630.000000;0.931654
9629.000000;0.930824
9628.000000;0.930799
9627.000000;0.930963
9626.000000;0.930849
9625.000000;0.930657
9624.000000;0.930808
9623.000000;0.931266
9622.000000;0.931562
9621.000000;0.931341
9620.000000;0.930681
9619.000000;0.929896
9618.000000;0.929209
9617.000000;0.928636
9616.000000;0.928084
9615.000000;0.927524
9614.000000;0.927073
9613.000000;0.926847
9612.000000;0.926734
9611.000000;0.926473
9610.000000;0.926045
9609.000000;0.925816
9608.000000;0.926090
9607.000000;0.926661
9606.000000;0.927014
9605.000000;0.926892
9604.000000;0.926390
9603.000000;0.925570
9602.000000;0.924388
9601.000000;0.923106
9600.000000;0.922387
9599.000000;0.922671
9598.000000;0.923610
9597.000000;0.924407
9596.000000;0.924632
9595.000000;0.924403
9594.000000;0.923899
9593.000000;0.923144
9592.000000;0.922350
9591.000000;0.922018
9590.000000;0.922335
9589.000000;0.922698
9588.000000;0.922279
9587.000000;0.921054
9586.000000;0.919909
9585.000000;0.919582
9584.000000;0.919825
9583.000000;0.919795
9582.000000;0.919070
9581.000000;0.918043
9580.000000;0.917411
9579.000000;0.917529
9578.000000;0.918221
9577.000000;0.918933
9576.000000;0.919057
9575.000000;0.918357
9574.000000;0.917208
9573.000000;0.916327
9572.000000;0.916197
9571.000000;0.916767
9570.000000;0.917591
9569.000000;0.918089
9568.000000;0.917749
9567.000000;0.916439
9566.000000;0.914699
9565.000000;0.913490
9564.000000;0.913455
9563.000000;0.914459
9562.000000;0.915847
9561.000000;0.916997
9560.000000;0.917541
9559.000000;0.917316
9558.000000;0.916387
9557.000000;0.915129
9556.000000;0.914046
9555.000000;0.913457
9554.000000;0.913336
9553.000000;0.913340
9552.000000;0.912953
9551.000000;0.911836
9550.000000;0.910245
9549.000000;0.908971
9548.000000;0.908602
9547.000000;0.908917
9546.000000;0.909207
9545.000000;0.909092
9544.000000;0.908775
9543.000000;0.908552
9542.000000;0.908418
9541.000000;0.908213
9540.000000;0.907902
9539.000000;0.907591
9538.000000;0.907453
9537.000000;0.907666
9536.000000;0.908229
9535.000000;0.908758
9534.000000;0.908721
9533.000000;0.908005
9532.000000;0.907073
9531.000000;0.906410
9530.000000;0.905968
9529.000000;0.905347
9528.000000;0.904434
9527.000000;0.903708
9526.000000;0.903824
9525.000000;0.904878
9524.000000;0.906112
9523.000000;0.906442
9522.000000;0.905468
9521.000000;0.903884
9520.000000;0.902733
9519.000000;0.902359
9518.000000;0.902322
9517.000000;0.902242
9516.000000;0.902327
9515.000000;0.902914
9514.000000;0.903818
9513.000000;0.904451
9512.000000;0.904434
9511.000000;0.903908
9510.000000;0.903301
9509.000000;0.902961
9508.000000;0.902914
9507.000000;0.902819
9506.000000;0.902282
9505.000000;0.901362
9504.000000;0.900649
9503.000000;0.900655
9502.000000;0.901239
9501.000000;0.901828
9500.000000;0.902068
9499.000000;0.901961
9498.000000;0.901466
9497.000000;0.900364
9496.000000;0.898698
9495.000000;0.897045
9494.000000;0.896099
9493.000000;0.896046
9492.000000;0.896473
9491.000000;0.896889
9490.000000;0.897199
9489.000000;0.897622
9488.000000;0.898253
9487.000000;0.898788
9486.000000;0.898737
9485.000000;0.897923
9484.000000;0.896762
9483.000000;0.895951
9482.000000;0.895836
9481.000000;0.896060
9480.000000;0.895912
9479.000000;0.895082
9478.000000;0.894031
9477.000000;0.893498
9476.000000;0.893655
9475.000000;0.893928
9474.000000;0.893736
9473.000000;0.893235
9472.000000;0.893088
9471.000000;0.893615
9470.000000;0.894422
9469.000000;0.894809
9468.000000;0.894356
9467.000000;0.893177
9466.000000;0.891839
9465.000000;0.891013
9464.000000;0.890955
9463.000000;0.891202
9462.000000;0.891007
9461.000000;0.890157
9460.000000;0.889203
9459.000000;0.888796
9458.000000;0.889068
9457.000000;0.889728
9456.000000;0.890410
9455.000000;0.890749
9454.000000;0.890445
9453.000000;0.889603
9452.000000;0.888834
9451.000000;0.888691
9450.000000;0.889062
9449.000000;0.889340
9448.000000;0.889132
9447.000000;0.888630
9446.000000;0.888354
9445.000000;0.888695
9444.000000;0.889613
9443.000000;0.890600
9442.000000;0.891036
9441.000000;0.890724
9440.000000;0.890010
9439.000000;0.889297
9438.000000;0.888599
9437.000000;0.887719
9436.000000;0.886657
9435.000000;0.885620
9434.000000;0.884789
9433.000000;0.884301
9432.000000;0.884272
9431.000000;0.884627
9430.000000;0.885027
9429.000000;0.885204
9428.000000;0.885177
9427.000000;0.884941
9426.000000;0.884243
9425.000000;0.883025
9424.000000;0.881816
9423.000000;0.881187
9422.000000;0.880962
9421.000000;0.880468
9420.000000;0.879550
9419.000000;0.878818
9418.000000;0.878811
9417.000000;0.879348
9416.000000;0.879833
9415.000000;0.879834
9414.000000;0.879303
9413.000000;0.878569
9412.000000;0.878166
9411.000000;0.878335
9410.000000;0.878622
9409.000000;0.878377
9408.000000;0.877657
9407.000000;0.877169
9406.000000;0.877251
9405.000000;0.877472
9404.000000;0.877448
9403.000000;0.877447
9402.000000;0.877754
9401.000000;0.877960
9400.000000;0.877425
9399.000000;0.876222
9398.000000;0.875106
9397.000000;0.874672
9396.000000;0.874941
9395.000000;0.875660
9394.000000;0.876571
9393.000000;0.877402
9392.000000;0.877920
9391.000000;0.878053
9390.000000;0.877843
9389.000000;0.877374
9388.000000;0.876895
9387.000000;0.876796
9386.000000;0.877183
9385.000000;0.877625
9384.000000;0.877560
9383.000000;0.876843
9382.000000;0.875709
9381.000000;0.874446
9380.000000;0.873377
9379.000000;0.872902
9378.000000;0.873142
9377.000000;0.873664
9376.000000;0.873900
9375.000000;0.873775
9374.000000;0.873627
9373.000000;0.873645
9372.000000;0.873790
9371.000000;0.874128
9370.000000;0.874735
9369.000000;0.875279
9368.000000;0.875147
9367.000000;0.874134
9366.000000;0.872635
9365.000000;0.871081
9364.000000;0.869573
9363.000000;0.868221
9362.000000;0.867457
9361.000000;0.867724
9360.000000;0.868974
9359.000000;0.870577
9358.000000;0.871636
9357.000000;0.871447
9356.000000;0.870015
9355.000000;0.868236
9354.000000;0.867275
9353.000000;0.867524
9352.000000;0.868300
9351.000000;0.868638
9350.000000;0.868150
9349.000000;0.867034
9348.000000;0.865660
9347.000000;0.864462
9346.000000;0.863948
9345.000000;0.864353
9344.000000;0.865289
9343.000000;0.866048
9342.000000;0.866253
9341.000000;0.866044
9340.000000;0.865735
9339.000000;0.865541
9338.000000;0.865595
9337.000000;0.865950
9336.000000;0.866476
9335.000000;0.866900
9334.000000;0.867025
9333.000000;0.866821
9332.000000;0.866315
9331.000000;0.865531
9330.000000;0.864600
9329.000000;0.863810
9328.000000;0.863454
9327.000000;0.863567
9326.000000;0.863838
9325.000000;0.863848
9324.000000;0.863473
9323.000000;0.863010
9322.000000;0.862795
9321.000000;0.862785
9320.000000;0.862693
9319.000000;0.862478
9318.000000;0.862413
9317.000000;0.862567
9316.000000;0.862554
9315.000000;0.862060
9314.000000;0.861372
9313.000000;0.861015
9312.000000;0.860967
9311.000000;0.860615
9310.000000;0.859584
9309.000000;0.858282
9308.000000;0.857500
9307.000000;0.857661
9306.000000;0.858603
9305.000000;0.859859
9304.000000;0.860940
9303.000000;0.861463
9302.000000;0.861286
9301.000000;0.860585
9300.000000;0.859706
9299.000000;0.858904
9298.000000;0.858245
9297.000000;0.857735
9296.000000;0.857451
9295.000000;0.857454
9294.000000;0.857616
9293.000000;0.857610
9292.000000;0.857190
9291.000000;0.856495
9290.000000;0.856005
9289.000000;0.856087
9288.000000;0.856601
9287.000000;0.857009
9286.000000;0.856913
9285.000000;0.856409
9284.000000;0.855914
9283.000000;0.855708
9282.000000;0.855724
9281.000000;0.855731
9280.000000;0.855631
9279.000000;0.855518
9278.000000;0.855509
9277.000000;0.855612
9276.000000;0.855765
9275.000000;0.855968
9274.000000;0.856278
9273.000000;0.856631
9272.000000;0.856746
9271.000000;0.856332
9270.000000;0.855440
9269.000000;0.854533
9268.000000;0.854139
9267.000000;0.854359
9266.000000;0.854732
9265.000000;0.854606
9264.000000;0.853727
9263.000000;0.852482
9262.000000;0.851589
9261.000000;0.851563
9260.000000;0.852393
9259.000000;0.853610
9258.000000;0.854559
9257.000000;0.854709
9256.000000;0.853933
9255.000000;0.852621
9254.000000;0.851405
9253.000000;0.850650
9252.000000;0.850198
9251.000000;0.849711
9250.000000;0.849170
9249.000000;0.848874
9248.000000;0.848948
9247.000000;0.849089
9246.000000;0.848935
9245.000000;0.848577
9244.000000;0.848472
9243.000000;0.848857
9242.000000;0.849484
9241.000000;0.850000
9240.000000;0.850370
9239.000000;0.850729
9238.000000;0.850980
9237.000000;0.850859
9236.000000;0.850415
9235.000000;0.850126
9234.000000;0.850351
9233.000000;0.850838
9232.000000;0.851001
9231.000000;0.850579
9230.000000;0.849787
9229.000000;0.848918
9228.000000;0.848088
9227.000000;0.847408
9226.000000;0.847113
9225.000000;0.847329
9224.000000;0.847896
9223.000000;0.848546
9222.000000;0.849143
9221.000000;0.849607
9220.000000;0.849773
9219.000000;0.849536
9218.000000;0.849082
9217.000000;0.848751
9216.000000;0.848672
9215.000000;0.848683
9214.000000;0.848609
9213.000000;0.848456
9212.000000;0.848272
9211.000000;0.847973
9210.000000;0.847398
9209.000000;0.846510
9208.000000;0.845532
9207.000000;0.844903
9206.000000;0.845032
9205.000000;0.845907
9204.000000;0.846904
9203.000000;0.847159
9202.000000;0.846320
9201.000000;0.844923
9200.000000;0.843927
9199.000000;0.843876
9198.000000;0.844527
9197.000000;0.845171
9196.000000;0.845228
9195.000000;0.844601
9194.000000;0.843657
9193.000000;0.842930
9192.000000;0.842750
9191.000000;0.842986
9190.000000;0.843136
9189.000000;0.842771
9188.000000;0.841949
9187.000000;0.841183
9186.000000;0.840922
9185.000000;0.841110
9184.000000;0.841323
9183.000000;0.841317
9182.000000;0.841305
9181.000000;0.841614
9180.000000;0.842165
9179.000000;0.842438
9178.000000;0.841964
9177.000000;0.840764
9176.000000;0.839310
9175.000000;0.838166
9174.000000;0.837701
9173.000000;0.837961
9172.000000;0.838674
9171.000000;0.839412
9170.000000;0.839857
9169.000000;0.839988
9168.000000;0.840004
9167.000000;0.840118
9166.000000;0.840438
9165.000000;0.840942
9164.000000;0.841435
9163.000000;0.841601
9162.000000;0.841276
9161.000000;0.840689
9160.000000;0.840290
9159.000000;0.840272
9158.000000;0.840389
9157.000000;0.840321
9156.000000;0.840056
9155.000000;0.839761
9154.000000;0.839396
9153.000000;0.838713
9152.000000;0.837670
9151.000000;0.836641
9150.000000;0.836118
9149.000000;0.836291
9148.000000;0.836971
9147.000000;0.837775
9146.000000;0.838304
9145.000000;0.838309
9144.000000;0.837857
9143.000000;0.837310
9142.000000;0.836987
9141.000000;0.836864
9140.000000;0.836698
9139.000000;0.836356
9138.000000;0.835908
9137.000000;0.835423
9136.000000;0.834872
9135.000000;0.834281
9134.000000;0.833814
9133.000000;0.833620
9132.000000;0.833694
9131.000000;0.833952
9130.000000;0.834370
9129.000000;0.834959
9128.000000;0.835614
9127.000000;0.836102
9126.000000;0.836191
9125.000000;0.835818
9124.000000;0.835158
9123.000000;0.834509
9122.000000;0.834068
9121.000000;0.833809
9120.000000;0.833613
9119.000000;0.833440
9118.000000;0.833270
9117.000000;0.832983
9116.000000;0.832496
9115.000000;0.832032
9114.000000;0.832002
9113.000000;0.832529
9112.000000;0.833264
9111.000000;0.833784
9110.000000;0.833966
9109.000000;0.833860
9108.000000;0.833417
9107.000000;0.832653
9106.000000;0.831945
9105.000000;0.831788
9104.000000;0.832224
9103.000000;0.832773
9102.000000;0.833029
9101.000000;0.833105
9100.000000;0.833365
9099.000000;0.833893
9098.000000;0.834412
9097.000000;0.834584
9096.000000;0.834230
9095.000000;0.833317
9094.000000;0.831915
9093.000000;0.830312
9092.000000;0.829050
9091.000000;0.828659
9090.000000;0.829188
9089.000000;0.830061
9088.000000;0.830559
9087.000000;0.830522
9086.000000;0.830428
9085.000000;0.830680
9084.000000;0.831019
9083.000000;0.830844
9082.000000;0.829977
9081.000000;0.828852
9080.000000;0.827988
9079.000000;0.827567
9078.000000;0.827565
9077.000000;0.827968
9076.000000;0.828695
9075.000000;0.829489
9074.000000;0.830091
9073.000000;0.830417
9072.000000;0.830463
9071.000000;0.830221
9070.000000;0.829815
9069.000000;0.829555
9068.000000;0.829593
9067.000000;0.829635
9066.000000;0.829255
9065.000000;0.828458
9064.000000;0.827686
9063.000000;0.827281
9062.000000;0.827171
9061.000000;0.827135
9060.000000;0.827122
9059.000000;0.827211
9058.000000;0.827468
9057.000000;0.827944
9056.000000;0.828637
9055.000000;0.829266
9054.000000;0.829299
9053.000000;0.828481
