Criado como novo conjunto de dados;"e0108.spp","-4245822.7 Secs"
cm-1;Abs
10000.000000;1.013886
9999.000000;1.011868
9998.000000;1.009860
9997.000000;1.007860
9996.000000;1.005870
9995.000000;1.003889
9994.000000;1.001917
9993.000000;0.999954
9992.000000;0.997997
9991.000000;0.996180
9990.000000;0.994719
9989.000000;0.994070
9988.000000;0.994254
9987.000000;0.994763
9986.000000;0.995220
9985.000000;0.995689
9984.000000;0.996235
9983.000000;0.996581
9982.000000;0.996355
9981.000000;0.995446
9980.000000;0.994111
9979.000000;0.993007
9978.000000;0.993019
9977.000000;0.994590
9976.000000;0.997050
9975.000000;0.998918
9974.000000;0.999088
9973.000000;0.997585
9972.000000;0.995189
9971.000000;0.992737
9970.000000;0.990871
9969.000000;0.989870
9968.000000;0.989409
9967.000000;0.988805
9966.000000;0.987749
9965.000000;0.986624
9964.000000;0.986025
9963.000000;0.986197
9962.000000;0.987001
9961.000000;0.988021
9960.000000;0.988556
9959.000000;0.987938
9958.000000;0.986188
9957.000000;0.984106
9956.000000;0.982457
9955.000000;0.981383
9954.000000;0.980827
9953.000000;0.981069
9952.000000;0.982231
9951.000000;0.983495
9950.000000;0.983527
9949.000000;0.981899
9948.000000;0.979618
9947.000000;0.978072
9946.000000;0.977812
9945.000000;0.978507
9944.000000;0.979618
9943.000000;0.980734
9942.000000;0.981403
9941.000000;0.981123
9940.000000;0.979732
9939.000000;0.977746
9938.000000;0.976167
9937.000000;0.975859
9936.000000;0.976969
9935.000000;0.978787
9934.000000;0.980166
9933.000000;0.980230
9932.000000;0.978995
9931.000000;0.977417
9930.000000;0.976658
9929.000000;0.977056
9928.000000;0.977803
9927.000000;0.977801
9926.000000;0.976822
9925.000000;0.975589
9924.000000;0.974730
9923.000000;0.974013
9922.000000;0.972862
9921.000000;0.971308
9920.000000;0.970019
9919.000000;0.969495
9918.000000;0.969580
9917.000000;0.969752
9916.000000;0.969647
9915.000000;0.969250
9914.000000;0.968779
9913.000000;0.968472
9912.000000;0.968380
9911.000000;0.968379
9910.000000;0.968416
9909.000000;0.968629
9908.000000;0.969067
9907.000000;0.969416
9906.000000;0.969305
9905.000000;0.968847
9904.000000;0.968591
9903.000000;0.968853
9902.000000;0.969293
9901.000000;0.969276
9900.000000;0.968513
9899.000000;0.967249
9898.000000;0.965992
9897.000000;0.965151
9896.000000;0.964793
9895.000000;0.964621
9894.000000;0.964241
9893.000000;0.963538
9892.000000;0.962688
9891.000000;0.961827
9890.000000;0.960904
9889.000000;0.959979
9888.000000;0.959459
9887.000000;0.959733
9886.000000;0.960583
9885.000000;0.961167
9884.000000;0.960668
9883.000000;0.958988
9882.000000;0.956851
9881.000000;0.955283
9880.000000;0.954914
9879.000000;0.955602
9878.000000;0.956596
9877.000000;0.957107
9876.000000;0.956839
9875.000000;0.956069
9874.000000;0.955314
9873.000000;0.954932
9872.000000;0.954937
9871.000000;0.955061
9870.000000;0.954984
9869.000000;0.954536
9868.000000;0.953759
9867.000000;0.952863
9866.000000;0.952189
9865.000000;0.952119
9864.000000;0.952748
9863.000000;0.953619
9862.000000;0.954050
9861.000000;0.953904
9860.000000;0.953795
9859.000000;0.954210
9858.000000;0.954641
9857.000000;0.954069
9856.000000;0.952349
9855.000000;0.950597
9854.000000;0.949935
9853.000000;0.950259
9852.000000;0.950613
9851.000000;0.950459
9850.000000;0.950100
9849.000000;0.949881
9848.000000;0.949574
9847.000000;0.948798
9846.000000;0.947744
9845.000000;0.947197
9844.000000;0.947861
9843.000000;0.949702
9842.000000;0.951830
9841.000000;0.953025
9840.000000;0.952683
9839.000000;0.951405
9838.000000;0.950410
9837.000000;0.950215
9836.000000;0.950023
9835.000000;0.948660
9834.000000;0.945998
9833.000000;0.943143
9832.000000;0.941344
9831.000000;0.941018
9830.000000;0.941651
9829.000000;0.942297
9828.000000;0.942205
9827.000000;0.941364
9826.000000;0.940532
9825.000000;0.940488
9824.000000;0.941104
9823.000000;0.941376
9822.000000;0.940528
9821.000000;0.938886
9820.000000;0.937434
9819.000000;0.936766
9818.000000;0.936780
9817.000000;0.937192
9816.000000;0.937922
9815.000000;0.938813
9814.000000;0.939310
9813.000000;0.938783
9812.000000;0.937217
9811.000000;0.935434
9810.000000;0.934524
9809.000000;0.934973
9808.000000;0.936299
9807.000000;0.937479
9806.000000;0.937728
9805.000000;0.936924
9804.000000;0.935449
9803.000000;0.933877
9802.000000;0.932838
9801.000000;0.932835
9800.000000;0.933814
9799.000000;0.934928
9798.000000;0.935067
9797.000000;0.933869
9796.000000;0.932171
9795.000000;0.931315
9794.000000;0.931957
9793.000000;0.933522
9792.000000;0.934822
9791.000000;0.935114
9790.000000;0.934545
9789.000000;0.933680
9788.000000;0.932871
9787.000000;0.932172
9786.000000;0.931598
9785.000000;0.931148
9784.000000;0.930639
9783.000000;0.929875
9782.000000;0.929033
9781.000000;0.928567
9780.000000;0.928543
9779.000000;0.928363
9778.000000;0.927410
9777.000000;0.925831
9776.000000;0.924410
9775.000000;0.923770
9774.000000;0.923926
9773.000000;0.924514
9772.000000;0.925190
9771.000000;0.925778
9770.000000;0.926221
9769.000000;0.926467
9768.000000;0.926351
9767.000000;0.925709
9766.000000;0.924706
9765.000000;0.923847
9764.000000;0.923424
9763.000000;0.923132
9762.000000;0.922526
9761.000000;0.921698
9760.000000;0.921123
9759.000000;0.920966
9758.000000;0.920973
9757.000000;0.920952
9756.000000;0.920825
9755.000000;0.920233
9754.000000;0.918793
9753.000000;0.917020
9752.000000;0.916279
9751.000000;0.917289
9750.000000;0.919062
9749.000000;0.919909
9748.000000;0.919286
9747.000000;0.918047
9746.000000;0.917040
9745.000000;0.916222
9744.000000;0.915256
9743.000000;0.914326
9742.000000;0.913994
9741.000000;0.914547
9740.000000;0.915715
9739.000000;0.916879
9738.000000;0.917362
9737.000000;0.916743
9736.000000;0.915135
9735.000000;0.913202
9734.000000;0.911789
9733.000000;0.911441
9732.000000;0.912124
9731.000000;0.913197
9730.000000;0.913791
9729.000000;0.913535
9728.000000;0.912923
9727.000000;0.912660
9726.000000;0.912674
9725.000000;0.912127
9724.000000;0.910511
9723.000000;0.908370
9722.000000;0.906770
9721.000000;0.906347
9720.000000;0.907079
9719.000000;0.908561
9718.000000;0.910094
9717.000000;0.910757
9716.000000;0.909941
9715.000000;0.907943
9714.000000;0.905812
9713.000000;0.904567
9712.000000;0.904600
9711.000000;0.905629
9710.000000;0.906972
9709.000000;0.907892
9708.000000;0.907927
9707.000000;0.907074
9706.000000;0.905713
9705.000000;0.904367
9704.000000;0.903448
9703.000000;0.903030
9702.000000;0.902812
9701.000000;0.902466
9700.000000;0.902100
9699.000000;0.902157
9698.000000;0.902713
9697.000000;0.903206
9696.000000;0.903112
9695.000000;0.902639
9694.000000;0.902336
9693.000000;0.902202
9692.000000;0.901685
9691.000000;0.900552
9690.000000;0.899241
9689.000000;0.898228
9688.000000;0.897468
9687.000000;0.896755
9686.000000;0.896302
9685.000000;0.896539
9684.000000;0.897429
9683.000000;0.898348
9682.000000;0.898690
9681.000000;0.898420
9680.000000;0.897965
9679.000000;0.897717
9678.000000;0.897758
9677.000000;0.898004
9676.000000;0.898428
9675.000000;0.898994
9674.000000;0.899404
9673.000000;0.899205
9672.000000;0.898356
9671.000000;0.897530
9670.000000;0.897519
9669.000000;0.898309
9668.000000;0.899025
9667.000000;0.898916
9666.000000;0.898145
9665.000000;0.897466
9664.000000;0.897324
9663.000000;0.897455
9662.000000;0.897262
9661.000000;0.896431
9660.000000;0.895229
9659.000000;0.894248
9658.000000;0.893821
9657.000000;0.893705
9656.000000;0.893413
9655.000000;0.892786
9654.000000;0.892018
9653.000000;0.891211
9652.000000;0.890332
9651.000000;0.889683
9650.000000;0.889922
9649.000000;0.891238
9648.000000;0.892778
9647.000000;0.893284
9646.000000;0.892291
9645.000000;0.890444
9644.000000;0.888747
9643.000000;0.887814
9642.000000;0.887680
9641.000000;0.887916
9640.000000;0.887948
9639.000000;0.887609
9638.000000;0.887340
9637.000000;0.887544
9636.000000;0.887850
9635.000000;0.887467
9634.000000;0.886266
9633.000000;0.885002
9632.000000;0.884300
9631.000000;0.883910
9630.000000;0.883260
9629.000000;0.882369
9628.000000;0.881791
9627.000000;0.881854
9626.000000;0.882356
9625.000000;0.882937
9624.000000;0.883383
9623.000000;0.883588
9622.000000;0.883541
9621.000000;0.883474
9620.000000;0.883725
9619.000000;0.884274
9618.000000;0.884572
9617.000000;0.884029
9616.000000;0.882660
9615.000000;0.881123
9614.000000;0.880103
9613.000000;0.879735
9612.000000;0.879599
9611.000000;0.879217
9610.000000;0.878516
9609.000000;0.877861
9608.000000;0.877684
9607.000000;0.878103
9606.000000;0.878837
9605.000000;0.879452
9604.000000;0.879675
9603.000000;0.879482
9602.000000;0.878964
9601.000000;0.878233
9600.000000;0.877512
9599.000000;0.877171
9598.000000;0.877456
9597.000000;0.878087
9596.000000;0.878339
9595.000000;0.877687
9594.000000;0.876292
9593.000000;0.874767
9592.000000;0.873588
9591.000000;0.872872
9590.000000;0.872591
9589.000000;0.872674
9588.000000;0.872842
9587.000000;0.872643
9586.000000;0.871918
9585.000000;0.871136
9584.000000;0.871004
9583.000000;0.871729
9582.000000;0.872754
9581.000000;0.873255
9580.000000;0.872841
9579.000000;0.871757
9578.000000;0.870495
9577.000000;0.869311
9576.000000;0.868126
9575.000000;0.866863
9574.000000;0.865784
9573.000000;0.865411
9572.000000;0.866077
9571.000000;0.867491
9570.000000;0.868775
9569.000000;0.869071
9568.000000;0.868263
9567.000000;0.867081
9566.000000;0.866368
9565.000000;0.866269
9564.000000;0.866273
9563.000000;0.866006
9562.000000;0.865683
9561.000000;0.865664
9560.000000;0.865874
9559.000000;0.865944
9558.000000;0.865734
9557.000000;0.865369
9556.000000;0.864894
9555.000000;0.864241
9554.000000;0.863532
9553.000000;0.863024
9552.000000;0.862715
9551.000000;0.862318
9550.000000;0.861724
9549.000000;0.861248
9548.000000;0.861258
9547.000000;0.861765
9546.000000;0.862463
9545.000000;0.862961
9544.000000;0.862917
9543.000000;0.862185
9542.000000;0.860995
9541.000000;0.859818
9540.000000;0.858947
9539.000000;0.858387
9538.000000;0.858194
9537.000000;0.858570
9536.000000;0.859460
9535.000000;0.860338
9534.000000;0.860656
9533.000000;0.860325
9532.000000;0.859564
9531.000000;0.858542
9530.000000;0.857437
9529.000000;0.856623
9528.000000;0.856416
9527.000000;0.856722
9526.000000;0.857175
9525.000000;0.857526
9524.000000;0.857617
9523.000000;0.857158
9522.000000;0.855979
9521.000000;0.854503
9520.000000;0.853561
9519.000000;0.853583
9518.000000;0.854156
9517.000000;0.854467
9516.000000;0.854066
9515.000000;0.853207
9514.000000;0.852627
9513.000000;0.852953
9512.000000;0.854046
9511.000000;0.854915
9510.000000;0.854592
9509.000000;0.853211
9508.000000;0.851906
9507.000000;0.851534
9506.000000;0.851783
9505.000000;0.851717
9504.000000;0.850943
9503.000000;0.849949
9502.000000;0.849386
9501.000000;0.849347
9500.000000;0.849434
9499.000000;0.849334
9498.000000;0.849175
9497.000000;0.849249
9496.000000;0.849534
9495.000000;0.849670
9494.000000;0.849492
9493.000000;0.849369
9492.000000;0.849745
9491.000000;0.850433
9490.000000;0.850714
9489.000000;0.850186
9488.000000;0.849221
9487.000000;0.848446
9486.000000;0.848090
9485.000000;0.848061
9484.000000;0.848372
9483.000000;0.849079
9482.000000;0.849856
9481.000000;0.850007
9480.000000;0.849087
9479.000000;0.847376
9478.000000;0.845643
9477.000000;0.844526
9476.000000;0.844192
9475.000000;0.844498
9474.000000;0.845245
9473.000000;0.846197
9472.000000;0.846927
9471.000000;0.846887
9470.000000;0.845857
9469.000000;0.844325
9468.000000;0.843200
9467.000000;0.843009
9466.000000;0.843441
9465.000000;0.843774
9464.000000;0.843631
9463.000000;0.843216
9462.000000;0.842912
9461.000000;0.842876
9460.000000;0.842994
9459.000000;0.843031
9458.000000;0.842754
9457.000000;0.842063
9456.000000;0.841164
9455.000000;0.840523
9454.000000;0.840522
9453.000000;0.841095
9452.000000;0.841764
9451.000000;0.842068
9450.000000;0.841920
9449.000000;0.841545
9448.000000;0.841124
9447.000000;0.840618
9446.000000;0.839952
9445.000000;0.839303
9444.000000;0.839075
9443.000000;0.839511
9442.000000;0.840332
9441.000000;0.840861
9440.000000;0.840572
9439.000000;0.839587
9438.000000;0.838560
9437.000000;0.838044
9436.000000;0.837985
9435.000000;0.837895
9434.000000;0.837403
9433.000000;0.836505
9432.000000;0.835346
9431.000000;0.834049
9430.000000;0.832888
9429.000000;0.832385
9428.000000;0.832877
9427.000000;0.834017
9426.000000;0.834933
9425.000000;0.835017
9424.000000;0.834433
9423.000000;0.833789
9422.000000;0.833499
9421.000000;0.833559
9420.000000;0.833743
9419.000000;0.833786
9418.000000;0.833454
9417.000000;0.832686
9416.000000;0.831752
9415.000000;0.831119
9414.000000;0.830996
9413.000000;0.831056
9412.000000;0.830778
9411.000000;0.830038
9410.000000;0.829210
9409.000000;0.828662
9408.000000;0.828418
9407.000000;0.828424
9406.000000;0.828891
9405.000000;0.829972
9404.000000;0.831194
9403.000000;0.831708
9402.000000;0.831246
9401.000000;0.830434
9400.000000;0.829906
9399.000000;0.829486
9398.000000;0.828645
9397.000000;0.827492
9396.000000;0.826734
9395.000000;0.826723
9394.000000;0.827098
9393.000000;0.827440
9392.000000;0.827803
9391.000000;0.828345
9390.000000;0.828830
9389.000000;0.828858
9388.000000;0.828373
9387.000000;0.827663
9386.000000;0.826994
9385.000000;0.826458
9384.000000;0.826016
9383.000000;0.825459
9382.000000;0.824530
9381.000000;0.823412
9380.000000;0.822879
9379.000000;0.823562
9378.000000;0.825056
9377.000000;0.826163
9376.000000;0.826148
9375.000000;0.825441
9374.000000;0.824932
9373.000000;0.824949
9372.000000;0.825161
9371.000000;0.825189
9370.000000;0.824951
9369.000000;0.824464
9368.000000;0.823673
9367.000000;0.822603
9366.000000;0.821499
9365.000000;0.820681
9364.000000;0.820348
9363.000000;0.820522
9362.000000;0.821053
9361.000000;0.821637
9360.000000;0.821955
9359.000000;0.821918
9358.000000;0.821747
9357.000000;0.821739
9356.000000;0.822019
9355.000000;0.822503
9354.000000;0.822984
9353.000000;0.823172
9352.000000;0.822808
9351.000000;0.821864
9350.000000;0.820587
9349.000000;0.819214
9348.000000;0.817790
9347.000000;0.816392
9346.000000;0.815400
9345.000000;0.815244
9344.000000;0.815894
9343.000000;0.816850
9342.000000;0.817693
9341.000000;0.818372
9340.000000;0.818855
9339.000000;0.818901
9338.000000;0.818463
9337.000000;0.818008
9336.000000;0.818058
9335.000000;0.818540
9334.000000;0.818909
9333.000000;0.818857
9332.000000;0.818536
9331.000000;0.818118
9330.000000;0.817519
9329.000000;0.816683
9328.000000;0.815839
9327.000000;0.815232
9326.000000;0.814811
9325.000000;0.814389
9324.000000;0.814042
9323.000000;0.814134
9322.000000;0.814922
9321.000000;0.816162
9320.000000;0.817131
9319.000000;0.817090
9318.000000;0.815852
9317.000000;0.813950
9316.000000;0.812220
9315.000000;0.811226
9314.000000;0.811044
9313.000000;0.811369
9312.000000;0.811719
9311.000000;0.811695
9310.000000;0.811304
9309.000000;0.810968
9308.000000;0.811031
9307.000000;0.811346
9306.000000;0.811535
9305.000000;0.811548
9304.000000;0.811653
9303.000000;0.811957
9302.000000;0.812308
9301.000000;0.812642
9300.000000;0.813027
9299.000000;0.813265
9298.000000;0.812868
9297.000000;0.811686
9296.000000;0.810274
9295.000000;0.809363
9294.000000;0.809159
9293.000000;0.809304
9292.000000;0.809347
9291.000000;0.809057
9290.000000;0.808491
9289.000000;0.807941
9288.000000;0.807683
9287.000000;0.807645
9286.000000;0.807509
9285.000000;0.807223
9284.000000;0.807147
9283.000000;0.807533
9282.000000;0.808099
9281.000000;0.808354
9280.000000;0.808124
9279.000000;0.807550
9278.000000;0.806824
9277.000000;0.806182
9276.000000;0.805908
9275.000000;0.806010
9274.000000;0.806083
9273.000000;0.805794
9272.000000;0.805343
9271.000000;0.805132
9270.000000;0.805162
9269.000000;0.805144
9268.000000;0.805009
9267.000000;0.804892
9266.000000;0.804731
9265.000000;0.804345
9264.000000;0.803901
9263.000000;0.803842
9262.000000;0.804301
9261.000000;0.804975
9260.000000;0.805589
9259.000000;0.806056
9258.000000;0.806173
9257.000000;0.805668
9256.000000;0.804757
9255.000000;0.804133
9254.000000;0.804114
9253.000000;0.804192
9252.000000;0.803759
9251.000000;0.802918
9250.000000;0.802214
9249.000000;0.801840
9248.000000;0.801547
9247.000000;0.801154
9246.000000;0.800717
9245.000000;0.800292
9244.000000;0.799932
9243.000000;0.799906
9242.000000;0.800527
9241.000000;0.801639
9240.000000;0.802592
9239.000000;0.802887
9238.000000;0.802632
9237.000000;0.802204
9236.000000;0.801698
9235.000000;0.800944
9234.000000;0.799991
9233.000000;0.799284
9232.000000;0.799235
9231.000000;0.799746
9230.000000;0.800311
9229.000000;0.800546
9228.000000;0.800442
9227.000000;0.800108
9226.000000;0.799523
9225.000000;0.798730
9224.000000;0.798112
9223.000000;0.798160
9222.000000;0.798912
9221.000000;0.799792
9220.000000;0.800130
9219.000000;0.799755
9218.000000;0.799084
9217.000000;0.798685
9216.000000;0.798792
9215.000000;0.799145
9214.000000;0.799264
9213.000000;0.798942
9212.000000;0.798414
9211.000000;0.797960
9210.000000;0.797472
9209.000000;0.796652
9208.000000;0.795623
9207.000000;0.794982
9206.000000;0.795111
9205.000000;0.795655
9204.000000;0.795889
9203.000000;0.795489
9202.000000;0.794745
9201.000000;0.794142
9200.000000;0.793920
9199.000000;0.793980
9198.000000;0.794035
9197.000000;0.793878
9196.000000;0.793621
9195.000000;0.793632
9194.000000;0.794126
9193.000000;0.794859
9192.000000;0.795332
9191.000000;0.795255
9190.000000;0.794734
9189.000000;0.794101
9188.000000;0.793699
9187.000000;0.793743
9186.000000;0.794165
9185.000000;0.794577
9184.000000;0.794563
9183.000000;0.794066
9182.000000;0.793396
9181.000000;0.792833
9180.000000;0.792365
9179.000000;0.791860
9178.000000;0.791308
9177.000000;0.790779
9176.000000;0.790283
9175.000000;0.789839
9174.000000;0.789652
9173.000000;0.789990
9172.000000;0.790800
9171.000000;0.791589
9170.000000;0.791839
9169.000000;0.791506
9168.000000;0.790993
9167.000000;0.790668
9166.000000;0.790525
9165.000000;0.790338
9164.000000;0.789986
9163.000000;0.789506
9162.000000;0.788954
9161.000000;0.788381
9160.000000;0.787939
9159.000000;0.787860
9158.000000;0.788271
9157.000000;0.789073
9156.000000;0.789965
9155.000000;0.790544
9154.000000;0.790483
9153.000000;0.789811
9152.000000;0.789004
9151.000000;0.788625
9150.000000;0.788815
9149.000000;0.789232
9148.000000;0.789490
9147.000000;0.789476
9146.000000;0.789198
9145.000000;0.788561
9144.000000;0.787517
9143.000000;0.786345
9142.000000;0.785545
9141.000000;0.785368
9140.000000;0.785596
9139.000000;0.785830
9138.000000;0.785902
9137.000000;0.785924
9136.000000;0.785992
9135.000000;0.786067
9134.000000;0.786189
9133.000000;0.786602
9132.000000;0.787422
9131.000000;0.788225
9130.000000;0.788310
9129.000000;0.787496
9128.000000;0.786409
9127.000000;0.785774
9126.000000;0.785671
9125.000000;0.785745
9124.000000;0.785889
9123.000000;0.786259
9122.000000;0.786673
9121.000000;0.786561
9120.000000;0.785676
9119.000000;0.784485
9118.000000;0.783596
9117.000000;0.783130
9116.000000;0.782882
9115.000000;0.782813
9114.000000;0.782978
9113.000000;0.783177
9112.000000;0.783089
9111.000000;0.782750
9110.000000;0.782570
9109.000000;0.782800
9108.000000;0.783210
9107.000000;0.783387
9106.000000;0.783169
9105.000000;0.782710
9104.000000;0.782257
9103.000000;0.781983
9102.000000;0.781953
9101.000000;0.782165
9100.000000;0.782570
9099.000000;0.783053
9098.000000;0.783446
9097.000000;0.783670
9096.000000;0.783827
9095.000000;0.784056
9094.000000;0.784273
9093.000000;0.784215
9092.000000;0.783751
9091.000000;0.782988
9090.000000;0.782071
9089.000000;0.781089
9088.000000;0.780274
9087.000000;0.779999
9086.000000;0.780371
9085.000000;0.781011
9084.000000;0.781448
9083.000000;0.781553
9082.000000;0.781404
9081.000000;0.780956
9080.000000;0.780188
9079.000000;0.779455
9078.000000;0.779271
9077.000000;0.779686
9076.000000;0.780172
9075.000000;0.780193
9074.000000;0.779681
9073.000000;0.778894
9072.000000;0.778070
9071.000000;0.777365
9070.000000;0.776980
9069.000000;0.777136
9068.000000;0.777889
9067.000000;0.778963
9066.000000;0.779828
9065.000000;0.780016
9064.000000;0.779477
9063.000000;0.778550
9062.000000;0.777568
9061.000000;0.776633
9060.000000;0.775870
9059.000000;0.775642
9058.000000;0.776223
9057.000000;0.777343
9056.000000;0.778338
9055.000000;0.778745
9054.000000;0.778562
9053.000000;0.778028
