Criado como novo conjunto de dados;"e0108.spp","-4273724.4 Secs"
cm-1;Abs
10000.000000;1.058544
9999.000000;1.057822
9998.000000;1.058276
9997.000000;1.059598
9996.000000;1.060788
9995.000000;1.061118
9994.000000;1.061044
9993.000000;1.061560
9992.000000;1.062733
9991.000000;1.063421
9990.000000;1.062539
9989.000000;1.060216
9988.000000;1.057472
9987.000000;1.055119
9986.000000;1.053329
9985.000000;1.052096
9984.000000;1.051649
9983.000000;1.052164
9982.000000;1.053172
9981.000000;1.053663
9980.000000;1.053058
9979.000000;1.051949
9978.000000;1.051535
9977.000000;1.052291
9976.000000;1.053457
9975.000000;1.053917
9974.000000;1.053278
9973.000000;1.051910
9972.000000;1.050271
9971.000000;1.048605
9970.000000;1.047193
9969.000000;1.046387
9968.000000;1.046226
9967.000000;1.046317
9966.000000;1.046258
9965.000000;1.046056
9964.000000;1.046003
9963.000000;1.046220
9962.000000;1.046561
9961.000000;1.046929
9960.000000;1.047444
9959.000000;1.048114
9958.000000;1.048514
9957.000000;1.048111
9956.000000;1.047027
9955.000000;1.046184
9954.000000;1.046401
9953.000000;1.047463
9952.000000;1.048375
9951.000000;1.048469
9950.000000;1.047917
9949.000000;1.047144
9948.000000;1.046198
9947.000000;1.044949
9946.000000;1.043559
9945.000000;1.042440
9944.000000;1.041855
9943.000000;1.041721
9942.000000;1.041622
9941.000000;1.040916
9940.000000;1.039174
9939.000000;1.036839
9938.000000;1.035208
9937.000000;1.035384
9936.000000;1.037271
9935.000000;1.039792
9934.000000;1.041951
9933.000000;1.043415
9932.000000;1.044252
9931.000000;1.044546
9930.000000;1.044291
9929.000000;1.043388
9928.000000;1.041750
9927.000000;1.039661
9926.000000;1.037884
9925.000000;1.037072
9924.000000;1.037045
9923.000000;1.036954
9922.000000;1.036189
9921.000000;1.034925
9920.000000;1.033771
9919.000000;1.033182
9918.000000;1.033258
9917.000000;1.033821
9916.000000;1.034533
9915.000000;1.035128
9914.000000;1.035542
9913.000000;1.035679
9912.000000;1.035157
9911.000000;1.033651
9910.000000;1.031573
9909.000000;1.029998
9908.000000;1.029682
9907.000000;1.030350
9906.000000;1.030987
9905.000000;1.030680
9904.000000;1.029273
9903.000000;1.027495
9902.000000;1.026447
9901.000000;1.026643
9900.000000;1.027423
9899.000000;1.027586
9898.000000;1.026685
9897.000000;1.025341
9896.000000;1.024236
9895.000000;1.023371
9894.000000;1.022625
9893.000000;1.022444
9892.000000;1.023346
9891.000000;1.024979
9890.000000;1.026309
9889.000000;1.026792
9888.000000;1.026850
9887.000000;1.027041
9886.000000;1.027170
9885.000000;1.026477
9884.000000;1.024494
9883.000000;1.021545
9882.000000;1.018577
9881.000000;1.016601
9880.000000;1.016074
9879.000000;1.016631
9878.000000;1.017417
9877.000000;1.017760
9876.000000;1.017528
9875.000000;1.016915
9874.000000;1.016127
9873.000000;1.015367
9872.000000;1.014969
9871.000000;1.015273
9870.000000;1.016224
9869.000000;1.017159
9868.000000;1.017191
9867.000000;1.015973
9866.000000;1.014091
9865.000000;1.012553
9864.000000;1.011851
9863.000000;1.011668
9862.000000;1.011536
9861.000000;1.011529
9860.000000;1.012030
9859.000000;1.012990
9858.000000;1.013778
9857.000000;1.013854
9856.000000;1.013324
9855.000000;1.012718
9854.000000;1.012368
9853.000000;1.012219
9852.000000;1.012180
9851.000000;1.012359
9850.000000;1.012778
9849.000000;1.013007
9848.000000;1.012432
9847.000000;1.010994
9846.000000;1.009498
9845.000000;1.008975
9844.000000;1.009756
9843.000000;1.011188
9842.000000;1.012160
9841.000000;1.011862
9840.000000;1.010217
9839.000000;1.007852
9838.000000;1.005704
9837.000000;1.004466
9836.000000;1.004205
9835.000000;1.004458
9834.000000;1.004599
9833.000000;1.004128
9832.000000;1.002908
9831.000000;1.001424
9830.000000;1.000612
9829.000000;1.001035
9828.000000;1.002210
9827.000000;1.003077
9826.000000;1.003145
9825.000000;1.002820
9824.000000;1.002601
9823.000000;1.002412
9822.000000;1.001896
9821.000000;1.001005
9820.000000;1.000021
9819.000000;0.999296
9818.000000;0.999153
9817.000000;0.999770
9816.000000;1.000853
9815.000000;1.001673
9814.000000;1.001776
9813.000000;1.001441
9812.000000;1.001147
9811.000000;1.000888
9810.000000;1.000341
9809.000000;0.999484
9808.000000;0.998668
9807.000000;0.998220
9806.000000;0.998231
9805.000000;0.998561
9804.000000;0.998736
9803.000000;0.998144
9802.000000;0.996802
9801.000000;0.995734
9800.000000;0.995986
9799.000000;0.997228
9798.000000;0.997889
9797.000000;0.996823
9796.000000;0.994425
9795.000000;0.991993
9794.000000;0.990490
9793.000000;0.990188
9792.000000;0.990865
9791.000000;0.991815
9790.000000;0.992033
9789.000000;0.991014
9788.000000;0.989375
9787.000000;0.988287
9786.000000;0.988258
9785.000000;0.988720
9784.000000;0.988804
9783.000000;0.988284
9782.000000;0.987643
9781.000000;0.987411
9780.000000;0.987662
9779.000000;0.988100
9778.000000;0.988428
9777.000000;0.988545
9776.000000;0.988460
9775.000000;0.988149
9774.000000;0.987561
9773.000000;0.986741
9772.000000;0.985953
9771.000000;0.985603
9770.000000;0.985848
9769.000000;0.986248
9768.000000;0.986067
9767.000000;0.985146
9766.000000;0.984223
9765.000000;0.984011
9764.000000;0.984212
9763.000000;0.983965
9762.000000;0.983201
9761.000000;0.982765
9760.000000;0.983037
9759.000000;0.983231
9758.000000;0.982613
9757.000000;0.981781
9756.000000;0.981939
9755.000000;0.983196
9754.000000;0.984346
9753.000000;0.984313
9752.000000;0.983190
9751.000000;0.981784
9750.000000;0.980750
9749.000000;0.980352
9748.000000;0.980545
9747.000000;0.980962
9746.000000;0.981026
9745.000000;0.980275
9744.000000;0.978588
9743.000000;0.976341
9742.000000;0.974532
9741.000000;0.974349
9740.000000;0.975953
9739.000000;0.977823
9738.000000;0.978063
9737.000000;0.976448
9736.000000;0.974545
9735.000000;0.973730
9734.000000;0.973830
9733.000000;0.973903
9732.000000;0.973532
9731.000000;0.972837
9730.000000;0.971900
9729.000000;0.970929
9728.000000;0.970598
9727.000000;0.971438
9726.000000;0.972944
9725.000000;0.973908
9724.000000;0.973687
9723.000000;0.972693
9722.000000;0.971610
9721.000000;0.970641
9720.000000;0.969700
9719.000000;0.968962
9718.000000;0.968902
9717.000000;0.969766
9716.000000;0.971122
9715.000000;0.972009
9714.000000;0.971668
9713.000000;0.970256
9712.000000;0.968742
9711.000000;0.967995
9710.000000;0.968091
9709.000000;0.968570
9708.000000;0.969097
9707.000000;0.969626
9706.000000;0.970082
9705.000000;0.970194
9704.000000;0.969692
9703.000000;0.968486
9702.000000;0.966664
9701.000000;0.964547
9700.000000;0.962708
9699.000000;0.961675
9698.000000;0.961517
9697.000000;0.961834
9696.000000;0.962225
9695.000000;0.962642
9694.000000;0.963212
9693.000000;0.963794
9692.000000;0.963915
9691.000000;0.963258
9690.000000;0.962153
9689.000000;0.961364
9688.000000;0.961324
9687.000000;0.961708
9686.000000;0.961924
9685.000000;0.961839
9684.000000;0.961751
9683.000000;0.961790
9682.000000;0.961743
9681.000000;0.961435
9680.000000;0.960858
9679.000000;0.959904
9678.000000;0.958513
9677.000000;0.957215
9676.000000;0.956942
9675.000000;0.957862
9674.000000;0.958829
9673.000000;0.958567
9672.000000;0.957192
9671.000000;0.956015
9670.000000;0.955964
9669.000000;0.956735
9668.000000;0.957431
9667.000000;0.957472
9666.000000;0.956792
9665.000000;0.955600
9664.000000;0.954230
9663.000000;0.953035
9662.000000;0.952237
9661.000000;0.951911
9660.000000;0.952076
9659.000000;0.952560
9658.000000;0.952833
9657.000000;0.952329
9656.000000;0.951112
9655.000000;0.950028
9654.000000;0.949972
9653.000000;0.951083
9652.000000;0.952694
9651.000000;0.953936
9650.000000;0.954326
9649.000000;0.953950
9648.000000;0.953251
9647.000000;0.952629
9646.000000;0.952151
9645.000000;0.951639
9644.000000;0.950986
9643.000000;0.950340
9642.000000;0.949986
9641.000000;0.950095
9640.000000;0.950538
9639.000000;0.950857
9638.000000;0.950502
9637.000000;0.949294
9636.000000;0.947713
9635.000000;0.946602
9634.000000;0.946460
9633.000000;0.947011
9632.000000;0.947429
9631.000000;0.947018
9630.000000;0.945772
9629.000000;0.944364
9628.000000;0.943526
9627.000000;0.943377
9626.000000;0.943436
9625.000000;0.943315
9624.000000;0.943232
9623.000000;0.943636
9622.000000;0.944495
9621.000000;0.945261
9620.000000;0.945512
9619.000000;0.945349
9618.000000;0.945079
9617.000000;0.944807
9616.000000;0.944469
9615.000000;0.944051
9614.000000;0.943523
9613.000000;0.942670
9612.000000;0.941222
9611.000000;0.939268
9610.000000;0.937390
9609.000000;0.936307
9608.000000;0.936375
9607.000000;0.937426
9606.000000;0.938997
9605.000000;0.940586
9604.000000;0.941715
9603.000000;0.941987
9602.000000;0.941307
9601.000000;0.940054
9600.000000;0.938814
9599.000000;0.937860
9598.000000;0.937035
9597.000000;0.936182
9596.000000;0.935453
9595.000000;0.935075
9594.000000;0.935025
9593.000000;0.935149
9592.000000;0.935424
9591.000000;0.935870
9590.000000;0.936298
9589.000000;0.936401
9588.000000;0.936101
9587.000000;0.935603
9586.000000;0.935128
9585.000000;0.934760
9584.000000;0.934547
9583.000000;0.934538
9582.000000;0.934674
9581.000000;0.934774
9580.000000;0.934648
9579.000000;0.934169
9578.000000;0.933301
9577.000000;0.932188
9576.000000;0.931111
9575.000000;0.930225
9574.000000;0.929458
9573.000000;0.928884
9572.000000;0.928954
9571.000000;0.929949
9570.000000;0.931333
9569.000000;0.932117
9568.000000;0.931939
9567.000000;0.931354
9566.000000;0.930929
9565.000000;0.930579
9564.000000;0.930071
9563.000000;0.929715
9562.000000;0.930018
9561.000000;0.930828
9560.000000;0.931296
9559.000000;0.930711
9558.000000;0.929138
9557.000000;0.927228
9556.000000;0.925712
9555.000000;0.925032
9554.000000;0.925122
9553.000000;0.925417
9552.000000;0.925279
9551.000000;0.924535
9550.000000;0.923557
9549.000000;0.922801
9548.000000;0.922414
9547.000000;0.922269
9546.000000;0.922197
9545.000000;0.922113
9544.000000;0.922048
9543.000000;0.922157
9542.000000;0.922602
9541.000000;0.923321
9540.000000;0.923967
9539.000000;0.924143
9538.000000;0.923706
9537.000000;0.922844
9536.000000;0.921924
9535.000000;0.921247
9534.000000;0.920805
9533.000000;0.920248
9532.000000;0.919245
9531.000000;0.917986
9530.000000;0.917171
9529.000000;0.917354
9528.000000;0.918322
9527.000000;0.919294
9526.000000;0.919722
9525.000000;0.919772
9524.000000;0.919939
9523.000000;0.920317
9522.000000;0.920366
9521.000000;0.919444
9520.000000;0.917603
9519.000000;0.915802
9518.000000;0.915158
9517.000000;0.915894
9516.000000;0.917143
9515.000000;0.917886
9514.000000;0.917941
9513.000000;0.917798
9512.000000;0.917656
9511.000000;0.917139
9510.000000;0.916056
9509.000000;0.914939
9508.000000;0.914424
9507.000000;0.914422
9506.000000;0.914318
9505.000000;0.913886
9504.000000;0.913562
9503.000000;0.913759
9502.000000;0.914295
9501.000000;0.914645
9500.000000;0.914520
9499.000000;0.914033
9498.000000;0.913455
9497.000000;0.912965
9496.000000;0.912574
9495.000000;0.912232
9494.000000;0.912024
9493.000000;0.912180
9492.000000;0.912677
9491.000000;0.912921
9490.000000;0.912157
9489.000000;0.910300
9488.000000;0.908113
9487.000000;0.906444
9486.000000;0.905537
9485.000000;0.905206
9484.000000;0.905360
9483.000000;0.906083
9482.000000;0.907311
9481.000000;0.908699
9480.000000;0.909777
9479.000000;0.910111
9478.000000;0.909447
9477.000000;0.907953
9476.000000;0.906300
9475.000000;0.905266
9474.000000;0.905115
9473.000000;0.905422
9472.000000;0.905492
9471.000000;0.904978
9470.000000;0.904150
9469.000000;0.903602
9468.000000;0.903728
9467.000000;0.904455
9466.000000;0.905426
9465.000000;0.906283
9464.000000;0.906641
9463.000000;0.906038
9462.000000;0.904388
9461.000000;0.902517
9460.000000;0.901779
9459.000000;0.902791
9458.000000;0.904751
9457.000000;0.906220
9456.000000;0.906428
9455.000000;0.905654
9454.000000;0.904575
9453.000000;0.903656
9452.000000;0.903060
9451.000000;0.902680
9450.000000;0.902187
9449.000000;0.901362
9448.000000;0.900471
9447.000000;0.900134
9446.000000;0.900708
9445.000000;0.901894
9444.000000;0.903004
9443.000000;0.903523
9442.000000;0.903395
9441.000000;0.902880
9440.000000;0.902216
9439.000000;0.901461
9438.000000;0.900662
9437.000000;0.900012
9436.000000;0.899681
9435.000000;0.899495
9434.000000;0.899087
9433.000000;0.898435
9432.000000;0.897932
9431.000000;0.897809
9430.000000;0.897851
9429.000000;0.897950
9428.000000;0.898491
9427.000000;0.899765
9426.000000;0.901220
9425.000000;0.901843
9424.000000;0.901204
9423.000000;0.899716
9422.000000;0.898007
9421.000000;0.896511
9420.000000;0.895543
9419.000000;0.895177
9418.000000;0.895004
9417.000000;0.894516
9416.000000;0.893860
9415.000000;0.893753
9414.000000;0.894483
9413.000000;0.895407
9412.000000;0.895620
9411.000000;0.894824
9410.000000;0.893419
9409.000000;0.892056
9408.000000;0.891277
9407.000000;0.891236
9406.000000;0.891545
9405.000000;0.891618
9404.000000;0.891331
9403.000000;0.891061
9402.000000;0.891039
9401.000000;0.891023
9400.000000;0.890767
9399.000000;0.890395
9398.000000;0.890046
9397.000000;0.889505
9396.000000;0.888569
9395.000000;0.887523
9394.000000;0.886860
9393.000000;0.886710
9392.000000;0.886870
9391.000000;0.887241
9390.000000;0.887892
9389.000000;0.888720
9388.000000;0.889349
9387.000000;0.889432
9386.000000;0.888946
9385.000000;0.888215
9384.000000;0.887673
9383.000000;0.887526
9382.000000;0.887566
9381.000000;0.887471
9380.000000;0.887250
9379.000000;0.887165
9378.000000;0.887170
9377.000000;0.886858
9376.000000;0.886114
9375.000000;0.885413
9374.000000;0.885159
9373.000000;0.885125
9372.000000;0.884918
9371.000000;0.884693
9370.000000;0.884897
9369.000000;0.885465
9368.000000;0.885833
9367.000000;0.885730
9366.000000;0.885468
9365.000000;0.885358
9364.000000;0.885237
9363.000000;0.884751
9362.000000;0.883869
9361.000000;0.882958
9360.000000;0.882476
9359.000000;0.882609
9358.000000;0.883082
9357.000000;0.883390
9356.000000;0.883395
9355.000000;0.883574
9354.000000;0.884423
9353.000000;0.885688
9352.000000;0.886486
9351.000000;0.886132
9350.000000;0.884547
9349.000000;0.882018
9348.000000;0.879102
9347.000000;0.876784
9346.000000;0.876083
9345.000000;0.877111
9344.000000;0.878770
9343.000000;0.879742
9342.000000;0.879678
9341.000000;0.879194
9340.000000;0.878953
9339.000000;0.879120
9338.000000;0.879572
9337.000000;0.880186
9336.000000;0.880763
9335.000000;0.880960
9334.000000;0.880562
9333.000000;0.879787
9332.000000;0.879112
9331.000000;0.878756
9330.000000;0.878492
9329.000000;0.878069
9328.000000;0.877677
9327.000000;0.877699
9326.000000;0.878026
9325.000000;0.878000
9324.000000;0.877274
9323.000000;0.876376
9322.000000;0.876018
9321.000000;0.876089
9320.000000;0.875873
9319.000000;0.875197
9318.000000;0.874751
9317.000000;0.875049
9316.000000;0.875594
9315.000000;0.875458
9314.000000;0.874403
9313.000000;0.873063
9312.000000;0.872209
9311.000000;0.872157
9310.000000;0.872716
9309.000000;0.873355
9308.000000;0.873502
9307.000000;0.873059
9306.000000;0.872610
9305.000000;0.872841
9304.000000;0.873747
9303.000000;0.874664
9302.000000;0.875066
9301.000000;0.874986
9300.000000;0.874621
9299.000000;0.873947
9298.000000;0.872973
9297.000000;0.872066
9296.000000;0.871685
9295.000000;0.871855
9294.000000;0.872190
9293.000000;0.872381
9292.000000;0.872407
9291.000000;0.872283
9290.000000;0.871914
9289.000000;0.871325
9288.000000;0.870809
9287.000000;0.870660
9286.000000;0.870822
9285.000000;0.870983
9284.000000;0.870956
9283.000000;0.870828
9282.000000;0.870757
9281.000000;0.870774
9280.000000;0.870804
9279.000000;0.870750
9278.000000;0.870521
9277.000000;0.870098
9276.000000;0.869642
9275.000000;0.869437
9274.000000;0.869606
9273.000000;0.869929
9272.000000;0.870060
9271.000000;0.869858
9270.000000;0.869462
9269.000000;0.869090
9268.000000;0.868869
9267.000000;0.868792
9266.000000;0.868686
9265.000000;0.868251
9264.000000;0.867328
9263.000000;0.866192
9262.000000;0.865502
9261.000000;0.865803
9260.000000;0.867032
9259.000000;0.868484
9258.000000;0.869281
9257.000000;0.868947
9256.000000;0.867678
9255.000000;0.866162
9254.000000;0.865121
9253.000000;0.864895
9252.000000;0.865333
9251.000000;0.865991
9250.000000;0.866445
9249.000000;0.866479
9248.000000;0.866078
9247.000000;0.865336
9246.000000;0.864443
9245.000000;0.863702
9244.000000;0.863421
9243.000000;0.863650
9242.000000;0.864112
9241.000000;0.864495
9240.000000;0.864751
9239.000000;0.864957
9238.000000;0.864944
9237.000000;0.864393
9236.000000;0.863369
9235.000000;0.862493
9234.000000;0.862355
9233.000000;0.862904
9232.000000;0.863599
9231.000000;0.864018
9230.000000;0.864059
9229.000000;0.863665
9228.000000;0.862727
9227.000000;0.861359
9226.000000;0.860010
9225.000000;0.859147
9224.000000;0.858921
9223.000000;0.859199
9222.000000;0.859779
9221.000000;0.860518
9220.000000;0.861330
9219.000000;0.862101
9218.000000;0.862603
9217.000000;0.862551
9216.000000;0.861852
9215.000000;0.860809
9214.000000;0.859960
9213.000000;0.859678
9212.000000;0.859930
9211.000000;0.860332
9210.000000;0.860350
9209.000000;0.859642
9208.000000;0.858421
9207.000000;0.857424
9206.000000;0.857261
9205.000000;0.857798
9204.000000;0.858352
9203.000000;0.858479
9202.000000;0.858307
9201.000000;0.858119
9200.000000;0.857940
9199.000000;0.857705
9198.000000;0.857532
9197.000000;0.857567
9196.000000;0.857701
9195.000000;0.857697
9194.000000;0.857541
9193.000000;0.857480
9192.000000;0.857705
9191.000000;0.858097
9190.000000;0.858285
9189.000000;0.857955
9188.000000;0.857143
9187.000000;0.856243
9186.000000;0.855605
9185.000000;0.855173
9184.000000;0.854675
9183.000000;0.854129
9182.000000;0.853847
9181.000000;0.853857
9180.000000;0.853711
9179.000000;0.853087
9178.000000;0.852322
9177.000000;0.852017
9176.000000;0.852293
9175.000000;0.852792
9174.000000;0.853276
9173.000000;0.853829
9172.000000;0.854444
9171.000000;0.854786
9170.000000;0.854577
9169.000000;0.853992
9168.000000;0.853510
9167.000000;0.853471
9166.000000;0.853848
9165.000000;0.854314
9164.000000;0.854482
9163.000000;0.854197
9162.000000;0.853678
9161.000000;0.853339
9160.000000;0.853399
9159.000000;0.853695
9158.000000;0.853848
9157.000000;0.853538
9156.000000;0.852673
9155.000000;0.851443
9154.000000;0.850263
9153.000000;0.849550
9152.000000;0.849473
9151.000000;0.849901
9150.000000;0.850545
9149.000000;0.851115
9148.000000;0.851358
9147.000000;0.851156
9146.000000;0.850684
9145.000000;0.850364
9144.000000;0.850529
9143.000000;0.851074
9142.000000;0.851452
9141.000000;0.851104
9140.000000;0.849979
9139.000000;0.848654
9138.000000;0.847847
9137.000000;0.847779
9136.000000;0.848106
9135.000000;0.848489
9134.000000;0.848999
9133.000000;0.849784
9132.000000;0.850572
9131.000000;0.850836
9130.000000;0.850427
9129.000000;0.849751
9128.000000;0.849244
9127.000000;0.848963
9126.000000;0.848795
9125.000000;0.848818
9124.000000;0.849218
9123.000000;0.849951
9122.000000;0.850670
9121.000000;0.851018
9120.000000;0.850927
9119.000000;0.850642
9118.000000;0.850461
9117.000000;0.850405
9116.000000;0.850160
9115.000000;0.849447
9114.000000;0.848426
9113.000000;0.847587
9112.000000;0.847223
9111.000000;0.847183
9110.000000;0.847155
9109.000000;0.847031
9108.000000;0.846871
9107.000000;0.846698
9106.000000;0.846495
9105.000000;0.846317
9104.000000;0.846272
9103.000000;0.846425
9102.000000;0.846782
9101.000000;0.847241
9100.000000;0.847496
9099.000000;0.847180
9098.000000;0.846286
9097.000000;0.845347
9096.000000;0.844996
9095.000000;0.845363
9094.000000;0.846047
9093.000000;0.846609
9092.000000;0.846897
9091.000000;0.846930
9090.000000;0.846723
9089.000000;0.846334
9088.000000;0.845949
9087.000000;0.845791
9086.000000;0.845934
9085.000000;0.846156
9084.000000;0.845974
9083.000000;0.844985
9082.000000;0.843402
9081.000000;0.842138
9080.000000;0.842081
9079.000000;0.843207
9078.000000;0.844590
9077.000000;0.845319
9076.000000;0.845212
9075.000000;0.844633
9074.000000;0.843954
9073.000000;0.843407
9072.000000;0.843166
9071.000000;0.843224
9070.000000;0.843275
9069.000000;0.842967
9068.000000;0.842262
9067.000000;0.841418
9066.000000;0.840724
9065.000000;0.840433
9064.000000;0.840797
9063.000000;0.841799
9062.000000;0.842862
9061.000000;0.843159
9060.000000;0.842401
9059.000000;0.841135
9058.000000;0.840199
9057.000000;0.840052
9056.000000;0.840625
9055.000000;0.841479
9054.000000;0.841988
9053.000000;0.841653
