Criado como novo conjunto de dados;"e0108.spp","-4233402.0 Secs"
cm-1;Abs
10000.000000;1.657334
9999.000000;1.660037
9998.000000;1.662734
9997.000000;1.665492
9996.000000;1.668188
9995.000000;1.671059
9994.000000;1.673496
9993.000000;1.674679
9992.000000;1.676393
9991.000000;1.679104
9990.000000;1.681510
9989.000000;1.681838
9988.000000;1.680136
9987.000000;1.678240
9986.000000;1.677792
9985.000000;1.678797
9984.000000;1.679876
9983.000000;1.679394
9982.000000;1.676982
9981.000000;1.674105
9980.000000;1.672594
9979.000000;1.672806
9978.000000;1.673730
9977.000000;1.674909
9976.000000;1.676992
9975.000000;1.679866
9974.000000;1.681713
9973.000000;1.680669
9972.000000;1.676938
9971.000000;1.672283
9970.000000;1.667816
9969.000000;1.663786
9968.000000;1.661103
9967.000000;1.661377
9966.000000;1.664721
9965.000000;1.668402
9964.000000;1.668945
9963.000000;1.665861
9962.000000;1.662505
9961.000000;1.662862
9960.000000;1.667728
9959.000000;1.673981
9958.000000;1.677606
9957.000000;1.677587
9956.000000;1.676347
9955.000000;1.676215
9954.000000;1.676408
9953.000000;1.674396
9952.000000;1.669679
9951.000000;1.664602
9950.000000;1.661116
9949.000000;1.658300
9948.000000;1.654128
9947.000000;1.648898
9946.000000;1.645216
9945.000000;1.644834
9944.000000;1.647090
9943.000000;1.650224
9942.000000;1.653061
9941.000000;1.655261
9940.000000;1.656682
9939.000000;1.657241
9938.000000;1.657328
9937.000000;1.657772
9936.000000;1.659214
9935.000000;1.661529
9934.000000;1.663636
9933.000000;1.663939
9932.000000;1.661642
9931.000000;1.658020
9930.000000;1.655816
9929.000000;1.656751
9928.000000;1.659536
9927.000000;1.660697
9926.000000;1.658145
9925.000000;1.653382
9924.000000;1.649223
9923.000000;1.646346
9922.000000;1.643164
9921.000000;1.638731
9920.000000;1.634592
9919.000000;1.633170
9918.000000;1.635120
9917.000000;1.638947
9916.000000;1.642782
9915.000000;1.645608
9914.000000;1.646812
9913.000000;1.645833
9912.000000;1.642773
9911.000000;1.639112
9910.000000;1.637413
9909.000000;1.639578
9908.000000;1.645081
9907.000000;1.650911
9906.000000;1.653414
9905.000000;1.650741
9904.000000;1.644250
9903.000000;1.637724
9902.000000;1.634713
9901.000000;1.635978
9900.000000;1.639093
9899.000000;1.640588
9898.000000;1.638714
9897.000000;1.634115
9896.000000;1.628482
9895.000000;1.623582
9894.000000;1.621401
9893.000000;1.623735
9892.000000;1.630418
9891.000000;1.638471
9890.000000;1.644293
9889.000000;1.646769
9888.000000;1.647248
9887.000000;1.646890
9886.000000;1.645476
9885.000000;1.642846
9884.000000;1.639990
9883.000000;1.638014
9882.000000;1.637399
9881.000000;1.638321
9880.000000;1.639985
9879.000000;1.640191
9878.000000;1.636979
9877.000000;1.630609
9876.000000;1.623324
9875.000000;1.617271
9874.000000;1.613802
9873.000000;1.614778
9872.000000;1.622264
9871.000000;1.635434
9870.000000;1.648599
9869.000000;1.654305
9868.000000;1.649780
9867.000000;1.638861
9866.000000;1.627977
9865.000000;1.622404
9864.000000;1.624324
9863.000000;1.631650
9862.000000;1.638731
9861.000000;1.640462
9860.000000;1.637060
9859.000000;1.633111
9858.000000;1.631999
9857.000000;1.633346
9856.000000;1.635315
9855.000000;1.637120
9854.000000;1.638838
9853.000000;1.640526
9852.000000;1.642293
9851.000000;1.644092
9850.000000;1.644894
9849.000000;1.643249
9848.000000;1.639347
9847.000000;1.635399
9846.000000;1.633171
9845.000000;1.632146
9844.000000;1.630757
9843.000000;1.628613
9842.000000;1.626535
9841.000000;1.624851
9840.000000;1.622803
9839.000000;1.619712
9838.000000;1.616137
9837.000000;1.613714
9836.000000;1.613938
9835.000000;1.616886
9834.000000;1.620775
9833.000000;1.622986
9832.000000;1.622105
9831.000000;1.619027
9830.000000;1.616034
9829.000000;1.615154
9828.000000;1.617171
9827.000000;1.621210
9826.000000;1.624843
9825.000000;1.625484
9824.000000;1.622567
9823.000000;1.618040
9822.000000;1.614463
9821.000000;1.613275
9820.000000;1.614662
9819.000000;1.617741
9818.000000;1.620480
9817.000000;1.620726
9816.000000;1.618361
9815.000000;1.615689
9814.000000;1.614775
9813.000000;1.615043
9812.000000;1.614352
9811.000000;1.611714
9810.000000;1.607957
9809.000000;1.604579
9808.000000;1.602998
9807.000000;1.604332
9806.000000;1.608609
9805.000000;1.613818
9804.000000;1.616892
9803.000000;1.616329
9802.000000;1.613173
9801.000000;1.609246
9800.000000;1.605343
9799.000000;1.601563
9798.000000;1.598396
9797.000000;1.596613
9796.000000;1.596542
9795.000000;1.597966
9794.000000;1.600379
9793.000000;1.603087
9792.000000;1.605401
9791.000000;1.607076
9790.000000;1.608465
9789.000000;1.609874
9788.000000;1.610868
9787.000000;1.610587
9786.000000;1.608724
9785.000000;1.606005
9784.000000;1.603626
9783.000000;1.602495
9782.000000;1.603097
9781.000000;1.605520
9780.000000;1.609138
9779.000000;1.612458
9778.000000;1.613513
9777.000000;1.610910
9776.000000;1.605025
9775.000000;1.598099
9774.000000;1.592886
9773.000000;1.591087
9772.000000;1.592705
9771.000000;1.596331
9770.000000;1.599894
9769.000000;1.601771
9768.000000;1.601838
9767.000000;1.601361
9766.000000;1.601631
9765.000000;1.602677
9764.000000;1.603293
9763.000000;1.602306
9762.000000;1.599623
9761.000000;1.596047
9760.000000;1.592413
9759.000000;1.589149
9758.000000;1.586543
9757.000000;1.585216
9756.000000;1.586091
9755.000000;1.589509
9754.000000;1.594247
9753.000000;1.597782
9752.000000;1.598171
9751.000000;1.595800
9750.000000;1.592959
9749.000000;1.591783
9748.000000;1.592718
9747.000000;1.594421
9746.000000;1.594608
9745.000000;1.591450
9744.000000;1.585132
9743.000000;1.578107
9742.000000;1.573272
9741.000000;1.571787
9740.000000;1.572758
9739.000000;1.574847
9738.000000;1.577628
9737.000000;1.581037
9736.000000;1.584056
9735.000000;1.584923
9734.000000;1.582818
9733.000000;1.578831
9732.000000;1.575173
9731.000000;1.573900
9730.000000;1.576244
9729.000000;1.582134
9728.000000;1.589727
9727.000000;1.595981
9726.000000;1.598521
9725.000000;1.597204
9724.000000;1.593751
9723.000000;1.589927
9722.000000;1.586470
9721.000000;1.583453
9720.000000;1.581047
9719.000000;1.579806
9718.000000;1.580269
9717.000000;1.582285
9716.000000;1.584889
9715.000000;1.586973
9714.000000;1.588010
9713.000000;1.587899
9712.000000;1.586345
9711.000000;1.583095
9710.000000;1.578881
9709.000000;1.575236
9708.000000;1.572902
9707.000000;1.571177
9706.000000;1.569452
9705.000000;1.568768
9704.000000;1.570724
9703.000000;1.574856
9702.000000;1.578349
9701.000000;1.578860
9700.000000;1.576723
9699.000000;1.573800
9698.000000;1.571349
9697.000000;1.569988
9696.000000;1.570580
9695.000000;1.573555
9694.000000;1.577613
9693.000000;1.580367
9692.000000;1.580561
9691.000000;1.578868
9690.000000;1.576360
9689.000000;1.573298
9688.000000;1.569778
9687.000000;1.566467
9686.000000;1.563952
9685.000000;1.562058
9684.000000;1.560460
9683.000000;1.559559
9682.000000;1.560172
9681.000000;1.562489
9680.000000;1.565642
9679.000000;1.568291
9678.000000;1.569583
9677.000000;1.569616
9676.000000;1.569208
9675.000000;1.569393
9674.000000;1.570819
9673.000000;1.573198
9672.000000;1.575364
9671.000000;1.576209
9670.000000;1.575763
9669.000000;1.574925
9668.000000;1.573951
9667.000000;1.571871
9666.000000;1.567846
9665.000000;1.562835
9664.000000;1.559331
9663.000000;1.559217
9662.000000;1.562200
9661.000000;1.566278
9660.000000;1.569242
9659.000000;1.569777
9658.000000;1.567883
9657.000000;1.564681
9656.000000;1.561494
9655.000000;1.558571
9654.000000;1.555066
9653.000000;1.550886
9652.000000;1.547876
9651.000000;1.548040
9650.000000;1.550825
9649.000000;1.553443
9648.000000;1.554225
9647.000000;1.554270
9646.000000;1.555213
9645.000000;1.556718
9644.000000;1.556994
9643.000000;1.555108
9642.000000;1.551957
9641.000000;1.549356
9640.000000;1.548847
9639.000000;1.550765
9638.000000;1.553669
9637.000000;1.555281
9636.000000;1.555091
9635.000000;1.555503
9634.000000;1.558991
9633.000000;1.564475
9632.000000;1.567935
9631.000000;1.566984
9630.000000;1.563279
9629.000000;1.559491
9628.000000;1.555967
9627.000000;1.551971
9626.000000;1.548737
9625.000000;1.548750
9624.000000;1.551809
9623.000000;1.553763
9622.000000;1.550825
9621.000000;1.544583
9620.000000;1.540737
9619.000000;1.543041
9618.000000;1.549751
9617.000000;1.555726
9616.000000;1.557229
9615.000000;1.554236
9614.000000;1.548749
9613.000000;1.542582
9612.000000;1.537183
9611.000000;1.534041
9610.000000;1.533991
9609.000000;1.536221
9608.000000;1.538615
9607.000000;1.539437
9606.000000;1.538695
9605.000000;1.537916
9604.000000;1.538760
9603.000000;1.541629
9602.000000;1.545230
9601.000000;1.547533
9600.000000;1.547548
9599.000000;1.546264
9598.000000;1.545563
9597.000000;1.546181
9596.000000;1.547048
9595.000000;1.546787
9594.000000;1.545526
9593.000000;1.544581
9592.000000;1.544471
9591.000000;1.544006
9590.000000;1.541763
9589.000000;1.538143
9588.000000;1.535420
9587.000000;1.535600
9586.000000;1.538456
9585.000000;1.541749
9584.000000;1.543178
9583.000000;1.542029
9582.000000;1.539293
9581.000000;1.536773
9580.000000;1.536050
9579.000000;1.537599
9578.000000;1.540374
9577.000000;1.542334
9576.000000;1.541690
9575.000000;1.537901
9574.000000;1.531900
9573.000000;1.525807
9572.000000;1.522087
9571.000000;1.522035
9570.000000;1.524640
9569.000000;1.527475
9568.000000;1.529196
9567.000000;1.530606
9566.000000;1.532688
9565.000000;1.534483
9564.000000;1.534087
9563.000000;1.531450
9562.000000;1.528660
9561.000000;1.527299
9560.000000;1.526827
9559.000000;1.525926
9558.000000;1.524455
9557.000000;1.523214
9556.000000;1.522399
9555.000000;1.521471
9554.000000;1.520401
9553.000000;1.520085
9552.000000;1.521391
9551.000000;1.524239
9550.000000;1.527506
9549.000000;1.529440
9548.000000;1.528491
9547.000000;1.524340
9546.000000;1.518349
9545.000000;1.512795
9544.000000;1.509256
9543.000000;1.507919
9542.000000;1.508290
9541.000000;1.510000
9540.000000;1.512832
9539.000000;1.516270
9538.000000;1.519468
9537.000000;1.521734
9536.000000;1.522892
9535.000000;1.523282
9534.000000;1.523531
9533.000000;1.524224
9532.000000;1.525468
9531.000000;1.526719
9530.000000;1.527253
9529.000000;1.526740
9528.000000;1.525134
9527.000000;1.522315
9526.000000;1.518342
9525.000000;1.514000
9524.000000;1.510600
9523.000000;1.509074
9522.000000;1.509433
9521.000000;1.510947
9520.000000;1.512680
9519.000000;1.513987
9518.000000;1.514819
9517.000000;1.515643
9516.000000;1.516812
9515.000000;1.517965
9514.000000;1.518229
9513.000000;1.517035
9512.000000;1.514549
9511.000000;1.511488
9510.000000;1.508952
9509.000000;1.508208
9508.000000;1.509684
9507.000000;1.511944
9506.000000;1.512501
9505.000000;1.510323
9504.000000;1.507127
9503.000000;1.505679
9502.000000;1.507234
9501.000000;1.510852
9500.000000;1.514632
9499.000000;1.517011
9498.000000;1.517207
9497.000000;1.515347
9496.000000;1.512431
9495.000000;1.509843
9494.000000;1.508790
9493.000000;1.510110
9492.000000;1.513871
9491.000000;1.518445
9490.000000;1.520584
9489.000000;1.517844
9488.000000;1.511348
9487.000000;1.505077
9486.000000;1.502101
9485.000000;1.502336
9484.000000;1.503884
9483.000000;1.505504
9482.000000;1.507214
9481.000000;1.509007
9480.000000;1.510018
9479.000000;1.509267
9478.000000;1.506769
9477.000000;1.503658
9476.000000;1.501423
9475.000000;1.500959
9474.000000;1.501862
9473.000000;1.502674
9472.000000;1.502248
9471.000000;1.500788
9470.000000;1.499425
9469.000000;1.499209
9468.000000;1.500602
9467.000000;1.503443
9466.000000;1.506839
9465.000000;1.509160
9464.000000;1.508897
9463.000000;1.505969
9462.000000;1.501915
9461.000000;1.498560
9460.000000;1.496749
9459.000000;1.496377
9458.000000;1.497141
9457.000000;1.498797
9456.000000;1.500647
9455.000000;1.501416
9454.000000;1.500263
9453.000000;1.497844
9452.000000;1.495941
9451.000000;1.495868
9450.000000;1.497483
9449.000000;1.499748
9448.000000;1.501626
9447.000000;1.502300
9446.000000;1.501338
9445.000000;1.499193
9444.000000;1.497108
9443.000000;1.495866
9442.000000;1.494732
9441.000000;1.492367
9440.000000;1.488956
9439.000000;1.486597
9438.000000;1.487194
9437.000000;1.490498
9436.000000;1.494576
9435.000000;1.497764
9434.000000;1.499533
9433.000000;1.499777
9432.000000;1.498384
9431.000000;1.495816
9430.000000;1.493166
9429.000000;1.491037
9428.000000;1.488902
9427.000000;1.486260
9426.000000;1.484087
9425.000000;1.484273
9424.000000;1.487424
9423.000000;1.491821
9422.000000;1.494970
9421.000000;1.495956
9420.000000;1.495697
9419.000000;1.495218
9418.000000;1.494564
9417.000000;1.493542
9416.000000;1.492625
9415.000000;1.492406
9414.000000;1.492560
9413.000000;1.492046
9412.000000;1.490147
9411.000000;1.486989
9410.000000;1.483341
9409.000000;1.480354
9408.000000;1.479173
9407.000000;1.480093
9406.000000;1.481981
9405.000000;1.483086
9404.000000;1.482725
9403.000000;1.481775
9402.000000;1.481457
9401.000000;1.482159
9400.000000;1.483373
9399.000000;1.484159
9398.000000;1.483551
9397.000000;1.481194
9396.000000;1.477976
9395.000000;1.475575
9394.000000;1.474987
9393.000000;1.475803
9392.000000;1.477106
9391.000000;1.478697
9390.000000;1.480956
9389.000000;1.483709
9388.000000;1.485874
9387.000000;1.486327
9386.000000;1.484933
9385.000000;1.482711
9384.000000;1.481143
9383.000000;1.481209
9382.000000;1.482669
9381.000000;1.484148
9380.000000;1.484112
9379.000000;1.481949
9378.000000;1.478404
9377.000000;1.475238
9376.000000;1.474296
9375.000000;1.476217
9374.000000;1.479561
9373.000000;1.481664
9372.000000;1.481057
9371.000000;1.478893
9370.000000;1.477471
9369.000000;1.477694
9368.000000;1.478497
9367.000000;1.478563
9366.000000;1.477880
9365.000000;1.477472
9364.000000;1.478031
9363.000000;1.479117
9362.000000;1.479701
9361.000000;1.479389
9360.000000;1.478821
9359.000000;1.478554
9358.000000;1.477859
9357.000000;1.475445
9356.000000;1.471631
9355.000000;1.468927
9354.000000;1.469604
9353.000000;1.472973
9352.000000;1.475825
9351.000000;1.475712
9350.000000;1.473215
9349.000000;1.470724
9348.000000;1.469745
9347.000000;1.469880
9346.000000;1.469804
9345.000000;1.468841
9344.000000;1.467724
9343.000000;1.467861
9342.000000;1.469742
9341.000000;1.472198
9340.000000;1.473526
9339.000000;1.473303
9338.000000;1.472677
9337.000000;1.472826
9336.000000;1.473678
9335.000000;1.474406
9334.000000;1.474638
9333.000000;1.474570
9332.000000;1.474244
9331.000000;1.473381
9330.000000;1.472059
9329.000000;1.471065
9328.000000;1.471124
9327.000000;1.471869
9326.000000;1.472000
9325.000000;1.470744
9324.000000;1.468885
9323.000000;1.467770
9322.000000;1.467438
9321.000000;1.466567
9320.000000;1.464598
9319.000000;1.463049
9318.000000;1.463761
9317.000000;1.466234
9316.000000;1.467792
9315.000000;1.466651
9314.000000;1.463952
9313.000000;1.462137
9312.000000;1.462136
9311.000000;1.462948
9310.000000;1.463636
9309.000000;1.464789
9308.000000;1.467417
9307.000000;1.470930
9306.000000;1.473046
9305.000000;1.472050
9304.000000;1.468850
9303.000000;1.466272
9302.000000;1.466305
9301.000000;1.468302
9300.000000;1.469816
9299.000000;1.468856
9298.000000;1.465299
9297.000000;1.460689
9296.000000;1.457177
9295.000000;1.456245
9294.000000;1.457764
9293.000000;1.460274
9292.000000;1.462471
9291.000000;1.464160
9290.000000;1.465466
9289.000000;1.465790
9288.000000;1.464398
9287.000000;1.461604
9286.000000;1.458639
9285.000000;1.456609
9284.000000;1.456225
9283.000000;1.458050
9282.000000;1.461845
9281.000000;1.465726
9280.000000;1.467150
9279.000000;1.465180
9278.000000;1.461160
9277.000000;1.457011
9276.000000;1.453899
9275.000000;1.452618
9274.000000;1.453632
9273.000000;1.456050
9272.000000;1.457726
9271.000000;1.457343
9270.000000;1.455770
9269.000000;1.454634
9268.000000;1.454296
9267.000000;1.453880
9266.000000;1.452594
9265.000000;1.450339
9264.000000;1.447578
9263.000000;1.445388
9262.000000;1.445150
9261.000000;1.447467
9260.000000;1.451602
9259.000000;1.456210
9258.000000;1.460101
9257.000000;1.462117
9256.000000;1.461401
9255.000000;1.458616
9254.000000;1.455851
9253.000000;1.454427
9252.000000;1.453810
9251.000000;1.453496
9250.000000;1.454547
9249.000000;1.457544
9248.000000;1.460065
9247.000000;1.458626
9246.000000;1.453265
9245.000000;1.447940
9244.000000;1.446002
9243.000000;1.447187
9242.000000;1.449270
9241.000000;1.450867
9240.000000;1.451666
9239.000000;1.451364
9238.000000;1.449985
9237.000000;1.448541
9236.000000;1.448030
9235.000000;1.448029
9234.000000;1.447363
9233.000000;1.445962
9232.000000;1.445042
9231.000000;1.445526
9230.000000;1.446955
9229.000000;1.447904
9228.000000;1.447128
9227.000000;1.444441
9226.000000;1.440966
9225.000000;1.438725
9224.000000;1.439425
9223.000000;1.443119
9222.000000;1.448050
9221.000000;1.451952
9220.000000;1.453565
9219.000000;1.452960
9218.000000;1.450828
9217.000000;1.447845
9216.000000;1.444658
9215.000000;1.442050
9214.000000;1.440779
9213.000000;1.441155
9212.000000;1.442832
9211.000000;1.444887
9210.000000;1.445971
9209.000000;1.444775
9208.000000;1.441219
9207.000000;1.437265
9206.000000;1.435599
9205.000000;1.436977
9204.000000;1.439473
9203.000000;1.440867
9202.000000;1.441109
9201.000000;1.441452
9200.000000;1.441894
9199.000000;1.440991
9198.000000;1.438184
9197.000000;1.434932
9196.000000;1.433127
9195.000000;1.433478
9194.000000;1.435708
9193.000000;1.439141
9192.000000;1.442582
9191.000000;1.444590
9190.000000;1.444805
9189.000000;1.444522
9188.000000;1.445285
9187.000000;1.447296
9186.000000;1.449506
9185.000000;1.450792
9184.000000;1.450630
9183.000000;1.449036
9182.000000;1.446414
9181.000000;1.443394
9180.000000;1.440466
9179.000000;1.437927
9178.000000;1.436385
9177.000000;1.436637
9176.000000;1.438596
9175.000000;1.440897
9174.000000;1.442054
9173.000000;1.441812
9172.000000;1.441102
9171.000000;1.440996
9170.000000;1.441873
9169.000000;1.443146
9168.000000;1.443626
9167.000000;1.442676
9166.000000;1.441179
9165.000000;1.440581
9164.000000;1.440807
9163.000000;1.440224
9162.000000;1.438018
9161.000000;1.435516
9160.000000;1.434505
9159.000000;1.435270
9158.000000;1.437138
9157.000000;1.439875
9156.000000;1.443137
9155.000000;1.445182
9154.000000;1.443894
9153.000000;1.439335
9152.000000;1.434104
9151.000000;1.430957
9150.000000;1.430770
9149.000000;1.432437
9148.000000;1.433797
9147.000000;1.433020
9146.000000;1.430276
9145.000000;1.427951
9144.000000;1.428261
9143.000000;1.430714
9142.000000;1.432700
9141.000000;1.432537
9140.000000;1.430953
9139.000000;1.429532
9138.000000;1.429013
9137.000000;1.429366
9136.000000;1.430194
9135.000000;1.430571
9134.000000;1.429542
9133.000000;1.427396
9132.000000;1.425596
9131.000000;1.424991
9130.000000;1.424976
9129.000000;1.424975
9128.000000;1.425764
9127.000000;1.428291
9126.000000;1.431794
9125.000000;1.434238
9124.000000;1.434572
9123.000000;1.433738
9122.000000;1.433283
9121.000000;1.433715
9120.000000;1.434404
9119.000000;1.434478
9118.000000;1.433577
9117.000000;1.432074
9116.000000;1.430813
9115.000000;1.430512
9114.000000;1.431315
9113.000000;1.432908
9112.000000;1.434872
9111.000000;1.436686
9110.000000;1.437499
9109.000000;1.436406
9108.000000;1.433260
9107.000000;1.429123
9106.000000;1.425712
9105.000000;1.424219
9104.000000;1.424463
9103.000000;1.425096
9102.000000;1.424752
9101.000000;1.423161
9100.000000;1.421236
9099.000000;1.420244
9098.000000;1.420959
9097.000000;1.423406
9096.000000;1.427005
9095.000000;1.430879
9094.000000;1.434198
9093.000000;1.436343
9092.000000;1.436754
9091.000000;1.434951
9090.000000;1.431048
9089.000000;1.426154
9088.000000;1.421904
9087.000000;1.419438
9086.000000;1.418828
9085.000000;1.419297
9084.000000;1.419857
9083.000000;1.419921
9082.000000;1.419615
9081.000000;1.419505
9080.000000;1.419848
9079.000000;1.420216
9078.000000;1.420105
9077.000000;1.419785
9076.000000;1.420085
9075.000000;1.421347
9074.000000;1.423022
9073.000000;1.424307
9072.000000;1.424756
9071.000000;1.424231
9070.000000;1.422859
9069.000000;1.421289
9068.000000;1.420453
9067.000000;1.420621
9066.000000;1.420920
9065.000000;1.420158
9064.000000;1.418148
9063.000000;1.415981
9062.000000;1.415030
9061.000000;1.415837
9060.000000;1.417853
9059.000000;1.419958
9058.000000;1.421100
9057.000000;1.420697
9056.000000;1.418867
9055.000000;1.416553
9054.000000;1.415095
9053.000000;1.415220
