Criado como novo conjunto de dados;"e0108.spp","-4217201.5 Secs"
cm-1;Abs
10000.000000;1.960207
9999.000000;1.955008
9998.000000;1.951746
9997.000000;1.953097
9996.000000;1.960084
9995.000000;1.969741
9994.000000;1.976390
9993.000000;1.977051
9992.000000;1.974258
9991.000000;1.971820
9990.000000;1.970526
9989.000000;1.969977
9988.000000;1.970826
9987.000000;1.972916
9986.000000;1.972962
9985.000000;1.966891
9984.000000;1.955278
9983.000000;1.943744
9982.000000;1.937487
9981.000000;1.937510
9980.000000;1.941395
9979.000000;1.945878
9978.000000;1.949006
9977.000000;1.951466
9976.000000;1.955157
9975.000000;1.958909
9974.000000;1.958313
9973.000000;1.952393
9972.000000;1.946432
9971.000000;1.945101
9970.000000;1.946967
9969.000000;1.948617
9968.000000;1.951079
9967.000000;1.957441
9966.000000;1.965258
9965.000000;1.967565
9964.000000;1.963375
9963.000000;1.959973
9962.000000;1.961666
9961.000000;1.962767
9960.000000;1.955818
9959.000000;1.943070
9958.000000;1.933722
9957.000000;1.933214
9956.000000;1.939277
9955.000000;1.945560
9954.000000;1.947230
9953.000000;1.944047
9952.000000;1.939393
9951.000000;1.937161
9950.000000;1.938962
9949.000000;1.943643
9948.000000;1.949484
9947.000000;1.955726
9946.000000;1.961093
9945.000000;1.962883
9944.000000;1.959729
9943.000000;1.953665
9942.000000;1.946923
9941.000000;1.938697
9940.000000;1.928562
9939.000000;1.921335
9938.000000;1.924080
9937.000000;1.937634
9936.000000;1.952876
9935.000000;1.957983
9934.000000;1.950735
9933.000000;1.940563
9932.000000;1.938113
9931.000000;1.945509
9930.000000;1.955479
9929.000000;1.958735
9928.000000;1.953593
9927.000000;1.947638
9926.000000;1.949585
9925.000000;1.961363
9924.000000;1.976636
9923.000000;1.985343
9922.000000;1.981530
9921.000000;1.968029
9920.000000;1.953265
9919.000000;1.944325
9918.000000;1.942187
9917.000000;1.942404
9916.000000;1.940584
9915.000000;1.935851
9914.000000;1.929449
9913.000000;1.923160
9912.000000;1.919270
9911.000000;1.919935
9910.000000;1.925429
9909.000000;1.933588
9908.000000;1.941863
9907.000000;1.949245
9906.000000;1.955483
9905.000000;1.960027
9904.000000;1.962571
9903.000000;1.962971
9902.000000;1.960408
9901.000000;1.954115
9900.000000;1.945630
9899.000000;1.938856
9898.000000;1.936262
9897.000000;1.936242
9896.000000;1.935633
9895.000000;1.933843
9894.000000;1.933014
9893.000000;1.934566
9892.000000;1.937597
9891.000000;1.940470
9890.000000;1.941144
9889.000000;1.937361
9888.000000;1.930429
9887.000000;1.925908
9886.000000;1.927244
9885.000000;1.931296
9884.000000;1.932927
9883.000000;1.932855
9882.000000;1.936458
9881.000000;1.944754
9880.000000;1.951352
9879.000000;1.950242
9878.000000;1.942950
9877.000000;1.934809
9876.000000;1.928287
9875.000000;1.923414
9874.000000;1.921478
9873.000000;1.924074
9872.000000;1.929107
9871.000000;1.931463
9870.000000;1.928848
9869.000000;1.924108
9868.000000;1.920647
9867.000000;1.918355
9866.000000;1.915070
9865.000000;1.910613
9864.000000;1.907585
9863.000000;1.908222
9862.000000;1.912126
9861.000000;1.917139
9860.000000;1.921428
9859.000000;1.924572
9858.000000;1.926824
9857.000000;1.927769
9856.000000;1.926388
9855.000000;1.922667
9854.000000;1.918564
9853.000000;1.916647
9852.000000;1.917608
9851.000000;1.919313
9850.000000;1.918423
9849.000000;1.913332
9848.000000;1.905543
9847.000000;1.897797
9846.000000;1.891530
9845.000000;1.887010
9844.000000;1.885442
9843.000000;1.888764
9842.000000;1.896329
9841.000000;1.903967
9840.000000;1.908281
9839.000000;1.910892
9838.000000;1.916191
9837.000000;1.924504
9836.000000;1.929301
9835.000000;1.923643
9834.000000;1.908810
9833.000000;1.892771
9832.000000;1.881831
9831.000000;1.877345
9830.000000;1.878212
9829.000000;1.883228
9828.000000;1.890538
9827.000000;1.896482
9826.000000;1.897700
9825.000000;1.895173
9824.000000;1.893992
9823.000000;1.898335
9822.000000;1.907821
9821.000000;1.918800
9820.000000;1.928330
9819.000000;1.936084
9818.000000;1.942644
9817.000000;1.947283
9816.000000;1.948069
9815.000000;1.943431
9814.000000;1.932973
9813.000000;1.917789
9812.000000;1.901561
9811.000000;1.890339
9810.000000;1.888825
9809.000000;1.895958
9808.000000;1.904551
9807.000000;1.907082
9806.000000;1.902629
9805.000000;1.896431
9804.000000;1.893373
9803.000000;1.894095
9802.000000;1.896643
9801.000000;1.899161
9800.000000;1.899999
9799.000000;1.897656
9798.000000;1.892512
9797.000000;1.887225
9796.000000;1.883778
9795.000000;1.881097
9794.000000;1.877177
9793.000000;1.872693
9792.000000;1.870434
9791.000000;1.871634
9790.000000;1.874313
9789.000000;1.875578
9788.000000;1.874911
9787.000000;1.873891
9786.000000;1.873538
9785.000000;1.873869
9784.000000;1.875037
9783.000000;1.877242
9782.000000;1.880232
9781.000000;1.884007
9780.000000;1.889084
9779.000000;1.894965
9778.000000;1.899337
9777.000000;1.900196
9776.000000;1.897556
9775.000000;1.892082
9774.000000;1.885118
9773.000000;1.879740
9772.000000;1.878386
9771.000000;1.880758
9770.000000;1.884403
9769.000000;1.886414
9768.000000;1.886182
9767.000000;1.886035
9766.000000;1.888434
9765.000000;1.894081
9764.000000;1.902211
9763.000000;1.910531
9762.000000;1.914982
9761.000000;1.912006
9760.000000;1.901875
9759.000000;1.888438
9758.000000;1.875587
9757.000000;1.865270
9756.000000;1.858702
9755.000000;1.857249
9754.000000;1.861088
9753.000000;1.868362
9752.000000;1.876672
9751.000000;1.884560
9750.000000;1.890920
9749.000000;1.894268
9748.000000;1.893671
9747.000000;1.889681
9746.000000;1.883841
9745.000000;1.878072
9744.000000;1.874511
9743.000000;1.874543
9742.000000;1.877390
9741.000000;1.880069
9740.000000;1.879396
9739.000000;1.874462
9738.000000;1.867201
9737.000000;1.860838
9736.000000;1.858123
9735.000000;1.860175
9734.000000;1.865518
9733.000000;1.870985
9732.000000;1.874877
9731.000000;1.878278
9730.000000;1.882488
9729.000000;1.886208
9728.000000;1.886551
9727.000000;1.882608
9726.000000;1.876724
9725.000000;1.872547
9724.000000;1.872760
9723.000000;1.877703
9722.000000;1.884955
9721.000000;1.890828
9720.000000;1.893436
9719.000000;1.893756
9718.000000;1.892773
9717.000000;1.888925
9716.000000;1.880451
9715.000000;1.870031
9714.000000;1.863843
9713.000000;1.865460
9712.000000;1.872294
9711.000000;1.878078
9710.000000;1.878855
9709.000000;1.875044
9708.000000;1.868416
9707.000000;1.860892
9706.000000;1.855779
9705.000000;1.856618
9704.000000;1.863181
9703.000000;1.869830
9702.000000;1.870466
9701.000000;1.865613
9700.000000;1.861746
9699.000000;1.863435
9698.000000;1.868672
9697.000000;1.871921
9696.000000;1.870445
9695.000000;1.866297
9694.000000;1.862690
9693.000000;1.860830
9692.000000;1.859955
9691.000000;1.858420
9690.000000;1.854915
9689.000000;1.850246
9688.000000;1.847598
9687.000000;1.848921
9686.000000;1.851295
9685.000000;1.849837
9684.000000;1.845063
9683.000000;1.843616
9682.000000;1.850090
9681.000000;1.861071
9680.000000;1.868881
9679.000000;1.870131
9678.000000;1.867566
9677.000000;1.864542
9676.000000;1.862305
9675.000000;1.861621
9674.000000;1.862373
9673.000000;1.861160
9672.000000;1.853781
9671.000000;1.842246
9670.000000;1.834855
9669.000000;1.836996
9668.000000;1.845221
9667.000000;1.852225
9666.000000;1.855849
9665.000000;1.859219
9664.000000;1.863191
9663.000000;1.864546
9662.000000;1.862194
9661.000000;1.859890
9660.000000;1.860266
9659.000000;1.859750
9658.000000;1.853504
9657.000000;1.843587
9656.000000;1.837369
9655.000000;1.839493
9654.000000;1.847849
9653.000000;1.856050
9652.000000;1.859326
9651.000000;1.858218
9650.000000;1.856856
9649.000000;1.858536
9648.000000;1.862987
9647.000000;1.867181
9646.000000;1.868606
9645.000000;1.867168
9644.000000;1.863262
9643.000000;1.856052
9642.000000;1.846053
9641.000000;1.837659
9640.000000;1.835808
9639.000000;1.840228
9638.000000;1.845041
9637.000000;1.845252
9636.000000;1.842149
9635.000000;1.840110
9634.000000;1.840064
9633.000000;1.838665
9632.000000;1.833307
9631.000000;1.825769
9630.000000;1.820186
9629.000000;1.819576
9628.000000;1.824628
9627.000000;1.833154
9626.000000;1.840407
9625.000000;1.842718
9624.000000;1.841069
9623.000000;1.839289
9622.000000;1.839775
9621.000000;1.841657
9620.000000;1.842305
9619.000000;1.840312
9618.000000;1.836513
9617.000000;1.832468
9616.000000;1.828897
9615.000000;1.825699
9614.000000;1.823022
9613.000000;1.821638
9612.000000;1.821881
9611.000000;1.822885
9610.000000;1.823834
9609.000000;1.825317
9608.000000;1.828015
9607.000000;1.830277
9606.000000;1.829037
9605.000000;1.824089
9604.000000;1.819463
9603.000000;1.819062
9602.000000;1.822372
9601.000000;1.825593
9600.000000;1.826083
9599.000000;1.824252
9598.000000;1.821681
9597.000000;1.819582
9596.000000;1.819184
9595.000000;1.821289
9594.000000;1.824850
9593.000000;1.827775
9592.000000;1.829609
9591.000000;1.831688
9590.000000;1.834121
9589.000000;1.834720
9588.000000;1.832297
9587.000000;1.829090
9586.000000;1.827756
9585.000000;1.827956
9584.000000;1.828009
9583.000000;1.828043
9582.000000;1.829261
9581.000000;1.831099
9580.000000;1.831280
9579.000000;1.828788
9578.000000;1.825316
9577.000000;1.823423
9576.000000;1.824233
9575.000000;1.826830
9574.000000;1.829017
9573.000000;1.828794
9572.000000;1.825807
9571.000000;1.821564
9570.000000;1.818088
9569.000000;1.816756
9568.000000;1.818270
9567.000000;1.822224
9566.000000;1.826018
9565.000000;1.825994
9564.000000;1.821624
9563.000000;1.817119
9562.000000;1.816417
9561.000000;1.818108
9560.000000;1.818057
9559.000000;1.815986
9558.000000;1.815769
9557.000000;1.819134
9556.000000;1.822544
9555.000000;1.821867
9554.000000;1.817993
9553.000000;1.815060
9552.000000;1.814987
9551.000000;1.816671
9550.000000;1.819280
9549.000000;1.823182
9548.000000;1.827426
9547.000000;1.829148
9546.000000;1.826796
9545.000000;1.822240
9544.000000;1.818678
9543.000000;1.817642
9542.000000;1.818387
9541.000000;1.819510
9540.000000;1.820378
9539.000000;1.820193
9538.000000;1.817290
9537.000000;1.811284
9536.000000;1.804400
9535.000000;1.800010
9534.000000;1.800368
9533.000000;1.804657
9532.000000;1.808888
9531.000000;1.809137
9530.000000;1.805797
9529.000000;1.803093
9528.000000;1.804040
9527.000000;1.807350
9526.000000;1.809276
9525.000000;1.808142
9524.000000;1.806194
9523.000000;1.806441
9522.000000;1.808783
9521.000000;1.809863
9520.000000;1.806423
9519.000000;1.799053
9518.000000;1.792526
9517.000000;1.791710
9516.000000;1.797155
9515.000000;1.804737
9514.000000;1.809517
9513.000000;1.809917
9512.000000;1.808161
9511.000000;1.806998
9510.000000;1.807152
9509.000000;1.808108
9508.000000;1.809475
9507.000000;1.810731
9506.000000;1.810831
9505.000000;1.809130
9504.000000;1.806385
9503.000000;1.804134
9502.000000;1.803509
9501.000000;1.804942
9500.000000;1.808176
9499.000000;1.812082
9498.000000;1.815078
9497.000000;1.816280
9496.000000;1.815755
9495.000000;1.813542
9494.000000;1.809628
9493.000000;1.805251
9492.000000;1.803072
9491.000000;1.804480
9490.000000;1.807002
9489.000000;1.806326
9488.000000;1.801330
9487.000000;1.795381
9486.000000;1.792122
9485.000000;1.791510
9484.000000;1.790693
9483.000000;1.788307
9482.000000;1.786442
9481.000000;1.787492
9480.000000;1.790379
9479.000000;1.791445
9478.000000;1.789326
9477.000000;1.787334
9476.000000;1.789646
9475.000000;1.796269
9474.000000;1.803013
9473.000000;1.806150
9472.000000;1.805672
9471.000000;1.803498
9470.000000;1.800391
9469.000000;1.796179
9468.000000;1.792134
9467.000000;1.791167
9466.000000;1.795031
9465.000000;1.801761
9464.000000;1.806247
9463.000000;1.804515
9462.000000;1.798061
9461.000000;1.792436
9460.000000;1.791340
9459.000000;1.793145
9458.000000;1.793377
9457.000000;1.790456
9456.000000;1.787615
9455.000000;1.788430
9454.000000;1.792578
9453.000000;1.797295
9452.000000;1.801389
9451.000000;1.805413
9450.000000;1.808482
9449.000000;1.808007
9448.000000;1.803539
9447.000000;1.798105
9446.000000;1.794338
9445.000000;1.791670
9444.000000;1.788378
9443.000000;1.784551
9442.000000;1.781642
9441.000000;1.780078
9440.000000;1.779060
9439.000000;1.778590
9438.000000;1.780219
9437.000000;1.785118
9436.000000;1.791881
9435.000000;1.796944
9434.000000;1.797745
9433.000000;1.795624
9432.000000;1.794948
9431.000000;1.798777
9430.000000;1.805629
9429.000000;1.810891
9428.000000;1.810927
9427.000000;1.805115
9426.000000;1.794969
9425.000000;1.783423
9424.000000;1.774680
9423.000000;1.772428
9422.000000;1.776908
9421.000000;1.783942
9420.000000;1.787801
9419.000000;1.785683
9418.000000;1.779174
9417.000000;1.771922
9416.000000;1.766690
9415.000000;1.763959
9414.000000;1.762711
9413.000000;1.762674
9412.000000;1.765305
9411.000000;1.771612
9410.000000;1.779320
9409.000000;1.783880
9408.000000;1.783366
9407.000000;1.780881
9406.000000;1.780716
9405.000000;1.783752
9404.000000;1.787612
9403.000000;1.789682
9402.000000;1.788751
9401.000000;1.785076
9400.000000;1.780383
9399.000000;1.777142
9398.000000;1.776531
9397.000000;1.777114
9396.000000;1.776248
9395.000000;1.772834
9394.000000;1.768164
9393.000000;1.764502
9392.000000;1.763624
9391.000000;1.765859
9390.000000;1.769440
9389.000000;1.771459
9388.000000;1.770703
9387.000000;1.769101
9386.000000;1.769427
9385.000000;1.772223
9384.000000;1.775878
9383.000000;1.778877
9382.000000;1.780612
9381.000000;1.780532
9380.000000;1.778188
9379.000000;1.774376
9378.000000;1.770883
9377.000000;1.768468
9376.000000;1.766246
9375.000000;1.763583
9374.000000;1.761308
9373.000000;1.760555
9372.000000;1.761400
9371.000000;1.762912
9370.000000;1.763753
9369.000000;1.762738
9368.000000;1.759865
9367.000000;1.756994
9366.000000;1.756573
9365.000000;1.759419
9364.000000;1.764180
9363.000000;1.768667
9362.000000;1.771006
9361.000000;1.769676
9360.000000;1.764530
9359.000000;1.758740
9358.000000;1.757361
9357.000000;1.762410
9356.000000;1.769937
9355.000000;1.773093
9354.000000;1.769090
9353.000000;1.761975
9352.000000;1.757766
9351.000000;1.758764
9350.000000;1.762893
9349.000000;1.766844
9348.000000;1.768759
9347.000000;1.768237
9346.000000;1.765444
9345.000000;1.761462
9344.000000;1.758715
9343.000000;1.759383
9342.000000;1.763069
9341.000000;1.766914
9340.000000;1.768664
9339.000000;1.768994
9338.000000;1.770004
9337.000000;1.772388
9336.000000;1.775114
9335.000000;1.776927
9334.000000;1.776764
9333.000000;1.773360
9332.000000;1.766414
9331.000000;1.758318
9330.000000;1.752769
9329.000000;1.751191
9328.000000;1.751823
9327.000000;1.752469
9326.000000;1.752889
9325.000000;1.753975
9324.000000;1.755895
9323.000000;1.758019
9322.000000;1.759817
9321.000000;1.761025
9320.000000;1.761606
9319.000000;1.762176
9318.000000;1.763650
9317.000000;1.765543
9316.000000;1.765486
9315.000000;1.761970
9314.000000;1.756989
9313.000000;1.754306
9312.000000;1.755289
9311.000000;1.757501
9310.000000;1.757306
9309.000000;1.753304
9308.000000;1.747397
9307.000000;1.743281
9306.000000;1.743962
9305.000000;1.749303
9304.000000;1.755486
9303.000000;1.758551
9302.000000;1.758677
9301.000000;1.759138
9300.000000;1.761402
9299.000000;1.763276
9298.000000;1.762049
9297.000000;1.757765
9296.000000;1.752832
9295.000000;1.749736
9294.000000;1.749755
9293.000000;1.752668
9292.000000;1.755943
9291.000000;1.755332
9290.000000;1.749138
9289.000000;1.741243
9288.000000;1.737649
9287.000000;1.740682
9286.000000;1.747573
9285.000000;1.753950
9284.000000;1.757523
9283.000000;1.758053
9282.000000;1.755502
9281.000000;1.750170
9280.000000;1.744010
9279.000000;1.739759
9278.000000;1.738357
9277.000000;1.738325
9276.000000;1.738214
9275.000000;1.738849
9274.000000;1.742028
9273.000000;1.747151
9272.000000;1.750475
9271.000000;1.748944
9270.000000;1.744298
9269.000000;1.741567
9268.000000;1.743611
9267.000000;1.748451
9266.000000;1.751912
9265.000000;1.752149
9264.000000;1.750896
9263.000000;1.750515
9262.000000;1.751202
9261.000000;1.751373
9260.000000;1.749801
9259.000000;1.747029
9258.000000;1.745205
9257.000000;1.746579
9256.000000;1.751585
9255.000000;1.758049
9254.000000;1.762375
9253.000000;1.761970
9252.000000;1.756841
9251.000000;1.749153
9250.000000;1.741732
9249.000000;1.736712
9248.000000;1.734672
9247.000000;1.734751
9246.000000;1.735839
9245.000000;1.737578
9244.000000;1.739899
9243.000000;1.742122
9242.000000;1.743443
9241.000000;1.744168
9240.000000;1.745517
9239.000000;1.748014
9238.000000;1.750892
9237.000000;1.753235
9236.000000;1.754834
9235.000000;1.755508
9234.000000;1.754547
9233.000000;1.751647
9232.000000;1.747749
9231.000000;1.744188
9230.000000;1.741446
9229.000000;1.739389
9228.000000;1.738179
9227.000000;1.738083
9226.000000;1.738681
9225.000000;1.739167
9224.000000;1.739417
9223.000000;1.739992
9222.000000;1.741068
9221.000000;1.742212
9220.000000;1.743370
9219.000000;1.745187
9218.000000;1.747921
9217.000000;1.750612
9216.000000;1.751884
9215.000000;1.751334
9214.000000;1.749683
9213.000000;1.747796
9212.000000;1.746002
9211.000000;1.744228
9210.000000;1.742259
9209.000000;1.739737
9208.000000;1.736323
9207.000000;1.732378
9206.000000;1.729434
9205.000000;1.729297
9204.000000;1.732262
9203.000000;1.736417
9202.000000;1.739054
9201.000000;1.738811
9200.000000;1.736202
9199.000000;1.732535
9198.000000;1.729419
9197.000000;1.728844
9196.000000;1.731804
9195.000000;1.736340
9194.000000;1.738428
9193.000000;1.735937
9192.000000;1.730767
9191.000000;1.726217
9190.000000;1.723672
9189.000000;1.722848
9188.000000;1.723636
9187.000000;1.725776
9186.000000;1.727557
9185.000000;1.727188
9184.000000;1.725734
9183.000000;1.726688
9182.000000;1.731780
9181.000000;1.738447
9180.000000;1.742231
9179.000000;1.741074
9178.000000;1.736404
9177.000000;1.731023
9176.000000;1.727455
9175.000000;1.727387
9174.000000;1.730660
9173.000000;1.734584
9172.000000;1.735699
9171.000000;1.733094
9170.000000;1.729331
9169.000000;1.727634
9168.000000;1.728895
9167.000000;1.731603
9166.000000;1.733917
9165.000000;1.735211
9164.000000;1.735780
9163.000000;1.735870
9162.000000;1.735490
9161.000000;1.734691
9160.000000;1.733433
9159.000000;1.731679
9158.000000;1.730251
9157.000000;1.730886
9156.000000;1.734282
9155.000000;1.737910
9154.000000;1.737143
9153.000000;1.730119
9152.000000;1.720564
9151.000000;1.714117
9150.000000;1.712680
9149.000000;1.713501
9148.000000;1.713268
9147.000000;1.711893
9146.000000;1.711618
9145.000000;1.713621
9144.000000;1.716721
9143.000000;1.718915
9142.000000;1.719311
9141.000000;1.718632
9140.000000;1.718168
9139.000000;1.718404
9138.000000;1.718822
9137.000000;1.718977
9136.000000;1.719219
9135.000000;1.720026
9134.000000;1.721090
9133.000000;1.721675
9132.000000;1.721608
9131.000000;1.721235
9130.000000;1.720713
9129.000000;1.720258
9128.000000;1.720781
9127.000000;1.723057
9126.000000;1.726016
9125.000000;1.726876
9124.000000;1.723967
9123.000000;1.718920
9122.000000;1.715127
9121.000000;1.714615
9120.000000;1.716915
9119.000000;1.720059
9118.000000;1.722188
9117.000000;1.723014
9116.000000;1.723685
9115.000000;1.724533
9114.000000;1.723839
9113.000000;1.720228
9112.000000;1.715732
9111.000000;1.714209
9110.000000;1.716337
9109.000000;1.718185
9108.000000;1.716163
9107.000000;1.711890
9106.000000;1.709802
9105.000000;1.711411
9104.000000;1.714312
9103.000000;1.716049
9102.000000;1.716649
9101.000000;1.717085
9100.000000;1.717558
9099.000000;1.717989
9098.000000;1.718424
9097.000000;1.718262
9096.000000;1.716568
9095.000000;1.713907
9094.000000;1.712501
9093.000000;1.713701
9092.000000;1.716379
9091.000000;1.718504
9090.000000;1.719213
9089.000000;1.718498
9088.000000;1.716223
9087.000000;1.712876
9086.000000;1.710354
9085.000000;1.710374
9084.000000;1.712442
9083.000000;1.714439
9082.000000;1.714914
9081.000000;1.713823
9080.000000;1.711540
9079.000000;1.708447
9078.000000;1.705470
9077.000000;1.704009
9076.000000;1.704795
9075.000000;1.707286
9074.000000;1.710406
9073.000000;1.713226
9072.000000;1.714945
9071.000000;1.715228
9070.000000;1.714929
9069.000000;1.715537
9068.000000;1.717172
9067.000000;1.717871
9066.000000;1.715874
9065.000000;1.712093
9064.000000;1.709268
9063.000000;1.709079
9062.000000;1.710809
9061.000000;1.712442
9060.000000;1.712371
9059.000000;1.710219
9058.000000;1.706815
9057.000000;1.703578
9056.000000;1.701624
9055.000000;1.701464
9054.000000;1.703472
9053.000000;1.707914
