Criado como novo conjunto de dados;"e0108.spp","-4262023.8 Secs"
cm-1;Abs
10000.000000;1.044867
9999.000000;1.047109
9998.000000;1.049314
9997.000000;1.050159
9996.000000;1.048992
9995.000000;1.046498
9994.000000;1.043846
9993.000000;1.041846
9992.000000;1.040565
9991.000000;1.039803
9990.000000;1.039455
9989.000000;1.039526
9988.000000;1.039853
9987.000000;1.040116
9986.000000;1.040242
9985.000000;1.040547
9984.000000;1.041194
9983.000000;1.041640
9982.000000;1.040992
9981.000000;1.038951
9980.000000;1.036177
9979.000000;1.033706
9978.000000;1.032349
9977.000000;1.032567
9976.000000;1.034323
9975.000000;1.036720
9974.000000;1.038284
9973.000000;1.038115
9972.000000;1.036583
9971.000000;1.034648
9970.000000;1.032877
9969.000000;1.031468
9968.000000;1.030777
9967.000000;1.031128
9966.000000;1.032211
9965.000000;1.033218
9964.000000;1.033598
9963.000000;1.033357
9962.000000;1.032687
9961.000000;1.031725
9960.000000;1.030658
9959.000000;1.029701
9958.000000;1.028951
9957.000000;1.028546
9956.000000;1.028857
9955.000000;1.030126
9954.000000;1.031868
9953.000000;1.033098
9952.000000;1.033253
9951.000000;1.032585
9950.000000;1.031649
9949.000000;1.030728
9948.000000;1.029779
9947.000000;1.028593
9946.000000;1.026982
9945.000000;1.025147
9944.000000;1.023821
9943.000000;1.023655
9942.000000;1.024382
9941.000000;1.024929
9940.000000;1.024466
9939.000000;1.023160
9938.000000;1.021878
9937.000000;1.021452
9936.000000;1.022204
9935.000000;1.023684
9934.000000;1.024810
9933.000000;1.024640
9932.000000;1.023241
9931.000000;1.021572
9930.000000;1.020460
9929.000000;1.019972
9928.000000;1.019776
9927.000000;1.019630
9926.000000;1.019389
9925.000000;1.018967
9924.000000;1.018554
9923.000000;1.018503
9922.000000;1.018807
9921.000000;1.018994
9920.000000;1.018745
9919.000000;1.018255
9918.000000;1.017788
9917.000000;1.017266
9916.000000;1.016620
9915.000000;1.016100
9914.000000;1.015825
9913.000000;1.015366
9912.000000;1.014261
9911.000000;1.012734
9910.000000;1.011452
9909.000000;1.010724
9908.000000;1.010390
9907.000000;1.010365
9906.000000;1.010753
9905.000000;1.011353
9904.000000;1.011542
9903.000000;1.010870
9902.000000;1.009530
9901.000000;1.008114
9900.000000;1.007148
9899.000000;1.006931
9898.000000;1.007454
9897.000000;1.008274
9896.000000;1.008722
9895.000000;1.008539
9894.000000;1.008184
9893.000000;1.008283
9892.000000;1.008844
9891.000000;1.009241
9890.000000;1.009008
9889.000000;1.008433
9888.000000;1.008218
9887.000000;1.008623
9886.000000;1.009079
9885.000000;1.008637
9884.000000;1.006826
9883.000000;1.004104
9882.000000;1.001556
9881.000000;1.000234
9880.000000;1.000528
9879.000000;1.001850
9878.000000;1.003029
9877.000000;1.003293
9876.000000;1.002998
9875.000000;1.003176
9874.000000;1.004209
9873.000000;1.005134
9872.000000;1.004606
9871.000000;1.002524
9870.000000;1.000251
9869.000000;0.999050
9868.000000;0.998788
9867.000000;0.998545
9866.000000;0.998203
9865.000000;0.998657
9864.000000;1.000268
9863.000000;1.001783
9862.000000;1.001519
9861.000000;0.999406
9860.000000;0.997101
9859.000000;0.996045
9858.000000;0.996112
9857.000000;0.996315
9856.000000;0.996163
9855.000000;0.995800
9854.000000;0.995262
9853.000000;0.994363
9852.000000;0.993307
9851.000000;0.992775
9850.000000;0.993204
9849.000000;0.994249
9848.000000;0.995106
9847.000000;0.995223
9846.000000;0.994676
9845.000000;0.994026
9844.000000;0.993789
9843.000000;0.993842
9842.000000;0.993425
9841.000000;0.992003
9840.000000;0.990015
9839.000000;0.988506
9838.000000;0.988069
9837.000000;0.988511
9836.000000;0.989515
9835.000000;0.990999
9834.000000;0.992507
9833.000000;0.992880
9832.000000;0.991199
9831.000000;0.988013
9830.000000;0.985090
9829.000000;0.983812
9828.000000;0.984097
9827.000000;0.984881
9826.000000;0.985286
9825.000000;0.985134
9824.000000;0.984574
9823.000000;0.983694
9822.000000;0.982649
9821.000000;0.981905
9820.000000;0.981933
9819.000000;0.982562
9818.000000;0.982925
9817.000000;0.982339
9816.000000;0.981109
9815.000000;0.980189
9814.000000;0.980151
9813.000000;0.980755
9812.000000;0.981446
9811.000000;0.981879
9810.000000;0.981948
9809.000000;0.981701
9808.000000;0.981437
9807.000000;0.981578
9806.000000;0.982209
9805.000000;0.982899
9804.000000;0.983076
9803.000000;0.982415
9802.000000;0.980878
9801.000000;0.978759
9800.000000;0.976829
9799.000000;0.976009
9798.000000;0.976507
9797.000000;0.977514
9796.000000;0.978118
9795.000000;0.978338
9794.000000;0.978731
9793.000000;0.979147
9792.000000;0.978607
9791.000000;0.976636
9790.000000;0.974162
9789.000000;0.972665
9788.000000;0.972712
9787.000000;0.973594
9786.000000;0.974245
9785.000000;0.974170
9784.000000;0.973593
9783.000000;0.973050
9782.000000;0.972875
9781.000000;0.972880
9780.000000;0.972494
9779.000000;0.971446
9778.000000;0.970289
9777.000000;0.969937
9776.000000;0.970582
9775.000000;0.971347
9774.000000;0.971249
9773.000000;0.970281
9772.000000;0.969212
9771.000000;0.968543
9770.000000;0.968138
9769.000000;0.967828
9768.000000;0.967798
9767.000000;0.968082
9766.000000;0.968136
9765.000000;0.967408
9764.000000;0.966227
9763.000000;0.965627
9762.000000;0.966213
9761.000000;0.967460
9760.000000;0.968213
9759.000000;0.967765
9758.000000;0.966435
9757.000000;0.965214
9756.000000;0.964882
9755.000000;0.965339
9754.000000;0.965746
9753.000000;0.965378
9752.000000;0.964298
9751.000000;0.963182
9750.000000;0.962570
9749.000000;0.962416
9748.000000;0.962274
9747.000000;0.961715
9746.000000;0.960580
9745.000000;0.959092
9744.000000;0.957842
9743.000000;0.957496
9742.000000;0.958316
9741.000000;0.959924
9740.000000;0.961561
9739.000000;0.962584
9738.000000;0.962756
9737.000000;0.962193
9736.000000;0.961172
9735.000000;0.959953
9734.000000;0.958726
9733.000000;0.957629
9732.000000;0.956772
9731.000000;0.956231
9730.000000;0.956073
9729.000000;0.956335
9728.000000;0.956856
9727.000000;0.957148
9726.000000;0.956720
9725.000000;0.955663
9724.000000;0.954671
9723.000000;0.954265
9722.000000;0.954190
9721.000000;0.953836
9720.000000;0.953122
9719.000000;0.952614
9718.000000;0.952802
9717.000000;0.953579
9716.000000;0.954447
9715.000000;0.954955
9714.000000;0.954852
9713.000000;0.954120
9712.000000;0.953028
9711.000000;0.951992
9710.000000;0.951199
9709.000000;0.950453
9708.000000;0.949466
9707.000000;0.948233
9706.000000;0.947125
9705.000000;0.946639
9704.000000;0.946973
9703.000000;0.947774
9702.000000;0.948422
9701.000000;0.948697
9700.000000;0.948994
9699.000000;0.949678
9698.000000;0.950467
9697.000000;0.950798
9696.000000;0.950621
9695.000000;0.950370
9694.000000;0.950179
9693.000000;0.949654
9692.000000;0.948532
9691.000000;0.947105
9690.000000;0.945846
9689.000000;0.945005
9688.000000;0.944675
9687.000000;0.944811
9686.000000;0.944937
9685.000000;0.944331
9684.000000;0.942924
9683.000000;0.941697
9682.000000;0.941726
9681.000000;0.942996
9680.000000;0.944471
9679.000000;0.945168
9678.000000;0.944842
9677.000000;0.943737
9676.000000;0.942154
9675.000000;0.940390
9674.000000;0.938816
9673.000000;0.937809
9672.000000;0.937640
9671.000000;0.938347
9670.000000;0.939565
9669.000000;0.940588
9668.000000;0.940858
9667.000000;0.940446
9666.000000;0.939939
9665.000000;0.939831
9664.000000;0.940078
9663.000000;0.940187
9662.000000;0.939691
9661.000000;0.938612
9660.000000;0.937486
9659.000000;0.936848
9658.000000;0.936673
9657.000000;0.936509
9656.000000;0.936147
9655.000000;0.935855
9654.000000;0.935843
9653.000000;0.935871
9652.000000;0.935674
9651.000000;0.935437
9650.000000;0.935493
9649.000000;0.935714
9648.000000;0.935592
9647.000000;0.934826
9646.000000;0.933554
9645.000000;0.932116
9644.000000;0.930974
9643.000000;0.930686
9642.000000;0.931502
9641.000000;0.932889
9640.000000;0.933870
9639.000000;0.934043
9638.000000;0.933925
9637.000000;0.934156
9636.000000;0.934675
9635.000000;0.934892
9634.000000;0.934400
9633.000000;0.933198
9632.000000;0.931417
9631.000000;0.929237
9630.000000;0.927090
9629.000000;0.925615
9628.000000;0.925205
9627.000000;0.925655
9626.000000;0.926352
9625.000000;0.926817
9624.000000;0.926984
9623.000000;0.926988
9622.000000;0.926854
9621.000000;0.926554
9620.000000;0.926273
9619.000000;0.926370
9618.000000;0.926962
9617.000000;0.927692
9616.000000;0.928039
9615.000000;0.927789
9614.000000;0.927104
9613.000000;0.926235
9612.000000;0.925297
9611.000000;0.924317
9610.000000;0.923355
9609.000000;0.922553
9608.000000;0.922125
9607.000000;0.922191
9606.000000;0.922554
9605.000000;0.922717
9604.000000;0.922304
9603.000000;0.921469
9602.000000;0.920765
9601.000000;0.920596
9600.000000;0.920856
9599.000000;0.921113
9598.000000;0.921038
9597.000000;0.920665
9596.000000;0.920267
9595.000000;0.920004
9594.000000;0.919711
9593.000000;0.919114
9592.000000;0.918226
9591.000000;0.917354
9590.000000;0.916646
9589.000000;0.915893
9588.000000;0.914985
9587.000000;0.914350
9586.000000;0.914596
9585.000000;0.915721
9584.000000;0.916946
9583.000000;0.917428
9582.000000;0.917020
9581.000000;0.916292
9580.000000;0.915953
9579.000000;0.916289
9578.000000;0.916972
9577.000000;0.917297
9576.000000;0.916701
9575.000000;0.915197
9574.000000;0.913339
9573.000000;0.911782
9572.000000;0.910861
9571.000000;0.910447
9570.000000;0.910138
9569.000000;0.909677
9568.000000;0.909313
9567.000000;0.909588
9566.000000;0.910617
9565.000000;0.911707
9564.000000;0.911956
9563.000000;0.911234
9562.000000;0.910266
9561.000000;0.909757
9560.000000;0.909731
9559.000000;0.909761
9558.000000;0.909573
9557.000000;0.909257
9556.000000;0.909068
9555.000000;0.909191
9554.000000;0.909528
9553.000000;0.909674
9552.000000;0.909292
9551.000000;0.908601
9550.000000;0.908238
9549.000000;0.908487
9548.000000;0.908836
9547.000000;0.908496
9546.000000;0.907229
9545.000000;0.905468
9544.000000;0.903839
9543.000000;0.902833
9542.000000;0.902775
9541.000000;0.903618
9540.000000;0.904652
9539.000000;0.904837
9538.000000;0.903800
9537.000000;0.902405
9536.000000;0.901976
9535.000000;0.902883
9534.000000;0.904068
9533.000000;0.904130
9532.000000;0.902823
9531.000000;0.901295
9530.000000;0.900783
9529.000000;0.901347
9528.000000;0.902048
9527.000000;0.902168
9526.000000;0.901956
9525.000000;0.902092
9524.000000;0.902729
9523.000000;0.903296
9522.000000;0.903098
9521.000000;0.901926
9520.000000;0.900147
9519.000000;0.898439
9518.000000;0.897408
9517.000000;0.897281
9516.000000;0.897873
9515.000000;0.898812
9514.000000;0.899738
9513.000000;0.900368
9512.000000;0.900538
9511.000000;0.900324
9510.000000;0.900052
9509.000000;0.900043
9508.000000;0.900257
9507.000000;0.900236
9506.000000;0.899496
9505.000000;0.898064
9504.000000;0.896623
9503.000000;0.896012
9502.000000;0.896422
9501.000000;0.897107
9500.000000;0.897066
9499.000000;0.896048
9498.000000;0.894719
9497.000000;0.893830
9496.000000;0.893503
9495.000000;0.893404
9494.000000;0.893309
9493.000000;0.893217
9492.000000;0.893099
9491.000000;0.892905
9490.000000;0.892736
9489.000000;0.892664
9488.000000;0.892419
9487.000000;0.891660
9486.000000;0.890626
9485.000000;0.890111
9484.000000;0.890575
9483.000000;0.891531
9482.000000;0.892070
9481.000000;0.891824
9480.000000;0.891147
9479.000000;0.890495
9478.000000;0.889979
9477.000000;0.889501
9476.000000;0.889034
9475.000000;0.888652
9474.000000;0.888444
9473.000000;0.888441
9472.000000;0.888507
9471.000000;0.888323
9470.000000;0.887719
9469.000000;0.887088
9468.000000;0.887227
9467.000000;0.888527
9466.000000;0.890382
9465.000000;0.891585
9464.000000;0.891362
9463.000000;0.889941
9462.000000;0.888177
9461.000000;0.886808
9460.000000;0.886110
9459.000000;0.886008
9458.000000;0.886259
9457.000000;0.886519
9456.000000;0.886429
9455.000000;0.885825
9454.000000;0.884895
9453.000000;0.884053
9452.000000;0.883628
9451.000000;0.883678
9450.000000;0.884097
9449.000000;0.884833
9448.000000;0.885900
9447.000000;0.887150
9446.000000;0.888118
9445.000000;0.888273
9444.000000;0.887500
9443.000000;0.886283
9442.000000;0.885291
9441.000000;0.884750
9440.000000;0.884284
9439.000000;0.883392
9438.000000;0.882040
9437.000000;0.880727
9436.000000;0.880015
9435.000000;0.880064
9434.000000;0.880554
9433.000000;0.880911
9432.000000;0.880642
9431.000000;0.879647
9430.000000;0.878320
9429.000000;0.877262
9428.000000;0.876856
9427.000000;0.877117
9426.000000;0.877884
9425.000000;0.878958
9424.000000;0.880031
9423.000000;0.880720
9422.000000;0.880868
9421.000000;0.880692
9420.000000;0.880494
9419.000000;0.880348
9418.000000;0.880215
9417.000000;0.880145
9416.000000;0.880058
9415.000000;0.879497
9414.000000;0.878056
9413.000000;0.876067
9412.000000;0.874431
9411.000000;0.873612
9410.000000;0.873183
9409.000000;0.872599
9408.000000;0.872079
9407.000000;0.872289
9406.000000;0.873315
9405.000000;0.874419
9404.000000;0.874844
9403.000000;0.874515
9402.000000;0.873832
9401.000000;0.873110
9400.000000;0.872437
9399.000000;0.871879
9398.000000;0.871592
9397.000000;0.871735
9396.000000;0.872366
9395.000000;0.873327
9394.000000;0.874212
9393.000000;0.874565
9392.000000;0.874248
9391.000000;0.873541
9390.000000;0.872815
9389.000000;0.872188
9388.000000;0.871611
9387.000000;0.871165
9386.000000;0.871097
9385.000000;0.871478
9384.000000;0.871949
9383.000000;0.871998
9382.000000;0.871545
9381.000000;0.871122
9380.000000;0.871286
9379.000000;0.871871
9378.000000;0.872066
9377.000000;0.871374
9376.000000;0.870268
9375.000000;0.869654
9374.000000;0.869838
9373.000000;0.870350
9372.000000;0.870700
9371.000000;0.870896
9370.000000;0.871089
9369.000000;0.871132
9368.000000;0.870780
9367.000000;0.870043
9366.000000;0.868995
9365.000000;0.867490
9364.000000;0.865506
9363.000000;0.863675
9362.000000;0.862940
9361.000000;0.863513
9360.000000;0.864501
9359.000000;0.864779
9358.000000;0.864045
9357.000000;0.862849
9356.000000;0.861856
9355.000000;0.861414
9354.000000;0.861651
9353.000000;0.862565
9352.000000;0.863889
9351.000000;0.865062
9350.000000;0.865490
9349.000000;0.864900
9348.000000;0.863523
9347.000000;0.862055
9346.000000;0.861311
9345.000000;0.861640
9344.000000;0.862535
9343.000000;0.862974
9342.000000;0.862306
9341.000000;0.860802
9340.000000;0.859301
9339.000000;0.858449
9338.000000;0.858314
9337.000000;0.858574
9336.000000;0.858861
9335.000000;0.858997
9334.000000;0.859129
9333.000000;0.859650
9332.000000;0.860815
9331.000000;0.862332
9330.000000;0.863484
9329.000000;0.863756
9328.000000;0.863238
9327.000000;0.862306
9326.000000;0.861104
9325.000000;0.859606
9324.000000;0.858111
9323.000000;0.857284
9322.000000;0.857484
9321.000000;0.858198
9320.000000;0.858451
9319.000000;0.857820
9318.000000;0.856876
9317.000000;0.856511
9316.000000;0.856994
9315.000000;0.857802
9314.000000;0.858226
9313.000000;0.857946
9312.000000;0.857067
9311.000000;0.855904
9310.000000;0.854881
9309.000000;0.854434
9308.000000;0.854736
9307.000000;0.855497
9306.000000;0.856162
9305.000000;0.856341
9304.000000;0.855981
9303.000000;0.855246
9302.000000;0.854405
9301.000000;0.853810
9300.000000;0.853713
9299.000000;0.853990
9298.000000;0.854172
9297.000000;0.853902
9296.000000;0.853302
9295.000000;0.852819
9294.000000;0.852816
9293.000000;0.853351
9292.000000;0.854234
9291.000000;0.855133
9290.000000;0.855709
9289.000000;0.855792
9288.000000;0.855454
9287.000000;0.854867
9286.000000;0.854151
9285.000000;0.853413
9284.000000;0.852835
9283.000000;0.852587
9282.000000;0.852656
9281.000000;0.852800
9280.000000;0.852675
9279.000000;0.852025
9278.000000;0.850924
9277.000000;0.849891
9276.000000;0.849555
9275.000000;0.850027
9274.000000;0.850728
9273.000000;0.851008
9272.000000;0.850818
9271.000000;0.850562
9270.000000;0.850451
9269.000000;0.850354
9268.000000;0.850223
9267.000000;0.850242
9266.000000;0.850408
9265.000000;0.850327
9264.000000;0.849669
9263.000000;0.848664
9262.000000;0.847900
9261.000000;0.847690
9260.000000;0.847819
9259.000000;0.847819
9258.000000;0.847404
9257.000000;0.846689
9256.000000;0.846109
9255.000000;0.846073
9254.000000;0.846570
9253.000000;0.847169
9252.000000;0.847466
9251.000000;0.847473
9250.000000;0.847452
9249.000000;0.847467
9248.000000;0.847262
9247.000000;0.846594
9246.000000;0.845587
9245.000000;0.844719
9244.000000;0.844464
9243.000000;0.844892
9242.000000;0.845626
9241.000000;0.846186
9240.000000;0.846373
9239.000000;0.846296
9238.000000;0.846113
9237.000000;0.845906
9236.000000;0.845746
9235.000000;0.845652
9234.000000;0.845483
9233.000000;0.845113
9232.000000;0.844763
9231.000000;0.844827
9230.000000;0.845254
9229.000000;0.845413
9228.000000;0.844875
9227.000000;0.844046
9226.000000;0.843652
9225.000000;0.843786
9224.000000;0.843912
9223.000000;0.843746
9222.000000;0.843595
9221.000000;0.843708
9220.000000;0.843766
9219.000000;0.843341
9218.000000;0.842581
9217.000000;0.842108
9216.000000;0.842288
9215.000000;0.842860
9214.000000;0.843272
9213.000000;0.843210
9212.000000;0.842783
9211.000000;0.842314
9210.000000;0.842055
9209.000000;0.842085
9208.000000;0.842405
9207.000000;0.842996
9206.000000;0.843694
9205.000000;0.844103
9204.000000;0.843851
9203.000000;0.842998
9202.000000;0.842053
9201.000000;0.841448
9200.000000;0.841119
9199.000000;0.840706
9198.000000;0.840084
9197.000000;0.839526
9196.000000;0.839352
9195.000000;0.839564
9194.000000;0.839936
9193.000000;0.840356
9192.000000;0.840860
9191.000000;0.841321
9190.000000;0.841325
9189.000000;0.840582
9188.000000;0.839414
9187.000000;0.838535
9186.000000;0.838257
9185.000000;0.838123
9184.000000;0.837515
9183.000000;0.836499
9182.000000;0.835762
9181.000000;0.835773
9180.000000;0.836312
9179.000000;0.836853
9178.000000;0.837129
9177.000000;0.837192
9176.000000;0.837154
9175.000000;0.837041
9174.000000;0.836844
9173.000000;0.836532
9172.000000;0.836076
9171.000000;0.835509
9170.000000;0.834915
9169.000000;0.834337
9168.000000;0.833805
9167.000000;0.833478
9166.000000;0.833571
9165.000000;0.834064
9164.000000;0.834590
9163.000000;0.834779
9162.000000;0.834607
9161.000000;0.834337
9160.000000;0.834187
9159.000000;0.834166
9158.000000;0.834157
9157.000000;0.834047
9156.000000;0.833830
9155.000000;0.833660
9154.000000;0.833727
9153.000000;0.834043
9152.000000;0.834446
9151.000000;0.834885
9150.000000;0.835526
9149.000000;0.836402
9148.000000;0.837108
9147.000000;0.837078
9146.000000;0.836181
9145.000000;0.834881
9144.000000;0.833826
9143.000000;0.833355
9142.000000;0.833297
9141.000000;0.833109
9140.000000;0.832349
9139.000000;0.831213
9138.000000;0.830471
9137.000000;0.830636
9136.000000;0.831310
9135.000000;0.831676
9134.000000;0.831575
9133.000000;0.831651
9132.000000;0.832362
9131.000000;0.833302
9130.000000;0.833739
9129.000000;0.833485
9128.000000;0.832905
9127.000000;0.832334
9126.000000;0.831887
9125.000000;0.831685
9124.000000;0.831812
9123.000000;0.832010
9122.000000;0.831806
9121.000000;0.831105
9120.000000;0.830379
9119.000000;0.830115
9118.000000;0.830266
9117.000000;0.830408
9116.000000;0.830245
9115.000000;0.829770
9114.000000;0.829051
9113.000000;0.828128
9112.000000;0.827148
9111.000000;0.826384
9110.000000;0.826025
9109.000000;0.826045
9108.000000;0.826321
9107.000000;0.826764
9106.000000;0.827273
9105.000000;0.827636
9104.000000;0.827673
9103.000000;0.827512
9102.000000;0.827597
9101.000000;0.828260
9100.000000;0.829291
9099.000000;0.830050
9098.000000;0.830050
9097.000000;0.829412
9096.000000;0.828732
9095.000000;0.828564
9094.000000;0.829018
9093.000000;0.829711
9092.000000;0.829973
9091.000000;0.829208
9090.000000;0.827347
9089.000000;0.825060
9088.000000;0.823411
9087.000000;0.823127
9086.000000;0.824118
9085.000000;0.825638
9084.000000;0.826852
9083.000000;0.827274
9082.000000;0.826896
9081.000000;0.826126
9080.000000;0.825576
9079.000000;0.825630
9078.000000;0.826063
9077.000000;0.826195
9076.000000;0.825553
9075.000000;0.824328
9074.000000;0.823117
9073.000000;0.822302
9072.000000;0.821819
9071.000000;0.821464
9070.000000;0.821238
9069.000000;0.821290
9068.000000;0.821630
9067.000000;0.822053
9066.000000;0.822381
9065.000000;0.822709
9064.000000;0.823291
9063.000000;0.824149
9062.000000;0.824874
9061.000000;0.824963
9060.000000;0.824360
9059.000000;0.823556
9058.000000;0.823132
9057.000000;0.823285
9056.000000;0.823802
9055.000000;0.824331
9054.000000;0.824590
9053.000000;0.824468
