Criado como novo conjunto de dados;"e0108.spp","-4231962.0 Secs"
cm-1;Abs
10000.000000;1.742721
9999.000000;1.741722
9998.000000;1.737457
9997.000000;1.731665
9996.000000;1.728990
9995.000000;1.731693
9994.000000;1.738197
9993.000000;1.744733
9992.000000;1.749676
9991.000000;1.753136
9990.000000;1.754365
9989.000000;1.751807
9988.000000;1.746206
9987.000000;1.740609
9986.000000;1.737004
9985.000000;1.734876
9984.000000;1.733429
9983.000000;1.733330
9982.000000;1.735046
9981.000000;1.736939
9980.000000;1.736801
9979.000000;1.734809
9978.000000;1.733252
9977.000000;1.733334
9976.000000;1.733827
9975.000000;1.732946
9974.000000;1.730113
9973.000000;1.725649
9972.000000;1.720338
9971.000000;1.716043
9970.000000;1.715394
9969.000000;1.719578
9968.000000;1.726730
9967.000000;1.733435
9966.000000;1.737597
9965.000000;1.739000
9964.000000;1.738069
9963.000000;1.735880
9962.000000;1.734451
9961.000000;1.734957
9960.000000;1.736185
9959.000000;1.736256
9958.000000;1.735516
9957.000000;1.736325
9956.000000;1.739927
9955.000000;1.744936
9954.000000;1.749612
9953.000000;1.753580
9952.000000;1.755675
9951.000000;1.753122
9950.000000;1.745387
9949.000000;1.736582
9948.000000;1.731717
9947.000000;1.731474
9946.000000;1.732249
9945.000000;1.731171
9944.000000;1.729380
9943.000000;1.729750
9942.000000;1.733120
9941.000000;1.737372
9940.000000;1.739111
9939.000000;1.736404
9938.000000;1.730727
9937.000000;1.725973
9936.000000;1.725024
9935.000000;1.727274
9934.000000;1.729544
9933.000000;1.729069
9932.000000;1.725254
9931.000000;1.719432
9930.000000;1.714424
9929.000000;1.713680
9928.000000;1.718682
9927.000000;1.726489
9926.000000;1.731325
9925.000000;1.730101
9924.000000;1.725470
9923.000000;1.722115
9922.000000;1.721473
9921.000000;1.721209
9920.000000;1.718638
9919.000000;1.713474
9918.000000;1.707598
9917.000000;1.703236
9916.000000;1.701682
9915.000000;1.703090
9914.000000;1.706505
9913.000000;1.709977
9912.000000;1.711453
9911.000000;1.710672
9910.000000;1.710417
9909.000000;1.714548
9908.000000;1.723631
9907.000000;1.732986
9906.000000;1.736432
9905.000000;1.732129
9904.000000;1.723387
9903.000000;1.714350
9902.000000;1.706996
9901.000000;1.701786
9900.000000;1.698759
9899.000000;1.697112
9898.000000;1.695344
9897.000000;1.692988
9896.000000;1.691379
9895.000000;1.692024
9894.000000;1.694928
9893.000000;1.698992
9892.000000;1.703350
9891.000000;1.707231
9890.000000;1.709083
9889.000000;1.707809
9888.000000;1.704767
9887.000000;1.702807
9886.000000;1.703248
9885.000000;1.704478
9884.000000;1.703671
9883.000000;1.699733
9882.000000;1.694522
9881.000000;1.691174
9880.000000;1.691555
9879.000000;1.695311
9878.000000;1.700684
9877.000000;1.705960
9876.000000;1.709989
9875.000000;1.711669
9874.000000;1.710111
9873.000000;1.705838
9872.000000;1.701046
9871.000000;1.698064
9870.000000;1.697698
9869.000000;1.699225
9868.000000;1.701571
9867.000000;1.703893
9866.000000;1.705053
9865.000000;1.703463
9864.000000;1.698254
9863.000000;1.690577
9862.000000;1.683251
9861.000000;1.678740
9860.000000;1.677369
9859.000000;1.677639
9858.000000;1.678262
9857.000000;1.679417
9856.000000;1.681720
9855.000000;1.684711
9854.000000;1.687154
9853.000000;1.688392
9852.000000;1.688573
9851.000000;1.687933
9850.000000;1.686805
9849.000000;1.685905
9848.000000;1.685510
9847.000000;1.684672
9846.000000;1.682549
9845.000000;1.680347
9844.000000;1.680490
9843.000000;1.683449
9842.000000;1.686797
9841.000000;1.688181
9840.000000;1.687832
9839.000000;1.687212
9838.000000;1.686730
9837.000000;1.686041
9836.000000;1.685417
9835.000000;1.685308
9834.000000;1.685172
9833.000000;1.684079
9832.000000;1.682160
9831.000000;1.680451
9830.000000;1.679554
9829.000000;1.679295
9828.000000;1.679439
9827.000000;1.680015
9826.000000;1.681315
9825.000000;1.683913
9824.000000;1.687884
9823.000000;1.691709
9822.000000;1.693186
9821.000000;1.692213
9820.000000;1.691509
9819.000000;1.693265
9818.000000;1.696239
9817.000000;1.697983
9816.000000;1.698563
9815.000000;1.699336
9814.000000;1.699305
9813.000000;1.696056
9812.000000;1.690792
9811.000000;1.688778
9810.000000;1.692550
9809.000000;1.697259
9808.000000;1.695644
9807.000000;1.687189
9806.000000;1.678329
9805.000000;1.673772
9804.000000;1.671915
9803.000000;1.668933
9802.000000;1.664572
9801.000000;1.662045
9800.000000;1.663526
9799.000000;1.667900
9798.000000;1.672526
9797.000000;1.675880
9796.000000;1.678071
9795.000000;1.679470
9794.000000;1.679620
9793.000000;1.677569
9792.000000;1.673640
9791.000000;1.670522
9790.000000;1.671297
9789.000000;1.675978
9788.000000;1.680715
9787.000000;1.681488
9786.000000;1.678357
9785.000000;1.674801
9784.000000;1.673308
9783.000000;1.673130
9782.000000;1.672199
9781.000000;1.669965
9780.000000;1.667683
9779.000000;1.666663
9778.000000;1.667113
9777.000000;1.668334
9776.000000;1.669362
9775.000000;1.669443
9774.000000;1.668334
9773.000000;1.666370
9772.000000;1.664405
9771.000000;1.663696
9770.000000;1.665360
9769.000000;1.669279
9768.000000;1.673507
9767.000000;1.675413
9766.000000;1.673805
9765.000000;1.669612
9764.000000;1.664572
9763.000000;1.659843
9762.000000;1.655839
9761.000000;1.652814
9760.000000;1.651120
9759.000000;1.651030
9758.000000;1.652443
9757.000000;1.654519
9756.000000;1.655856
9755.000000;1.655857
9754.000000;1.655751
9753.000000;1.657082
9752.000000;1.659015
9751.000000;1.658780
9750.000000;1.655737
9749.000000;1.653045
9748.000000;1.653788
9747.000000;1.656905
9746.000000;1.658578
9745.000000;1.657289
9744.000000;1.655383
9743.000000;1.655190
9742.000000;1.655961
9741.000000;1.655826
9740.000000;1.655362
9739.000000;1.657305
9738.000000;1.662559
9737.000000;1.667714
9736.000000;1.667594
9735.000000;1.660798
9734.000000;1.651695
9733.000000;1.646125
9732.000000;1.646197
9731.000000;1.649662
9730.000000;1.653444
9729.000000;1.656599
9728.000000;1.659391
9727.000000;1.661046
9726.000000;1.660396
9725.000000;1.658177
9724.000000;1.656565
9723.000000;1.656598
9722.000000;1.657620
9721.000000;1.658671
9720.000000;1.658830
9719.000000;1.656740
9718.000000;1.651407
9717.000000;1.644140
9716.000000;1.638797
9715.000000;1.638769
9714.000000;1.643788
9713.000000;1.650125
9712.000000;1.653696
9711.000000;1.653024
9710.000000;1.649835
9709.000000;1.647415
9708.000000;1.647814
9707.000000;1.649849
9706.000000;1.650137
9705.000000;1.646617
9704.000000;1.640833
9703.000000;1.636214
9702.000000;1.634632
9701.000000;1.635232
9700.000000;1.635979
9699.000000;1.635557
9698.000000;1.634045
9697.000000;1.632687
9696.000000;1.632905
9695.000000;1.634936
9694.000000;1.637930
9693.000000;1.641489
9692.000000;1.646199
9691.000000;1.652176
9690.000000;1.657484
9689.000000;1.658985
9688.000000;1.655490
9687.000000;1.649258
9686.000000;1.643726
9685.000000;1.640349
9684.000000;1.637835
9683.000000;1.634186
9682.000000;1.629322
9681.000000;1.625401
9680.000000;1.624468
9679.000000;1.626289
9678.000000;1.628901
9677.000000;1.631019
9676.000000;1.633094
9675.000000;1.635750
9674.000000;1.638044
9673.000000;1.638017
9672.000000;1.634838
9671.000000;1.630041
9670.000000;1.626659
9669.000000;1.626957
9668.000000;1.630434
9667.000000;1.633860
9666.000000;1.634154
9665.000000;1.631619
9664.000000;1.629037
9663.000000;1.627690
9662.000000;1.626140
9661.000000;1.623285
9660.000000;1.620735
9659.000000;1.620698
9658.000000;1.622838
9657.000000;1.624743
9656.000000;1.624911
9655.000000;1.623891
9654.000000;1.622684
9653.000000;1.621745
9652.000000;1.621775
9651.000000;1.623484
9650.000000;1.626116
9649.000000;1.627967
9648.000000;1.628665
9647.000000;1.629468
9646.000000;1.630796
9645.000000;1.630998
9644.000000;1.628689
9643.000000;1.625232
9642.000000;1.623389
9641.000000;1.624037
9640.000000;1.625406
9639.000000;1.625279
9638.000000;1.622976
9637.000000;1.619317
9636.000000;1.615406
9635.000000;1.611843
9634.000000;1.609191
9633.000000;1.608629
9632.000000;1.611006
9631.000000;1.614905
9630.000000;1.616734
9629.000000;1.614205
9628.000000;1.609276
9627.000000;1.606374
9626.000000;1.607860
9625.000000;1.612130
9624.000000;1.616100
9623.000000;1.618236
9622.000000;1.618765
9621.000000;1.618474
9620.000000;1.618521
9619.000000;1.620218
9618.000000;1.623291
9617.000000;1.624994
9616.000000;1.622794
9615.000000;1.617786
9614.000000;1.613634
9613.000000;1.612318
9612.000000;1.612566
9611.000000;1.612411
9610.000000;1.611796
9609.000000;1.611806
9608.000000;1.612330
9607.000000;1.611787
9606.000000;1.609053
9605.000000;1.604777
9604.000000;1.600680
9603.000000;1.598027
9602.000000;1.596876
9601.000000;1.596573
9600.000000;1.596952
9599.000000;1.598902
9598.000000;1.603286
9597.000000;1.609176
9596.000000;1.613845
9595.000000;1.615044
9594.000000;1.612842
9593.000000;1.609260
9592.000000;1.606428
9591.000000;1.605129
9590.000000;1.605221
9589.000000;1.606539
9588.000000;1.608900
9587.000000;1.611831
9586.000000;1.614438
9585.000000;1.615597
9584.000000;1.614740
9583.000000;1.612528
9582.000000;1.610140
9581.000000;1.607821
9580.000000;1.604904
9579.000000;1.601510
9578.000000;1.599341
9577.000000;1.599967
9576.000000;1.602796
9575.000000;1.605599
9574.000000;1.606993
9573.000000;1.607451
9572.000000;1.607658
9571.000000;1.607044
9570.000000;1.604665
9569.000000;1.600743
9568.000000;1.596617
9567.000000;1.593661
9566.000000;1.592453
9565.000000;1.592609
9564.000000;1.593440
9563.000000;1.594777
9562.000000;1.596854
9561.000000;1.599460
9560.000000;1.601504
9559.000000;1.601582
9558.000000;1.599247
9557.000000;1.595859
9556.000000;1.593847
9555.000000;1.594739
9554.000000;1.597656
9553.000000;1.599857
9552.000000;1.599210
9551.000000;1.596341
9550.000000;1.593729
9549.000000;1.592613
9548.000000;1.591691
9547.000000;1.589311
9546.000000;1.586155
9545.000000;1.584673
9544.000000;1.586136
9543.000000;1.589256
9542.000000;1.591748
9541.000000;1.592481
9540.000000;1.591821
9539.000000;1.590576
9538.000000;1.589318
9537.000000;1.588512
9536.000000;1.588714
9535.000000;1.590433
9534.000000;1.593533
9533.000000;1.596493
9532.000000;1.596818
9531.000000;1.593207
9530.000000;1.587359
9529.000000;1.582802
9528.000000;1.581856
9527.000000;1.584247
9526.000000;1.588277
9525.000000;1.592079
9524.000000;1.593626
9523.000000;1.591544
9522.000000;1.587248
9521.000000;1.584671
9520.000000;1.586353
9519.000000;1.590523
9518.000000;1.593165
9517.000000;1.592671
9516.000000;1.590867
9515.000000;1.589659
9514.000000;1.588796
9513.000000;1.587148
9512.000000;1.584413
9511.000000;1.580861
9510.000000;1.576673
9509.000000;1.572561
9508.000000;1.570260
9507.000000;1.571479
9506.000000;1.576368
9505.000000;1.583054
9504.000000;1.588464
9503.000000;1.590246
9502.000000;1.588792
9501.000000;1.586999
9500.000000;1.587055
9499.000000;1.587934
9498.000000;1.587228
9497.000000;1.584897
9496.000000;1.583273
9495.000000;1.583382
9494.000000;1.583497
9493.000000;1.582062
9492.000000;1.580230
9491.000000;1.579983
9490.000000;1.581138
9489.000000;1.582002
9488.000000;1.581971
9487.000000;1.581516
9486.000000;1.580173
9485.000000;1.577022
9484.000000;1.573444
9483.000000;1.572854
9482.000000;1.576622
9481.000000;1.581769
9480.000000;1.583848
9479.000000;1.581667
9478.000000;1.577880
9477.000000;1.575313
9476.000000;1.574354
9475.000000;1.573921
9474.000000;1.573638
9473.000000;1.574188
9472.000000;1.575736
9471.000000;1.577001
9470.000000;1.576504
9469.000000;1.574339
9468.000000;1.572311
9467.000000;1.572210
9466.000000;1.574149
9465.000000;1.576775
9464.000000;1.578723
9463.000000;1.579494
9462.000000;1.579182
9461.000000;1.578038
9460.000000;1.576617
9459.000000;1.575858
9458.000000;1.576332
9457.000000;1.577340
9456.000000;1.577243
9455.000000;1.575191
9454.000000;1.572308
9453.000000;1.570582
9452.000000;1.570540
9451.000000;1.570601
9450.000000;1.568919
9449.000000;1.565395
9448.000000;1.561492
9447.000000;1.558515
9446.000000;1.556950
9445.000000;1.557164
9444.000000;1.559447
9443.000000;1.563129
9442.000000;1.566530
9441.000000;1.568255
9440.000000;1.568335
9439.000000;1.567942
9438.000000;1.568303
9437.000000;1.569787
9436.000000;1.571643
9435.000000;1.572459
9434.000000;1.571172
9433.000000;1.568035
9432.000000;1.564533
9431.000000;1.562050
9430.000000;1.560720
9429.000000;1.559684
9428.000000;1.558271
9427.000000;1.556816
9426.000000;1.556455
9425.000000;1.558003
9424.000000;1.560422
9423.000000;1.560714
9422.000000;1.556715
9421.000000;1.550177
9420.000000;1.545745
9419.000000;1.546456
9418.000000;1.550934
9417.000000;1.555255
9416.000000;1.557061
9415.000000;1.556976
9414.000000;1.556457
9413.000000;1.555813
9412.000000;1.554520
9411.000000;1.552363
9410.000000;1.549795
9409.000000;1.547675
9408.000000;1.546856
9407.000000;1.547562
9406.000000;1.549164
9405.000000;1.550941
9404.000000;1.552811
9403.000000;1.554434
9402.000000;1.554233
9401.000000;1.550951
9400.000000;1.545861
9399.000000;1.541987
9398.000000;1.541138
9397.000000;1.542782
9396.000000;1.545757
9395.000000;1.549748
9394.000000;1.554483
9393.000000;1.558614
9392.000000;1.560596
9391.000000;1.560289
9390.000000;1.558789
9389.000000;1.557029
9388.000000;1.555446
9387.000000;1.554592
9386.000000;1.554930
9385.000000;1.556001
9384.000000;1.556696
9383.000000;1.556419
9382.000000;1.555366
9381.000000;1.553767
9380.000000;1.551610
9379.000000;1.549273
9378.000000;1.547567
9377.000000;1.546808
9376.000000;1.546571
9375.000000;1.546619
9374.000000;1.547484
9373.000000;1.549618
9372.000000;1.552110
9371.000000;1.553227
9370.000000;1.552507
9369.000000;1.551418
9368.000000;1.551411
9367.000000;1.551930
9366.000000;1.551093
9365.000000;1.548152
9364.000000;1.544474
9363.000000;1.541986
9362.000000;1.541476
9361.000000;1.542460
9360.000000;1.544032
9359.000000;1.545524
9358.000000;1.546559
9357.000000;1.546980
9356.000000;1.546945
9355.000000;1.547042
9354.000000;1.548007
9353.000000;1.549832
9352.000000;1.551231
9351.000000;1.550576
9350.000000;1.547625
9349.000000;1.543941
9348.000000;1.541228
9347.000000;1.539686
9346.000000;1.538607
9345.000000;1.538143
9344.000000;1.539272
9343.000000;1.541882
9342.000000;1.544178
9341.000000;1.544508
9340.000000;1.542953
9339.000000;1.540621
9338.000000;1.538352
9337.000000;1.536910
9336.000000;1.537394
9335.000000;1.540093
9334.000000;1.543377
9333.000000;1.545036
9332.000000;1.544776
9331.000000;1.544122
9330.000000;1.543853
9329.000000;1.543064
9328.000000;1.540944
9327.000000;1.538234
9326.000000;1.536383
9325.000000;1.536034
9324.000000;1.536868
9323.000000;1.538394
9322.000000;1.540253
9321.000000;1.541949
9320.000000;1.542770
9319.000000;1.542025
9318.000000;1.539575
9317.000000;1.536454
9316.000000;1.534581
9315.000000;1.535183
9314.000000;1.537600
9313.000000;1.540014
9312.000000;1.541186
9311.000000;1.541099
9310.000000;1.540270
9309.000000;1.539375
9308.000000;1.539321
9307.000000;1.540418
9306.000000;1.541290
9305.000000;1.539905
9304.000000;1.536265
9303.000000;1.532891
9302.000000;1.531974
9301.000000;1.533035
9300.000000;1.534057
9299.000000;1.534028
9298.000000;1.533492
9297.000000;1.533179
9296.000000;1.533128
9295.000000;1.533022
9294.000000;1.532693
9293.000000;1.532251
9292.000000;1.532231
9291.000000;1.533337
9290.000000;1.535474
9289.000000;1.537383
9288.000000;1.537992
9287.000000;1.537796
9286.000000;1.537949
9285.000000;1.538200
9284.000000;1.536845
9283.000000;1.533143
9282.000000;1.528992
9281.000000;1.527453
9280.000000;1.529754
9279.000000;1.533942
9278.000000;1.536564
9277.000000;1.535840
9276.000000;1.533106
9275.000000;1.530830
9274.000000;1.529500
9273.000000;1.527224
9272.000000;1.522766
9271.000000;1.518091
9270.000000;1.516752
9269.000000;1.520140
9268.000000;1.526298
9267.000000;1.532249
9266.000000;1.536495
9265.000000;1.538891
9264.000000;1.539247
9263.000000;1.537284
9262.000000;1.533802
9261.000000;1.530744
9260.000000;1.529537
9259.000000;1.529694
9258.000000;1.529339
9257.000000;1.527162
9256.000000;1.523780
9255.000000;1.520984
9254.000000;1.519815
9253.000000;1.519781
9252.000000;1.520052
9251.000000;1.520786
9250.000000;1.522620
9249.000000;1.525137
9248.000000;1.526933
9247.000000;1.527427
9246.000000;1.527521
9245.000000;1.527941
9244.000000;1.527932
9243.000000;1.526509
9242.000000;1.524332
9241.000000;1.523185
9240.000000;1.523883
9239.000000;1.525648
9238.000000;1.527348
9237.000000;1.528359
9236.000000;1.528186
9235.000000;1.526421
9234.000000;1.523626
9233.000000;1.521360
9232.000000;1.520593
9231.000000;1.520637
9230.000000;1.520206
9229.000000;1.519026
9228.000000;1.517820
9227.000000;1.517031
9226.000000;1.516427
9225.000000;1.516026
9224.000000;1.516554
9223.000000;1.518530
9222.000000;1.521264
9221.000000;1.523158
9220.000000;1.522854
9219.000000;1.520164
9218.000000;1.516446
9217.000000;1.514120
9216.000000;1.514932
9215.000000;1.518197
9214.000000;1.521304
9213.000000;1.522549
9212.000000;1.522965
9211.000000;1.524530
9210.000000;1.527263
9209.000000;1.529217
9208.000000;1.529099
9207.000000;1.527599
9206.000000;1.525819
9205.000000;1.523825
9204.000000;1.521275
9203.000000;1.518431
9202.000000;1.516063
9201.000000;1.514738
9200.000000;1.514533
9199.000000;1.515169
9198.000000;1.516126
9197.000000;1.516991
9196.000000;1.517926
9195.000000;1.519246
9194.000000;1.520209
9193.000000;1.519122
9192.000000;1.515510
9191.000000;1.511508
9190.000000;1.509949
9189.000000;1.511404
9188.000000;1.513839
9187.000000;1.514959
9186.000000;1.514377
9185.000000;1.513573
9184.000000;1.514242
9183.000000;1.516683
9182.000000;1.519266
9181.000000;1.519642
9180.000000;1.517139
9179.000000;1.513691
9178.000000;1.511744
9177.000000;1.511554
9176.000000;1.511421
9175.000000;1.510303
9174.000000;1.509052
9173.000000;1.508916
9172.000000;1.509847
9171.000000;1.510725
9170.000000;1.510583
9169.000000;1.509167
9168.000000;1.507021
9167.000000;1.505435
9166.000000;1.505446
9165.000000;1.506490
9164.000000;1.507011
9163.000000;1.506628
9162.000000;1.506645
9161.000000;1.507960
9160.000000;1.509578
9159.000000;1.510072
9158.000000;1.509735
9157.000000;1.509999
9156.000000;1.511099
9155.000000;1.511681
9154.000000;1.510756
9153.000000;1.508957
9152.000000;1.507573
9151.000000;1.507171
9150.000000;1.507529
9149.000000;1.508251
9148.000000;1.509009
9147.000000;1.509500
9146.000000;1.509503
9145.000000;1.508867
9144.000000;1.507465
9143.000000;1.505421
9142.000000;1.503264
9141.000000;1.501481
9140.000000;1.500140
9139.000000;1.499294
9138.000000;1.499542
9137.000000;1.501650
9136.000000;1.505455
9135.000000;1.509639
9134.000000;1.512691
9133.000000;1.513665
9132.000000;1.512054
9131.000000;1.507841
9130.000000;1.502232
9129.000000;1.497714
9128.000000;1.496507
9127.000000;1.498772
9126.000000;1.502531
9125.000000;1.505459
9124.000000;1.506797
9123.000000;1.507452
9122.000000;1.508334
9121.000000;1.509040
9120.000000;1.508589
9119.000000;1.507151
9118.000000;1.506167
9117.000000;1.506433
9116.000000;1.506743
9115.000000;1.505111
9114.000000;1.501101
9113.000000;1.496322
9112.000000;1.492799
9111.000000;1.491624
9110.000000;1.492949
9109.000000;1.496190
9108.000000;1.499930
9107.000000;1.502448
9106.000000;1.502965
9105.000000;1.502064
9104.000000;1.500764
9103.000000;1.499694
9102.000000;1.499278
9101.000000;1.499946
9100.000000;1.501740
9099.000000;1.504157
9098.000000;1.506648
9097.000000;1.508759
9096.000000;1.509637
9095.000000;1.508293
9094.000000;1.505018
9093.000000;1.501745
9092.000000;1.500225
9091.000000;1.500261
9090.000000;1.500246
9089.000000;1.498992
9088.000000;1.496418
9087.000000;1.493002
9086.000000;1.489691
9085.000000;1.488083
9084.000000;1.489428
9083.000000;1.493036
9082.000000;1.496328
9081.000000;1.497076
9080.000000;1.495338
9079.000000;1.492856
9078.000000;1.491146
9077.000000;1.490620
9076.000000;1.490848
9075.000000;1.491014
9074.000000;1.490439
9073.000000;1.489201
9072.000000;1.488164
9071.000000;1.488120
9070.000000;1.488990
9069.000000;1.490238
9068.000000;1.491858
9067.000000;1.494165
9066.000000;1.496619
9065.000000;1.497691
9064.000000;1.496275
9063.000000;1.493064
9062.000000;1.490162
9061.000000;1.489352
9060.000000;1.490892
9059.000000;1.493735
9058.000000;1.496624
9057.000000;1.498970
9056.000000;1.500668
9055.000000;1.501318
9054.000000;1.500190
9053.000000;1.497252
