Criado como novo conjunto de dados;"e0108.spp","-4235202.3 Secs"
cm-1;Abs
10000.000000;0.966934
9999.000000;0.967645
9998.000000;0.968360
9997.000000;0.969070
9996.000000;0.969792
9995.000000;0.970495
9994.000000;0.971251
9993.000000;0.972030
9992.000000;0.972258
9991.000000;0.971697
9990.000000;0.970769
9989.000000;0.970009
9988.000000;0.969377
9987.000000;0.968483
9986.000000;0.967278
9985.000000;0.966160
9984.000000;0.965419
9983.000000;0.964933
9982.000000;0.964503
9981.000000;0.964197
9980.000000;0.964129
9979.000000;0.964146
9978.000000;0.964035
9977.000000;0.963945
9976.000000;0.964204
9975.000000;0.964694
9974.000000;0.964839
9973.000000;0.964370
9972.000000;0.963701
9971.000000;0.963258
9970.000000;0.962789
9969.000000;0.961752
9968.000000;0.960230
9967.000000;0.959000
9966.000000;0.958664
9965.000000;0.959068
9964.000000;0.959600
9963.000000;0.959827
9962.000000;0.959806
9961.000000;0.959939
9960.000000;0.960493
9959.000000;0.961124
9958.000000;0.961004
9957.000000;0.959714
9956.000000;0.957912
9955.000000;0.956741
9954.000000;0.956641
9953.000000;0.957091
9952.000000;0.957455
9951.000000;0.957584
9950.000000;0.957498
9949.000000;0.956946
9948.000000;0.955590
9947.000000;0.953371
9946.000000;0.950553
9945.000000;0.947720
9944.000000;0.945794
9943.000000;0.945561
9942.000000;0.946799
9941.000000;0.948150
9940.000000;0.948328
9939.000000;0.947363
9938.000000;0.946322
9937.000000;0.945993
9936.000000;0.946264
9935.000000;0.946671
9934.000000;0.947033
9933.000000;0.947371
9932.000000;0.947630
9931.000000;0.947799
9930.000000;0.948050
9929.000000;0.948465
9928.000000;0.948685
9927.000000;0.948070
9926.000000;0.946313
9925.000000;0.943838
9924.000000;0.941543
9923.000000;0.940162
9922.000000;0.939828
9921.000000;0.940110
9920.000000;0.940403
9919.000000;0.940424
9918.000000;0.940489
9917.000000;0.941247
9916.000000;0.942942
9915.000000;0.944919
9914.000000;0.946028
9913.000000;0.945670
9912.000000;0.944333
9911.000000;0.942973
9910.000000;0.942032
9909.000000;0.941259
9908.000000;0.940382
9907.000000;0.939583
9906.000000;0.939185
9905.000000;0.939117
9904.000000;0.938912
9903.000000;0.938176
9902.000000;0.936919
9901.000000;0.935429
9900.000000;0.933963
9899.000000;0.932680
9898.000000;0.931784
9897.000000;0.931522
9896.000000;0.931891
9895.000000;0.932421
9894.000000;0.932503
9893.000000;0.932026
9892.000000;0.931537
9891.000000;0.931605
9890.000000;0.932141
9889.000000;0.932546
9888.000000;0.932459
9887.000000;0.932165
9886.000000;0.932218
9885.000000;0.932800
9884.000000;0.933483
9883.000000;0.933623
9882.000000;0.933038
9881.000000;0.932235
9880.000000;0.931848
9879.000000;0.931884
9878.000000;0.931728
9877.000000;0.930904
9876.000000;0.929626
9875.000000;0.928480
9874.000000;0.927844
9873.000000;0.927726
9872.000000;0.927901
9871.000000;0.927960
9870.000000;0.927466
9869.000000;0.926380
9868.000000;0.925206
9867.000000;0.924482
9866.000000;0.924232
9865.000000;0.924137
9864.000000;0.924021
9863.000000;0.923838
9862.000000;0.923398
9861.000000;0.922622
9860.000000;0.921953
9859.000000;0.921928
9858.000000;0.922366
9857.000000;0.922524
9856.000000;0.922204
9855.000000;0.922091
9854.000000;0.922707
9853.000000;0.923577
9852.000000;0.923911
9851.000000;0.923662
9850.000000;0.923347
9849.000000;0.923064
9848.000000;0.922334
9847.000000;0.920971
9846.000000;0.919557
9845.000000;0.918823
9844.000000;0.918856
9843.000000;0.919134
9842.000000;0.919151
9841.000000;0.918783
9840.000000;0.918153
9839.000000;0.917413
9838.000000;0.916707
9837.000000;0.916193
9836.000000;0.915962
9835.000000;0.915952
9834.000000;0.915997
9833.000000;0.915907
9832.000000;0.915496
9831.000000;0.914691
9830.000000;0.913778
9829.000000;0.913371
9828.000000;0.913858
9827.000000;0.914877
9826.000000;0.915659
9825.000000;0.915892
9824.000000;0.915828
9823.000000;0.915470
9822.000000;0.914264
9821.000000;0.912041
9820.000000;0.909785
9819.000000;0.908782
9818.000000;0.909156
9817.000000;0.909814
9816.000000;0.909791
9815.000000;0.909095
9814.000000;0.908220
9813.000000;0.907512
9812.000000;0.907180
9811.000000;0.907370
9810.000000;0.907884
9809.000000;0.908241
9808.000000;0.908271
9807.000000;0.908260
9806.000000;0.908276
9805.000000;0.907795
9804.000000;0.906384
9803.000000;0.904424
9802.000000;0.902788
9801.000000;0.902036
9800.000000;0.902165
9799.000000;0.902824
9798.000000;0.903498
9797.000000;0.903703
9796.000000;0.903378
9795.000000;0.902977
9794.000000;0.902967
9793.000000;0.903351
9792.000000;0.903859
9791.000000;0.904302
9790.000000;0.904456
9789.000000;0.903936
9788.000000;0.902715
9787.000000;0.901580
9786.000000;0.901487
9785.000000;0.902406
9784.000000;0.903234
9783.000000;0.903011
9782.000000;0.901902
9781.000000;0.900803
9780.000000;0.900240
9779.000000;0.899929
9778.000000;0.899340
9777.000000;0.898454
9776.000000;0.897822
9775.000000;0.897866
9774.000000;0.898262
9773.000000;0.898235
9772.000000;0.897516
9771.000000;0.896677
9770.000000;0.896340
9769.000000;0.896385
9768.000000;0.896238
9767.000000;0.895718
9766.000000;0.895162
9765.000000;0.894793
9764.000000;0.894397
9763.000000;0.893698
9762.000000;0.892714
9761.000000;0.891649
9760.000000;0.890762
9759.000000;0.890422
9758.000000;0.890953
9757.000000;0.892170
9756.000000;0.893246
9755.000000;0.893323
9754.000000;0.892247
9753.000000;0.890617
9752.000000;0.889190
9751.000000;0.888382
9750.000000;0.888182
9749.000000;0.888348
9748.000000;0.888633
9747.000000;0.888859
9746.000000;0.888860
9745.000000;0.888507
9744.000000;0.887926
9743.000000;0.887561
9742.000000;0.887802
9741.000000;0.888534
9740.000000;0.889267
9739.000000;0.889706
9738.000000;0.889922
9737.000000;0.889892
9736.000000;0.889246
9735.000000;0.887773
9734.000000;0.886013
9733.000000;0.884942
9732.000000;0.885021
9731.000000;0.885754
9730.000000;0.886233
9729.000000;0.886030
9728.000000;0.885477
9727.000000;0.885103
9726.000000;0.884916
9725.000000;0.884334
9724.000000;0.882877
9723.000000;0.880872
9722.000000;0.879325
9721.000000;0.879004
9720.000000;0.879741
9719.000000;0.880700
9718.000000;0.881225
9717.000000;0.881328
9716.000000;0.881387
9715.000000;0.881530
9714.000000;0.881446
9713.000000;0.880758
9712.000000;0.879499
9711.000000;0.878176
9710.000000;0.877340
9709.000000;0.877139
9708.000000;0.877336
9707.000000;0.877648
9706.000000;0.877905
9705.000000;0.877883
9704.000000;0.877276
9703.000000;0.876095
9702.000000;0.874984
9701.000000;0.874832
9700.000000;0.875883
9699.000000;0.877340
9698.000000;0.877993
9697.000000;0.877310
9696.000000;0.875877
9695.000000;0.874783
9694.000000;0.874638
9693.000000;0.875139
9692.000000;0.875479
9691.000000;0.875068
9690.000000;0.873905
9689.000000;0.872432
9688.000000;0.871210
9687.000000;0.870681
9686.000000;0.870967
9685.000000;0.871678
9684.000000;0.872039
9683.000000;0.871516
9682.000000;0.870348
9681.000000;0.869289
9680.000000;0.868785
9679.000000;0.868591
9678.000000;0.868257
9677.000000;0.867746
9676.000000;0.867355
9675.000000;0.867211
9674.000000;0.867173
9673.000000;0.867168
9672.000000;0.867313
9671.000000;0.867645
9670.000000;0.867964
9669.000000;0.868035
9668.000000;0.867777
9667.000000;0.867197
9666.000000;0.866353
9665.000000;0.865492
9664.000000;0.864941
9663.000000;0.864664
9662.000000;0.864161
9661.000000;0.863111
9660.000000;0.861941
9659.000000;0.861394
9658.000000;0.861580
9657.000000;0.861873
9656.000000;0.861773
9655.000000;0.861471
9654.000000;0.861384
9653.000000;0.861500
9652.000000;0.861529
9651.000000;0.861451
9650.000000;0.861543
9649.000000;0.861898
9648.000000;0.862276
9647.000000;0.862464
9646.000000;0.862475
9645.000000;0.862305
9644.000000;0.861764
9643.000000;0.860768
9642.000000;0.859610
9641.000000;0.858696
9640.000000;0.858091
9639.000000;0.857593
9638.000000;0.857274
9637.000000;0.857624
9636.000000;0.858922
9635.000000;0.860599
9634.000000;0.861509
9633.000000;0.860940
9632.000000;0.859260
9631.000000;0.857439
9630.000000;0.856032
9629.000000;0.854813
9628.000000;0.853385
9627.000000;0.851941
9626.000000;0.851170
9625.000000;0.851454
9624.000000;0.852333
9623.000000;0.852925
9622.000000;0.852831
9621.000000;0.852487
9620.000000;0.852567
9619.000000;0.853199
9618.000000;0.853898
9617.000000;0.854135
9616.000000;0.853790
9615.000000;0.853047
9614.000000;0.852123
9613.000000;0.851250
9612.000000;0.850730
9611.000000;0.850715
9610.000000;0.850947
9609.000000;0.850956
9608.000000;0.850596
9607.000000;0.850209
9606.000000;0.850162
9605.000000;0.850372
9604.000000;0.850462
9603.000000;0.850276
9602.000000;0.850028
9601.000000;0.849967
9600.000000;0.850118
9599.000000;0.850412
9598.000000;0.850812
9597.000000;0.851132
9596.000000;0.850936
9595.000000;0.849889
9594.000000;0.848212
9593.000000;0.846519
9592.000000;0.845199
9591.000000;0.844156
9590.000000;0.843225
9589.000000;0.842554
9588.000000;0.842392
9587.000000;0.842687
9586.000000;0.843148
9585.000000;0.843588
9584.000000;0.843968
9583.000000;0.844158
9582.000000;0.843944
9581.000000;0.843302
9580.000000;0.842452
9579.000000;0.841607
9578.000000;0.840850
9577.000000;0.840265
9576.000000;0.839940
9575.000000;0.839789
9574.000000;0.839636
9573.000000;0.839533
9572.000000;0.839708
9571.000000;0.840070
9570.000000;0.840132
9569.000000;0.839677
9568.000000;0.839193
9567.000000;0.839270
9566.000000;0.839768
9565.000000;0.839994
9564.000000;0.839662
9563.000000;0.839206
9562.000000;0.839046
9561.000000;0.838996
9560.000000;0.838678
9559.000000;0.838182
9558.000000;0.837906
9557.000000;0.837867
9556.000000;0.837612
9555.000000;0.836944
9554.000000;0.836402
9553.000000;0.836689
9552.000000;0.837720
9551.000000;0.838531
9550.000000;0.838240
9549.000000;0.836921
9548.000000;0.835400
9547.000000;0.834329
9546.000000;0.833692
9545.000000;0.833119
9544.000000;0.832433
9543.000000;0.831804
9542.000000;0.831520
9541.000000;0.831688
9540.000000;0.832113
9539.000000;0.832485
9538.000000;0.832753
9537.000000;0.833191
9536.000000;0.833919
9535.000000;0.834485
9534.000000;0.834280
9533.000000;0.833400
9532.000000;0.832639
9531.000000;0.832469
9530.000000;0.832385
9529.000000;0.831607
9528.000000;0.830179
9527.000000;0.828977
9526.000000;0.828747
9525.000000;0.829498
9524.000000;0.830735
9523.000000;0.831841
9522.000000;0.832210
9521.000000;0.831427
9520.000000;0.829636
9519.000000;0.827614
9518.000000;0.826246
9517.000000;0.825871
9516.000000;0.826150
9515.000000;0.826475
9514.000000;0.826480
9513.000000;0.826252
9512.000000;0.826111
9511.000000;0.826218
9510.000000;0.826431
9509.000000;0.826479
9508.000000;0.826145
9507.000000;0.825331
9506.000000;0.824177
9505.000000;0.823233
9504.000000;0.823201
9503.000000;0.824211
9502.000000;0.825482
9501.000000;0.826038
9500.000000;0.825702
9499.000000;0.825100
9498.000000;0.824766
9497.000000;0.824621
9496.000000;0.824338
9495.000000;0.823844
9494.000000;0.823323
9493.000000;0.822943
9492.000000;0.822722
9491.000000;0.822486
9490.000000;0.821932
9489.000000;0.820917
9488.000000;0.819739
9487.000000;0.818929
9486.000000;0.818727
9485.000000;0.818989
9484.000000;0.819601
9483.000000;0.820608
9482.000000;0.821763
9481.000000;0.822267
9480.000000;0.821398
9479.000000;0.819383
9478.000000;0.817363
9477.000000;0.816395
9476.000000;0.816609
9475.000000;0.817323
9474.000000;0.817796
9473.000000;0.817795
9472.000000;0.817498
9471.000000;0.817101
9470.000000;0.816682
9469.000000;0.816355
9468.000000;0.816292
9467.000000;0.816464
9466.000000;0.816542
9465.000000;0.816213
9464.000000;0.815486
9463.000000;0.814550
9462.000000;0.813517
9461.000000;0.812508
9460.000000;0.811858
9459.000000;0.811891
9458.000000;0.812490
9457.000000;0.813149
9456.000000;0.813470
9455.000000;0.813421
9454.000000;0.813145
9453.000000;0.812813
9452.000000;0.812670
9451.000000;0.812894
9450.000000;0.813303
9449.000000;0.813475
9448.000000;0.813282
9447.000000;0.813056
9446.000000;0.813107
9445.000000;0.813324
9444.000000;0.813407
9443.000000;0.813240
9442.000000;0.812827
9441.000000;0.812120
9440.000000;0.811194
9439.000000;0.810458
9438.000000;0.810378
9437.000000;0.811022
9436.000000;0.812023
9435.000000;0.812887
9434.000000;0.813184
9433.000000;0.812590
9432.000000;0.811076
9431.000000;0.809106
9430.000000;0.807419
9429.000000;0.806486
9428.000000;0.806235
9427.000000;0.806301
9426.000000;0.806445
9425.000000;0.806675
9424.000000;0.807032
9423.000000;0.807337
9422.000000;0.807296
9421.000000;0.806862
9420.000000;0.806365
9419.000000;0.806149
9418.000000;0.806160
9417.000000;0.806082
9416.000000;0.805773
9415.000000;0.805346
9414.000000;0.804861
9413.000000;0.804241
9412.000000;0.803562
9411.000000;0.803116
9410.000000;0.803007
9409.000000;0.802957
9408.000000;0.802717
9407.000000;0.802483
9406.000000;0.802627
9405.000000;0.803187
9404.000000;0.803838
9403.000000;0.804261
9402.000000;0.804289
9401.000000;0.803815
9400.000000;0.802883
9399.000000;0.801854
9398.000000;0.801187
9397.000000;0.800960
9396.000000;0.800806
9395.000000;0.800402
9394.000000;0.799888
9393.000000;0.799686
9392.000000;0.799998
9391.000000;0.800593
9390.000000;0.801048
9389.000000;0.801120
9388.000000;0.800867
9387.000000;0.800485
9386.000000;0.800132
9385.000000;0.799906
9384.000000;0.799834
9383.000000;0.799792
9382.000000;0.799566
9381.000000;0.799182
9380.000000;0.799042
9379.000000;0.799395
9378.000000;0.799726
9377.000000;0.799147
9376.000000;0.797597
9375.000000;0.796220
9374.000000;0.796210
9373.000000;0.797526
9372.000000;0.799027
9371.000000;0.799683
9370.000000;0.799290
9369.000000;0.798217
9368.000000;0.796935
9367.000000;0.795904
9366.000000;0.795464
9365.000000;0.795614
9364.000000;0.796051
9363.000000;0.796495
9362.000000;0.796837
9361.000000;0.796990
9360.000000;0.796880
9359.000000;0.796628
9358.000000;0.796487
9357.000000;0.796497
9356.000000;0.796399
9355.000000;0.796011
9354.000000;0.795477
9353.000000;0.795004
9352.000000;0.794513
9351.000000;0.793760
9350.000000;0.792732
9349.000000;0.791773
9348.000000;0.791283
9347.000000;0.791371
9346.000000;0.791742
9345.000000;0.791906
9344.000000;0.791563
9343.000000;0.790868
9342.000000;0.790289
9341.000000;0.790190
9340.000000;0.790531
9339.000000;0.790943
9338.000000;0.791043
9337.000000;0.790700
9336.000000;0.790088
9335.000000;0.789469
9334.000000;0.788917
9333.000000;0.788307
9332.000000;0.787634
9331.000000;0.787208
9330.000000;0.787336
9329.000000;0.787893
9328.000000;0.788424
9327.000000;0.788614
9326.000000;0.788469
9325.000000;0.788095
9324.000000;0.787579
9323.000000;0.787137
9322.000000;0.787030
9321.000000;0.787226
9320.000000;0.787423
9319.000000;0.787511
9318.000000;0.787703
9317.000000;0.788013
9316.000000;0.787964
9315.000000;0.787168
9314.000000;0.785951
9313.000000;0.785011
9312.000000;0.784598
9311.000000;0.784404
9310.000000;0.784179
9309.000000;0.784050
9308.000000;0.784156
9307.000000;0.784364
9306.000000;0.784497
9305.000000;0.784588
9304.000000;0.784738
9303.000000;0.784921
9302.000000;0.785060
9301.000000;0.785100
9300.000000;0.784906
9299.000000;0.784325
9298.000000;0.783516
9297.000000;0.782999
9296.000000;0.783135
9295.000000;0.783676
9294.000000;0.784036
9293.000000;0.783940
9292.000000;0.783587
9291.000000;0.783252
9290.000000;0.782971
9289.000000;0.782636
9288.000000;0.782192
9287.000000;0.781652
9286.000000;0.781072
9285.000000;0.780592
9284.000000;0.780400
9283.000000;0.780531
9282.000000;0.780747
9281.000000;0.780697
9280.000000;0.780225
9279.000000;0.779483
9278.000000;0.778765
9277.000000;0.778253
9276.000000;0.777950
9275.000000;0.777833
9274.000000;0.777992
9273.000000;0.778496
9272.000000;0.779170
9271.000000;0.779638
9270.000000;0.779687
9269.000000;0.779513
9268.000000;0.779495
9267.000000;0.779786
9266.000000;0.780160
9265.000000;0.780199
9264.000000;0.779575
9263.000000;0.778283
9262.000000;0.776763
9261.000000;0.775706
9260.000000;0.775532
9259.000000;0.776028
9258.000000;0.776586
9257.000000;0.776774
9256.000000;0.776624
9255.000000;0.776429
9254.000000;0.776443
9253.000000;0.776739
9252.000000;0.777179
9251.000000;0.777444
9250.000000;0.777254
9249.000000;0.776595
9248.000000;0.775676
9247.000000;0.774685
9246.000000;0.773738
9245.000000;0.773030
9244.000000;0.772812
9243.000000;0.773104
9242.000000;0.773603
9241.000000;0.773982
9240.000000;0.774196
9239.000000;0.774418
9238.000000;0.774762
9237.000000;0.775135
9236.000000;0.775281
9235.000000;0.774979
9234.000000;0.774298
9233.000000;0.773649
9232.000000;0.773402
9231.000000;0.773473
9230.000000;0.773471
9229.000000;0.773253
9228.000000;0.773053
9227.000000;0.773005
9226.000000;0.772882
9225.000000;0.772492
9224.000000;0.772081
9223.000000;0.772032
9222.000000;0.772319
9221.000000;0.772520
9220.000000;0.772291
9219.000000;0.771617
9218.000000;0.770725
9217.000000;0.769974
9216.000000;0.769728
9215.000000;0.770061
9214.000000;0.770618
9213.000000;0.770946
9212.000000;0.770918
9211.000000;0.770636
9210.000000;0.770093
9209.000000;0.769221
9208.000000;0.768256
9207.000000;0.767725
9206.000000;0.767955
9205.000000;0.768703
9204.000000;0.769324
9203.000000;0.769265
9202.000000;0.768474
9201.000000;0.767503
9200.000000;0.767106
9199.000000;0.767508
9198.000000;0.768116
9197.000000;0.768144
9196.000000;0.767500
9195.000000;0.766827
9194.000000;0.766725
9193.000000;0.767222
9192.000000;0.767969
9191.000000;0.768593
9190.000000;0.768813
9189.000000;0.768523
9188.000000;0.767917
9187.000000;0.767331
9186.000000;0.766887
9185.000000;0.766512
9184.000000;0.766303
9183.000000;0.766544
9182.000000;0.767188
9181.000000;0.767642
9180.000000;0.767333
9179.000000;0.766350
9178.000000;0.765325
9177.000000;0.764819
9176.000000;0.764979
9175.000000;0.765618
9174.000000;0.766387
9173.000000;0.766936
9172.000000;0.767079
9171.000000;0.766816
9170.000000;0.766171
9169.000000;0.765177
9168.000000;0.764066
9167.000000;0.763268
9166.000000;0.763050
9165.000000;0.763252
9164.000000;0.763514
9163.000000;0.763615
9162.000000;0.763522
9161.000000;0.763316
9160.000000;0.763226
9159.000000;0.763539
9158.000000;0.764228
9157.000000;0.764833
9156.000000;0.764927
9155.000000;0.764567
9154.000000;0.764081
9153.000000;0.763613
9152.000000;0.763144
9151.000000;0.762776
9150.000000;0.762651
9149.000000;0.762648
9148.000000;0.762547
9147.000000;0.762453
9146.000000;0.762661
9145.000000;0.763067
9144.000000;0.763095
9143.000000;0.762439
9142.000000;0.761546
9141.000000;0.761109
9140.000000;0.761269
9139.000000;0.761562
9138.000000;0.761505
9137.000000;0.760994
9136.000000;0.760221
9135.000000;0.759439
9134.000000;0.758878
9133.000000;0.758725
9132.000000;0.759040
9131.000000;0.759699
9130.000000;0.760421
9129.000000;0.760868
9128.000000;0.760810
9127.000000;0.760279
9126.000000;0.759562
9125.000000;0.758997
9124.000000;0.758750
9123.000000;0.758770
9122.000000;0.758864
9121.000000;0.758817
9120.000000;0.758520
9119.000000;0.758073
9118.000000;0.757728
9117.000000;0.757678
9116.000000;0.757897
9115.000000;0.758203
9114.000000;0.758419
9113.000000;0.758424
9112.000000;0.758109
9111.000000;0.757442
9110.000000;0.756582
9109.000000;0.755818
9108.000000;0.755358
9107.000000;0.755202
9106.000000;0.755250
9105.000000;0.755428
9104.000000;0.755663
9103.000000;0.755841
9102.000000;0.755928
9101.000000;0.756110
9100.000000;0.756618
9099.000000;0.757368
9098.000000;0.757894
9097.000000;0.757774
9096.000000;0.757092
9095.000000;0.756363
9094.000000;0.756020
9093.000000;0.756036
9092.000000;0.756049
9091.000000;0.755789
9090.000000;0.755364
9089.000000;0.755137
9088.000000;0.755313
9087.000000;0.755671
9086.000000;0.755782
9085.000000;0.755502
9084.000000;0.755096
9083.000000;0.754781
9082.000000;0.754373
9081.000000;0.753627
9080.000000;0.752816
9079.000000;0.752616
9078.000000;0.753348
9077.000000;0.754598
9076.000000;0.755691
9075.000000;0.756280
9074.000000;0.756319
9073.000000;0.755750
9072.000000;0.754579
9071.000000;0.753228
9070.000000;0.752426
9069.000000;0.752583
9068.000000;0.753355
9067.000000;0.753942
9066.000000;0.753819
9065.000000;0.753127
9064.000000;0.752398
9063.000000;0.751998
9062.000000;0.751892
9061.000000;0.751902
9060.000000;0.752014
9059.000000;0.752314
9058.000000;0.752704
9057.000000;0.752904
9056.000000;0.752756
9055.000000;0.752345
9054.000000;0.751801
9053.000000;0.751173
