Criado como novo conjunto de dados;"e0108.spp","-4231241.9 Secs"
cm-1;Abs
10000.000000;1.834338
9999.000000;1.832667
9998.000000;1.831015
9997.000000;1.829347
9996.000000;1.827728
9995.000000;1.826036
9994.000000;1.824534
9993.000000;1.822990
9992.000000;1.820769
9991.000000;1.820005
9990.000000;1.822266
9989.000000;1.826216
9988.000000;1.829157
9987.000000;1.829735
9986.000000;1.827737
9985.000000;1.823307
9984.000000;1.817811
9983.000000;1.814511
9982.000000;1.816001
9981.000000;1.820651
9980.000000;1.823782
9979.000000;1.822831
9978.000000;1.819662
9977.000000;1.817617
9976.000000;1.818133
9975.000000;1.820463
9974.000000;1.822996
9973.000000;1.823795
9972.000000;1.820728
9971.000000;1.812912
9970.000000;1.802771
9969.000000;1.795772
9968.000000;1.796983
9967.000000;1.807078
9966.000000;1.821047
9965.000000;1.831455
9964.000000;1.834348
9963.000000;1.831627
9962.000000;1.827428
9961.000000;1.824102
9960.000000;1.821970
9959.000000;1.820501
9958.000000;1.818222
9957.000000;1.813368
9956.000000;1.806634
9955.000000;1.801723
9954.000000;1.801716
9953.000000;1.805684
9952.000000;1.809223
9951.000000;1.809029
9950.000000;1.806872
9949.000000;1.807512
9948.000000;1.812921
9947.000000;1.819456
9946.000000;1.821164
9945.000000;1.816494
9944.000000;1.810220
9943.000000;1.807542
9942.000000;1.808440
9941.000000;1.809106
9940.000000;1.808006
9939.000000;1.808052
9938.000000;1.811603
9937.000000;1.816020
9936.000000;1.816660
9935.000000;1.812723
9934.000000;1.807223
9933.000000;1.802429
9932.000000;1.798756
9931.000000;1.797571
9930.000000;1.801200
9929.000000;1.808690
9928.000000;1.814380
9927.000000;1.813528
9926.000000;1.807934
9925.000000;1.803063
9924.000000;1.801524
9923.000000;1.801912
9922.000000;1.802185
9921.000000;1.801532
9920.000000;1.799765
9919.000000;1.797552
9918.000000;1.797117
9917.000000;1.800267
9916.000000;1.805374
9915.000000;1.807861
9914.000000;1.804882
9913.000000;1.798796
9912.000000;1.793898
9911.000000;1.791655
9910.000000;1.791449
9909.000000;1.792802
9908.000000;1.794602
9907.000000;1.794721
9906.000000;1.792450
9905.000000;1.790224
9904.000000;1.791446
9903.000000;1.796586
9902.000000;1.802147
9901.000000;1.804212
9900.000000;1.802865
9899.000000;1.801960
9898.000000;1.804456
9897.000000;1.808581
9896.000000;1.808914
9895.000000;1.802078
9894.000000;1.791102
9893.000000;1.782732
9892.000000;1.781001
9891.000000;1.784266
9890.000000;1.787736
9889.000000;1.788125
9888.000000;1.785789
9887.000000;1.782891
9886.000000;1.780891
9885.000000;1.780341
9884.000000;1.781487
9883.000000;1.783950
9882.000000;1.786224
9881.000000;1.786609
9880.000000;1.785174
9879.000000;1.783688
9878.000000;1.783385
9877.000000;1.783635
9876.000000;1.782948
9875.000000;1.780822
9874.000000;1.778120
9873.000000;1.775976
9872.000000;1.774885
9871.000000;1.774643
9870.000000;1.774624
9869.000000;1.773935
9868.000000;1.772023
9867.000000;1.769383
9866.000000;1.767572
9865.000000;1.768587
9864.000000;1.773386
9863.000000;1.780531
9862.000000;1.786753
9861.000000;1.789279
9860.000000;1.787801
9859.000000;1.784195
9858.000000;1.780608
9857.000000;1.778387
9856.000000;1.778556
9855.000000;1.781964
9854.000000;1.787856
9853.000000;1.792910
9852.000000;1.793569
9851.000000;1.789737
9850.000000;1.784757
9849.000000;1.781178
9848.000000;1.777716
9847.000000;1.771770
9846.000000;1.764186
9845.000000;1.759224
9844.000000;1.759656
9843.000000;1.763613
9842.000000;1.766981
9841.000000;1.767659
9840.000000;1.765875
9839.000000;1.761542
9838.000000;1.754151
9837.000000;1.745308
9836.000000;1.739043
9835.000000;1.738448
9834.000000;1.743149
9833.000000;1.750862
9832.000000;1.759870
9831.000000;1.768547
9830.000000;1.773701
9829.000000;1.772007
9828.000000;1.764168
9827.000000;1.755693
9826.000000;1.751993
9825.000000;1.753790
9824.000000;1.757724
9823.000000;1.760541
9822.000000;1.761827
9821.000000;1.762471
9820.000000;1.762035
9819.000000;1.759299
9818.000000;1.754971
9817.000000;1.752310
9816.000000;1.754255
9815.000000;1.760364
9814.000000;1.767168
9813.000000;1.771280
9812.000000;1.771564
9811.000000;1.768742
9810.000000;1.764292
9809.000000;1.760003
9808.000000;1.757280
9807.000000;1.755940
9806.000000;1.754287
9805.000000;1.751425
9804.000000;1.749079
9803.000000;1.749889
9802.000000;1.753816
9801.000000;1.757382
9800.000000;1.757083
9799.000000;1.752739
9798.000000;1.746880
9797.000000;1.742105
9796.000000;1.739910
9795.000000;1.740819
9794.000000;1.744155
9793.000000;1.747887
9792.000000;1.750439
9791.000000;1.752346
9790.000000;1.754745
9789.000000;1.756906
9788.000000;1.756578
9787.000000;1.752887
9786.000000;1.747671
9785.000000;1.743664
9784.000000;1.741915
9783.000000;1.741392
9782.000000;1.741059
9781.000000;1.741247
9780.000000;1.742548
9779.000000;1.744299
9778.000000;1.744636
9777.000000;1.742155
9776.000000;1.737743
9775.000000;1.734406
9774.000000;1.734478
9773.000000;1.737124
9772.000000;1.739519
9771.000000;1.740322
9770.000000;1.740809
9769.000000;1.742426
9768.000000;1.744501
9767.000000;1.745156
9766.000000;1.743795
9765.000000;1.741682
9764.000000;1.740188
9763.000000;1.739402
9762.000000;1.738341
9761.000000;1.735818
9760.000000;1.731494
9759.000000;1.726771
9758.000000;1.724227
9757.000000;1.725647
9756.000000;1.730766
9755.000000;1.737885
9754.000000;1.744942
9753.000000;1.749014
9752.000000;1.746594
9751.000000;1.737522
9750.000000;1.727090
9749.000000;1.721817
9748.000000;1.723581
9747.000000;1.728542
9746.000000;1.732205
9745.000000;1.734273
9744.000000;1.737101
9743.000000;1.740999
9742.000000;1.743137
9741.000000;1.740862
9740.000000;1.734573
9739.000000;1.727191
9738.000000;1.722144
9737.000000;1.721675
9736.000000;1.725546
9735.000000;1.730955
9734.000000;1.734687
9733.000000;1.735792
9732.000000;1.735558
9731.000000;1.734957
9730.000000;1.733316
9729.000000;1.730075
9728.000000;1.726899
9727.000000;1.726983
9726.000000;1.732081
9725.000000;1.739969
9724.000000;1.744936
9723.000000;1.742695
9722.000000;1.735662
9721.000000;1.730857
9720.000000;1.732342
9719.000000;1.737454
9718.000000;1.739930
9717.000000;1.736471
9716.000000;1.729933
9715.000000;1.725820
9714.000000;1.726835
9713.000000;1.730559
9712.000000;1.731634
9711.000000;1.727210
9710.000000;1.720499
9709.000000;1.717615
9708.000000;1.721215
9707.000000;1.728271
9706.000000;1.733818
9705.000000;1.735596
9704.000000;1.734120
9703.000000;1.729905
9702.000000;1.723248
9701.000000;1.716159
9700.000000;1.711701
9699.000000;1.710864
9698.000000;1.711680
9697.000000;1.711879
9696.000000;1.711400
9695.000000;1.711594
9694.000000;1.713199
9693.000000;1.715989
9692.000000;1.718984
9691.000000;1.720213
9690.000000;1.717615
9689.000000;1.711363
9688.000000;1.704776
9687.000000;1.701994
9686.000000;1.705010
9685.000000;1.712742
9684.000000;1.721619
9683.000000;1.727114
9682.000000;1.726457
9681.000000;1.720770
9680.000000;1.713965
9679.000000;1.709272
9678.000000;1.707533
9677.000000;1.708399
9676.000000;1.711494
9675.000000;1.716028
9674.000000;1.720456
9673.000000;1.723336
9672.000000;1.724165
9671.000000;1.723161
9670.000000;1.721013
9669.000000;1.719241
9668.000000;1.719329
9667.000000;1.720599
9666.000000;1.720469
9665.000000;1.717553
9664.000000;1.713335
9663.000000;1.710363
9662.000000;1.709843
9661.000000;1.711580
9660.000000;1.715033
9659.000000;1.718831
9658.000000;1.720080
9657.000000;1.716235
9656.000000;1.707935
9655.000000;1.698925
9654.000000;1.693099
9653.000000;1.692123
9652.000000;1.695161
9651.000000;1.699803
9650.000000;1.703695
9649.000000;1.706381
9648.000000;1.709031
9647.000000;1.711683
9646.000000;1.712014
9645.000000;1.708173
9644.000000;1.701865
9643.000000;1.696811
9642.000000;1.694818
9641.000000;1.694894
9640.000000;1.695625
9639.000000;1.696742
9638.000000;1.698213
9637.000000;1.699261
9636.000000;1.699248
9635.000000;1.698880
9634.000000;1.699398
9633.000000;1.700809
9632.000000;1.701590
9631.000000;1.700019
9630.000000;1.695993
9629.000000;1.691682
9628.000000;1.689812
9627.000000;1.690932
9626.000000;1.692765
9625.000000;1.692817
9624.000000;1.691367
9623.000000;1.691146
9622.000000;1.694433
9621.000000;1.701062
9620.000000;1.708596
9619.000000;1.713788
9618.000000;1.714215
9617.000000;1.709770
9616.000000;1.703054
9615.000000;1.697134
9614.000000;1.692845
9613.000000;1.689237
9612.000000;1.686183
9611.000000;1.685193
9610.000000;1.687507
9609.000000;1.692166
9608.000000;1.696360
9607.000000;1.697618
9606.000000;1.695523
9605.000000;1.691999
9604.000000;1.690058
9603.000000;1.691435
9602.000000;1.695193
9601.000000;1.698465
9600.000000;1.698702
9599.000000;1.695531
9598.000000;1.690741
9597.000000;1.687068
9596.000000;1.686641
9595.000000;1.689550
9594.000000;1.693665
9593.000000;1.696441
9592.000000;1.696819
9591.000000;1.694784
9590.000000;1.690143
9589.000000;1.683366
9588.000000;1.677170
9587.000000;1.675413
9586.000000;1.679556
9585.000000;1.687216
9584.000000;1.694646
9583.000000;1.699515
9582.000000;1.700814
9581.000000;1.698073
9580.000000;1.692474
9579.000000;1.687508
9578.000000;1.686497
9577.000000;1.689355
9576.000000;1.692642
9575.000000;1.692944
9574.000000;1.689653
9573.000000;1.684519
9572.000000;1.679734
9571.000000;1.676735
9570.000000;1.675879
9569.000000;1.676456
9568.000000;1.676818
9567.000000;1.675211
9566.000000;1.671217
9565.000000;1.666367
9564.000000;1.663311
9563.000000;1.663782
9562.000000;1.666912
9561.000000;1.669923
9560.000000;1.670833
9559.000000;1.670186
9558.000000;1.669642
9557.000000;1.669719
9556.000000;1.669832
9555.000000;1.669767
9554.000000;1.669838
9553.000000;1.669765
9552.000000;1.668647
9551.000000;1.666409
9550.000000;1.664356
9549.000000;1.664005
9548.000000;1.665844
9547.000000;1.669020
9546.000000;1.671592
9545.000000;1.671389
9544.000000;1.667884
9543.000000;1.663634
9542.000000;1.662685
9541.000000;1.666668
9540.000000;1.672681
9539.000000;1.675614
9538.000000;1.673014
9537.000000;1.667166
9536.000000;1.662310
9535.000000;1.660856
9534.000000;1.662325
9533.000000;1.664667
9532.000000;1.665972
9531.000000;1.665308
9530.000000;1.662766
9529.000000;1.659342
9528.000000;1.656653
9527.000000;1.656297
9526.000000;1.659143
9525.000000;1.664641
9524.000000;1.670446
9523.000000;1.673226
9522.000000;1.670549
9521.000000;1.662871
9520.000000;1.654201
9519.000000;1.649745
9518.000000;1.651632
9517.000000;1.656776
9516.000000;1.659680
9515.000000;1.658161
9514.000000;1.655385
9513.000000;1.655482
9512.000000;1.658635
9511.000000;1.661653
9510.000000;1.662535
9509.000000;1.662753
9508.000000;1.664691
9507.000000;1.668306
9506.000000;1.671133
9505.000000;1.670829
9504.000000;1.667072
9503.000000;1.661634
9502.000000;1.657440
9501.000000;1.657194
9500.000000;1.661544
9499.000000;1.668106
9498.000000;1.672839
9497.000000;1.673035
9496.000000;1.669072
9495.000000;1.663377
9494.000000;1.658247
9493.000000;1.654715
9492.000000;1.652748
9491.000000;1.651972
9490.000000;1.652178
9489.000000;1.653350
9488.000000;1.655390
9487.000000;1.658020
9486.000000;1.660804
9485.000000;1.662817
9484.000000;1.662542
9483.000000;1.659157
9482.000000;1.654210
9481.000000;1.650863
9480.000000;1.650749
9479.000000;1.652310
9478.000000;1.653073
9477.000000;1.653106
9476.000000;1.654779
9475.000000;1.659134
9474.000000;1.663975
9473.000000;1.666125
9472.000000;1.664699
9471.000000;1.661301
9470.000000;1.657759
9469.000000;1.654792
9468.000000;1.652378
9467.000000;1.650493
9466.000000;1.649398
9465.000000;1.649434
9464.000000;1.650488
9463.000000;1.651757
9462.000000;1.652422
9461.000000;1.652467
9460.000000;1.652315
9459.000000;1.651813
9458.000000;1.650464
9457.000000;1.648710
9456.000000;1.647707
9455.000000;1.647442
9454.000000;1.646316
9453.000000;1.643495
9452.000000;1.640855
9451.000000;1.641311
9450.000000;1.645513
9449.000000;1.651022
9448.000000;1.654497
9447.000000;1.654272
9446.000000;1.651051
9445.000000;1.646743
9444.000000;1.642894
9443.000000;1.639788
9442.000000;1.636943
9441.000000;1.634703
9440.000000;1.634598
9439.000000;1.637392
9438.000000;1.641412
9437.000000;1.643921
9436.000000;1.644123
9435.000000;1.643437
9434.000000;1.642632
9433.000000;1.640453
9432.000000;1.635879
9431.000000;1.630429
9430.000000;1.627097
9429.000000;1.627580
9428.000000;1.631251
9427.000000;1.636331
9426.000000;1.641413
9425.000000;1.645793
9424.000000;1.648884
9423.000000;1.650181
9422.000000;1.649770
9421.000000;1.648293
9420.000000;1.646533
9419.000000;1.645253
9418.000000;1.645249
9417.000000;1.646885
9416.000000;1.649219
9415.000000;1.650342
9414.000000;1.649249
9413.000000;1.646855
9412.000000;1.644501
9411.000000;1.642232
9410.000000;1.639290
9409.000000;1.635778
9408.000000;1.632744
9407.000000;1.630597
9406.000000;1.628803
9405.000000;1.627422
9404.000000;1.627443
9403.000000;1.629028
9402.000000;1.630589
9401.000000;1.630465
9400.000000;1.628980
9399.000000;1.627882
9398.000000;1.628052
9397.000000;1.628999
9396.000000;1.630249
9395.000000;1.631758
9394.000000;1.632955
9393.000000;1.632794
9392.000000;1.631198
9391.000000;1.629542
9390.000000;1.629369
9389.000000;1.631048
9388.000000;1.633429
9387.000000;1.634242
9386.000000;1.631465
9385.000000;1.625484
9384.000000;1.619659
9383.000000;1.617657
9382.000000;1.620339
9381.000000;1.625758
9380.000000;1.631637
9379.000000;1.636575
9378.000000;1.639086
9377.000000;1.637768
9376.000000;1.633434
9375.000000;1.629243
9374.000000;1.627383
9373.000000;1.626803
9372.000000;1.625423
9371.000000;1.623610
9370.000000;1.623728
9369.000000;1.626553
9368.000000;1.629726
9367.000000;1.630261
9366.000000;1.627865
9365.000000;1.624966
9364.000000;1.623865
9363.000000;1.624825
9362.000000;1.626674
9361.000000;1.628330
9360.000000;1.629325
9359.000000;1.629444
9358.000000;1.628783
9357.000000;1.628472
9356.000000;1.630283
9355.000000;1.634444
9354.000000;1.638361
9353.000000;1.638568
9352.000000;1.634252
9351.000000;1.628268
9350.000000;1.624435
9349.000000;1.624516
9348.000000;1.627461
9347.000000;1.630431
9346.000000;1.630603
9345.000000;1.627167
9344.000000;1.621931
9343.000000;1.617355
9342.000000;1.613970
9341.000000;1.610463
9340.000000;1.606384
9339.000000;1.603641
9338.000000;1.604565
9337.000000;1.609236
9336.000000;1.615325
9335.000000;1.620258
9334.000000;1.623189
9333.000000;1.625045
9332.000000;1.627064
9331.000000;1.629212
9330.000000;1.629765
9329.000000;1.626835
9328.000000;1.620793
9327.000000;1.614566
9326.000000;1.611100
9325.000000;1.611117
9324.000000;1.613410
9323.000000;1.616667
9322.000000;1.620318
9321.000000;1.623709
9320.000000;1.626032
9319.000000;1.627075
9318.000000;1.626883
9317.000000;1.625329
9316.000000;1.622436
9315.000000;1.618836
9314.000000;1.615783
9313.000000;1.614463
9312.000000;1.615149
9311.000000;1.617037
9310.000000;1.618672
9309.000000;1.618540
9308.000000;1.616075
9307.000000;1.612459
9306.000000;1.610036
9305.000000;1.610595
9304.000000;1.613819
9303.000000;1.617202
9302.000000;1.617754
9301.000000;1.614385
9300.000000;1.608765
9299.000000;1.603735
9298.000000;1.601179
9297.000000;1.601301
9296.000000;1.603099
9295.000000;1.605167
9294.000000;1.606406
9293.000000;1.606596
9292.000000;1.606762
9291.000000;1.608447
9290.000000;1.611784
9289.000000;1.614620
9288.000000;1.614486
9287.000000;1.611500
9286.000000;1.608445
9285.000000;1.607875
9284.000000;1.609624
9283.000000;1.611148
9282.000000;1.610198
9281.000000;1.607092
9280.000000;1.604106
9279.000000;1.602828
9278.000000;1.602671
9277.000000;1.602260
9276.000000;1.601650
9275.000000;1.602214
9274.000000;1.604590
9273.000000;1.607724
9272.000000;1.610082
9271.000000;1.611014
9270.000000;1.610572
9269.000000;1.609105
9268.000000;1.607779
9267.000000;1.608187
9266.000000;1.610239
9265.000000;1.611365
9264.000000;1.609379
9263.000000;1.605760
9262.000000;1.604282
9261.000000;1.606393
9260.000000;1.609458
9259.000000;1.610021
9258.000000;1.607846
9257.000000;1.605714
9256.000000;1.605858
9255.000000;1.607558
9254.000000;1.608054
9253.000000;1.605622
9252.000000;1.601647
9251.000000;1.599261
9250.000000;1.599913
9249.000000;1.601739
9248.000000;1.601686
9247.000000;1.599010
9246.000000;1.595736
9245.000000;1.593904
9244.000000;1.593786
9243.000000;1.594961
9242.000000;1.597551
9241.000000;1.601440
9240.000000;1.605123
9239.000000;1.606563
9238.000000;1.605279
9237.000000;1.602864
9236.000000;1.601264
9235.000000;1.601122
9234.000000;1.601816
9233.000000;1.602489
9232.000000;1.602707
9231.000000;1.602307
9230.000000;1.601037
9229.000000;1.598650
9228.000000;1.595430
9227.000000;1.592509
9226.000000;1.591443
9225.000000;1.593194
9224.000000;1.597258
9223.000000;1.601512
9222.000000;1.603096
9221.000000;1.600342
9220.000000;1.594501
9219.000000;1.589215
9218.000000;1.587674
9217.000000;1.590053
9216.000000;1.593835
9215.000000;1.596529
9214.000000;1.597571
9213.000000;1.597738
9212.000000;1.597899
9211.000000;1.598785
9210.000000;1.600955
9209.000000;1.603969
9208.000000;1.606087
9207.000000;1.605802
9206.000000;1.603440
9205.000000;1.600368
9204.000000;1.596850
9203.000000;1.592104
9202.000000;1.586489
9201.000000;1.582027
9200.000000;1.580411
9199.000000;1.581560
9198.000000;1.584498
9197.000000;1.588796
9196.000000;1.594210
9195.000000;1.599236
9194.000000;1.601319
9193.000000;1.599172
9192.000000;1.594367
9191.000000;1.590080
9190.000000;1.588460
9189.000000;1.589374
9188.000000;1.591201
9187.000000;1.592449
9186.000000;1.592573
9185.000000;1.591605
9184.000000;1.589589
9183.000000;1.586784
9182.000000;1.584121
9181.000000;1.582828
9180.000000;1.583502
9179.000000;1.585765
9178.000000;1.588666
9177.000000;1.591151
9176.000000;1.592293
9175.000000;1.591731
9174.000000;1.590200
9173.000000;1.589126
9172.000000;1.589182
9171.000000;1.589545
9170.000000;1.588975
9169.000000;1.587297
9168.000000;1.585293
9167.000000;1.583522
9166.000000;1.581962
9165.000000;1.580635
9164.000000;1.579902
9163.000000;1.580050
9162.000000;1.581097
9161.000000;1.583066
9160.000000;1.585820
9159.000000;1.588498
9158.000000;1.589844
9157.000000;1.589537
9156.000000;1.588507
9155.000000;1.587609
9154.000000;1.586896
9153.000000;1.586642
9152.000000;1.587912
9151.000000;1.591085
9150.000000;1.594409
9149.000000;1.595321
9148.000000;1.593263
9147.000000;1.590045
9146.000000;1.587394
9145.000000;1.585271
9144.000000;1.582840
9143.000000;1.580119
9142.000000;1.578111
9141.000000;1.577778
9140.000000;1.579220
9139.000000;1.581597
9138.000000;1.583651
9137.000000;1.584554
9136.000000;1.584494
9135.000000;1.584376
9134.000000;1.585023
9133.000000;1.586739
9132.000000;1.589192
9131.000000;1.591106
9130.000000;1.590455
9129.000000;1.586125
9128.000000;1.579633
9127.000000;1.574171
9126.000000;1.571841
9125.000000;1.572354
9124.000000;1.574165
9123.000000;1.575980
9122.000000;1.576815
9121.000000;1.575731
9120.000000;1.572756
9119.000000;1.569683
9118.000000;1.568753
9117.000000;1.570336
9116.000000;1.572628
9115.000000;1.573806
9114.000000;1.573882
9113.000000;1.574194
9112.000000;1.575694
9111.000000;1.578071
9110.000000;1.580150
9109.000000;1.580802
9108.000000;1.579597
9107.000000;1.576886
9106.000000;1.573535
9105.000000;1.570679
9104.000000;1.569672
9103.000000;1.571793
9102.000000;1.577215
9101.000000;1.583895
9100.000000;1.588177
9099.000000;1.587669
9098.000000;1.583662
9097.000000;1.579860
9096.000000;1.578750
9095.000000;1.579799
9094.000000;1.581004
9093.000000;1.581194
9092.000000;1.580254
9091.000000;1.577993
9090.000000;1.574201
9089.000000;1.569765
9088.000000;1.566484
9087.000000;1.565348
9086.000000;1.565842
9085.000000;1.567300
9084.000000;1.569826
9083.000000;1.573107
9082.000000;1.575336
9081.000000;1.574702
9080.000000;1.571772
9079.000000;1.569168
9078.000000;1.568885
9077.000000;1.570691
9076.000000;1.572794
9075.000000;1.573294
9074.000000;1.571429
9073.000000;1.568433
9072.000000;1.566854
9071.000000;1.567852
9070.000000;1.569326
9069.000000;1.567996
9068.000000;1.563618
9067.000000;1.559549
9066.000000;1.558816
9065.000000;1.561391
9064.000000;1.565645
9063.000000;1.570556
9062.000000;1.575241
9061.000000;1.577850
9060.000000;1.576990
9059.000000;1.573800
9058.000000;1.570983
9057.000000;1.570006
9056.000000;1.570375
9055.000000;1.571211
9054.000000;1.572343
9053.000000;1.573893
