Criado como novo conjunto de dados;"e0108.spp","-4253023.3 Secs"
cm-1;Abs
10000.000000;1.035655
9999.000000;1.035109
9998.000000;1.034485
9997.000000;1.033292
9996.000000;1.032192
9995.000000;1.032184
9994.000000;1.033053
9993.000000;1.033748
9992.000000;1.033632
9991.000000;1.032959
9990.000000;1.032056
9989.000000;1.030994
9988.000000;1.029995
9987.000000;1.029495
9986.000000;1.029559
9985.000000;1.029744
9984.000000;1.029752
9983.000000;1.029822
9982.000000;1.030236
9981.000000;1.030816
9980.000000;1.031105
9979.000000;1.030794
9978.000000;1.029862
9977.000000;1.028571
9976.000000;1.027480
9975.000000;1.027106
9974.000000;1.027341
9973.000000;1.027354
9972.000000;1.026349
9971.000000;1.024373
9970.000000;1.022317
9969.000000;1.021222
9968.000000;1.021579
9967.000000;1.023062
9966.000000;1.024707
9965.000000;1.025475
9964.000000;1.024926
9963.000000;1.023466
9962.000000;1.022018
9961.000000;1.021473
9960.000000;1.022168
9959.000000;1.023545
9958.000000;1.024360
9957.000000;1.023606
9956.000000;1.021420
9955.000000;1.018926
9954.000000;1.017165
9953.000000;1.016408
9952.000000;1.016439
9951.000000;1.017055
9950.000000;1.018064
9949.000000;1.019138
9948.000000;1.020000
9947.000000;1.020638
9946.000000;1.021072
9945.000000;1.021039
9944.000000;1.020205
9943.000000;1.018616
9942.000000;1.016714
9941.000000;1.014999
9940.000000;1.013857
9939.000000;1.013584
9938.000000;1.014234
9937.000000;1.015377
9936.000000;1.016264
9935.000000;1.016354
9934.000000;1.015565
9933.000000;1.014024
9932.000000;1.011955
9931.000000;1.009905
9930.000000;1.008735
9929.000000;1.009007
9928.000000;1.010416
9927.000000;1.012046
9926.000000;1.013186
9925.000000;1.013679
9924.000000;1.013596
9923.000000;1.012966
9922.000000;1.011919
9921.000000;1.010771
9920.000000;1.009766
9919.000000;1.008917
9918.000000;1.008286
9917.000000;1.008131
9916.000000;1.008482
9915.000000;1.008818
9914.000000;1.008602
9913.000000;1.008033
9912.000000;1.007838
9911.000000;1.008286
9910.000000;1.008791
9909.000000;1.008612
9908.000000;1.007642
9907.000000;1.006353
9906.000000;1.005253
9905.000000;1.004650
9904.000000;1.004676
9903.000000;1.005217
9902.000000;1.005899
9901.000000;1.006330
9900.000000;1.006303
9899.000000;1.005681
9898.000000;1.004332
9897.000000;1.002378
9896.000000;1.000404
9895.000000;0.999152
9894.000000;0.998967
9893.000000;0.999618
9892.000000;1.000576
9891.000000;1.001352
9890.000000;1.001646
9889.000000;1.001372
9888.000000;1.000623
9887.000000;0.999591
9886.000000;0.998508
9885.000000;0.997618
9884.000000;0.997079
9883.000000;0.996853
9882.000000;0.996769
9881.000000;0.996687
9880.000000;0.996508
9879.000000;0.996150
9878.000000;0.995655
9877.000000;0.995243
9876.000000;0.995099
9875.000000;0.995163
9874.000000;0.995338
9873.000000;0.995798
9872.000000;0.996735
9871.000000;0.997820
9870.000000;0.998373
9869.000000;0.998110
9868.000000;0.997223
9867.000000;0.995758
9866.000000;0.993592
9865.000000;0.991169
9864.000000;0.989573
9863.000000;0.989410
9862.000000;0.990081
9861.000000;0.990570
9860.000000;0.990494
9859.000000;0.989905
9858.000000;0.988619
9857.000000;0.986574
9856.000000;0.984620
9855.000000;0.984056
9854.000000;0.985285
9853.000000;0.987455
9852.000000;0.989440
9851.000000;0.990732
9850.000000;0.991364
9849.000000;0.991482
9848.000000;0.991104
9847.000000;0.989970
9846.000000;0.987730
9845.000000;0.984714
9844.000000;0.982334
9843.000000;0.981969
9842.000000;0.983377
9841.000000;0.984805
9840.000000;0.984904
9839.000000;0.984026
9838.000000;0.983412
9837.000000;0.983669
9836.000000;0.984335
9835.000000;0.984504
9834.000000;0.983526
9833.000000;0.981458
9832.000000;0.979175
9831.000000;0.977791
9830.000000;0.977640
9829.000000;0.978021
9828.000000;0.978063
9827.000000;0.977567
9826.000000;0.976834
9825.000000;0.976134
9824.000000;0.975689
9823.000000;0.975760
9822.000000;0.976225
9821.000000;0.976347
9820.000000;0.975501
9819.000000;0.974059
9818.000000;0.973072
9817.000000;0.973073
9816.000000;0.973526
9815.000000;0.973493
9814.000000;0.972576
9813.000000;0.971152
9812.000000;0.969911
9811.000000;0.969303
9810.000000;0.969365
9809.000000;0.969975
9808.000000;0.971103
9807.000000;0.972612
9806.000000;0.973930
9805.000000;0.974341
9804.000000;0.973716
9803.000000;0.972597
9802.000000;0.971457
9801.000000;0.970334
9800.000000;0.969366
9799.000000;0.969084
9798.000000;0.969698
9797.000000;0.970520
9796.000000;0.970675
9795.000000;0.970125
9794.000000;0.969400
9793.000000;0.968602
9792.000000;0.967413
9791.000000;0.965948
9790.000000;0.964819
9789.000000;0.964290
9788.000000;0.964020
9787.000000;0.963792
9786.000000;0.963871
9785.000000;0.964375
9784.000000;0.964878
9783.000000;0.965025
9782.000000;0.965098
9781.000000;0.965491
9780.000000;0.965979
9779.000000;0.965988
9778.000000;0.965375
9777.000000;0.964464
9776.000000;0.963459
9775.000000;0.962295
9774.000000;0.961092
9773.000000;0.960316
9772.000000;0.960364
9771.000000;0.961170
9770.000000;0.962254
9769.000000;0.963022
9768.000000;0.963029
9767.000000;0.962156
9766.000000;0.960649
9765.000000;0.958905
9764.000000;0.957204
9763.000000;0.955705
9762.000000;0.954627
9761.000000;0.954270
9760.000000;0.954807
9759.000000;0.956094
9758.000000;0.957638
9757.000000;0.958729
9756.000000;0.958803
9755.000000;0.957899
9754.000000;0.956707
9753.000000;0.955938
9752.000000;0.955611
9751.000000;0.955138
9750.000000;0.954159
9749.000000;0.953080
9748.000000;0.952649
9747.000000;0.953136
9746.000000;0.954076
9745.000000;0.954705
9744.000000;0.954510
9743.000000;0.953520
9742.000000;0.952303
9741.000000;0.951613
9740.000000;0.951721
9739.000000;0.952017
9738.000000;0.951547
9737.000000;0.950113
9736.000000;0.948630
9735.000000;0.948189
9734.000000;0.948889
9733.000000;0.949848
9732.000000;0.950258
9731.000000;0.950091
9730.000000;0.949756
9729.000000;0.949497
9728.000000;0.949361
9727.000000;0.949439
9726.000000;0.949743
9725.000000;0.949913
9724.000000;0.949379
9723.000000;0.947934
9722.000000;0.946030
9721.000000;0.944490
9720.000000;0.943992
9719.000000;0.944697
9718.000000;0.946121
9717.000000;0.947385
9716.000000;0.947855
9715.000000;0.947625
9714.000000;0.947228
9713.000000;0.946877
9712.000000;0.946228
9711.000000;0.945032
9710.000000;0.943774
9709.000000;0.943291
9708.000000;0.943815
9707.000000;0.944695
9706.000000;0.945074
9705.000000;0.944649
9704.000000;0.943708
9703.000000;0.942679
9702.000000;0.941845
9701.000000;0.941302
9700.000000;0.940905
9699.000000;0.940260
9698.000000;0.939053
9697.000000;0.937530
9696.000000;0.936484
9695.000000;0.936613
9694.000000;0.937901
9693.000000;0.939668
9692.000000;0.941110
9691.000000;0.941682
9690.000000;0.941155
9689.000000;0.939598
9688.000000;0.937417
9687.000000;0.935234
9686.000000;0.933624
9685.000000;0.932956
9684.000000;0.933357
9683.000000;0.934632
9682.000000;0.936162
9681.000000;0.937131
9680.000000;0.937107
9679.000000;0.936414
9678.000000;0.935801
9677.000000;0.935714
9676.000000;0.935923
9675.000000;0.935783
9674.000000;0.934881
9673.000000;0.933503
9672.000000;0.932465
9671.000000;0.932341
9670.000000;0.932795
9669.000000;0.932865
9668.000000;0.932067
9667.000000;0.931000
9666.000000;0.930592
9665.000000;0.930905
9664.000000;0.931067
9663.000000;0.930404
9662.000000;0.929298
9661.000000;0.928715
9660.000000;0.929083
9659.000000;0.929837
9658.000000;0.930007
9657.000000;0.929170
9656.000000;0.927846
9655.000000;0.927025
9654.000000;0.927249
9653.000000;0.928112
9652.000000;0.928675
9651.000000;0.928347
9650.000000;0.927271
9649.000000;0.925944
9648.000000;0.924761
9647.000000;0.923983
9646.000000;0.923796
9645.000000;0.924111
9644.000000;0.924446
9643.000000;0.924284
9642.000000;0.923543
9641.000000;0.922579
9640.000000;0.921851
9639.000000;0.921717
9638.000000;0.922330
9637.000000;0.923399
9636.000000;0.924146
9635.000000;0.923888
9634.000000;0.922721
9633.000000;0.921344
9632.000000;0.920219
9631.000000;0.919260
9630.000000;0.918424
9629.000000;0.918190
9628.000000;0.919131
9627.000000;0.921204
9626.000000;0.923680
9625.000000;0.925597
9624.000000;0.926166
9623.000000;0.925059
9622.000000;0.922721
9621.000000;0.920281
9620.000000;0.918854
9619.000000;0.918816
9618.000000;0.919780
9617.000000;0.921050
9616.000000;0.921863
9615.000000;0.921511
9614.000000;0.919803
9613.000000;0.917477
9612.000000;0.915678
9611.000000;0.914846
9610.000000;0.914394
9609.000000;0.913611
9608.000000;0.912584
9607.000000;0.911977
9606.000000;0.912190
9605.000000;0.913020
9604.000000;0.913974
9603.000000;0.914589
9602.000000;0.914561
9601.000000;0.913924
9600.000000;0.913198
9599.000000;0.913088
9598.000000;0.913868
9597.000000;0.915085
9596.000000;0.915880
9595.000000;0.915569
9594.000000;0.914068
9593.000000;0.911968
9592.000000;0.910181
9591.000000;0.909283
9590.000000;0.909126
9589.000000;0.909141
9588.000000;0.908991
9587.000000;0.908743
9586.000000;0.908452
9585.000000;0.907928
9584.000000;0.907116
9583.000000;0.906444
9582.000000;0.906434
9581.000000;0.906963
9580.000000;0.907236
9579.000000;0.906688
9578.000000;0.905746
9577.000000;0.905406
9576.000000;0.906069
9575.000000;0.907022
9574.000000;0.907220
9573.000000;0.906453
9572.000000;0.905513
9571.000000;0.905229
9570.000000;0.905582
9569.000000;0.905886
9568.000000;0.905677
9567.000000;0.905181
9566.000000;0.904870
9565.000000;0.904771
9564.000000;0.904437
9563.000000;0.903603
9562.000000;0.902694
9561.000000;0.902479
9560.000000;0.903184
9559.000000;0.904104
9558.000000;0.904252
9557.000000;0.903346
9556.000000;0.901996
9555.000000;0.900903
9554.000000;0.900120
9553.000000;0.899270
9552.000000;0.898278
9551.000000;0.897618
9550.000000;0.897811
9549.000000;0.898881
9548.000000;0.900291
9547.000000;0.901258
9546.000000;0.901116
9545.000000;0.899629
9544.000000;0.897236
9543.000000;0.894992
9542.000000;0.894014
9541.000000;0.894710
9540.000000;0.896430
9539.000000;0.897930
9538.000000;0.898341
9537.000000;0.897775
9536.000000;0.897048
9535.000000;0.896859
9534.000000;0.897234
9533.000000;0.897681
9532.000000;0.897730
9531.000000;0.897318
9530.000000;0.896724
9529.000000;0.896245
9528.000000;0.895924
9527.000000;0.895569
9526.000000;0.895089
9525.000000;0.894756
9524.000000;0.895012
9523.000000;0.895903
9522.000000;0.896754
9521.000000;0.896610
9520.000000;0.895111
9519.000000;0.892931
9518.000000;0.891248
9517.000000;0.890769
9516.000000;0.891278
9515.000000;0.892069
9514.000000;0.892657
9513.000000;0.892959
9512.000000;0.892919
9511.000000;0.892295
9510.000000;0.891026
9509.000000;0.889582
9508.000000;0.888626
9507.000000;0.888346
9506.000000;0.888337
9505.000000;0.888145
9504.000000;0.887705
9503.000000;0.887222
9502.000000;0.886919
9501.000000;0.886965
9500.000000;0.887453
9499.000000;0.888233
9498.000000;0.888889
9497.000000;0.889077
9496.000000;0.888784
9495.000000;0.888171
9494.000000;0.887332
9493.000000;0.886342
9492.000000;0.885405
9491.000000;0.884737
9490.000000;0.884333
9489.000000;0.883998
9488.000000;0.883552
9487.000000;0.882961
9486.000000;0.882369
9485.000000;0.882045
9484.000000;0.882127
9483.000000;0.882312
9482.000000;0.882049
9481.000000;0.881218
9480.000000;0.880407
9479.000000;0.880241
9478.000000;0.880587
9477.000000;0.880687
9476.000000;0.880010
9475.000000;0.878754
9474.000000;0.877560
9473.000000;0.876975
9472.000000;0.877135
9471.000000;0.877697
9470.000000;0.878099
9469.000000;0.878114
9468.000000;0.878113
9467.000000;0.878562
9466.000000;0.879365
9465.000000;0.879977
9464.000000;0.880054
9463.000000;0.879658
9462.000000;0.878924
9461.000000;0.877975
9460.000000;0.877164
9459.000000;0.876953
9458.000000;0.877337
9457.000000;0.877734
9456.000000;0.877664
9455.000000;0.877263
9454.000000;0.876976
9453.000000;0.877032
9452.000000;0.877378
9451.000000;0.877843
9450.000000;0.878128
9449.000000;0.877899
9448.000000;0.877142
9447.000000;0.876245
9446.000000;0.875528
9445.000000;0.874926
9444.000000;0.874355
9443.000000;0.874127
9442.000000;0.874584
9441.000000;0.875502
9440.000000;0.876260
9439.000000;0.876582
9438.000000;0.876746
9437.000000;0.876997
9436.000000;0.877067
9435.000000;0.876499
9434.000000;0.875242
9433.000000;0.873771
9432.000000;0.872701
9431.000000;0.872373
9430.000000;0.872695
9429.000000;0.873255
9428.000000;0.873610
9427.000000;0.873555
9426.000000;0.873175
9425.000000;0.872658
9424.000000;0.872105
9423.000000;0.871513
9422.000000;0.870925
9421.000000;0.870515
9420.000000;0.870467
9419.000000;0.870770
9418.000000;0.871191
9417.000000;0.871496
9416.000000;0.871606
9415.000000;0.871435
9414.000000;0.870771
9413.000000;0.869545
9412.000000;0.868164
9411.000000;0.867218
9410.000000;0.866796
9409.000000;0.866402
9408.000000;0.865713
9407.000000;0.865165
9406.000000;0.865457
9405.000000;0.866576
9404.000000;0.867616
9403.000000;0.867624
9402.000000;0.866504
9401.000000;0.865051
9400.000000;0.864220
9399.000000;0.864357
9398.000000;0.865011
9397.000000;0.865466
9396.000000;0.865453
9395.000000;0.865278
9394.000000;0.865245
9393.000000;0.865209
9392.000000;0.864878
9391.000000;0.864387
9390.000000;0.864217
9389.000000;0.864516
9388.000000;0.864775
9387.000000;0.864335
9386.000000;0.863167
9385.000000;0.861992
9384.000000;0.861585
9383.000000;0.862013
9382.000000;0.862625
9381.000000;0.862786
9380.000000;0.862536
9379.000000;0.862391
9378.000000;0.862573
9377.000000;0.862708
9376.000000;0.862393
9375.000000;0.861833
9374.000000;0.861673
9373.000000;0.862265
9372.000000;0.863272
9371.000000;0.864015
9370.000000;0.864065
9369.000000;0.863532
9368.000000;0.862844
9367.000000;0.862277
9366.000000;0.861715
9365.000000;0.860894
9364.000000;0.859834
9363.000000;0.858869
9362.000000;0.858256
9361.000000;0.857952
9360.000000;0.857844
9359.000000;0.857974
9358.000000;0.858326
9357.000000;0.858614
9356.000000;0.858562
9355.000000;0.858336
9354.000000;0.858390
9353.000000;0.858869
9352.000000;0.859374
9351.000000;0.859335
9350.000000;0.858490
9349.000000;0.857014
9348.000000;0.855387
9347.000000;0.854135
9346.000000;0.853499
9345.000000;0.853266
9344.000000;0.853041
9343.000000;0.852718
9342.000000;0.852572
9341.000000;0.852864
9340.000000;0.853492
9339.000000;0.854078
9338.000000;0.854315
9337.000000;0.854183
9336.000000;0.853917
9335.000000;0.853803
9334.000000;0.853954
9333.000000;0.854214
9332.000000;0.854289
9331.000000;0.853983
9330.000000;0.853354
9329.000000;0.852701
9328.000000;0.852394
9327.000000;0.852598
9326.000000;0.853111
9325.000000;0.853563
9324.000000;0.853791
9323.000000;0.853889
9322.000000;0.853881
9321.000000;0.853607
9320.000000;0.853052
9319.000000;0.852561
9318.000000;0.852469
9317.000000;0.852695
9316.000000;0.852929
9315.000000;0.853015
9314.000000;0.852836
9313.000000;0.852074
9312.000000;0.850589
9311.000000;0.848939
9310.000000;0.847983
9309.000000;0.847876
9308.000000;0.847979
9307.000000;0.847862
9306.000000;0.847851
9305.000000;0.848280
9304.000000;0.848751
9303.000000;0.848684
9302.000000;0.848255
9301.000000;0.848135
9300.000000;0.848402
9299.000000;0.848330
9298.000000;0.847363
9297.000000;0.845831
9296.000000;0.844513
9295.000000;0.843840
9294.000000;0.843751
9293.000000;0.844026
9292.000000;0.844490
9291.000000;0.845033
9290.000000;0.845675
9289.000000;0.846494
9288.000000;0.847331
9287.000000;0.847696
9286.000000;0.847245
9285.000000;0.846291
9284.000000;0.845590
9283.000000;0.845604
9282.000000;0.846174
9281.000000;0.846838
9280.000000;0.847177
9279.000000;0.846831
9278.000000;0.845592
9277.000000;0.843787
9276.000000;0.842291
9275.000000;0.841760
9274.000000;0.841961
9273.000000;0.842156
9272.000000;0.842070
9271.000000;0.842065
9270.000000;0.842406
9269.000000;0.842835
9268.000000;0.843061
9267.000000;0.843188
9266.000000;0.843301
9265.000000;0.843046
9264.000000;0.842129
9263.000000;0.841018
9262.000000;0.840571
9261.000000;0.840952
9260.000000;0.841378
9259.000000;0.841067
9258.000000;0.840065
9257.000000;0.839003
9256.000000;0.838387
9255.000000;0.838330
9254.000000;0.838665
9253.000000;0.839079
9252.000000;0.839320
9251.000000;0.839489
9250.000000;0.839903
9249.000000;0.840488
9248.000000;0.840557
9247.000000;0.839552
9246.000000;0.837882
9245.000000;0.836662
9244.000000;0.836614
9243.000000;0.837516
9242.000000;0.838670
9241.000000;0.839616
9240.000000;0.840266
9239.000000;0.840621
9238.000000;0.840636
9237.000000;0.840315
9236.000000;0.839776
9235.000000;0.839182
9234.000000;0.838622
9233.000000;0.838032
9232.000000;0.837247
9231.000000;0.836257
9230.000000;0.835404
9229.000000;0.835184
9228.000000;0.835743
9227.000000;0.836638
9226.000000;0.837234
9225.000000;0.837308
9224.000000;0.837160
9223.000000;0.837138
9222.000000;0.837168
9221.000000;0.836811
9220.000000;0.835699
9219.000000;0.833940
9218.000000;0.832189
9217.000000;0.831319
9216.000000;0.831823
9215.000000;0.833389
9214.000000;0.835089
9213.000000;0.836126
9212.000000;0.836403
9211.000000;0.836326
9210.000000;0.836191
9209.000000;0.835952
9208.000000;0.835530
9207.000000;0.835093
9206.000000;0.834914
9205.000000;0.835054
9204.000000;0.835260
9203.000000;0.835163
9202.000000;0.834601
9201.000000;0.833825
9200.000000;0.833328
9199.000000;0.833318
9198.000000;0.833428
9197.000000;0.833147
9196.000000;0.832524
9195.000000;0.832124
9194.000000;0.832242
9193.000000;0.832532
9192.000000;0.832585
9191.000000;0.832503
9190.000000;0.832601
9189.000000;0.832819
9188.000000;0.832848
9187.000000;0.832684
9186.000000;0.832589
9185.000000;0.832550
9184.000000;0.832252
9183.000000;0.831682
9182.000000;0.831271
9181.000000;0.831207
9180.000000;0.831008
9179.000000;0.830104
9178.000000;0.828641
9177.000000;0.827370
9176.000000;0.826861
9175.000000;0.827078
9174.000000;0.827627
9173.000000;0.828125
9172.000000;0.828313
9171.000000;0.828076
9170.000000;0.827510
9169.000000;0.826898
9168.000000;0.826538
9167.000000;0.826566
9166.000000;0.826919
9165.000000;0.827385
9164.000000;0.827706
9163.000000;0.827710
9162.000000;0.827454
9161.000000;0.827240
9160.000000;0.827411
9159.000000;0.828022
9158.000000;0.828686
9157.000000;0.828852
9156.000000;0.828347
9155.000000;0.827592
9154.000000;0.827188
9153.000000;0.827338
9152.000000;0.827765
9151.000000;0.828098
9150.000000;0.828184
9149.000000;0.828034
9148.000000;0.827664
9147.000000;0.827062
9146.000000;0.826222
9145.000000;0.825168
9144.000000;0.824070
9143.000000;0.823308
9142.000000;0.823248
9141.000000;0.823887
9140.000000;0.824830
9139.000000;0.825670
9138.000000;0.826208
9137.000000;0.826285
9136.000000;0.825674
9135.000000;0.824411
9134.000000;0.823083
9133.000000;0.822503
9132.000000;0.823011
9131.000000;0.824193
9130.000000;0.825268
9129.000000;0.825664
9128.000000;0.825278
9127.000000;0.824386
9126.000000;0.823436
9125.000000;0.822853
9124.000000;0.822820
9123.000000;0.823114
9122.000000;0.823221
9121.000000;0.822785
9120.000000;0.821998
9119.000000;0.821453
9118.000000;0.821563
9117.000000;0.822171
9116.000000;0.822791
9115.000000;0.823050
9114.000000;0.822802
9113.000000;0.821994
9112.000000;0.820727
9111.000000;0.819371
9110.000000;0.818374
9109.000000;0.817936
9108.000000;0.818025
9107.000000;0.818632
9106.000000;0.819720
9105.000000;0.820898
9104.000000;0.821536
9103.000000;0.821360
9102.000000;0.820727
9101.000000;0.820139
9100.000000;0.819760
9099.000000;0.819543
9098.000000;0.819516
9097.000000;0.819664
9096.000000;0.819768
9095.000000;0.819705
9094.000000;0.819744
9093.000000;0.820195
9092.000000;0.820834
9091.000000;0.821035
9090.000000;0.820477
9089.000000;0.819437
9088.000000;0.818367
9087.000000;0.817546
9086.000000;0.817163
9085.000000;0.817355
9084.000000;0.817902
9083.000000;0.818121
9082.000000;0.817429
9081.000000;0.815999
9080.000000;0.814677
9079.000000;0.814256
9078.000000;0.814921
9077.000000;0.816288
9076.000000;0.817734
9075.000000;0.818667
9074.000000;0.818725
9073.000000;0.818001
9072.000000;0.817059
9071.000000;0.816588
9070.000000;0.816876
9069.000000;0.817605
9068.000000;0.818133
9067.000000;0.818017
9066.000000;0.817323
9065.000000;0.816524
9064.000000;0.816119
9063.000000;0.816240
9062.000000;0.816559
9061.000000;0.816627
9060.000000;0.816374
9059.000000;0.816205
9058.000000;0.816512
9057.000000;0.817164
9056.000000;0.817583
9055.000000;0.817300
9054.000000;0.816371
9053.000000;0.815296
