Criado como novo conjunto de dados;"e0108.spp","-4228721.8 Secs"
cm-1;Abs
10000.000000;1.842825
9999.000000;1.845777
9998.000000;1.851507
9997.000000;1.857016
9996.000000;1.862849
9995.000000;1.872526
9994.000000;1.884698
9993.000000;1.893143
9992.000000;1.892408
9991.000000;1.886111
9990.000000;1.882689
9989.000000;1.885201
9988.000000;1.887700
9987.000000;1.883290
9986.000000;1.873631
9985.000000;1.866839
9984.000000;1.867601
9983.000000;1.873027
9982.000000;1.877416
9981.000000;1.878755
9980.000000;1.879187
9979.000000;1.881147
9978.000000;1.885544
9977.000000;1.891735
9976.000000;1.897130
9975.000000;1.898527
9974.000000;1.894531
9973.000000;1.885862
9972.000000;1.874922
9971.000000;1.865897
9970.000000;1.862978
9969.000000;1.867254
9968.000000;1.875968
9967.000000;1.884740
9966.000000;1.890363
9965.000000;1.892336
9964.000000;1.892202
9963.000000;1.891458
9962.000000;1.890212
9961.000000;1.887355
9960.000000;1.881867
9959.000000;1.874632
9958.000000;1.868779
9957.000000;1.867184
9956.000000;1.869269
9955.000000;1.870949
9954.000000;1.868513
9953.000000;1.861969
9952.000000;1.853759
9951.000000;1.845558
9950.000000;1.838147
9949.000000;1.833640
9948.000000;1.834496
9947.000000;1.839707
9946.000000;1.845164
9945.000000;1.847921
9944.000000;1.848108
9943.000000;1.848139
9942.000000;1.850597
9941.000000;1.855517
9940.000000;1.860165
9939.000000;1.862195
9938.000000;1.862533
9937.000000;1.863760
9936.000000;1.865383
9935.000000;1.862916
9934.000000;1.853735
9933.000000;1.841885
9932.000000;1.834256
9931.000000;1.833844
9930.000000;1.838937
9929.000000;1.847281
9928.000000;1.857622
9927.000000;1.867373
9926.000000;1.872885
9925.000000;1.872844
9924.000000;1.868981
9923.000000;1.862961
9922.000000;1.854559
9921.000000;1.844000
9920.000000;1.834367
9919.000000;1.830145
9918.000000;1.833662
9917.000000;1.843235
9916.000000;1.854266
9915.000000;1.861799
9914.000000;1.863287
9913.000000;1.860150
9912.000000;1.856189
9911.000000;1.853735
9910.000000;1.851641
9909.000000;1.847958
9908.000000;1.843830
9907.000000;1.842759
9906.000000;1.846145
9905.000000;1.850937
9904.000000;1.852363
9903.000000;1.849030
9902.000000;1.844365
9901.000000;1.842536
9900.000000;1.844110
9899.000000;1.846339
9898.000000;1.847053
9897.000000;1.846854
9896.000000;1.846938
9895.000000;1.846259
9894.000000;1.842606
9893.000000;1.836710
9892.000000;1.833121
9891.000000;1.835369
9890.000000;1.842089
9889.000000;1.849113
9888.000000;1.853902
9887.000000;1.856673
9886.000000;1.857942
9885.000000;1.856616
9884.000000;1.851512
9883.000000;1.844004
9882.000000;1.837546
9881.000000;1.834356
9880.000000;1.833411
9879.000000;1.832436
9878.000000;1.831636
9877.000000;1.833427
9876.000000;1.838024
9875.000000;1.841916
9874.000000;1.841988
9873.000000;1.839028
9872.000000;1.835536
9871.000000;1.832128
9870.000000;1.828167
9869.000000;1.824281
9868.000000;1.821647
9867.000000;1.819691
9866.000000;1.817114
9865.000000;1.814823
9864.000000;1.815180
9863.000000;1.818399
9862.000000;1.822162
9861.000000;1.824707
9860.000000;1.825984
9859.000000;1.825888
9858.000000;1.824208
9857.000000;1.822834
9856.000000;1.824767
9855.000000;1.829485
9854.000000;1.832052
9853.000000;1.828979
9852.000000;1.822790
9851.000000;1.818595
9850.000000;1.818785
9849.000000;1.822701
9848.000000;1.828758
9847.000000;1.834814
9846.000000;1.838201
9845.000000;1.837813
9844.000000;1.835518
9843.000000;1.833963
9842.000000;1.833579
9841.000000;1.832850
9840.000000;1.831743
9839.000000;1.832450
9838.000000;1.835629
9837.000000;1.838762
9836.000000;1.838407
9835.000000;1.832656
9834.000000;1.822723
9833.000000;1.813054
9832.000000;1.808478
9831.000000;1.809913
9830.000000;1.813565
9829.000000;1.815809
9828.000000;1.817448
9827.000000;1.820497
9826.000000;1.823101
9825.000000;1.821650
9824.000000;1.816665
9823.000000;1.812230
9822.000000;1.809941
9821.000000;1.807483
9820.000000;1.803571
9819.000000;1.800403
9818.000000;1.799788
9817.000000;1.800321
9816.000000;1.800237
9815.000000;1.800221
9814.000000;1.801207
9813.000000;1.801997
9812.000000;1.801693
9811.000000;1.802372
9810.000000;1.806255
9809.000000;1.811403
9808.000000;1.813203
9807.000000;1.809960
9806.000000;1.804275
9805.000000;1.799231
9804.000000;1.796083
9803.000000;1.795378
9802.000000;1.797552
9801.000000;1.801608
9800.000000;1.804974
9799.000000;1.805829
9798.000000;1.804644
9797.000000;1.802588
9796.000000;1.800147
9795.000000;1.798473
9794.000000;1.799446
9793.000000;1.803573
9792.000000;1.809133
9791.000000;1.813561
9790.000000;1.815628
9789.000000;1.815312
9788.000000;1.812102
9787.000000;1.805759
9786.000000;1.798603
9785.000000;1.794957
9784.000000;1.797338
9783.000000;1.803777
9782.000000;1.809505
9781.000000;1.811354
9780.000000;1.809791
9779.000000;1.806781
9778.000000;1.803333
9777.000000;1.799919
9776.000000;1.797724
9775.000000;1.797823
9774.000000;1.799706
9773.000000;1.802135
9772.000000;1.805253
9771.000000;1.810069
9770.000000;1.815356
9769.000000;1.816900
9768.000000;1.811924
9767.000000;1.803320
9766.000000;1.797077
9765.000000;1.796474
9764.000000;1.800130
9763.000000;1.804668
9762.000000;1.808051
9761.000000;1.810432
9760.000000;1.812549
9759.000000;1.813956
9758.000000;1.813157
9757.000000;1.809098
9756.000000;1.802544
9755.000000;1.796099
9754.000000;1.792199
9753.000000;1.791099
9752.000000;1.791050
9751.000000;1.790280
9750.000000;1.788693
9749.000000;1.787708
9748.000000;1.788405
9747.000000;1.790062
9746.000000;1.791077
9745.000000;1.790929
9744.000000;1.790567
9743.000000;1.791221
9742.000000;1.792957
9741.000000;1.794398
9740.000000;1.794156
9739.000000;1.792434
9738.000000;1.790876
9737.000000;1.790862
9736.000000;1.792273
9735.000000;1.793838
9734.000000;1.794313
9733.000000;1.793323
9732.000000;1.791638
9731.000000;1.790587
9730.000000;1.790526
9729.000000;1.790165
9728.000000;1.787846
9727.000000;1.783405
9726.000000;1.778600
9725.000000;1.775386
9724.000000;1.774129
9723.000000;1.774070
9722.000000;1.775002
9721.000000;1.777794
9720.000000;1.783049
9719.000000;1.788996
9718.000000;1.791651
9717.000000;1.788588
9716.000000;1.781644
9715.000000;1.775138
9714.000000;1.772430
9713.000000;1.773929
9712.000000;1.777397
9711.000000;1.779990
9710.000000;1.780209
9709.000000;1.778234
9708.000000;1.775133
9707.000000;1.772335
9706.000000;1.771305
9705.000000;1.772730
9704.000000;1.775777
9703.000000;1.778699
9702.000000;1.780307
9701.000000;1.780526
9700.000000;1.779979
9699.000000;1.779543
9698.000000;1.779756
9697.000000;1.780271
9696.000000;1.780121
9695.000000;1.778837
9694.000000;1.777160
9693.000000;1.776157
9692.000000;1.775756
9691.000000;1.774642
9690.000000;1.771779
9689.000000;1.767765
9688.000000;1.764452
9687.000000;1.763565
9686.000000;1.765607
9685.000000;1.769314
9684.000000;1.772227
9683.000000;1.772652
9682.000000;1.771281
9681.000000;1.770195
9680.000000;1.770279
9679.000000;1.770673
9678.000000;1.770955
9677.000000;1.772401
9676.000000;1.776071
9675.000000;1.780397
9674.000000;1.781650
9673.000000;1.777344
9672.000000;1.768588
9671.000000;1.758852
9670.000000;1.751632
9669.000000;1.748759
9668.000000;1.749594
9667.000000;1.751715
9666.000000;1.753052
9665.000000;1.753774
9664.000000;1.755383
9663.000000;1.757919
9662.000000;1.759275
9661.000000;1.758207
9660.000000;1.756830
9659.000000;1.758186
9658.000000;1.762180
9657.000000;1.765568
9656.000000;1.765834
9655.000000;1.763788
9654.000000;1.761665
9653.000000;1.759647
9652.000000;1.755758
9651.000000;1.749364
9650.000000;1.743097
9649.000000;1.740168
9648.000000;1.740681
9647.000000;1.742256
9646.000000;1.744052
9645.000000;1.747814
9644.000000;1.754711
9643.000000;1.762864
9642.000000;1.768424
9641.000000;1.768965
9640.000000;1.765343
9639.000000;1.760246
9638.000000;1.755940
9637.000000;1.753048
9636.000000;1.750621
9635.000000;1.747885
9634.000000;1.746363
9633.000000;1.749011
9632.000000;1.755991
9631.000000;1.762377
9630.000000;1.762259
9629.000000;1.755552
9628.000000;1.748279
9627.000000;1.745818
9626.000000;1.748308
9625.000000;1.752301
9624.000000;1.754602
9623.000000;1.753929
9622.000000;1.750658
9621.000000;1.746705
9620.000000;1.744859
9619.000000;1.746522
9618.000000;1.750070
9617.000000;1.752318
9616.000000;1.751634
9615.000000;1.749032
9614.000000;1.746595
9613.000000;1.745856
9612.000000;1.747727
9611.000000;1.752546
9610.000000;1.759177
9609.000000;1.764822
9608.000000;1.767052
9607.000000;1.766119
9606.000000;1.764126
9605.000000;1.761866
9604.000000;1.757931
9603.000000;1.751761
9602.000000;1.745980
9601.000000;1.744329
9600.000000;1.747759
9599.000000;1.753089
9598.000000;1.755896
9597.000000;1.754638
9596.000000;1.751487
9595.000000;1.749481
9594.000000;1.749565
9593.000000;1.750132
9592.000000;1.749139
9591.000000;1.746928
9590.000000;1.746399
9589.000000;1.749363
9588.000000;1.753435
9587.000000;1.754303
9586.000000;1.751129
9585.000000;1.747526
9584.000000;1.746491
9583.000000;1.746786
9582.000000;1.745756
9581.000000;1.743692
9580.000000;1.742724
9579.000000;1.742614
9578.000000;1.740734
9577.000000;1.736220
9576.000000;1.731594
9575.000000;1.729787
9574.000000;1.731634
9573.000000;1.736159
9572.000000;1.740989
9571.000000;1.742428
9570.000000;1.737814
9569.000000;1.728947
9568.000000;1.721411
9567.000000;1.719692
9566.000000;1.723783
9565.000000;1.730163
9564.000000;1.734759
9563.000000;1.735003
9562.000000;1.730992
9561.000000;1.725637
9560.000000;1.722422
9559.000000;1.722425
9558.000000;1.724198
9557.000000;1.726278
9556.000000;1.728387
9555.000000;1.730101
9554.000000;1.730463
9553.000000;1.729807
9552.000000;1.729933
9551.000000;1.731180
9550.000000;1.731289
9549.000000;1.729084
9548.000000;1.727306
9547.000000;1.729230
9546.000000;1.733995
9545.000000;1.737567
9544.000000;1.737539
9543.000000;1.734976
9542.000000;1.732117
9541.000000;1.730568
9540.000000;1.731379
9539.000000;1.734631
9538.000000;1.738513
9537.000000;1.740409
9536.000000;1.739657
9535.000000;1.737780
9534.000000;1.735572
9533.000000;1.731801
9532.000000;1.725651
9531.000000;1.719461
9530.000000;1.717340
9529.000000;1.720769
9528.000000;1.726565
9527.000000;1.729291
9526.000000;1.726167
9525.000000;1.720174
9524.000000;1.716619
9523.000000;1.717259
9522.000000;1.719412
9521.000000;1.719757
9520.000000;1.717698
9519.000000;1.714720
9518.000000;1.712009
9517.000000;1.710386
9516.000000;1.711317
9515.000000;1.715662
9514.000000;1.721477
9513.000000;1.724831
9512.000000;1.723583
9511.000000;1.718978
9510.000000;1.713230
9509.000000;1.707705
9508.000000;1.703811
9507.000000;1.703387
9506.000000;1.707007
9505.000000;1.712724
9504.000000;1.717489
9503.000000;1.719960
9502.000000;1.721283
9501.000000;1.722871
9500.000000;1.724368
9499.000000;1.724488
9498.000000;1.723280
9497.000000;1.722466
9496.000000;1.723049
9495.000000;1.723335
9494.000000;1.720555
9493.000000;1.714585
9492.000000;1.708567
9491.000000;1.705549
9490.000000;1.705935
9489.000000;1.707963
9488.000000;1.709334
9487.000000;1.708309
9486.000000;1.704624
9485.000000;1.700391
9484.000000;1.698686
9483.000000;1.700485
9482.000000;1.704278
9481.000000;1.708846
9480.000000;1.714451
9479.000000;1.719938
9478.000000;1.721402
9477.000000;1.716890
9476.000000;1.710461
9475.000000;1.707920
9474.000000;1.710031
9473.000000;1.712823
9472.000000;1.713614
9471.000000;1.713227
9470.000000;1.712086
9469.000000;1.708664
9468.000000;1.703581
9467.000000;1.701222
9466.000000;1.704474
9465.000000;1.710512
9464.000000;1.714212
9463.000000;1.714438
9462.000000;1.714204
9461.000000;1.715407
9460.000000;1.716481
9459.000000;1.715337
9458.000000;1.712515
9457.000000;1.710733
9456.000000;1.712345
9455.000000;1.717327
9454.000000;1.722936
9453.000000;1.725599
9452.000000;1.723808
9451.000000;1.719048
9450.000000;1.713886
9449.000000;1.709697
9448.000000;1.706198
9447.000000;1.702809
9446.000000;1.699965
9445.000000;1.698720
9444.000000;1.699486
9443.000000;1.701319
9442.000000;1.702198
9441.000000;1.700747
9440.000000;1.697879
9439.000000;1.695949
9438.000000;1.696212
9437.000000;1.697716
9436.000000;1.698678
9435.000000;1.698123
9434.000000;1.696109
9433.000000;1.693483
9432.000000;1.691782
9431.000000;1.692386
9430.000000;1.695376
9429.000000;1.699676
9428.000000;1.704089
9427.000000;1.707298
9426.000000;1.707363
9425.000000;1.703166
9424.000000;1.696656
9423.000000;1.691848
9422.000000;1.690983
9421.000000;1.692821
9420.000000;1.694972
9419.000000;1.696729
9418.000000;1.698896
9417.000000;1.701900
9416.000000;1.705126
9415.000000;1.707364
9414.000000;1.707081
9413.000000;1.703189
9412.000000;1.696544
9411.000000;1.689814
9410.000000;1.685133
9409.000000;1.682809
9408.000000;1.682622
9407.000000;1.684831
9406.000000;1.688930
9405.000000;1.692860
9404.000000;1.695061
9403.000000;1.696394
9402.000000;1.698528
9401.000000;1.701211
9400.000000;1.702459
9399.000000;1.700874
9398.000000;1.696615
9397.000000;1.690737
9396.000000;1.685047
9395.000000;1.681848
9394.000000;1.682091
9393.000000;1.683965
9392.000000;1.684602
9391.000000;1.683189
9390.000000;1.681296
9389.000000;1.680424
9388.000000;1.680662
9387.000000;1.681560
9386.000000;1.682850
9385.000000;1.684141
9384.000000;1.684929
9383.000000;1.684986
9382.000000;1.684093
9381.000000;1.681651
9380.000000;1.677907
9379.000000;1.675344
9378.000000;1.676759
9377.000000;1.681765
9376.000000;1.686635
9375.000000;1.688042
9374.000000;1.686061
9373.000000;1.683031
9372.000000;1.680906
9371.000000;1.680488
9370.000000;1.681918
9369.000000;1.684708
9368.000000;1.687567
9367.000000;1.689149
9366.000000;1.689248
9365.000000;1.688949
9364.000000;1.689517
9363.000000;1.691069
9362.000000;1.692236
9361.000000;1.691367
9360.000000;1.688394
9359.000000;1.685119
9358.000000;1.683367
9357.000000;1.683600
9356.000000;1.685621
9355.000000;1.689522
9354.000000;1.695008
9353.000000;1.700360
9352.000000;1.703176
9351.000000;1.702204
9350.000000;1.697852
9349.000000;1.691275
9348.000000;1.683983
9347.000000;1.677924
9346.000000;1.674653
9345.000000;1.674423
9344.000000;1.676679
9343.000000;1.680953
9342.000000;1.686204
9341.000000;1.689930
9340.000000;1.689873
9339.000000;1.686748
9338.000000;1.683479
9337.000000;1.681594
9336.000000;1.679848
9335.000000;1.676629
9334.000000;1.672588
9333.000000;1.670007
9332.000000;1.670096
9331.000000;1.671876
9330.000000;1.673687
9329.000000;1.675249
9328.000000;1.677886
9327.000000;1.682505
9326.000000;1.687624
9325.000000;1.690408
9324.000000;1.690216
9323.000000;1.689833
9322.000000;1.691751
9321.000000;1.694108
9320.000000;1.692190
9319.000000;1.684333
9318.000000;1.674442
9317.000000;1.667943
9316.000000;1.666934
9315.000000;1.669155
9314.000000;1.670180
9313.000000;1.666973
9312.000000;1.660598
9311.000000;1.655695
9310.000000;1.656624
9309.000000;1.663491
9308.000000;1.671950
9307.000000;1.677393
9306.000000;1.679053
9305.000000;1.679195
9304.000000;1.679414
9303.000000;1.679448
9302.000000;1.678872
9301.000000;1.678052
9300.000000;1.677220
9299.000000;1.675804
9298.000000;1.673273
9297.000000;1.670406
9296.000000;1.668983
9295.000000;1.669827
9294.000000;1.671187
9293.000000;1.669629
9292.000000;1.663680
9291.000000;1.656288
9290.000000;1.652411
9289.000000;1.654217
9288.000000;1.659238
9287.000000;1.663209
9286.000000;1.664158
9285.000000;1.663202
9284.000000;1.662254
9283.000000;1.662313
9282.000000;1.663510
9281.000000;1.665393
9280.000000;1.666952
9279.000000;1.667148
9278.000000;1.665598
9277.000000;1.662692
9276.000000;1.659469
9275.000000;1.657422
9274.000000;1.657795
9273.000000;1.660363
9272.000000;1.663070
9271.000000;1.663823
9270.000000;1.662661
9269.000000;1.661370
9268.000000;1.661073
9267.000000;1.661226
9266.000000;1.660978
9265.000000;1.660431
9264.000000;1.660027
9263.000000;1.659546
9262.000000;1.658493
9261.000000;1.657146
9260.000000;1.656564
9259.000000;1.657425
9258.000000;1.659112
9257.000000;1.660181
9256.000000;1.659687
9255.000000;1.657846
9254.000000;1.655592
9253.000000;1.653964
9252.000000;1.653991
9251.000000;1.656525
9250.000000;1.661110
9249.000000;1.664978
9248.000000;1.664584
9247.000000;1.659303
9246.000000;1.652786
9245.000000;1.649529
9244.000000;1.650536
9243.000000;1.653082
9242.000000;1.654454
9241.000000;1.654662
9240.000000;1.654896
9239.000000;1.654928
9238.000000;1.653597
9237.000000;1.651077
9236.000000;1.648995
9235.000000;1.648362
9234.000000;1.648684
9233.000000;1.649331
9232.000000;1.650559
9231.000000;1.652481
9230.000000;1.653983
9229.000000;1.653675
9228.000000;1.651536
9227.000000;1.648834
9226.000000;1.646752
9225.000000;1.645899
9224.000000;1.646766
9223.000000;1.649461
9222.000000;1.653014
9221.000000;1.655816
9220.000000;1.656774
9219.000000;1.655652
9218.000000;1.652647
9217.000000;1.648505
9216.000000;1.644891
9215.000000;1.643441
9214.000000;1.643979
9213.000000;1.644536
9212.000000;1.643921
9211.000000;1.643424
9210.000000;1.644853
9209.000000;1.648021
9208.000000;1.651082
9207.000000;1.652616
9206.000000;1.652843
9205.000000;1.652861
9204.000000;1.653402
9203.000000;1.654417
9202.000000;1.654994
9201.000000;1.653709
9200.000000;1.649919
9199.000000;1.644872
9198.000000;1.640873
9197.000000;1.639273
9196.000000;1.639699
9195.000000;1.640959
9194.000000;1.642022
9193.000000;1.642314
9192.000000;1.642035
9191.000000;1.642378
9190.000000;1.644857
9189.000000;1.650012
9188.000000;1.656643
9187.000000;1.662118
9186.000000;1.663579
9185.000000;1.659685
9184.000000;1.651978
9183.000000;1.644217
9182.000000;1.639599
9181.000000;1.638569
9180.000000;1.639395
9179.000000;1.640286
9178.000000;1.640284
9177.000000;1.638754
9176.000000;1.635482
9175.000000;1.631606
9174.000000;1.629373
9173.000000;1.630401
9172.000000;1.634553
9171.000000;1.640393
9170.000000;1.646034
9169.000000;1.649491
9168.000000;1.649248
9167.000000;1.645416
9166.000000;1.640107
9165.000000;1.636231
9164.000000;1.635733
9163.000000;1.638375
9162.000000;1.641562
9161.000000;1.642084
9160.000000;1.639296
9159.000000;1.636220
9158.000000;1.636389
9157.000000;1.639939
9156.000000;1.643594
9155.000000;1.644307
9154.000000;1.641895
9153.000000;1.638012
9152.000000;1.634219
9151.000000;1.631755
9150.000000;1.631645
9149.000000;1.633904
9148.000000;1.637418
9147.000000;1.641267
9146.000000;1.645193
9145.000000;1.648168
9144.000000;1.647981
9143.000000;1.643830
9142.000000;1.638197
9141.000000;1.634351
9140.000000;1.632999
9139.000000;1.632687
9138.000000;1.632469
9137.000000;1.632550
9136.000000;1.632616
9135.000000;1.631416
9134.000000;1.628685
9133.000000;1.626258
9132.000000;1.626444
9131.000000;1.629840
9130.000000;1.634918
9129.000000;1.639365
9128.000000;1.641805
9127.000000;1.642631
9126.000000;1.643318
9125.000000;1.644703
9124.000000;1.646007
9123.000000;1.645899
9122.000000;1.644270
9121.000000;1.642223
9120.000000;1.640453
9119.000000;1.638645
9118.000000;1.636598
9117.000000;1.635022
9116.000000;1.634663
9115.000000;1.635227
9114.000000;1.635772
9113.000000;1.635869
9112.000000;1.635664
9111.000000;1.635016
9110.000000;1.633507
9109.000000;1.631282
9108.000000;1.629253
9107.000000;1.628237
9106.000000;1.628135
9105.000000;1.628290
9104.000000;1.628539
9103.000000;1.629278
9102.000000;1.630326
9101.000000;1.630674
9100.000000;1.629979
9099.000000;1.629534
9098.000000;1.630716
9097.000000;1.632719
9096.000000;1.632970
9095.000000;1.630339
9094.000000;1.626821
9093.000000;1.625290
9092.000000;1.626705
9091.000000;1.630133
9090.000000;1.634425
9089.000000;1.638682
9088.000000;1.641552
9087.000000;1.641556
9086.000000;1.638473
9085.000000;1.633549
9084.000000;1.628277
9083.000000;1.623782
9082.000000;1.621342
9081.000000;1.622277
9080.000000;1.626574
9079.000000;1.631967
9078.000000;1.635224
9077.000000;1.634807
9076.000000;1.632133
9075.000000;1.629993
9074.000000;1.629861
9073.000000;1.630737
9072.000000;1.630532
9071.000000;1.628603
9070.000000;1.626596
9069.000000;1.626560
9068.000000;1.628701
9067.000000;1.631208
9066.000000;1.632037
9065.000000;1.630809
9064.000000;1.628996
9063.000000;1.628273
9062.000000;1.628708
9061.000000;1.628651
9060.000000;1.626703
9059.000000;1.623649
9058.000000;1.621733
9057.000000;1.622036
9056.000000;1.623363
9055.000000;1.623946
9054.000000;1.623472
9053.000000;1.622815
