Criado como novo conjunto de dados;"e0108.spp","-4232862.3 Secs"
cm-1;Abs
10000.000000;1.679039
9999.000000;1.681580
9998.000000;1.684881
9997.000000;1.687667
9996.000000;1.687087
9995.000000;1.683104
9994.000000;1.679259
9993.000000;1.678323
9992.000000;1.678999
9991.000000;1.678222
9990.000000;1.675175
9989.000000;1.671469
9988.000000;1.668468
9987.000000;1.666458
9986.000000;1.665967
9985.000000;1.667842
9984.000000;1.671505
9983.000000;1.674556
9982.000000;1.674883
9981.000000;1.672348
9980.000000;1.667822
9979.000000;1.661769
9978.000000;1.654813
9977.000000;1.648636
9976.000000;1.645059
9975.000000;1.644682
9974.000000;1.646943
9973.000000;1.650933
9972.000000;1.655506
9971.000000;1.658841
9970.000000;1.659131
9969.000000;1.656399
9968.000000;1.652971
9967.000000;1.651340
9966.000000;1.651630
9965.000000;1.651645
9964.000000;1.649783
9963.000000;1.647452
9962.000000;1.647790
9961.000000;1.651991
9960.000000;1.657527
9959.000000;1.660388
9958.000000;1.658914
9957.000000;1.654884
9956.000000;1.651197
9955.000000;1.649288
9954.000000;1.648582
9953.000000;1.647576
9952.000000;1.645321
9951.000000;1.642357
9950.000000;1.640567
9949.000000;1.641628
9948.000000;1.644941
9947.000000;1.647649
9946.000000;1.647571
9945.000000;1.645844
9944.000000;1.645829
9943.000000;1.649231
9942.000000;1.653820
9941.000000;1.655439
9940.000000;1.652566
9939.000000;1.648302
9938.000000;1.647197
9937.000000;1.650508
9936.000000;1.654874
9935.000000;1.655660
9934.000000;1.651589
9933.000000;1.645417
9932.000000;1.640498
9931.000000;1.638028
9930.000000;1.637168
9929.000000;1.636667
9928.000000;1.636235
9927.000000;1.636846
9926.000000;1.639890
9925.000000;1.645588
9924.000000;1.652085
9923.000000;1.656665
9922.000000;1.658089
9921.000000;1.657088
9920.000000;1.654678
9919.000000;1.651241
9918.000000;1.647450
9917.000000;1.644778
9916.000000;1.644317
9915.000000;1.645757
9914.000000;1.647949
9913.000000;1.649698
9912.000000;1.649693
9911.000000;1.646827
9910.000000;1.641802
9909.000000;1.637790
9908.000000;1.637871
9907.000000;1.641663
9906.000000;1.645385
9905.000000;1.645726
9904.000000;1.643174
9903.000000;1.640912
9902.000000;1.641164
9901.000000;1.643234
9900.000000;1.644855
9899.000000;1.645144
9898.000000;1.645774
9897.000000;1.648525
9896.000000;1.651891
9895.000000;1.651692
9894.000000;1.646017
9893.000000;1.637810
9892.000000;1.631042
9891.000000;1.626409
9890.000000;1.622358
9889.000000;1.618674
9888.000000;1.616794
9887.000000;1.617270
9886.000000;1.619311
9885.000000;1.622648
9884.000000;1.627437
9883.000000;1.631917
9882.000000;1.633013
9881.000000;1.630675
9880.000000;1.628430
9879.000000;1.628171
9878.000000;1.627393
9877.000000;1.623248
9876.000000;1.617626
9875.000000;1.615509
9874.000000;1.618835
9873.000000;1.624244
9872.000000;1.627109
9871.000000;1.626350
9870.000000;1.624236
9869.000000;1.622907
9868.000000;1.622410
9867.000000;1.621489
9866.000000;1.619670
9865.000000;1.618210
9864.000000;1.618580
9863.000000;1.620375
9862.000000;1.621620
9861.000000;1.621265
9860.000000;1.620373
9859.000000;1.620501
9858.000000;1.622135
9857.000000;1.625192
9856.000000;1.629586
9855.000000;1.634195
9854.000000;1.636523
9853.000000;1.635187
9852.000000;1.632088
9851.000000;1.630408
9850.000000;1.630866
9849.000000;1.631409
9848.000000;1.630284
9847.000000;1.627964
9846.000000;1.626148
9845.000000;1.625892
9844.000000;1.626515
9843.000000;1.625814
9842.000000;1.621946
9841.000000;1.615936
9840.000000;1.611666
9839.000000;1.612534
9838.000000;1.618227
9837.000000;1.624899
9836.000000;1.628481
9835.000000;1.627588
9834.000000;1.623489
9833.000000;1.618558
9832.000000;1.614917
9831.000000;1.613360
9830.000000;1.613012
9829.000000;1.612575
9828.000000;1.611794
9827.000000;1.610855
9826.000000;1.609087
9825.000000;1.605893
9824.000000;1.602560
9823.000000;1.601291
9822.000000;1.602390
9821.000000;1.603824
9820.000000;1.603794
9819.000000;1.602570
9818.000000;1.601296
9817.000000;1.600368
9816.000000;1.599908
9815.000000;1.600722
9814.000000;1.603549
9813.000000;1.607658
9812.000000;1.610748
9811.000000;1.610317
9810.000000;1.605498
9809.000000;1.598267
9808.000000;1.592716
9807.000000;1.592138
9806.000000;1.596221
9805.000000;1.601133
9804.000000;1.602655
9803.000000;1.599428
9802.000000;1.593634
9801.000000;1.589202
9800.000000;1.589124
9799.000000;1.593202
9798.000000;1.597854
9797.000000;1.599357
9796.000000;1.597971
9795.000000;1.597381
9794.000000;1.599614
9793.000000;1.602336
9792.000000;1.602094
9791.000000;1.598839
9790.000000;1.595543
9789.000000;1.594328
9788.000000;1.594817
9787.000000;1.595807
9786.000000;1.596964
9785.000000;1.598567
9784.000000;1.600515
9783.000000;1.601931
9782.000000;1.601616
9781.000000;1.599266
9780.000000;1.596565
9779.000000;1.596209
9778.000000;1.599117
9777.000000;1.603146
9776.000000;1.605199
9775.000000;1.604352
9774.000000;1.602175
9773.000000;1.600372
9772.000000;1.599345
9771.000000;1.598856
9770.000000;1.598800
9769.000000;1.598762
9768.000000;1.597648
9767.000000;1.594674
9766.000000;1.590565
9765.000000;1.587275
9764.000000;1.586222
9763.000000;1.586551
9762.000000;1.585405
9761.000000;1.580924
9760.000000;1.574983
9759.000000;1.571691
9758.000000;1.573141
9757.000000;1.577369
9756.000000;1.580630
9755.000000;1.581216
9754.000000;1.580263
9753.000000;1.579234
9752.000000;1.578043
9751.000000;1.575853
9750.000000;1.572772
9749.000000;1.570299
9748.000000;1.570293
9747.000000;1.573445
9746.000000;1.578407
9745.000000;1.582519
9744.000000;1.583830
9743.000000;1.582456
9742.000000;1.579935
9741.000000;1.577877
9740.000000;1.577200
9739.000000;1.577671
9738.000000;1.577941
9737.000000;1.576820
9736.000000;1.574999
9735.000000;1.574753
9734.000000;1.577168
9733.000000;1.580329
9732.000000;1.581187
9731.000000;1.578978
9730.000000;1.575778
9729.000000;1.573984
9728.000000;1.574344
9727.000000;1.576150
9726.000000;1.578300
9725.000000;1.579903
9724.000000;1.580474
9723.000000;1.579991
9722.000000;1.578613
9721.000000;1.576744
9720.000000;1.575550
9719.000000;1.576494
9718.000000;1.579594
9717.000000;1.582466
9716.000000;1.582241
9715.000000;1.578653
9714.000000;1.574070
9713.000000;1.570590
9712.000000;1.568626
9711.000000;1.568013
9710.000000;1.568687
9709.000000;1.569885
9708.000000;1.570013
9707.000000;1.568336
9706.000000;1.566183
9705.000000;1.565496
9704.000000;1.566631
9703.000000;1.568323
9702.000000;1.569313
9701.000000;1.569135
9700.000000;1.567539
9699.000000;1.564359
9698.000000;1.560514
9697.000000;1.558399
9696.000000;1.560397
9695.000000;1.566734
9694.000000;1.574772
9693.000000;1.580532
9692.000000;1.581201
9691.000000;1.576588
9690.000000;1.569003
9689.000000;1.562062
9688.000000;1.558898
9687.000000;1.560357
9686.000000;1.564258
9685.000000;1.566913
9684.000000;1.566262
9683.000000;1.563410
9682.000000;1.560749
9681.000000;1.559294
9680.000000;1.558356
9679.000000;1.557089
9678.000000;1.555617
9677.000000;1.554955
9676.000000;1.556390
9675.000000;1.560462
9674.000000;1.565716
9673.000000;1.568909
9672.000000;1.567711
9671.000000;1.563233
9670.000000;1.558788
9669.000000;1.556350
9668.000000;1.555343
9667.000000;1.554717
9666.000000;1.554815
9665.000000;1.556629
9664.000000;1.560141
9663.000000;1.563995
9662.000000;1.566414
9661.000000;1.566295
9660.000000;1.564059
9659.000000;1.561687
9658.000000;1.560950
9657.000000;1.561174
9656.000000;1.559732
9655.000000;1.555474
9654.000000;1.550613
9653.000000;1.548407
9652.000000;1.550067
9651.000000;1.554281
9650.000000;1.558742
9649.000000;1.561457
9648.000000;1.561342
9647.000000;1.558908
9646.000000;1.556060
9645.000000;1.554328
9644.000000;1.553674
9643.000000;1.553582
9642.000000;1.554195
9641.000000;1.555170
9640.000000;1.554775
9639.000000;1.551953
9638.000000;1.548327
9637.000000;1.546354
9636.000000;1.545905
9635.000000;1.544548
9634.000000;1.541648
9633.000000;1.540035
9632.000000;1.542227
9631.000000;1.546639
9630.000000;1.549158
9629.000000;1.548023
9628.000000;1.545481
9627.000000;1.544500
9626.000000;1.545528
9625.000000;1.546827
9624.000000;1.546754
9623.000000;1.545162
9622.000000;1.543198
9621.000000;1.542261
9620.000000;1.543026
9619.000000;1.545273
9618.000000;1.548205
9617.000000;1.550622
9616.000000;1.551110
9615.000000;1.548879
9614.000000;1.544923
9613.000000;1.541607
9612.000000;1.540524
9611.000000;1.541146
9610.000000;1.541696
9609.000000;1.540917
9608.000000;1.538891
9607.000000;1.536791
9606.000000;1.536111
9605.000000;1.537380
9604.000000;1.539191
9603.000000;1.539193
9602.000000;1.536606
9601.000000;1.533061
9600.000000;1.530479
9599.000000;1.529254
9598.000000;1.529210
9597.000000;1.530937
9596.000000;1.534618
9595.000000;1.538298
9594.000000;1.539323
9593.000000;1.537597
9592.000000;1.535439
9591.000000;1.534031
9590.000000;1.532088
9589.000000;1.528714
9588.000000;1.525613
9587.000000;1.525091
9586.000000;1.527271
9585.000000;1.530544
9584.000000;1.533828
9583.000000;1.536991
9582.000000;1.539507
9581.000000;1.540230
9580.000000;1.538674
9579.000000;1.535604
9578.000000;1.532324
9577.000000;1.530041
9576.000000;1.529545
9575.000000;1.530592
9574.000000;1.531846
9573.000000;1.532285
9572.000000;1.532403
9571.000000;1.533021
9570.000000;1.533398
9569.000000;1.532043
9568.000000;1.529347
9567.000000;1.527614
9566.000000;1.527959
9565.000000;1.528686
9564.000000;1.527753
9563.000000;1.525908
9562.000000;1.525909
9561.000000;1.528857
9560.000000;1.532545
9559.000000;1.533776
9558.000000;1.531575
9557.000000;1.527594
9556.000000;1.523897
9555.000000;1.521220
9554.000000;1.519255
9553.000000;1.517702
9552.000000;1.516501
9551.000000;1.515454
9550.000000;1.514295
9549.000000;1.513297
9548.000000;1.513362
9547.000000;1.514938
9546.000000;1.517029
9545.000000;1.517940
9544.000000;1.517140
9543.000000;1.515874
9542.000000;1.515605
9541.000000;1.516327
9540.000000;1.516848
9539.000000;1.516407
9538.000000;1.515383
9537.000000;1.514475
9536.000000;1.513872
9535.000000;1.513524
9534.000000;1.513769
9533.000000;1.515105
9532.000000;1.517378
9531.000000;1.519505
9530.000000;1.520118
9529.000000;1.518347
9528.000000;1.514304
9527.000000;1.509342
9526.000000;1.505764
9525.000000;1.505526
9524.000000;1.508540
9523.000000;1.512401
9522.000000;1.514442
9521.000000;1.514038
9520.000000;1.512364
9519.000000;1.510411
9518.000000;1.508453
9517.000000;1.507086
9516.000000;1.507116
9515.000000;1.507999
9514.000000;1.507899
9513.000000;1.506348
9512.000000;1.505501
9511.000000;1.507321
9510.000000;1.510575
9509.000000;1.512090
9508.000000;1.510718
9507.000000;1.508298
9506.000000;1.506561
9505.000000;1.505283
9504.000000;1.503923
9503.000000;1.503229
9502.000000;1.504083
9501.000000;1.505585
9500.000000;1.505520
9499.000000;1.502843
9498.000000;1.498967
9497.000000;1.496626
9496.000000;1.497931
9495.000000;1.502928
9494.000000;1.509166
9493.000000;1.513081
9492.000000;1.512822
9491.000000;1.509705
9490.000000;1.506517
9489.000000;1.504976
9488.000000;1.505189
9487.000000;1.506591
9486.000000;1.508244
9485.000000;1.508645
9484.000000;1.506717
9483.000000;1.503413
9482.000000;1.501267
9481.000000;1.501824
9480.000000;1.504160
9479.000000;1.506277
9478.000000;1.507441
9477.000000;1.508422
9476.000000;1.509616
9475.000000;1.509984
9474.000000;1.508186
9473.000000;1.504172
9472.000000;1.499213
9471.000000;1.494780
9470.000000;1.491836
9469.000000;1.490784
9468.000000;1.491430
9467.000000;1.493131
9466.000000;1.495497
9465.000000;1.498757
9464.000000;1.502737
9463.000000;1.505682
9462.000000;1.505218
9461.000000;1.500918
9460.000000;1.495234
9459.000000;1.491414
9458.000000;1.491031
9457.000000;1.493759
9456.000000;1.498343
9455.000000;1.502837
9454.000000;1.504870
9453.000000;1.503201
9452.000000;1.499208
9451.000000;1.495843
9450.000000;1.494855
9449.000000;1.495432
9448.000000;1.495445
9447.000000;1.493507
9446.000000;1.489926
9445.000000;1.486409
9444.000000;1.485085
9443.000000;1.487106
9442.000000;1.491607
9441.000000;1.496164
9440.000000;1.498512
9439.000000;1.497880
9438.000000;1.495012
9437.000000;1.491564
9436.000000;1.489322
9435.000000;1.489083
9434.000000;1.489975
9433.000000;1.490283
9432.000000;1.489194
9431.000000;1.487311
9430.000000;1.485578
9429.000000;1.484525
9428.000000;1.484585
9427.000000;1.486141
9426.000000;1.488798
9425.000000;1.491332
9424.000000;1.492880
9423.000000;1.493659
9422.000000;1.494161
9421.000000;1.494298
9420.000000;1.493794
9419.000000;1.492713
9418.000000;1.491056
9417.000000;1.488543
9416.000000;1.485440
9415.000000;1.482990
9414.000000;1.482272
9413.000000;1.482935
9412.000000;1.483499
9411.000000;1.482736
9410.000000;1.480473
9409.000000;1.477451
9408.000000;1.475001
9407.000000;1.474464
9406.000000;1.476085
9405.000000;1.478523
9404.000000;1.480099
9403.000000;1.480478
9402.000000;1.480688
9401.000000;1.481821
9400.000000;1.483975
9399.000000;1.486073
9398.000000;1.486513
9397.000000;1.484293
9396.000000;1.479906
9395.000000;1.475215
9394.000000;1.472183
9393.000000;1.471565
9392.000000;1.472781
9391.000000;1.474804
9390.000000;1.476961
9389.000000;1.479078
9388.000000;1.481184
9387.000000;1.483150
9386.000000;1.484684
9385.000000;1.485799
9384.000000;1.486982
9383.000000;1.488307
9382.000000;1.488591
9381.000000;1.486381
9380.000000;1.481975
9379.000000;1.477475
9378.000000;1.474491
9377.000000;1.472657
9376.000000;1.470968
9375.000000;1.469741
9374.000000;1.470238
9373.000000;1.472840
9372.000000;1.476502
9371.000000;1.479597
9370.000000;1.480737
9369.000000;1.479551
9368.000000;1.477471
9367.000000;1.476953
9366.000000;1.478815
9365.000000;1.480846
9364.000000;1.480246
9363.000000;1.477198
9362.000000;1.474539
9361.000000;1.474074
9360.000000;1.474736
9359.000000;1.474366
9358.000000;1.471984
9357.000000;1.468030
9356.000000;1.463788
9355.000000;1.461110
9354.000000;1.461530
9353.000000;1.464864
9352.000000;1.469233
9351.000000;1.472922
9350.000000;1.475460
9349.000000;1.476548
9348.000000;1.475297
9347.000000;1.471623
9346.000000;1.467446
9345.000000;1.465209
9344.000000;1.465472
9343.000000;1.466680
9342.000000;1.467137
9341.000000;1.466609
9340.000000;1.466004
9339.000000;1.465999
9338.000000;1.466226
9337.000000;1.465804
9336.000000;1.464644
9335.000000;1.463809
9334.000000;1.464121
9333.000000;1.464834
9332.000000;1.464627
9331.000000;1.463765
9330.000000;1.463921
9329.000000;1.465472
9328.000000;1.466485
9327.000000;1.465469
9326.000000;1.463967
9325.000000;1.464725
9324.000000;1.467915
9323.000000;1.470721
9322.000000;1.470768
9321.000000;1.468613
9320.000000;1.466150
9319.000000;1.463980
9318.000000;1.461577
9317.000000;1.459220
9316.000000;1.458295
9315.000000;1.459463
9314.000000;1.461375
9313.000000;1.461872
9312.000000;1.460288
9311.000000;1.457953
9310.000000;1.456414
9309.000000;1.455960
9308.000000;1.456267
9307.000000;1.457582
9306.000000;1.460206
9305.000000;1.463200
9304.000000;1.464927
9303.000000;1.465094
9302.000000;1.465084
9301.000000;1.465827
9300.000000;1.466455
9299.000000;1.465777
9298.000000;1.464155
9297.000000;1.462776
9296.000000;1.461762
9295.000000;1.460314
9294.000000;1.458408
9293.000000;1.457081
9292.000000;1.457034
9291.000000;1.457938
9290.000000;1.459197
9289.000000;1.460444
9288.000000;1.461074
9287.000000;1.460232
9286.000000;1.457901
9285.000000;1.455374
9284.000000;1.454095
9283.000000;1.454378
9282.000000;1.455503
9281.000000;1.456670
9280.000000;1.457446
9279.000000;1.457560
9278.000000;1.456837
9277.000000;1.455358
9276.000000;1.453461
9275.000000;1.451746
9274.000000;1.451109
9273.000000;1.452232
9272.000000;1.454703
9271.000000;1.456986
9270.000000;1.457775
9269.000000;1.457177
9268.000000;1.456198
9267.000000;1.455459
9266.000000;1.454812
9265.000000;1.453848
9264.000000;1.452348
9263.000000;1.450387
9262.000000;1.448409
9261.000000;1.447090
9260.000000;1.446795
9259.000000;1.447213
9258.000000;1.447703
9257.000000;1.447857
9256.000000;1.447523
9255.000000;1.446713
9254.000000;1.445979
9253.000000;1.446336
9252.000000;1.448016
9251.000000;1.449580
9250.000000;1.449375
9249.000000;1.447994
9248.000000;1.448027
9247.000000;1.450881
9246.000000;1.454834
9245.000000;1.456950
9244.000000;1.456334
9243.000000;1.454457
9242.000000;1.452828
9241.000000;1.451796
9240.000000;1.451392
9239.000000;1.451753
9238.000000;1.452283
9237.000000;1.451647
9236.000000;1.449370
9235.000000;1.446695
9234.000000;1.445033
9233.000000;1.444129
9232.000000;1.442702
9231.000000;1.440613
9230.000000;1.439406
9229.000000;1.440492
9228.000000;1.443488
9227.000000;1.446565
9226.000000;1.448002
9225.000000;1.447265
9224.000000;1.445066
9223.000000;1.442869
9222.000000;1.442143
9221.000000;1.443473
9220.000000;1.446037
9219.000000;1.448078
9218.000000;1.448213
9217.000000;1.446430
9216.000000;1.443916
9215.000000;1.442056
9214.000000;1.441551
9213.000000;1.442182
9212.000000;1.443088
9211.000000;1.443212
9210.000000;1.441915
9209.000000;1.439603
9208.000000;1.437757
9207.000000;1.437934
9206.000000;1.440418
9205.000000;1.443888
9204.000000;1.446525
9203.000000;1.447394
9202.000000;1.446769
9201.000000;1.445427
9200.000000;1.443878
9199.000000;1.442363
9198.000000;1.441240
9197.000000;1.440916
9196.000000;1.441339
9195.000000;1.441858
9194.000000;1.441808
9193.000000;1.441234
9192.000000;1.440757
9191.000000;1.440607
9190.000000;1.440169
9189.000000;1.438815
9188.000000;1.436842
9187.000000;1.435176
9186.000000;1.434402
9185.000000;1.434518
9184.000000;1.435398
9183.000000;1.436782
9182.000000;1.437803
9181.000000;1.437377
9180.000000;1.435499
9179.000000;1.433463
9178.000000;1.432446
9177.000000;1.432487
9176.000000;1.433267
9175.000000;1.435143
9174.000000;1.438413
9173.000000;1.441759
9172.000000;1.442477
9171.000000;1.438987
9170.000000;1.432778
9169.000000;1.427399
9168.000000;1.425710
9167.000000;1.427976
9166.000000;1.432008
9165.000000;1.435076
9164.000000;1.435947
9163.000000;1.435130
9162.000000;1.433472
9161.000000;1.431314
9160.000000;1.429064
9159.000000;1.427706
9158.000000;1.427957
9157.000000;1.429161
9156.000000;1.429756
9155.000000;1.428941
9154.000000;1.427592
9153.000000;1.427659
9152.000000;1.430733
9151.000000;1.436690
9150.000000;1.443198
9149.000000;1.446953
9148.000000;1.446262
9147.000000;1.442514
9146.000000;1.438561
9145.000000;1.436100
9144.000000;1.435162
9143.000000;1.435254
9142.000000;1.435825
9141.000000;1.435898
9140.000000;1.434521
9139.000000;1.431947
9138.000000;1.429560
9137.000000;1.428449
9136.000000;1.428711
9135.000000;1.430048
9134.000000;1.432149
9133.000000;1.434177
9132.000000;1.434757
9131.000000;1.433204
9130.000000;1.430300
9129.000000;1.427458
9128.000000;1.425623
9127.000000;1.425128
9126.000000;1.425816
9125.000000;1.426884
9124.000000;1.427392
9123.000000;1.427398
9122.000000;1.427798
9121.000000;1.428555
9120.000000;1.428152
9119.000000;1.425827
9118.000000;1.423367
9117.000000;1.423233
9116.000000;1.425507
9115.000000;1.427894
9114.000000;1.428573
9113.000000;1.427815
9112.000000;1.426615
9111.000000;1.425188
9110.000000;1.423571
9109.000000;1.422553
9108.000000;1.422871
9107.000000;1.423973
9106.000000;1.424577
9105.000000;1.424348
9104.000000;1.424176
9103.000000;1.424590
9102.000000;1.424751
9101.000000;1.423574
9100.000000;1.421385
9099.000000;1.419703
9098.000000;1.419473
9097.000000;1.420169
9096.000000;1.420739
9095.000000;1.420864
9094.000000;1.420859
9093.000000;1.420773
9092.000000;1.420296
9091.000000;1.419575
9090.000000;1.419474
9089.000000;1.420718
9088.000000;1.422994
9087.000000;1.425115
9086.000000;1.425991
9085.000000;1.425362
9084.000000;1.423911
9083.000000;1.422916
9082.000000;1.423407
9081.000000;1.425209
9080.000000;1.426866
9079.000000;1.426790
9078.000000;1.424588
9077.000000;1.421210
9076.000000;1.418012
9075.000000;1.415930
9074.000000;1.415315
9073.000000;1.416068
9072.000000;1.417719
9071.000000;1.419494
9070.000000;1.420622
9069.000000;1.420844
9068.000000;1.420659
9067.000000;1.420804
9066.000000;1.421265
9065.000000;1.421043
9064.000000;1.419212
9063.000000;1.416135
9062.000000;1.413282
9061.000000;1.411959
9060.000000;1.412581
9059.000000;1.414918
9058.000000;1.418236
9057.000000;1.421227
9056.000000;1.422669
9055.000000;1.422465
9054.000000;1.421538
9053.000000;1.420546
