Criado como novo conjunto de dados;"e0108.spp","-4209101.1 Secs"
cm-1;Abs
10000.000000;1.027727
9999.000000;1.028547
9998.000000;1.029103
9997.000000;1.028853
9996.000000;1.027504
9995.000000;1.025616
9994.000000;1.024226
9993.000000;1.023729
9992.000000;1.023527
9991.000000;1.022830
9990.000000;1.021466
9989.000000;1.019917
9988.000000;1.018968
9987.000000;1.019199
9986.000000;1.020334
9985.000000;1.021144
9984.000000;1.020554
9983.000000;1.018913
9982.000000;1.017637
9981.000000;1.017627
9980.000000;1.018493
9979.000000;1.019227
9978.000000;1.019143
9977.000000;1.018258
9976.000000;1.017330
9975.000000;1.017550
9974.000000;1.019507
9973.000000;1.022249
9972.000000;1.023812
9971.000000;1.022922
9970.000000;1.019887
9969.000000;1.015937
9968.000000;1.012342
9967.000000;1.010182
9966.000000;1.010093
9965.000000;1.011700
9964.000000;1.013691
9963.000000;1.014890
9962.000000;1.015009
9961.000000;1.014259
9960.000000;1.012840
9959.000000;1.011158
9958.000000;1.009897
9957.000000;1.009392
9956.000000;1.009266
9955.000000;1.009036
9954.000000;1.008676
9953.000000;1.008216
9952.000000;1.007274
9951.000000;1.005543
9950.000000;1.003430
9949.000000;1.001714
9948.000000;1.000782
9947.000000;1.000614
9946.000000;1.001136
9945.000000;1.002007
9944.000000;1.002361
9943.000000;1.001506
9942.000000;0.999816
9941.000000;0.998383
9940.000000;0.997882
9939.000000;0.998230
9938.000000;0.999237
9937.000000;1.000947
9936.000000;1.003147
9935.000000;1.005011
9934.000000;1.005595
9933.000000;1.004477
9932.000000;1.001975
9931.000000;0.999097
9930.000000;0.997248
9929.000000;0.997311
9928.000000;0.998640
9927.000000;0.999347
9926.000000;0.998144
9925.000000;0.995732
9924.000000;0.993934
9923.000000;0.993642
9922.000000;0.994078
9921.000000;0.993996
9920.000000;0.993102
9919.000000;0.992054
9918.000000;0.991471
9917.000000;0.991361
9916.000000;0.991327
9915.000000;0.991083
9914.000000;0.990744
9913.000000;0.990683
9912.000000;0.991124
9911.000000;0.991798
9910.000000;0.992100
9909.000000;0.991727
9908.000000;0.991028
9907.000000;0.990439
9906.000000;0.989753
9905.000000;0.988463
9904.000000;0.986835
9903.000000;0.986008
9902.000000;0.986613
9901.000000;0.987751
9900.000000;0.987961
9899.000000;0.987023
9898.000000;0.986058
9897.000000;0.985827
9896.000000;0.985734
9895.000000;0.984905
9894.000000;0.983658
9893.000000;0.983237
9892.000000;0.984266
9891.000000;0.985995
9890.000000;0.987033
9889.000000;0.986501
9888.000000;0.984531
9887.000000;0.982065
9886.000000;0.980293
9885.000000;0.979932
9884.000000;0.980733
9883.000000;0.981781
9882.000000;0.982387
9881.000000;0.982539
9880.000000;0.982512
9879.000000;0.982384
9878.000000;0.982080
9877.000000;0.981592
9876.000000;0.980951
9875.000000;0.980117
9874.000000;0.979113
9873.000000;0.978218
9872.000000;0.977790
9871.000000;0.977849
9870.000000;0.977932
9869.000000;0.977375
9868.000000;0.975743
9867.000000;0.973198
9866.000000;0.970654
9865.000000;0.969356
9864.000000;0.969911
9863.000000;0.971663
9862.000000;0.973268
9861.000000;0.973947
9860.000000;0.973933
9859.000000;0.973740
9858.000000;0.973448
9857.000000;0.972916
9856.000000;0.972210
9855.000000;0.971456
9854.000000;0.970563
9853.000000;0.969507
9852.000000;0.968672
9851.000000;0.968464
9850.000000;0.968685
9849.000000;0.968684
9848.000000;0.968109
9847.000000;0.967107
9846.000000;0.965877
9845.000000;0.964505
9844.000000;0.963269
9843.000000;0.962575
9842.000000;0.962384
9841.000000;0.962175
9840.000000;0.961746
9839.000000;0.961590
9838.000000;0.962158
9837.000000;0.963090
9836.000000;0.963576
9835.000000;0.963264
9834.000000;0.962441
9833.000000;0.961528
9832.000000;0.960856
9831.000000;0.960763
9830.000000;0.961407
9829.000000;0.962376
9828.000000;0.962874
9827.000000;0.962468
9826.000000;0.961425
9825.000000;0.960277
9824.000000;0.959337
9823.000000;0.958677
9822.000000;0.958236
9821.000000;0.957797
9820.000000;0.957099
9819.000000;0.956199
9818.000000;0.955542
9817.000000;0.955490
9816.000000;0.955872
9815.000000;0.956130
9814.000000;0.955866
9813.000000;0.955115
9812.000000;0.954093
9811.000000;0.952907
9810.000000;0.951593
9809.000000;0.950323
9808.000000;0.949396
9807.000000;0.949017
9806.000000;0.949205
9805.000000;0.949909
9804.000000;0.951020
9803.000000;0.952186
9802.000000;0.952822
9801.000000;0.952545
9800.000000;0.951490
9799.000000;0.950000
9798.000000;0.948161
9797.000000;0.946010
9796.000000;0.944141
9795.000000;0.943591
9794.000000;0.944824
9793.000000;0.947015
9792.000000;0.948645
9791.000000;0.948805
9790.000000;0.947847
9789.000000;0.946874
9788.000000;0.946652
9787.000000;0.946855
9786.000000;0.946394
9785.000000;0.944666
9784.000000;0.942459
9783.000000;0.941330
9782.000000;0.942023
9781.000000;0.943725
9780.000000;0.944897
9779.000000;0.944580
9778.000000;0.942822
9777.000000;0.940350
9776.000000;0.938200
9775.000000;0.937217
9774.000000;0.937370
9773.000000;0.937764
9772.000000;0.937727
9771.000000;0.937635
9770.000000;0.938177
9769.000000;0.939097
9768.000000;0.939393
9767.000000;0.938661
9766.000000;0.937460
9765.000000;0.936254
9764.000000;0.934784
9763.000000;0.932899
9762.000000;0.931313
9761.000000;0.930888
9760.000000;0.931515
9759.000000;0.932301
9758.000000;0.932699
9757.000000;0.932886
9756.000000;0.933096
9755.000000;0.933216
9754.000000;0.933184
9753.000000;0.933278
9752.000000;0.933674
9751.000000;0.934019
9750.000000;0.933775
9749.000000;0.932790
9748.000000;0.931299
9747.000000;0.929599
9746.000000;0.928066
9745.000000;0.927275
9744.000000;0.927567
9743.000000;0.928463
9742.000000;0.928928
9741.000000;0.928399
9740.000000;0.927232
9739.000000;0.925970
9738.000000;0.924657
9737.000000;0.923243
9736.000000;0.922191
9735.000000;0.922072
9734.000000;0.922687
9733.000000;0.923207
9732.000000;0.923241
9731.000000;0.923229
9730.000000;0.923611
9729.000000;0.924126
9728.000000;0.924233
9727.000000;0.923790
9726.000000;0.922962
9725.000000;0.921780
9724.000000;0.920290
9723.000000;0.918975
9722.000000;0.918494
9721.000000;0.918945
9720.000000;0.919681
9719.000000;0.919989
9718.000000;0.919733
9717.000000;0.919265
9716.000000;0.918882
9715.000000;0.918556
9714.000000;0.918212
9713.000000;0.918079
9712.000000;0.918520
9711.000000;0.919422
9710.000000;0.919939
9709.000000;0.919215
9708.000000;0.917405
9707.000000;0.915666
9706.000000;0.914969
9705.000000;0.915198
9704.000000;0.915521
9703.000000;0.915428
9702.000000;0.915085
9701.000000;0.914810
9700.000000;0.914594
9699.000000;0.914178
9698.000000;0.913399
9697.000000;0.912372
9696.000000;0.911495
9695.000000;0.911299
9694.000000;0.912094
9693.000000;0.913600
9692.000000;0.914974
9691.000000;0.915350
9690.000000;0.914483
9689.000000;0.912948
9688.000000;0.911647
9687.000000;0.911025
9686.000000;0.910753
9685.000000;0.910190
9684.000000;0.909094
9683.000000;0.907795
9682.000000;0.906813
9681.000000;0.906516
9680.000000;0.907020
9679.000000;0.908048
9678.000000;0.908863
9677.000000;0.908701
9676.000000;0.907442
9675.000000;0.905662
9674.000000;0.903990
9673.000000;0.902750
9672.000000;0.902217
9671.000000;0.902620
9670.000000;0.903569
9669.000000;0.903972
9668.000000;0.903101
9667.000000;0.901501
9666.000000;0.900368
9665.000000;0.900217
9664.000000;0.900627
9663.000000;0.901074
9662.000000;0.901423
9661.000000;0.901569
9660.000000;0.901176
9659.000000;0.900065
9658.000000;0.898588
9657.000000;0.897430
9656.000000;0.897118
9655.000000;0.897669
9654.000000;0.898490
9653.000000;0.898751
9652.000000;0.898158
9651.000000;0.897314
9650.000000;0.897013
9649.000000;0.897267
9648.000000;0.897383
9647.000000;0.896954
9646.000000;0.896286
9645.000000;0.895746
9644.000000;0.895226
9643.000000;0.894534
9642.000000;0.893887
9641.000000;0.893598
9640.000000;0.893511
9639.000000;0.893174
9638.000000;0.892444
9637.000000;0.891610
9636.000000;0.890984
9635.000000;0.890705
9634.000000;0.890909
9633.000000;0.891695
9632.000000;0.892774
9631.000000;0.893407
9630.000000;0.892955
9629.000000;0.891473
9628.000000;0.889642
9627.000000;0.888184
9626.000000;0.887427
9625.000000;0.887322
9624.000000;0.887602
9623.000000;0.887875
9622.000000;0.887754
9621.000000;0.887144
9620.000000;0.886406
9619.000000;0.886045
9618.000000;0.886171
9617.000000;0.886385
9616.000000;0.886208
9615.000000;0.885540
9614.000000;0.884630
9613.000000;0.883785
9612.000000;0.883207
9611.000000;0.883006
9610.000000;0.883141
9609.000000;0.883335
9608.000000;0.883223
9607.000000;0.882662
9606.000000;0.881904
9605.000000;0.881404
9604.000000;0.881414
9603.000000;0.881675
9602.000000;0.881525
9601.000000;0.880484
9600.000000;0.878842
9599.000000;0.877521
9598.000000;0.877204
9597.000000;0.877656
9596.000000;0.878014
9595.000000;0.877637
9594.000000;0.876562
9593.000000;0.875257
9592.000000;0.874212
9591.000000;0.873802
9590.000000;0.874222
9589.000000;0.875308
9588.000000;0.876436
9587.000000;0.876784
9586.000000;0.875934
9585.000000;0.874306
9584.000000;0.872918
9583.000000;0.872547
9582.000000;0.873082
9581.000000;0.873784
9580.000000;0.874121
9579.000000;0.874149
9578.000000;0.874015
9577.000000;0.873448
9576.000000;0.872075
9575.000000;0.870120
9574.000000;0.868410
9573.000000;0.867645
9572.000000;0.867825
9571.000000;0.868402
9570.000000;0.868826
9569.000000;0.868937
9568.000000;0.868968
9567.000000;0.869234
9566.000000;0.869749
9565.000000;0.870163
9564.000000;0.870136
9563.000000;0.869703
9562.000000;0.869161
9561.000000;0.868635
9560.000000;0.867916
9559.000000;0.866695
9558.000000;0.864936
9557.000000;0.863060
9556.000000;0.861819
9555.000000;0.861832
9554.000000;0.863051
9553.000000;0.864725
9552.000000;0.865992
9551.000000;0.866467
9550.000000;0.866209
9549.000000;0.865446
9548.000000;0.864544
9547.000000;0.863960
9546.000000;0.863782
9545.000000;0.863406
9544.000000;0.862118
9543.000000;0.860060
9542.000000;0.858224
9541.000000;0.857403
9540.000000;0.857516
9539.000000;0.858055
9538.000000;0.858741
9537.000000;0.859486
9536.000000;0.860064
9535.000000;0.860242
9534.000000;0.860147
9533.000000;0.860174
9532.000000;0.860489
9531.000000;0.860812
9530.000000;0.860685
9529.000000;0.859904
9528.000000;0.858714
9527.000000;0.857643
9526.000000;0.857052
9525.000000;0.856785
9524.000000;0.856385
9523.000000;0.855633
9522.000000;0.854740
9521.000000;0.853945
9520.000000;0.853197
9519.000000;0.852392
9518.000000;0.851684
9517.000000;0.851307
9516.000000;0.851258
9515.000000;0.851409
9514.000000;0.851765
9513.000000;0.852286
9512.000000;0.852559
9511.000000;0.852030
9510.000000;0.850669
9509.000000;0.849108
9508.000000;0.847999
9507.000000;0.847456
9506.000000;0.847223
9505.000000;0.847112
9504.000000;0.847122
9503.000000;0.847291
9502.000000;0.847637
9501.000000;0.848122
9500.000000;0.848534
9499.000000;0.848513
9498.000000;0.847865
9497.000000;0.846836
9496.000000;0.845949
9495.000000;0.845579
9494.000000;0.845740
9493.000000;0.846158
9492.000000;0.846444
9491.000000;0.846292
9490.000000;0.845665
9489.000000;0.844794
9488.000000;0.843943
9487.000000;0.843248
9486.000000;0.842827
9485.000000;0.842849
9484.000000;0.843275
9483.000000;0.843694
9482.000000;0.843673
9481.000000;0.843240
9480.000000;0.842746
9479.000000;0.842329
9478.000000;0.841820
9477.000000;0.841235
9476.000000;0.840973
9475.000000;0.841328
9474.000000;0.842044
9473.000000;0.842579
9472.000000;0.842634
9471.000000;0.842226
9470.000000;0.841443
9469.000000;0.840411
9468.000000;0.839449
9467.000000;0.838942
9466.000000;0.839024
9465.000000;0.839474
9464.000000;0.839911
9463.000000;0.840001
9462.000000;0.839563
9461.000000;0.838699
9460.000000;0.837757
9459.000000;0.837007
9458.000000;0.836420
9457.000000;0.835909
9456.000000;0.835622
9455.000000;0.835726
9454.000000;0.835982
9453.000000;0.835905
9452.000000;0.835384
9451.000000;0.834841
9450.000000;0.834639
9449.000000;0.834629
9448.000000;0.834474
9447.000000;0.834178
9446.000000;0.834030
9445.000000;0.834153
9444.000000;0.834378
9443.000000;0.834523
9442.000000;0.834539
9441.000000;0.834320
9440.000000;0.833619
9439.000000;0.832369
9438.000000;0.831014
9437.000000;0.830277
9436.000000;0.830432
9435.000000;0.830897
9434.000000;0.830702
9433.000000;0.829444
9432.000000;0.827677
9431.000000;0.826346
9430.000000;0.825932
9429.000000;0.826242
9428.000000;0.826836
9427.000000;0.827451
9426.000000;0.828034
9425.000000;0.828540
9424.000000;0.828815
9423.000000;0.828694
9422.000000;0.828191
9421.000000;0.827553
9420.000000;0.827017
9419.000000;0.826504
9418.000000;0.825751
9417.000000;0.824830
9416.000000;0.824286
9415.000000;0.824523
9414.000000;0.825218
9413.000000;0.825631
9412.000000;0.825415
9411.000000;0.824828
9410.000000;0.824213
9409.000000;0.823628
9408.000000;0.823106
9407.000000;0.822934
9406.000000;0.823392
9405.000000;0.824278
9404.000000;0.824891
9403.000000;0.824572
9402.000000;0.823303
9401.000000;0.821782
9400.000000;0.820856
9399.000000;0.820757
9398.000000;0.820969
9397.000000;0.820922
9396.000000;0.820667
9395.000000;0.820629
9394.000000;0.820889
9393.000000;0.821084
9392.000000;0.820971
9391.000000;0.820694
9390.000000;0.820409
9389.000000;0.820031
9388.000000;0.819523
9387.000000;0.819111
9386.000000;0.818989
9385.000000;0.818991
9384.000000;0.818791
9383.000000;0.818270
9382.000000;0.817515
9381.000000;0.816608
9380.000000;0.815603
9379.000000;0.814620
9378.000000;0.813793
9377.000000;0.813194
9376.000000;0.812861
9375.000000;0.812795
9374.000000;0.812871
9373.000000;0.812898
9372.000000;0.812826
9371.000000;0.812765
9370.000000;0.812773
9369.000000;0.812801
9368.000000;0.812865
9367.000000;0.813002
9366.000000;0.813021
9365.000000;0.812582
9364.000000;0.811659
9363.000000;0.810646
9362.000000;0.809875
9361.000000;0.809310
9360.000000;0.808889
9359.000000;0.808793
9358.000000;0.809059
9357.000000;0.809237
9356.000000;0.808854
9355.000000;0.808088
9354.000000;0.807567
9353.000000;0.807518
9352.000000;0.807514
9351.000000;0.807115
9350.000000;0.806479
9349.000000;0.806177
9348.000000;0.806568
9347.000000;0.807467
9346.000000;0.808328
9345.000000;0.808694
9344.000000;0.808496
9343.000000;0.807934
9342.000000;0.807153
9341.000000;0.806203
9340.000000;0.805275
9339.000000;0.804678
9338.000000;0.804460
9337.000000;0.804302
9336.000000;0.804005
9335.000000;0.803826
9334.000000;0.804101
9333.000000;0.804681
9332.000000;0.805067
9331.000000;0.804991
9330.000000;0.804602
9329.000000;0.804143
9328.000000;0.803778
9327.000000;0.803677
9326.000000;0.803912
9325.000000;0.804194
9324.000000;0.804036
9323.000000;0.803339
9322.000000;0.802575
9321.000000;0.802285
9320.000000;0.802531
9319.000000;0.802894
9318.000000;0.802853
9317.000000;0.802120
9316.000000;0.800798
9315.000000;0.799320
9314.000000;0.798133
9313.000000;0.797355
9312.000000;0.796827
9311.000000;0.796476
9310.000000;0.796417
9309.000000;0.796629
9308.000000;0.796786
9307.000000;0.796644
9306.000000;0.796411
9305.000000;0.796483
9304.000000;0.796903
9303.000000;0.797306
9302.000000;0.797418
9301.000000;0.797338
9300.000000;0.797274
9299.000000;0.797207
9298.000000;0.796986
9297.000000;0.796629
9296.000000;0.796310
9295.000000;0.796084
9294.000000;0.795835
9293.000000;0.795537
9292.000000;0.795376
9291.000000;0.795485
9290.000000;0.795690
9289.000000;0.795644
9288.000000;0.795152
9287.000000;0.794238
9286.000000;0.793026
9285.000000;0.791758
9284.000000;0.790857
9283.000000;0.790678
9282.000000;0.791151
9281.000000;0.791829
9280.000000;0.792338
9279.000000;0.792581
9278.000000;0.792538
9277.000000;0.792163
9276.000000;0.791634
9275.000000;0.791419
9274.000000;0.791758
9273.000000;0.792214
9272.000000;0.792000
9271.000000;0.790834
9270.000000;0.789315
9269.000000;0.788434
9268.000000;0.788725
9267.000000;0.789795
9266.000000;0.790609
9265.000000;0.790397
9264.000000;0.789404
9263.000000;0.788623
9262.000000;0.788725
9261.000000;0.789413
9260.000000;0.789959
9259.000000;0.790097
9258.000000;0.790045
9257.000000;0.789794
9256.000000;0.788901
9255.000000;0.787183
9254.000000;0.785265
9253.000000;0.784097
9252.000000;0.784012
9251.000000;0.784494
9250.000000;0.784820
9249.000000;0.784731
9248.000000;0.784413
9247.000000;0.784045
9246.000000;0.783627
9245.000000;0.783268
9244.000000;0.783346
9243.000000;0.784096
9242.000000;0.785131
9241.000000;0.785664
9240.000000;0.785332
9239.000000;0.784564
9238.000000;0.784017
9237.000000;0.783836
9236.000000;0.783684
9235.000000;0.783312
9234.000000;0.782839
9233.000000;0.782470
9232.000000;0.782211
9231.000000;0.781932
9230.000000;0.781575
9229.000000;0.781201
9228.000000;0.780880
9227.000000;0.780608
9226.000000;0.780290
9225.000000;0.779830
9224.000000;0.779304
9223.000000;0.778983
9222.000000;0.779073
9221.000000;0.779431
9220.000000;0.779646
9219.000000;0.779424
9218.000000;0.778820
9217.000000;0.778072
9216.000000;0.777363
9215.000000;0.776813
9214.000000;0.776604
9213.000000;0.776952
9212.000000;0.777854
9211.000000;0.778881
9210.000000;0.779344
9209.000000;0.778812
9208.000000;0.777556
9207.000000;0.776394
9206.000000;0.775968
9205.000000;0.776134
9204.000000;0.776149
9203.000000;0.775483
9202.000000;0.774402
9201.000000;0.773696
9200.000000;0.773883
9199.000000;0.774731
9198.000000;0.775520
9197.000000;0.775665
9196.000000;0.775080
9195.000000;0.774119
9194.000000;0.773356
9193.000000;0.773330
9192.000000;0.774180
9191.000000;0.775394
9190.000000;0.776116
9189.000000;0.775925
9188.000000;0.775201
9187.000000;0.774536
9186.000000;0.773985
9185.000000;0.773173
9184.000000;0.772061
9183.000000;0.771180
9182.000000;0.771004
9181.000000;0.771356
9180.000000;0.771614
9179.000000;0.771341
9178.000000;0.770598
9177.000000;0.769787
9176.000000;0.769300
9175.000000;0.769214
9174.000000;0.769236
9173.000000;0.769054
9172.000000;0.768739
9171.000000;0.768614
9170.000000;0.768735
9169.000000;0.768783
9168.000000;0.768555
9167.000000;0.768254
9166.000000;0.768092
9165.000000;0.767905
9164.000000;0.767449
9163.000000;0.766888
9162.000000;0.766609
9161.000000;0.766644
9160.000000;0.766638
9159.000000;0.766434
9158.000000;0.766353
9157.000000;0.766732
9156.000000;0.767370
9155.000000;0.767636
9154.000000;0.767159
9153.000000;0.766274
9152.000000;0.765751
9151.000000;0.766043
9150.000000;0.766843
9149.000000;0.767401
9148.000000;0.767255
9147.000000;0.766570
9146.000000;0.765793
9145.000000;0.765183
9144.000000;0.764768
9143.000000;0.764541
9142.000000;0.764500
9141.000000;0.764580
9140.000000;0.764685
9139.000000;0.764733
9138.000000;0.764559
9137.000000;0.763925
9136.000000;0.762833
9135.000000;0.761785
9134.000000;0.761468
9133.000000;0.762090
9132.000000;0.763107
9131.000000;0.763696
9130.000000;0.763498
9129.000000;0.762825
9128.000000;0.762211
9127.000000;0.761875
9126.000000;0.761690
9125.000000;0.761578
9124.000000;0.761685
9123.000000;0.762060
9122.000000;0.762386
9121.000000;0.762343
9120.000000;0.762124
9119.000000;0.762217
9118.000000;0.762627
9117.000000;0.762709
9116.000000;0.761959
9115.000000;0.760662
9114.000000;0.759499
9113.000000;0.758812
9112.000000;0.758529
9111.000000;0.758551
9110.000000;0.758797
9109.000000;0.758983
9108.000000;0.758778
9107.000000;0.758206
9106.000000;0.757606
9105.000000;0.757180
9104.000000;0.756836
9103.000000;0.756507
9102.000000;0.756331
9101.000000;0.756430
9100.000000;0.756702
9099.000000;0.756951
9098.000000;0.757068
9097.000000;0.757043
9096.000000;0.756955
9095.000000;0.757000
9094.000000;0.757337
9093.000000;0.757798
9092.000000;0.757889
9091.000000;0.757256
9090.000000;0.756120
9089.000000;0.755113
9088.000000;0.754677
9087.000000;0.754651
9086.000000;0.754472
9085.000000;0.753780
9084.000000;0.752797
9083.000000;0.752116
9082.000000;0.752123
9081.000000;0.752685
9080.000000;0.753332
9079.000000;0.753657
9078.000000;0.753554
9077.000000;0.753233
9076.000000;0.753067
9075.000000;0.753303
9074.000000;0.753811
9073.000000;0.754198
9072.000000;0.754231
9071.000000;0.754064
9070.000000;0.753984
9069.000000;0.754065
9068.000000;0.754162
9067.000000;0.754138
9066.000000;0.753968
9065.000000;0.753702
9064.000000;0.753433
9063.000000;0.753191
9062.000000;0.752789
9061.000000;0.751967
9060.000000;0.750836
9059.000000;0.749984
9058.000000;0.749912
9057.000000;0.750476
9056.000000;0.751085
9055.000000;0.751319
9054.000000;0.751155
9053.000000;0.750736
