Criado como novo conjunto de dados;"e0108.spp","-4284884.8 Secs"
cm-1;Abs
10000.000000;0.888463
9999.000000;0.888839
9998.000000;0.890061
9997.000000;0.891375
9996.000000;0.891716
9995.000000;0.890888
9994.000000;0.889396
9993.000000;0.888100
9992.000000;0.887430
9991.000000;0.887377
9990.000000;0.887534
9989.000000;0.887361
9988.000000;0.886610
9987.000000;0.885672
9986.000000;0.885242
9985.000000;0.885524
9984.000000;0.885930
9983.000000;0.885717
9982.000000;0.884681
9981.000000;0.883120
9980.000000;0.881498
9979.000000;0.880445
9978.000000;0.880687
9977.000000;0.882382
9976.000000;0.884595
9975.000000;0.885929
9974.000000;0.885801
9973.000000;0.884732
9972.000000;0.883393
9971.000000;0.881881
9970.000000;0.880095
9969.000000;0.878352
9968.000000;0.877237
9967.000000;0.877038
9966.000000;0.877590
9965.000000;0.878477
9964.000000;0.879172
9963.000000;0.879220
9962.000000;0.878602
9961.000000;0.877804
9960.000000;0.877268
9959.000000;0.876883
9958.000000;0.876302
9957.000000;0.875611
9956.000000;0.875253
9955.000000;0.875271
9954.000000;0.875043
9953.000000;0.874060
9952.000000;0.872667
9951.000000;0.871741
9950.000000;0.871754
9949.000000;0.872391
9948.000000;0.873052
9947.000000;0.873435
9946.000000;0.873535
9945.000000;0.873311
9944.000000;0.872631
9943.000000;0.871570
9942.000000;0.870485
9941.000000;0.869684
9940.000000;0.869158
9939.000000;0.868794
9938.000000;0.868733
9937.000000;0.869233
9936.000000;0.870168
9935.000000;0.870896
9934.000000;0.870797
9933.000000;0.869845
9932.000000;0.868530
9931.000000;0.867368
9930.000000;0.866594
9929.000000;0.866222
9928.000000;0.866146
9927.000000;0.866195
9926.000000;0.866306
9925.000000;0.866612
9924.000000;0.867153
9923.000000;0.867522
9922.000000;0.867110
9921.000000;0.865872
9920.000000;0.864579
9919.000000;0.864045
9918.000000;0.864300
9917.000000;0.864741
9916.000000;0.864867
9915.000000;0.864573
9914.000000;0.863885
9913.000000;0.862854
9912.000000;0.861795
9911.000000;0.861222
9910.000000;0.861292
9909.000000;0.861542
9908.000000;0.861397
9907.000000;0.860781
9906.000000;0.859980
9905.000000;0.859132
9904.000000;0.858193
9903.000000;0.857323
9902.000000;0.856866
9901.000000;0.856831
9900.000000;0.856725
9899.000000;0.856129
9898.000000;0.855287
9897.000000;0.854867
9896.000000;0.855213
9895.000000;0.856001
9894.000000;0.856590
9893.000000;0.856592
9892.000000;0.856117
9891.000000;0.855568
9890.000000;0.855238
9889.000000;0.855074
9888.000000;0.854827
9887.000000;0.854406
9886.000000;0.853985
9885.000000;0.853715
9884.000000;0.853457
9883.000000;0.852954
9882.000000;0.852203
9881.000000;0.851502
9880.000000;0.851133
9879.000000;0.851064
9878.000000;0.850937
9877.000000;0.850323
9876.000000;0.849117
9875.000000;0.847773
9874.000000;0.847064
9873.000000;0.847390
9872.000000;0.848350
9871.000000;0.849147
9870.000000;0.849367
9869.000000;0.849145
9868.000000;0.848627
9867.000000;0.847670
9866.000000;0.846242
9865.000000;0.844837
9864.000000;0.844173
9863.000000;0.844499
9862.000000;0.845321
9861.000000;0.845753
9860.000000;0.845083
9859.000000;0.843236
9858.000000;0.840943
9857.000000;0.839381
9856.000000;0.839381
9855.000000;0.840802
9854.000000;0.842671
9853.000000;0.843960
9852.000000;0.844253
9851.000000;0.843821
9850.000000;0.843231
9849.000000;0.842875
9848.000000;0.842665
9847.000000;0.842115
9846.000000;0.840870
9845.000000;0.839221
9844.000000;0.837979
9843.000000;0.837712
9842.000000;0.838156
9841.000000;0.838447
9840.000000;0.837887
9839.000000;0.836512
9838.000000;0.835037
9837.000000;0.834292
9836.000000;0.834574
9835.000000;0.835419
9834.000000;0.836018
9833.000000;0.835926
9832.000000;0.835367
9831.000000;0.834835
9830.000000;0.834517
9829.000000;0.834177
9828.000000;0.833509
9827.000000;0.832449
9826.000000;0.831223
9825.000000;0.830220
9824.000000;0.829816
9823.000000;0.830080
9822.000000;0.830617
9821.000000;0.830852
9820.000000;0.830583
9819.000000;0.830093
9818.000000;0.829666
9817.000000;0.829220
9816.000000;0.828624
9815.000000;0.828179
9814.000000;0.828403
9813.000000;0.829271
9812.000000;0.830010
9811.000000;0.829856
9810.000000;0.828865
9809.000000;0.827759
9808.000000;0.827076
9807.000000;0.826755
9806.000000;0.826527
9805.000000;0.826424
9804.000000;0.826718
9803.000000;0.827429
9802.000000;0.828088
9801.000000;0.828064
9800.000000;0.827126
9799.000000;0.825586
9798.000000;0.823920
9797.000000;0.822377
9796.000000;0.821067
9795.000000;0.820280
9794.000000;0.820372
9793.000000;0.821242
9792.000000;0.822197
9791.000000;0.822585
9790.000000;0.822441
9789.000000;0.822333
9788.000000;0.822679
9787.000000;0.823405
9786.000000;0.824160
9785.000000;0.824536
9784.000000;0.824094
9783.000000;0.822592
9782.000000;0.820409
9781.000000;0.818488
9780.000000;0.817565
9779.000000;0.817515
9778.000000;0.817605
9777.000000;0.817309
9776.000000;0.816732
9775.000000;0.816331
9774.000000;0.816453
9773.000000;0.817135
9772.000000;0.818096
9771.000000;0.818777
9770.000000;0.818531
9769.000000;0.817061
9768.000000;0.814801
9767.000000;0.812810
9766.000000;0.812110
9765.000000;0.812924
9764.000000;0.814499
9763.000000;0.815730
9762.000000;0.816035
9761.000000;0.815636
9760.000000;0.815094
9759.000000;0.814774
9758.000000;0.814728
9757.000000;0.814787
9756.000000;0.814620
9755.000000;0.813889
9754.000000;0.812613
9753.000000;0.811335
9752.000000;0.810713
9751.000000;0.810890
9750.000000;0.811420
9749.000000;0.811780
9748.000000;0.811782
9747.000000;0.811472
9746.000000;0.810867
9745.000000;0.809954
9744.000000;0.808864
9743.000000;0.807850
9742.000000;0.807101
9741.000000;0.806650
9740.000000;0.806459
9739.000000;0.806509
9738.000000;0.806793
9737.000000;0.807240
9736.000000;0.807671
9735.000000;0.807831
9734.000000;0.807544
9733.000000;0.806847
9732.000000;0.805950
9731.000000;0.805028
9730.000000;0.804118
9729.000000;0.803266
9728.000000;0.802694
9727.000000;0.802678
9726.000000;0.803171
9725.000000;0.803679
9724.000000;0.803627
9723.000000;0.802895
9722.000000;0.801906
9721.000000;0.801211
9720.000000;0.801067
9719.000000;0.801409
9718.000000;0.802036
9717.000000;0.802678
9716.000000;0.802999
9715.000000;0.802788
9714.000000;0.802170
9713.000000;0.801508
9712.000000;0.801024
9711.000000;0.800617
9710.000000;0.800089
9709.000000;0.799452
9708.000000;0.798848
9707.000000;0.798276
9706.000000;0.797621
9705.000000;0.796991
9704.000000;0.796788
9703.000000;0.797265
9702.000000;0.798086
9701.000000;0.798548
9700.000000;0.798281
9699.000000;0.797593
9698.000000;0.797020
9697.000000;0.796708
9696.000000;0.796411
9695.000000;0.795957
9694.000000;0.795459
9693.000000;0.795060
9692.000000;0.794753
9691.000000;0.794585
9690.000000;0.794781
9689.000000;0.795398
9688.000000;0.796009
9687.000000;0.796023
9686.000000;0.795302
9685.000000;0.794204
9684.000000;0.793033
9683.000000;0.791776
9682.000000;0.790468
9681.000000;0.789473
9680.000000;0.789142
9679.000000;0.789324
9678.000000;0.789501
9677.000000;0.789401
9676.000000;0.789283
9675.000000;0.789570
9674.000000;0.790332
9673.000000;0.791161
9672.000000;0.791456
9671.000000;0.790836
9670.000000;0.789429
9669.000000;0.787821
9668.000000;0.786660
9667.000000;0.786226
9666.000000;0.786339
9665.000000;0.786647
9664.000000;0.786887
9663.000000;0.786882
9662.000000;0.786473
9661.000000;0.785659
9660.000000;0.784750
9659.000000;0.784155
9658.000000;0.783949
9657.000000;0.783786
9656.000000;0.783352
9655.000000;0.782781
9654.000000;0.782454
9653.000000;0.782479
9652.000000;0.782593
9651.000000;0.782551
9650.000000;0.782390
9649.000000;0.782228
9648.000000;0.782029
9647.000000;0.781699
9646.000000;0.781258
9645.000000;0.780804
9644.000000;0.780469
9643.000000;0.780506
9642.000000;0.781133
9641.000000;0.782055
9640.000000;0.782376
9639.000000;0.781413
9638.000000;0.779567
9637.000000;0.778049
9636.000000;0.777688
9635.000000;0.778264
9634.000000;0.778995
9633.000000;0.779331
9632.000000;0.779171
9631.000000;0.778626
9630.000000;0.777904
9629.000000;0.777288
9628.000000;0.776986
9627.000000;0.776973
9626.000000;0.777071
9625.000000;0.777128
9624.000000;0.777032
9623.000000;0.776667
9622.000000;0.775977
9621.000000;0.775094
9620.000000;0.774331
9619.000000;0.774018
9618.000000;0.774278
9617.000000;0.774856
9616.000000;0.775192
9615.000000;0.774822
9614.000000;0.773778
9613.000000;0.772498
9612.000000;0.771403
9611.000000;0.770638
9610.000000;0.770176
9609.000000;0.769931
9608.000000;0.769778
9607.000000;0.769693
9606.000000;0.769915
9605.000000;0.770718
9604.000000;0.771914
9603.000000;0.772813
9602.000000;0.772824
9601.000000;0.771955
9600.000000;0.770668
9599.000000;0.769476
9598.000000;0.768754
9597.000000;0.768639
9596.000000;0.768821
9595.000000;0.768651
9594.000000;0.767762
9593.000000;0.766520
9592.000000;0.765652
9591.000000;0.765499
9590.000000;0.765791
9589.000000;0.766014
9588.000000;0.765817
9587.000000;0.765166
9586.000000;0.764341
9585.000000;0.763754
9584.000000;0.763615
9583.000000;0.763783
9582.000000;0.764042
9581.000000;0.764385
9580.000000;0.764798
9579.000000;0.764918
9578.000000;0.764234
9577.000000;0.762691
9576.000000;0.760855
9575.000000;0.759462
9574.000000;0.758940
9573.000000;0.759311
9572.000000;0.760286
9571.000000;0.761341
9570.000000;0.761909
9569.000000;0.761677
9568.000000;0.760756
9567.000000;0.759556
9566.000000;0.758529
9565.000000;0.757974
9564.000000;0.757971
9563.000000;0.758436
9562.000000;0.759185
9561.000000;0.759873
9560.000000;0.759960
9559.000000;0.759062
9558.000000;0.757481
9557.000000;0.756168
9556.000000;0.755883
9555.000000;0.756464
9554.000000;0.757100
9553.000000;0.757260
9552.000000;0.757144
9551.000000;0.757237
9550.000000;0.757671
9549.000000;0.758074
9548.000000;0.757902
9547.000000;0.756928
9546.000000;0.755490
9545.000000;0.754230
9544.000000;0.753478
9543.000000;0.752987
9542.000000;0.752409
9541.000000;0.751873
9540.000000;0.751835
9539.000000;0.752415
9538.000000;0.753218
9537.000000;0.753865
9536.000000;0.754412
9535.000000;0.755074
9534.000000;0.755727
9533.000000;0.755904
9532.000000;0.755269
9531.000000;0.754020
9530.000000;0.752784
9529.000000;0.752086
9528.000000;0.751907
9527.000000;0.751783
9526.000000;0.751403
9525.000000;0.750983
9524.000000;0.750872
9523.000000;0.750951
9522.000000;0.750703
9521.000000;0.749895
9520.000000;0.748952
9519.000000;0.748510
9518.000000;0.748748
9517.000000;0.749269
9516.000000;0.749551
9515.000000;0.749449
9514.000000;0.749277
9513.000000;0.749415
9512.000000;0.749780
9511.000000;0.749797
9510.000000;0.749029
9509.000000;0.747796
9508.000000;0.746903
9507.000000;0.746700
9506.000000;0.746648
9505.000000;0.745975
9504.000000;0.744637
9503.000000;0.743438
9502.000000;0.743203
9501.000000;0.743962
9500.000000;0.744954
9499.000000;0.745374
9498.000000;0.745054
9497.000000;0.744456
9496.000000;0.744109
9495.000000;0.744160
9494.000000;0.744411
9493.000000;0.744564
9492.000000;0.744373
9491.000000;0.743747
9490.000000;0.742881
9489.000000;0.742178
9488.000000;0.741880
9487.000000;0.741857
9486.000000;0.741874
9485.000000;0.741939
9484.000000;0.742158
9483.000000;0.742387
9482.000000;0.742316
9481.000000;0.741876
9480.000000;0.741309
9479.000000;0.740823
9478.000000;0.740424
9477.000000;0.740102
9476.000000;0.739961
9475.000000;0.740044
9474.000000;0.740184
9473.000000;0.740096
9472.000000;0.739558
9471.000000;0.738507
9470.000000;0.737111
9469.000000;0.735780
9468.000000;0.734932
9467.000000;0.734648
9466.000000;0.734638
9465.000000;0.734565
9464.000000;0.734323
9463.000000;0.734030
9462.000000;0.733870
9461.000000;0.733954
9460.000000;0.734224
9459.000000;0.734521
9458.000000;0.734844
9457.000000;0.735435
9456.000000;0.736401
9455.000000;0.737369
9454.000000;0.737757
9453.000000;0.737410
9452.000000;0.736699
9451.000000;0.736003
9450.000000;0.735373
9449.000000;0.734784
9448.000000;0.734394
9447.000000;0.734350
9446.000000;0.734536
9445.000000;0.734696
9444.000000;0.734705
9443.000000;0.734555
9442.000000;0.734211
9441.000000;0.733625
9440.000000;0.732847
9439.000000;0.732014
9438.000000;0.731242
9437.000000;0.730586
9436.000000;0.730078
9435.000000;0.729753
9434.000000;0.729646
9433.000000;0.729747
9432.000000;0.729926
9431.000000;0.729978
9430.000000;0.729813
9429.000000;0.729524
9428.000000;0.729205
9427.000000;0.728819
9426.000000;0.728404
9425.000000;0.728223
9424.000000;0.728444
9423.000000;0.728788
9422.000000;0.728785
9421.000000;0.728344
9420.000000;0.727764
9419.000000;0.727243
9418.000000;0.726757
9417.000000;0.726422
9416.000000;0.726519
9415.000000;0.726991
9414.000000;0.727331
9413.000000;0.727182
9412.000000;0.726744
9411.000000;0.726341
9410.000000;0.725926
9409.000000;0.725327
9408.000000;0.724752
9407.000000;0.724646
9406.000000;0.725126
9405.000000;0.725805
9404.000000;0.726141
9403.000000;0.725787
9402.000000;0.724724
9401.000000;0.723282
9400.000000;0.721979
9399.000000;0.721151
9398.000000;0.720735
9397.000000;0.720508
9396.000000;0.720429
9395.000000;0.720573
9394.000000;0.720899
9393.000000;0.721304
9392.000000;0.721802
9391.000000;0.722412
9390.000000;0.722916
9389.000000;0.722966
9388.000000;0.722475
9387.000000;0.721715
9386.000000;0.721045
9385.000000;0.720656
9384.000000;0.720565
9383.000000;0.720688
9382.000000;0.720883
9381.000000;0.721015
9380.000000;0.720969
9379.000000;0.720602
9378.000000;0.719808
9377.000000;0.718757
9376.000000;0.717928
9375.000000;0.717700
9374.000000;0.717954
9373.000000;0.718246
9372.000000;0.718333
9371.000000;0.718375
9370.000000;0.718636
9369.000000;0.719166
9368.000000;0.719750
9367.000000;0.720028
9366.000000;0.719693
9365.000000;0.718750
9364.000000;0.717603
9363.000000;0.716739
9362.000000;0.716301
9361.000000;0.716055
9360.000000;0.715778
9359.000000;0.715538
9358.000000;0.715567
9357.000000;0.715975
9356.000000;0.716625
9355.000000;0.717248
9354.000000;0.717651
9353.000000;0.717829
9352.000000;0.717840
9351.000000;0.717552
9350.000000;0.716678
9349.000000;0.715198
9348.000000;0.713664
9347.000000;0.712845
9346.000000;0.713013
9345.000000;0.713672
9344.000000;0.714051
9343.000000;0.713806
9342.000000;0.713208
9341.000000;0.712761
9340.000000;0.712735
9339.000000;0.713012
9338.000000;0.713301
9337.000000;0.713410
9336.000000;0.713320
9335.000000;0.713060
9334.000000;0.712645
9333.000000;0.712128
9332.000000;0.711585
9331.000000;0.711021
9330.000000;0.710431
9329.000000;0.710001
9328.000000;0.710067
9327.000000;0.710706
9326.000000;0.711483
9325.000000;0.711818
9324.000000;0.711561
9323.000000;0.711049
9322.000000;0.710654
9321.000000;0.710468
9320.000000;0.710450
9319.000000;0.710621
9318.000000;0.710960
9317.000000;0.711205
9316.000000;0.710945
9315.000000;0.710007
9314.000000;0.708706
9313.000000;0.707635
9312.000000;0.707156
9311.000000;0.707099
9310.000000;0.707011
9309.000000;0.706664
9308.000000;0.706226
9307.000000;0.705947
9306.000000;0.705882
9305.000000;0.705940
9304.000000;0.706044
9303.000000;0.706112
9302.000000;0.706063
9301.000000;0.705974
9300.000000;0.706047
9299.000000;0.706234
9298.000000;0.706083
9297.000000;0.705275
9296.000000;0.704224
9295.000000;0.703791
9294.000000;0.704318
9293.000000;0.705205
9292.000000;0.705529
9291.000000;0.704934
9290.000000;0.703842
9289.000000;0.702966
9288.000000;0.702710
9287.000000;0.702941
9286.000000;0.703231
9285.000000;0.703322
9284.000000;0.703343
9283.000000;0.703534
9282.000000;0.703846
9281.000000;0.704007
9280.000000;0.703898
9279.000000;0.703637
9278.000000;0.703278
9277.000000;0.702703
9276.000000;0.701891
9275.000000;0.701084
9274.000000;0.700532
9273.000000;0.700257
9272.000000;0.700165
9271.000000;0.700229
9270.000000;0.700418
9269.000000;0.700645
9268.000000;0.700911
9267.000000;0.701324
9266.000000;0.701810
9265.000000;0.701969
9264.000000;0.701485
9263.000000;0.700596
9262.000000;0.699920
9261.000000;0.699813
9260.000000;0.700088
9259.000000;0.700308
9258.000000;0.700129
9257.000000;0.699408
9256.000000;0.698255
9255.000000;0.697061
9254.000000;0.696274
9253.000000;0.696020
9252.000000;0.696075
9251.000000;0.696208
9250.000000;0.696374
9249.000000;0.696551
9248.000000;0.696631
9247.000000;0.696589
9246.000000;0.696545
9245.000000;0.696531
9244.000000;0.696374
9243.000000;0.695995
9242.000000;0.695641
9241.000000;0.695605
9240.000000;0.695876
9239.000000;0.696243
9238.000000;0.696627
9237.000000;0.697011
9236.000000;0.697154
9235.000000;0.696713
9234.000000;0.695737
9233.000000;0.694744
9232.000000;0.694225
9231.000000;0.694259
9230.000000;0.694656
9229.000000;0.695210
9228.000000;0.695699
9227.000000;0.695863
9226.000000;0.695613
9225.000000;0.695119
9224.000000;0.694591
9223.000000;0.694112
9222.000000;0.693772
9221.000000;0.693742
9220.000000;0.694022
9219.000000;0.694302
9218.000000;0.694324
9217.000000;0.694223
9216.000000;0.694278
9215.000000;0.694435
9214.000000;0.694410
9213.000000;0.694189
9212.000000;0.694062
9211.000000;0.694112
9210.000000;0.694007
9209.000000;0.693443
9208.000000;0.692618
9207.000000;0.692074
9206.000000;0.692184
9205.000000;0.692837
9204.000000;0.693524
9203.000000;0.693679
9202.000000;0.693087
9201.000000;0.692053
9200.000000;0.691106
9199.000000;0.690504
9198.000000;0.690113
9197.000000;0.689753
9196.000000;0.689456
9195.000000;0.689356
9194.000000;0.689534
9193.000000;0.690024
9192.000000;0.690768
9191.000000;0.691438
9190.000000;0.691580
9189.000000;0.691106
9188.000000;0.690505
9187.000000;0.690343
9186.000000;0.690651
9185.000000;0.690970
9184.000000;0.690895
9183.000000;0.690355
9182.000000;0.689482
9181.000000;0.688460
9180.000000;0.687570
9179.000000;0.687138
9178.000000;0.687314
9177.000000;0.687940
9176.000000;0.688687
9175.000000;0.689278
9174.000000;0.689634
9173.000000;0.689893
9172.000000;0.690271
9171.000000;0.690754
9170.000000;0.690904
9169.000000;0.690148
9168.000000;0.688412
9167.000000;0.686414
9166.000000;0.685186
9165.000000;0.685241
9164.000000;0.686212
9163.000000;0.687309
9162.000000;0.688029
9161.000000;0.688385
9160.000000;0.688511
9159.000000;0.688293
9158.000000;0.687538
9157.000000;0.686373
9156.000000;0.685272
9155.000000;0.684643
9154.000000;0.684517
9153.000000;0.684684
9152.000000;0.684969
9151.000000;0.685308
9150.000000;0.685686
9149.000000;0.686097
9148.000000;0.686519
9147.000000;0.686856
9146.000000;0.686986
9145.000000;0.686879
9144.000000;0.686570
9143.000000;0.686009
9142.000000;0.685132
9141.000000;0.684146
9140.000000;0.683500
9139.000000;0.683415
9138.000000;0.683590
9137.000000;0.683579
9136.000000;0.683348
9135.000000;0.683209
9134.000000;0.683340
9133.000000;0.683623
9132.000000;0.683927
9131.000000;0.684214
9130.000000;0.684331
9129.000000;0.683991
9128.000000;0.683136
9127.000000;0.682143
9126.000000;0.681501
9125.000000;0.681382
9124.000000;0.681607
9123.000000;0.681899
9122.000000;0.682065
9121.000000;0.682037
9120.000000;0.681903
9119.000000;0.681856
9118.000000;0.681997
9117.000000;0.682199
9116.000000;0.682264
9115.000000;0.682182
9114.000000;0.682134
9113.000000;0.682263
9112.000000;0.682488
9111.000000;0.682574
9110.000000;0.682357
9109.000000;0.681897
9108.000000;0.681414
9107.000000;0.681074
9106.000000;0.680858
9105.000000;0.680655
9104.000000;0.680441
9103.000000;0.680299
9102.000000;0.680286
9101.000000;0.680355
9100.000000;0.680439
9099.000000;0.680534
9098.000000;0.680663
9097.000000;0.680810
9096.000000;0.680917
9095.000000;0.680920
9094.000000;0.680760
9093.000000;0.680389
9092.000000;0.679802
9091.000000;0.679054
9090.000000;0.678244
9089.000000;0.677541
9088.000000;0.677197
9087.000000;0.677433
9086.000000;0.678205
9085.000000;0.679112
9084.000000;0.679616
9083.000000;0.679407
9082.000000;0.678621
9081.000000;0.677755
9080.000000;0.677330
9079.000000;0.677505
9078.000000;0.677963
9077.000000;0.678248
9076.000000;0.678248
9075.000000;0.678272
9074.000000;0.678579
9073.000000;0.678964
9072.000000;0.678959
9071.000000;0.678388
9070.000000;0.677570
9069.000000;0.676937
9068.000000;0.676638
9067.000000;0.676576
9066.000000;0.676673
9065.000000;0.676909
9064.000000;0.677132
9063.000000;0.677037
9062.000000;0.676481
9061.000000;0.675757
9060.000000;0.675390
9059.000000;0.675624
9058.000000;0.676179
9057.000000;0.676560
9056.000000;0.676528
9055.000000;0.676203
9054.000000;0.675789
9053.000000;0.675409
