Criado como novo conjunto de dados;"e0108.spp","-4232141.7 Secs"
cm-1;Abs
10000.000000;1.699934
9999.000000;1.705627
9998.000000;1.714149
9997.000000;1.722353
9996.000000;1.725955
9995.000000;1.723711
9994.000000;1.717173
9993.000000;1.709592
9992.000000;1.703529
9991.000000;1.700309
9990.000000;1.699684
9989.000000;1.700181
9988.000000;1.699978
9987.000000;1.698676
9986.000000;1.697763
9985.000000;1.698497
9984.000000;1.699834
9983.000000;1.699859
9982.000000;1.698766
9981.000000;1.698740
9980.000000;1.700996
9979.000000;1.703799
9978.000000;1.703960
9977.000000;1.700366
9976.000000;1.695140
9975.000000;1.691257
9974.000000;1.689678
9973.000000;1.688667
9972.000000;1.685956
9971.000000;1.681979
9970.000000;1.680160
9969.000000;1.682902
9968.000000;1.687741
9967.000000;1.689082
9966.000000;1.684613
9965.000000;1.678311
9964.000000;1.675718
9963.000000;1.678204
9962.000000;1.682809
9961.000000;1.686331
9960.000000;1.688267
9959.000000;1.689686
9958.000000;1.690577
9957.000000;1.689742
9956.000000;1.687094
9955.000000;1.684552
9954.000000;1.683688
9953.000000;1.683306
9952.000000;1.680706
9951.000000;1.675563
9950.000000;1.671395
9949.000000;1.672289
9948.000000;1.678627
9947.000000;1.686570
9946.000000;1.691648
9945.000000;1.692105
9944.000000;1.688547
9943.000000;1.682296
9942.000000;1.675557
9941.000000;1.671692
9940.000000;1.673261
9939.000000;1.679558
9938.000000;1.686644
9937.000000;1.690208
9936.000000;1.688697
9935.000000;1.684016
9934.000000;1.679707
9933.000000;1.678444
9932.000000;1.680290
9931.000000;1.682577
9930.000000;1.681818
9929.000000;1.676587
9928.000000;1.668824
9927.000000;1.662408
9926.000000;1.660741
9925.000000;1.665082
9924.000000;1.673912
9923.000000;1.683660
9922.000000;1.690589
9921.000000;1.692708
9920.000000;1.690576
9919.000000;1.686523
9918.000000;1.683113
9917.000000;1.681609
9916.000000;1.681347
9915.000000;1.680851
9914.000000;1.679691
9913.000000;1.679030
9912.000000;1.679750
9911.000000;1.680236
9910.000000;1.677102
9909.000000;1.668712
9908.000000;1.657815
9907.000000;1.650040
9906.000000;1.649715
9905.000000;1.656862
9904.000000;1.667110
9903.000000;1.674505
9902.000000;1.675719
9901.000000;1.672340
9900.000000;1.668963
9899.000000;1.669026
9898.000000;1.672117
9897.000000;1.674589
9896.000000;1.673139
9895.000000;1.668265
9894.000000;1.663790
9893.000000;1.662970
9892.000000;1.665663
9891.000000;1.669168
9890.000000;1.671071
9889.000000;1.670807
9888.000000;1.669055
9887.000000;1.666913
9886.000000;1.665768
9885.000000;1.666661
9884.000000;1.668833
9883.000000;1.669473
9882.000000;1.666058
9881.000000;1.659079
9880.000000;1.651919
9879.000000;1.648142
9878.000000;1.648974
9877.000000;1.652578
9876.000000;1.655174
9875.000000;1.653672
9874.000000;1.648489
9873.000000;1.643590
9872.000000;1.642937
9871.000000;1.646877
9870.000000;1.652012
9869.000000;1.654680
9868.000000;1.654651
9867.000000;1.654869
9866.000000;1.657403
9865.000000;1.660415
9864.000000;1.659997
9863.000000;1.655215
9862.000000;1.649809
9861.000000;1.647953
9860.000000;1.649761
9859.000000;1.651929
9858.000000;1.652157
9857.000000;1.651301
9856.000000;1.650602
9855.000000;1.649127
9854.000000;1.645608
9853.000000;1.641346
9852.000000;1.639113
9851.000000;1.639965
9850.000000;1.642788
9849.000000;1.646129
9848.000000;1.648776
9847.000000;1.648900
9846.000000;1.645067
9845.000000;1.638997
9844.000000;1.635027
9843.000000;1.635569
9842.000000;1.638712
9841.000000;1.641371
9840.000000;1.643274
9839.000000;1.645700
9838.000000;1.647467
9837.000000;1.645421
9836.000000;1.639333
9835.000000;1.633306
9834.000000;1.631218
9833.000000;1.632951
9832.000000;1.635768
9831.000000;1.637886
9830.000000;1.639631
9829.000000;1.641753
9828.000000;1.643910
9827.000000;1.644989
9826.000000;1.644309
9825.000000;1.642298
9824.000000;1.640079
9823.000000;1.638276
9822.000000;1.636332
9821.000000;1.633816
9820.000000;1.632200
9819.000000;1.633563
9818.000000;1.637158
9817.000000;1.639138
9816.000000;1.637014
9815.000000;1.632926
9814.000000;1.630734
9813.000000;1.631370
9812.000000;1.632750
9811.000000;1.633026
9810.000000;1.632036
9809.000000;1.630175
9808.000000;1.628130
9807.000000;1.627476
9806.000000;1.629184
9805.000000;1.631324
9804.000000;1.630385
9803.000000;1.625713
9802.000000;1.620796
9801.000000;1.619329
9800.000000;1.621772
9799.000000;1.625994
9798.000000;1.629452
9797.000000;1.630236
9796.000000;1.627814
9795.000000;1.623871
9794.000000;1.621150
9793.000000;1.620747
9792.000000;1.621478
9791.000000;1.622286
9790.000000;1.623904
9789.000000;1.626834
9788.000000;1.629344
9787.000000;1.629800
9786.000000;1.629323
9785.000000;1.629795
9784.000000;1.630728
9783.000000;1.630266
9782.000000;1.628386
9781.000000;1.626651
9780.000000;1.625190
9779.000000;1.622691
9778.000000;1.619604
9777.000000;1.618870
9776.000000;1.622582
9775.000000;1.629304
9774.000000;1.635218
9773.000000;1.637198
9772.000000;1.634595
9771.000000;1.629004
9770.000000;1.622862
9769.000000;1.617705
9768.000000;1.613579
9767.000000;1.610533
9766.000000;1.609949
9765.000000;1.612913
9764.000000;1.617588
9763.000000;1.620241
9762.000000;1.619473
9761.000000;1.617463
9760.000000;1.616343
9759.000000;1.615522
9758.000000;1.613789
9757.000000;1.612140
9756.000000;1.612668
9755.000000;1.615830
9754.000000;1.620103
9753.000000;1.623603
9752.000000;1.624907
9751.000000;1.622936
9750.000000;1.617746
9749.000000;1.611355
9748.000000;1.606458
9747.000000;1.604199
9746.000000;1.603826
9745.000000;1.604191
9744.000000;1.604815
9743.000000;1.605892
9742.000000;1.608136
9741.000000;1.612246
9740.000000;1.617637
9739.000000;1.622000
9738.000000;1.623067
9737.000000;1.620805
9736.000000;1.617084
9735.000000;1.613461
9734.000000;1.610303
9733.000000;1.607850
9732.000000;1.606660
9731.000000;1.606588
9730.000000;1.606446
9729.000000;1.605350
9728.000000;1.603638
9727.000000;1.601795
9726.000000;1.599332
9725.000000;1.595735
9724.000000;1.592100
9723.000000;1.590692
9722.000000;1.592689
9721.000000;1.596969
9720.000000;1.601430
9719.000000;1.605179
9718.000000;1.608928
9717.000000;1.613078
9716.000000;1.616264
9715.000000;1.616554
9714.000000;1.613691
9713.000000;1.609586
9712.000000;1.606639
9711.000000;1.605870
9710.000000;1.606510
9709.000000;1.606897
9708.000000;1.605686
9707.000000;1.602911
9706.000000;1.600265
9705.000000;1.599875
9704.000000;1.602300
9703.000000;1.605490
9702.000000;1.606213
9701.000000;1.603364
9700.000000;1.599204
9699.000000;1.596806
9698.000000;1.597206
9697.000000;1.599115
9696.000000;1.600773
9695.000000;1.601533
9694.000000;1.601673
9693.000000;1.601704
9692.000000;1.601962
9691.000000;1.602232
9690.000000;1.601746
9689.000000;1.599752
9688.000000;1.596357
9687.000000;1.592992
9686.000000;1.591599
9685.000000;1.592780
9684.000000;1.594756
9683.000000;1.594730
9682.000000;1.591792
9681.000000;1.588168
9680.000000;1.586817
9679.000000;1.588081
9678.000000;1.589371
9677.000000;1.588165
9676.000000;1.584856
9675.000000;1.582035
9674.000000;1.581497
9673.000000;1.583016
9672.000000;1.585636
9671.000000;1.588728
9670.000000;1.591453
9669.000000;1.592544
9668.000000;1.591717
9667.000000;1.590568
9666.000000;1.590954
9665.000000;1.592865
9664.000000;1.594839
9663.000000;1.596061
9662.000000;1.596626
9661.000000;1.595935
9660.000000;1.592893
9659.000000;1.588403
9658.000000;1.585830
9657.000000;1.587714
9656.000000;1.592813
9655.000000;1.597024
9654.000000;1.597140
9653.000000;1.593087
9652.000000;1.586757
9651.000000;1.580324
9650.000000;1.575715
9649.000000;1.574184
9648.000000;1.575811
9647.000000;1.579572
9646.000000;1.583827
9645.000000;1.586717
9644.000000;1.586909
9643.000000;1.584716
9642.000000;1.582096
9641.000000;1.580816
9640.000000;1.580751
9639.000000;1.580321
9638.000000;1.578316
9637.000000;1.574879
9636.000000;1.571195
9635.000000;1.568887
9634.000000;1.569087
9633.000000;1.571119
9632.000000;1.572574
9631.000000;1.571847
9630.000000;1.570210
9629.000000;1.570066
9628.000000;1.571699
9627.000000;1.573358
9626.000000;1.573986
9625.000000;1.573826
9624.000000;1.572583
9623.000000;1.569599
9622.000000;1.566336
9621.000000;1.566149
9620.000000;1.570192
9619.000000;1.575202
9618.000000;1.577069
9617.000000;1.575693
9616.000000;1.574239
9615.000000;1.574638
9614.000000;1.576018
9613.000000;1.576920
9612.000000;1.577014
9611.000000;1.576423
9610.000000;1.574941
9609.000000;1.572591
9608.000000;1.570171
9607.000000;1.568851
9606.000000;1.569501
9605.000000;1.572124
9604.000000;1.575422
9603.000000;1.577397
9602.000000;1.577212
9601.000000;1.576202
9600.000000;1.576116
9599.000000;1.576754
9598.000000;1.576267
9597.000000;1.573630
9596.000000;1.569785
9595.000000;1.566377
9594.000000;1.564473
9593.000000;1.564432
9592.000000;1.565684
9591.000000;1.566422
9590.000000;1.564910
9589.000000;1.561748
9588.000000;1.559862
9587.000000;1.561567
9586.000000;1.566032
9585.000000;1.569926
9584.000000;1.570467
9583.000000;1.567667
9582.000000;1.563637
9581.000000;1.560295
9580.000000;1.558024
9579.000000;1.556164
9578.000000;1.554526
9577.000000;1.553696
9576.000000;1.553721
9575.000000;1.553797
9574.000000;1.553786
9573.000000;1.554861
9572.000000;1.557631
9571.000000;1.560359
9570.000000;1.560466
9569.000000;1.557668
9568.000000;1.554101
9567.000000;1.551441
9566.000000;1.549602
9565.000000;1.548453
9564.000000;1.548941
9563.000000;1.551472
9562.000000;1.554382
9561.000000;1.555389
9560.000000;1.554149
9559.000000;1.552242
9558.000000;1.551040
9557.000000;1.550678
9556.000000;1.550683
9555.000000;1.550537
9554.000000;1.549819
9553.000000;1.548645
9552.000000;1.547941
9551.000000;1.548768
9550.000000;1.551346
9549.000000;1.555036
9548.000000;1.558960
9547.000000;1.561865
9546.000000;1.561782
9545.000000;1.557605
9544.000000;1.551278
9543.000000;1.546786
9542.000000;1.546468
9541.000000;1.549003
9540.000000;1.551243
9539.000000;1.551568
9538.000000;1.550849
9537.000000;1.550576
9536.000000;1.550998
9535.000000;1.551123
9534.000000;1.550008
9533.000000;1.547959
9532.000000;1.546529
9531.000000;1.547042
9530.000000;1.548988
9529.000000;1.550137
9528.000000;1.548718
9527.000000;1.545377
9526.000000;1.542408
9525.000000;1.541376
9524.000000;1.542093
9523.000000;1.543336
9522.000000;1.543764
9521.000000;1.542533
9520.000000;1.540042
9519.000000;1.538079
9518.000000;1.538322
9517.000000;1.540601
9516.000000;1.543382
9515.000000;1.545873
9514.000000;1.548507
9513.000000;1.551127
9512.000000;1.552099
9511.000000;1.550223
9510.000000;1.546655
9509.000000;1.543810
9508.000000;1.542914
9507.000000;1.543419
9506.000000;1.544156
9505.000000;1.544073
9504.000000;1.542240
9503.000000;1.538358
9502.000000;1.533466
9501.000000;1.529089
9500.000000;1.525760
9499.000000;1.523392
9498.000000;1.522809
9497.000000;1.525600
9496.000000;1.532036
9495.000000;1.539875
9494.000000;1.545879
9493.000000;1.548304
9492.000000;1.547560
9491.000000;1.545143
9490.000000;1.542625
9489.000000;1.540902
9488.000000;1.539640
9487.000000;1.537813
9486.000000;1.535205
9485.000000;1.533031
9484.000000;1.532581
9483.000000;1.533539
9482.000000;1.534070
9481.000000;1.532780
9480.000000;1.530514
9479.000000;1.529914
9478.000000;1.532814
9477.000000;1.537844
9476.000000;1.541079
9475.000000;1.540024
9474.000000;1.536525
9473.000000;1.534311
9472.000000;1.534321
9471.000000;1.534259
9470.000000;1.532546
9469.000000;1.530674
9468.000000;1.530530
9467.000000;1.531181
9466.000000;1.530177
9465.000000;1.527238
9464.000000;1.524622
9463.000000;1.524129
9462.000000;1.525633
9461.000000;1.528456
9460.000000;1.532317
9459.000000;1.536449
9458.000000;1.539004
9457.000000;1.538231
9456.000000;1.534140
9455.000000;1.528707
9454.000000;1.524624
9453.000000;1.523747
9452.000000;1.525855
9451.000000;1.528552
9450.000000;1.529123
9449.000000;1.527023
9448.000000;1.524161
9447.000000;1.522800
9446.000000;1.523770
9445.000000;1.526493
9444.000000;1.529825
9443.000000;1.532480
9442.000000;1.533370
9441.000000;1.532389
9440.000000;1.530734
9439.000000;1.529916
9438.000000;1.530351
9437.000000;1.531014
9436.000000;1.530480
9435.000000;1.528371
9434.000000;1.525831
9433.000000;1.524380
9432.000000;1.524190
9431.000000;1.523862
9430.000000;1.522280
9429.000000;1.520167
9428.000000;1.519031
9427.000000;1.519060
9426.000000;1.519043
9425.000000;1.518262
9424.000000;1.517429
9423.000000;1.517459
9422.000000;1.518149
9421.000000;1.518499
9420.000000;1.517745
9419.000000;1.515755
9418.000000;1.513087
9417.000000;1.511051
9416.000000;1.510983
9415.000000;1.512755
9414.000000;1.514391
9413.000000;1.513945
9412.000000;1.511766
9411.000000;1.510180
9410.000000;1.510972
9409.000000;1.513840
9408.000000;1.517084
9407.000000;1.519090
9406.000000;1.519085
9405.000000;1.517225
9404.000000;1.514547
9403.000000;1.512635
9402.000000;1.512664
9401.000000;1.514397
9400.000000;1.516236
9399.000000;1.516654
9398.000000;1.515761
9397.000000;1.515101
9396.000000;1.515744
9395.000000;1.516992
9394.000000;1.517301
9393.000000;1.516168
9392.000000;1.514438
9391.000000;1.512785
9390.000000;1.510958
9389.000000;1.508869
9388.000000;1.507545
9387.000000;1.508211
9386.000000;1.510605
9385.000000;1.512840
9384.000000;1.513101
9383.000000;1.511236
9382.000000;1.508799
9381.000000;1.507707
9380.000000;1.508782
9379.000000;1.511233
9378.000000;1.513363
9377.000000;1.513950
9376.000000;1.513028
9375.000000;1.511427
9374.000000;1.509860
9373.000000;1.508542
9372.000000;1.507452
9371.000000;1.506741
9370.000000;1.506863
9369.000000;1.508311
9368.000000;1.511022
9367.000000;1.513866
9366.000000;1.515018
9365.000000;1.513363
9364.000000;1.509701
9363.000000;1.506342
9362.000000;1.505326
9361.000000;1.506904
9360.000000;1.509547
9359.000000;1.511370
9358.000000;1.511608
9357.000000;1.510796
9356.000000;1.509755
9355.000000;1.508899
9354.000000;1.508579
9353.000000;1.509331
9352.000000;1.511110
9351.000000;1.512415
9350.000000;1.511011
9349.000000;1.505984
9348.000000;1.498825
9347.000000;1.492396
9346.000000;1.489194
9345.000000;1.490209
9344.000000;1.494486
9343.000000;1.499506
9342.000000;1.502681
9341.000000;1.503141
9340.000000;1.501982
9339.000000;1.500690
9338.000000;1.499893
9337.000000;1.499780
9336.000000;1.500822
9335.000000;1.503287
9334.000000;1.506376
9333.000000;1.508594
9332.000000;1.508872
9331.000000;1.506855
9330.000000;1.502483
9329.000000;1.496345
9328.000000;1.490409
9327.000000;1.487402
9326.000000;1.488790
9325.000000;1.493226
9324.000000;1.497301
9323.000000;1.498442
9322.000000;1.497089
9321.000000;1.495735
9320.000000;1.496133
9319.000000;1.497803
9318.000000;1.499108
9317.000000;1.499331
9316.000000;1.499294
9315.000000;1.500058
9314.000000;1.501406
9313.000000;1.501848
9312.000000;1.500262
9311.000000;1.497308
9310.000000;1.494781
9309.000000;1.493606
9308.000000;1.492994
9307.000000;1.491805
9306.000000;1.490259
9305.000000;1.489442
9304.000000;1.489313
9303.000000;1.488539
9302.000000;1.486779
9301.000000;1.485826
9300.000000;1.487382
9299.000000;1.490577
9298.000000;1.492996
9297.000000;1.493871
9296.000000;1.494716
9295.000000;1.496599
9294.000000;1.498374
9293.000000;1.498225
9292.000000;1.495793
9291.000000;1.492137
9290.000000;1.488681
9289.000000;1.486804
9288.000000;1.487384
9287.000000;1.489722
9286.000000;1.491443
9285.000000;1.490627
9284.000000;1.488022
9283.000000;1.486307
9282.000000;1.487193
9281.000000;1.489736
9280.000000;1.491290
9279.000000;1.489807
9278.000000;1.485438
9277.000000;1.480311
9276.000000;1.476842
9275.000000;1.476018
9274.000000;1.477128
9273.000000;1.478762
9272.000000;1.479784
9271.000000;1.479800
9270.000000;1.479523
9269.000000;1.480598
9268.000000;1.483988
9267.000000;1.488176
9266.000000;1.490084
9265.000000;1.488463
9264.000000;1.485287
9263.000000;1.483093
9262.000000;1.482354
9261.000000;1.482295
9260.000000;1.482826
9259.000000;1.484131
9258.000000;1.485193
9257.000000;1.484492
9256.000000;1.482015
9255.000000;1.479226
9254.000000;1.477125
9253.000000;1.475690
9252.000000;1.475059
9251.000000;1.475706
9250.000000;1.477181
9249.000000;1.477971
9248.000000;1.477275
9247.000000;1.475957
9246.000000;1.475198
9245.000000;1.475277
9244.000000;1.476172
9243.000000;1.478259
9242.000000;1.481630
9241.000000;1.485321
9240.000000;1.488000
9239.000000;1.489132
9238.000000;1.488982
9237.000000;1.487881
9236.000000;1.486049
9235.000000;1.483918
9234.000000;1.482137
9233.000000;1.481166
9232.000000;1.480871
9231.000000;1.480385
9230.000000;1.478692
9229.000000;1.475854
9228.000000;1.473357
9227.000000;1.472543
9226.000000;1.472907
9225.000000;1.472833
9224.000000;1.472014
9223.000000;1.471999
9222.000000;1.474089
9221.000000;1.477904
9220.000000;1.482400
9219.000000;1.486928
9218.000000;1.490553
9217.000000;1.491656
9216.000000;1.489488
9215.000000;1.485450
9214.000000;1.481701
9213.000000;1.479093
9212.000000;1.477378
9211.000000;1.476584
9210.000000;1.476893
9209.000000;1.477539
9208.000000;1.477277
9207.000000;1.476114
9206.000000;1.475411
9205.000000;1.476023
9204.000000;1.477300
9203.000000;1.478138
9202.000000;1.478082
9201.000000;1.477139
9200.000000;1.475465
9199.000000;1.473711
9198.000000;1.472883
9197.000000;1.473195
9196.000000;1.473569
9195.000000;1.472956
9194.000000;1.471703
9193.000000;1.470920
9192.000000;1.470938
9191.000000;1.471144
9190.000000;1.471310
9189.000000;1.472295
9188.000000;1.474796
9187.000000;1.477920
9186.000000;1.479746
9185.000000;1.479291
9184.000000;1.477306
9183.000000;1.475002
9182.000000;1.472646
9181.000000;1.469936
9180.000000;1.467318
9179.000000;1.466058
9178.000000;1.466803
9177.000000;1.468648
9176.000000;1.470025
9175.000000;1.470238
9174.000000;1.469668
9173.000000;1.468776
9172.000000;1.467667
9171.000000;1.466568
9170.000000;1.466034
9169.000000;1.466405
9168.000000;1.467292
9167.000000;1.467910
9166.000000;1.467843
9165.000000;1.467296
9164.000000;1.466626
9163.000000;1.465800
9162.000000;1.464575
9161.000000;1.463236
9160.000000;1.462733
9159.000000;1.463749
9158.000000;1.465804
9157.000000;1.467599
9156.000000;1.468242
9155.000000;1.467835
9154.000000;1.466953
9153.000000;1.466086
9152.000000;1.465591
9151.000000;1.465558
9150.000000;1.465516
9149.000000;1.464876
9148.000000;1.463855
9147.000000;1.463302
9146.000000;1.463252
9145.000000;1.462564
9144.000000;1.460862
9143.000000;1.459939
9142.000000;1.461841
9141.000000;1.465920
9140.000000;1.469036
9139.000000;1.468993
9138.000000;1.466733
9137.000000;1.464703
9136.000000;1.464288
9135.000000;1.465337
9134.000000;1.466961
9133.000000;1.467954
9132.000000;1.467236
9131.000000;1.464914
9130.000000;1.462523
9129.000000;1.461341
9128.000000;1.460780
9127.000000;1.459335
9126.000000;1.456974
9125.000000;1.455532
9124.000000;1.456432
9123.000000;1.458826
9122.000000;1.460426
9121.000000;1.459820
9120.000000;1.457625
9119.000000;1.455643
9118.000000;1.455314
9117.000000;1.456775
9116.000000;1.458914
9115.000000;1.460214
9114.000000;1.459835
9113.000000;1.458059
9112.000000;1.455839
9111.000000;1.454080
9110.000000;1.453292
9109.000000;1.453674
9108.000000;1.455347
9107.000000;1.458432
9106.000000;1.462701
9105.000000;1.467082
9104.000000;1.469830
9103.000000;1.469733
9102.000000;1.467142
9101.000000;1.463438
9100.000000;1.459660
9099.000000;1.456182
9098.000000;1.453567
9097.000000;1.452777
9096.000000;1.454021
9095.000000;1.455897
9094.000000;1.456412
9093.000000;1.454854
9092.000000;1.452243
9091.000000;1.450016
9090.000000;1.448826
9089.000000;1.448675
9088.000000;1.449542
9087.000000;1.451433
9086.000000;1.454038
9085.000000;1.456479
9084.000000;1.457429
9083.000000;1.455917
9082.000000;1.452521
9081.000000;1.449517
9080.000000;1.449063
9079.000000;1.450921
9078.000000;1.452531
9077.000000;1.451903
9076.000000;1.449838
9075.000000;1.448664
9074.000000;1.449501
9073.000000;1.451468
9072.000000;1.453137
9071.000000;1.453904
9070.000000;1.453873
9069.000000;1.453292
9068.000000;1.452590
9067.000000;1.452335
9066.000000;1.452665
9065.000000;1.453005
9064.000000;1.452710
9063.000000;1.451813
9062.000000;1.450888
9061.000000;1.450365
9060.000000;1.450223
9059.000000;1.450200
9058.000000;1.450021
9057.000000;1.449517
9056.000000;1.448828
9055.000000;1.448392
9054.000000;1.448529
9053.000000;1.449195
