Criado como novo conjunto de dados;"e0108.spp","-4231422.0 Secs"
cm-1;Abs
10000.000000;1.786269
9999.000000;1.787623
9998.000000;1.788989
9997.000000;1.790332
9996.000000;1.791922
9995.000000;1.793587
9994.000000;1.791803
9993.000000;1.783150
9992.000000;1.770230
9991.000000;1.759942
9990.000000;1.757050
9989.000000;1.760508
9988.000000;1.765508
9987.000000;1.768410
9986.000000;1.769545
9985.000000;1.771500
9984.000000;1.775664
9983.000000;1.780789
9982.000000;1.784626
9981.000000;1.786307
9980.000000;1.786547
9979.000000;1.785892
9978.000000;1.783768
9977.000000;1.779836
9976.000000;1.775535
9975.000000;1.773067
9974.000000;1.772790
9973.000000;1.772648
9972.000000;1.770825
9971.000000;1.768502
9970.000000;1.768961
9969.000000;1.773606
9968.000000;1.779677
9967.000000;1.782790
9966.000000;1.781522
9965.000000;1.778247
9964.000000;1.775397
9963.000000;1.772756
9962.000000;1.769048
9961.000000;1.764746
9960.000000;1.762406
9959.000000;1.763867
9958.000000;1.767827
9957.000000;1.771053
9956.000000;1.771187
9955.000000;1.768172
9954.000000;1.764008
9953.000000;1.761277
9952.000000;1.760878
9951.000000;1.761040
9950.000000;1.759589
9949.000000;1.756876
9948.000000;1.755502
9947.000000;1.757259
9946.000000;1.760643
9945.000000;1.761868
9944.000000;1.758673
9943.000000;1.752495
9942.000000;1.746748
9941.000000;1.744140
9940.000000;1.745713
9939.000000;1.750652
9938.000000;1.756121
9937.000000;1.758732
9936.000000;1.757732
9935.000000;1.756263
9934.000000;1.758177
9933.000000;1.763769
9932.000000;1.769653
9931.000000;1.772754
9930.000000;1.773530
9929.000000;1.774435
9928.000000;1.775849
9927.000000;1.774952
9926.000000;1.769144
9925.000000;1.759947
9924.000000;1.752173
9923.000000;1.749024
9922.000000;1.749246
9921.000000;1.749653
9920.000000;1.749467
9919.000000;1.750876
9918.000000;1.755329
9917.000000;1.760704
9916.000000;1.763459
9915.000000;1.763095
9914.000000;1.762492
9913.000000;1.763653
9912.000000;1.764851
9911.000000;1.762736
9910.000000;1.756631
9909.000000;1.749871
9908.000000;1.746666
9907.000000;1.748041
9906.000000;1.750863
9905.000000;1.751004
9904.000000;1.747869
9903.000000;1.744910
9902.000000;1.745140
9901.000000;1.747347
9900.000000;1.747824
9899.000000;1.745537
9898.000000;1.743645
9897.000000;1.745169
9896.000000;1.748926
9895.000000;1.750754
9894.000000;1.747979
9893.000000;1.741804
9892.000000;1.735975
9891.000000;1.734247
9890.000000;1.738224
9889.000000;1.745752
9888.000000;1.751629
9887.000000;1.752027
9886.000000;1.748505
9885.000000;1.745898
9884.000000;1.746761
9883.000000;1.749570
9882.000000;1.751895
9881.000000;1.753047
9880.000000;1.752619
9879.000000;1.749249
9878.000000;1.743202
9877.000000;1.738214
9876.000000;1.738383
9875.000000;1.743484
9874.000000;1.748338
9873.000000;1.747866
9872.000000;1.742137
9871.000000;1.735162
9870.000000;1.730678
9869.000000;1.730153
9868.000000;1.732822
9867.000000;1.736292
9866.000000;1.737961
9865.000000;1.737123
9864.000000;1.735398
9863.000000;1.734282
9862.000000;1.732986
9861.000000;1.729761
9860.000000;1.724714
9859.000000;1.719970
9858.000000;1.717397
9857.000000;1.717360
9856.000000;1.719492
9855.000000;1.723213
9854.000000;1.727101
9853.000000;1.729257
9852.000000;1.729165
9851.000000;1.728028
9850.000000;1.727205
9849.000000;1.727260
9848.000000;1.728235
9847.000000;1.729751
9846.000000;1.730233
9845.000000;1.727376
9844.000000;1.721028
9843.000000;1.714842
9842.000000;1.713285
9841.000000;1.717029
9840.000000;1.722113
9839.000000;1.723710
9838.000000;1.720444
9837.000000;1.715304
9836.000000;1.712770
9835.000000;1.714848
9834.000000;1.719309
9833.000000;1.722064
9832.000000;1.721900
9831.000000;1.721736
9830.000000;1.724319
9829.000000;1.728132
9828.000000;1.729202
9827.000000;1.726287
9826.000000;1.721866
9825.000000;1.718298
9824.000000;1.715820
9823.000000;1.714925
9822.000000;1.717581
9821.000000;1.724398
9820.000000;1.732550
9819.000000;1.737790
9818.000000;1.738178
9817.000000;1.734531
9816.000000;1.728038
9815.000000;1.720030
9814.000000;1.713064
9813.000000;1.709673
9812.000000;1.710096
9811.000000;1.712206
9810.000000;1.713624
9809.000000;1.713247
9808.000000;1.710851
9807.000000;1.706573
9806.000000;1.701637
9805.000000;1.698536
9804.000000;1.699394
9803.000000;1.704105
9802.000000;1.710258
9801.000000;1.715035
9800.000000;1.717295
9799.000000;1.717776
9798.000000;1.717502
9797.000000;1.716358
9796.000000;1.713644
9795.000000;1.710131
9794.000000;1.708245
9793.000000;1.709149
9792.000000;1.710883
9791.000000;1.710889
9790.000000;1.709853
9789.000000;1.711169
9788.000000;1.716253
9787.000000;1.721920
9786.000000;1.723636
9785.000000;1.720894
9784.000000;1.717559
9783.000000;1.716831
9782.000000;1.717704
9781.000000;1.716959
9780.000000;1.713526
9779.000000;1.709383
9778.000000;1.706371
9777.000000;1.704328
9776.000000;1.702981
9775.000000;1.703588
9774.000000;1.706990
9773.000000;1.711039
9772.000000;1.712084
9771.000000;1.709349
9770.000000;1.705983
9769.000000;1.705211
9768.000000;1.707092
9767.000000;1.709269
9766.000000;1.709277
9765.000000;1.705741
9764.000000;1.699026
9763.000000;1.691779
9762.000000;1.687647
9761.000000;1.688225
9760.000000;1.691502
9759.000000;1.694206
9758.000000;1.695495
9757.000000;1.696923
9756.000000;1.699166
9755.000000;1.700841
9754.000000;1.700846
9753.000000;1.700075
9752.000000;1.700053
9751.000000;1.701189
9750.000000;1.703029
9749.000000;1.704785
9748.000000;1.704699
9747.000000;1.700492
9746.000000;1.691976
9745.000000;1.682651
9744.000000;1.677131
9743.000000;1.676582
9742.000000;1.678040
9741.000000;1.678873
9740.000000;1.680470
9739.000000;1.685797
9738.000000;1.693969
9737.000000;1.699478
9736.000000;1.698127
9735.000000;1.692259
9734.000000;1.687594
9733.000000;1.686512
9732.000000;1.686861
9731.000000;1.686225
9730.000000;1.684835
9729.000000;1.683825
9728.000000;1.683228
9727.000000;1.683269
9726.000000;1.685601
9725.000000;1.691195
9724.000000;1.697811
9723.000000;1.701211
9722.000000;1.699123
9721.000000;1.692963
9720.000000;1.686021
9719.000000;1.681454
9718.000000;1.681075
9717.000000;1.684204
9716.000000;1.687794
9715.000000;1.689116
9714.000000;1.688376
9713.000000;1.687405
9712.000000;1.686424
9711.000000;1.684029
9710.000000;1.680103
9709.000000;1.676697
9708.000000;1.675665
9707.000000;1.676854
9706.000000;1.679006
9705.000000;1.681223
9704.000000;1.682776
9703.000000;1.682726
9702.000000;1.680952
9701.000000;1.678779
9700.000000;1.677657
9699.000000;1.677730
9698.000000;1.678266
9697.000000;1.678951
9696.000000;1.680043
9695.000000;1.681515
9694.000000;1.682812
9693.000000;1.683384
9692.000000;1.683013
9691.000000;1.681795
9690.000000;1.679811
9689.000000;1.676614
9688.000000;1.671467
9687.000000;1.664718
9686.000000;1.658609
9685.000000;1.655760
9684.000000;1.656717
9683.000000;1.659632
9682.000000;1.662549
9681.000000;1.665192
9680.000000;1.667896
9679.000000;1.670033
9678.000000;1.670969
9677.000000;1.671689
9676.000000;1.673850
9675.000000;1.677447
9674.000000;1.680509
9673.000000;1.681151
9672.000000;1.679151
9671.000000;1.675557
9670.000000;1.671449
9669.000000;1.667240
9668.000000;1.662905
9667.000000;1.658441
9666.000000;1.654160
9665.000000;1.650868
9664.000000;1.649559
9663.000000;1.650809
9662.000000;1.654435
9661.000000;1.659462
9660.000000;1.664365
9659.000000;1.667749
9658.000000;1.669060
9657.000000;1.668489
9656.000000;1.666381
9655.000000;1.663428
9654.000000;1.661424
9653.000000;1.662591
9652.000000;1.666856
9651.000000;1.670583
9650.000000;1.669908
9649.000000;1.665242
9648.000000;1.660754
9647.000000;1.659544
9646.000000;1.660739
9645.000000;1.661473
9644.000000;1.660756
9643.000000;1.660346
9642.000000;1.662003
9641.000000;1.665150
9640.000000;1.667666
9639.000000;1.668356
9638.000000;1.667969
9637.000000;1.667774
9636.000000;1.667942
9635.000000;1.667743
9634.000000;1.666756
9633.000000;1.665366
9632.000000;1.664165
9631.000000;1.663307
9630.000000;1.662527
9629.000000;1.661404
9628.000000;1.659488
9627.000000;1.656900
9626.000000;1.655072
9625.000000;1.656062
9624.000000;1.660530
9623.000000;1.666506
9622.000000;1.670608
9621.000000;1.670834
9620.000000;1.668022
9619.000000;1.664567
9618.000000;1.662167
9617.000000;1.660703
9616.000000;1.658857
9615.000000;1.655801
9614.000000;1.652288
9613.000000;1.649893
9612.000000;1.649038
9611.000000;1.648328
9610.000000;1.646296
9609.000000;1.643268
9608.000000;1.640960
9607.000000;1.640556
9606.000000;1.641726
9605.000000;1.643547
9604.000000;1.645533
9603.000000;1.647373
9602.000000;1.648537
9601.000000;1.648879
9600.000000;1.649159
9599.000000;1.650005
9598.000000;1.650418
9597.000000;1.648481
9596.000000;1.644014
9595.000000;1.639574
9594.000000;1.638212
9593.000000;1.640776
9592.000000;1.645563
9591.000000;1.649987
9590.000000;1.652262
9589.000000;1.652071
9588.000000;1.650538
9587.000000;1.649532
9586.000000;1.649808
9585.000000;1.649603
9584.000000;1.646516
9583.000000;1.641194
9582.000000;1.637475
9581.000000;1.638130
9580.000000;1.641446
9579.000000;1.642989
9578.000000;1.640859
9577.000000;1.638008
9576.000000;1.638604
9575.000000;1.643068
9574.000000;1.647399
9573.000000;1.647429
9572.000000;1.643395
9571.000000;1.639358
9570.000000;1.638382
9569.000000;1.639576
9568.000000;1.640130
9567.000000;1.639216
9566.000000;1.638351
9565.000000;1.638111
9564.000000;1.636740
9563.000000;1.633189
9562.000000;1.629873
9561.000000;1.630324
9560.000000;1.634635
9559.000000;1.638827
9558.000000;1.638991
9557.000000;1.635141
9556.000000;1.630434
9555.000000;1.627739
9554.000000;1.627743
9553.000000;1.629406
9552.000000;1.631132
9551.000000;1.631547
9550.000000;1.630007
9549.000000;1.627053
9548.000000;1.624495
9547.000000;1.624594
9546.000000;1.628366
9545.000000;1.634244
9544.000000;1.638828
9543.000000;1.639741
9542.000000;1.637612
9541.000000;1.634808
9540.000000;1.632984
9539.000000;1.632545
9538.000000;1.633513
9537.000000;1.635623
9536.000000;1.637794
9535.000000;1.638740
9534.000000;1.638189
9533.000000;1.636640
9532.000000;1.634304
9531.000000;1.631373
9530.000000;1.628898
9529.000000;1.628103
9528.000000;1.628626
9527.000000;1.628463
9526.000000;1.626133
9525.000000;1.622182
9524.000000;1.618443
9523.000000;1.616741
9522.000000;1.618197
9521.000000;1.622681
9520.000000;1.628480
9519.000000;1.633103
9518.000000;1.634931
9517.000000;1.633716
9516.000000;1.629733
9515.000000;1.623802
9514.000000;1.618148
9513.000000;1.615441
9512.000000;1.616134
9511.000000;1.617867
9510.000000;1.618488
9509.000000;1.618744
9508.000000;1.620678
9507.000000;1.624163
9506.000000;1.626648
9505.000000;1.626306
9504.000000;1.624066
9503.000000;1.622054
9502.000000;1.621158
9501.000000;1.620799
9500.000000;1.620372
9499.000000;1.620069
9498.000000;1.620178
9497.000000;1.620061
9496.000000;1.618478
9495.000000;1.615320
9494.000000;1.612492
9493.000000;1.612052
9492.000000;1.613588
9491.000000;1.614572
9490.000000;1.613452
9489.000000;1.611340
9488.000000;1.609986
9487.000000;1.609223
9486.000000;1.607695
9485.000000;1.605405
9484.000000;1.604071
9483.000000;1.605031
9482.000000;1.607971
9481.000000;1.611812
9480.000000;1.615786
9479.000000;1.619238
9478.000000;1.621232
9477.000000;1.621073
9476.000000;1.618863
9475.000000;1.615424
9474.000000;1.612081
9473.000000;1.610031
9472.000000;1.609357
9471.000000;1.608734
9470.000000;1.606459
9469.000000;1.602231
9468.000000;1.598039
9467.000000;1.596833
9466.000000;1.599799
9465.000000;1.605059
9464.000000;1.609373
9463.000000;1.611033
9462.000000;1.610750
9461.000000;1.609993
9460.000000;1.609374
9459.000000;1.608864
9458.000000;1.608490
9457.000000;1.607924
9456.000000;1.606267
9455.000000;1.603660
9454.000000;1.602457
9453.000000;1.604837
9452.000000;1.609204
9451.000000;1.610857
9450.000000;1.607376
9449.000000;1.601586
9448.000000;1.597809
9447.000000;1.597219
9446.000000;1.598181
9445.000000;1.599482
9444.000000;1.601200
9443.000000;1.602937
9442.000000;1.603404
9441.000000;1.602182
9440.000000;1.600134
9439.000000;1.597645
9438.000000;1.594271
9437.000000;1.590673
9436.000000;1.589197
9435.000000;1.591294
9434.000000;1.595176
9433.000000;1.597238
9432.000000;1.595792
9431.000000;1.592716
9430.000000;1.591285
9429.000000;1.593009
9428.000000;1.596813
9427.000000;1.600670
9426.000000;1.603330
9425.000000;1.604383
9424.000000;1.603528
9423.000000;1.600995
9422.000000;1.598364
9421.000000;1.597648
9420.000000;1.599349
9419.000000;1.601956
9418.000000;1.603660
9417.000000;1.603825
9416.000000;1.602349
9415.000000;1.598863
9414.000000;1.593766
9413.000000;1.589232
9412.000000;1.587779
9411.000000;1.589767
9410.000000;1.593103
9409.000000;1.595649
9408.000000;1.597073
9407.000000;1.598092
9406.000000;1.599113
9405.000000;1.599844
9404.000000;1.599657
9403.000000;1.598163
9402.000000;1.595382
9401.000000;1.591720
9400.000000;1.587932
9399.000000;1.585043
9398.000000;1.583952
9397.000000;1.584459
9396.000000;1.584899
9395.000000;1.583866
9394.000000;1.582418
9393.000000;1.583196
9392.000000;1.586915
9391.000000;1.591009
9390.000000;1.592578
9389.000000;1.591681
9388.000000;1.590217
9387.000000;1.588630
9386.000000;1.585883
9385.000000;1.582116
9384.000000;1.579102
9383.000000;1.577967
9382.000000;1.578168
9381.000000;1.578843
9380.000000;1.579686
9379.000000;1.580302
9378.000000;1.580113
9377.000000;1.579417
9376.000000;1.579349
9375.000000;1.580399
9374.000000;1.581983
9373.000000;1.583616
9372.000000;1.585309
9371.000000;1.586674
9370.000000;1.587231
9369.000000;1.587643
9368.000000;1.588734
9367.000000;1.589246
9366.000000;1.586772
9365.000000;1.581679
9364.000000;1.577806
9363.000000;1.577826
9362.000000;1.579803
9361.000000;1.580074
9360.000000;1.578364
9359.000000;1.577540
9358.000000;1.578852
9357.000000;1.580158
9356.000000;1.579162
9355.000000;1.576450
9354.000000;1.574388
9353.000000;1.574332
9352.000000;1.575914
9351.000000;1.578137
9350.000000;1.580314
9349.000000;1.582311
9348.000000;1.584245
9347.000000;1.585800
9346.000000;1.586085
9345.000000;1.584589
9344.000000;1.581980
9343.000000;1.579293
9342.000000;1.576688
9341.000000;1.573860
9340.000000;1.571385
9339.000000;1.570615
9338.000000;1.572138
9337.000000;1.575125
9336.000000;1.578305
9335.000000;1.580870
9334.000000;1.582196
9333.000000;1.581645
9332.000000;1.579378
9331.000000;1.576880
9330.000000;1.576007
9329.000000;1.577332
9328.000000;1.579317
9327.000000;1.579251
9326.000000;1.575625
9325.000000;1.569848
9324.000000;1.565184
9323.000000;1.563721
9322.000000;1.564640
9321.000000;1.565709
9320.000000;1.566121
9319.000000;1.566915
9318.000000;1.568778
9317.000000;1.570821
9316.000000;1.571998
9315.000000;1.572688
9314.000000;1.573923
9313.000000;1.575514
9312.000000;1.575959
9311.000000;1.574197
9310.000000;1.570843
9309.000000;1.567788
9308.000000;1.566995
9307.000000;1.569305
9306.000000;1.573650
9305.000000;1.577391
9304.000000;1.578019
9303.000000;1.574950
9302.000000;1.569571
9301.000000;1.563950
9300.000000;1.560154
9299.000000;1.559970
9298.000000;1.563732
9297.000000;1.569336
9296.000000;1.573722
9295.000000;1.575939
9294.000000;1.577609
9293.000000;1.579747
9292.000000;1.580568
9291.000000;1.577747
9290.000000;1.572149
9289.000000;1.567568
9288.000000;1.566685
9287.000000;1.568620
9286.000000;1.570732
9285.000000;1.571969
9284.000000;1.573483
9283.000000;1.576000
9282.000000;1.577737
9281.000000;1.575901
9280.000000;1.570188
9279.000000;1.563873
9278.000000;1.561031
9277.000000;1.563192
9276.000000;1.568598
9275.000000;1.573878
9274.000000;1.576102
9273.000000;1.574085
9272.000000;1.569105
9271.000000;1.564539
9270.000000;1.563498
9269.000000;1.565935
9268.000000;1.568481
9267.000000;1.568026
9266.000000;1.565151
9265.000000;1.562896
9264.000000;1.562923
9263.000000;1.564184
9262.000000;1.564914
9261.000000;1.564649
9260.000000;1.563865
9259.000000;1.562787
9258.000000;1.561521
9257.000000;1.560569
9256.000000;1.560418
9255.000000;1.561041
9254.000000;1.562028
9253.000000;1.562849
9252.000000;1.562883
9251.000000;1.561425
9250.000000;1.558283
9249.000000;1.554445
9248.000000;1.551514
9247.000000;1.550594
9246.000000;1.551687
9245.000000;1.553630
9244.000000;1.554821
9243.000000;1.554648
9242.000000;1.554071
9241.000000;1.554345
9240.000000;1.555520
9239.000000;1.556721
9238.000000;1.557477
9237.000000;1.557962
9236.000000;1.558238
9235.000000;1.558352
9234.000000;1.559160
9233.000000;1.561529
9232.000000;1.564432
9231.000000;1.565282
9230.000000;1.562937
9229.000000;1.559239
9228.000000;1.556700
9227.000000;1.555796
9226.000000;1.555361
9225.000000;1.554554
9224.000000;1.553384
9223.000000;1.552158
9222.000000;1.551659
9221.000000;1.553192
9220.000000;1.557003
9219.000000;1.560937
9218.000000;1.562123
9217.000000;1.560187
9216.000000;1.557458
9215.000000;1.555759
9214.000000;1.554561
9213.000000;1.552562
9212.000000;1.549832
9211.000000;1.547984
9210.000000;1.548830
9209.000000;1.552800
9208.000000;1.557969
9207.000000;1.561026
9206.000000;1.560368
9205.000000;1.558032
9204.000000;1.557316
9203.000000;1.558869
9202.000000;1.560364
9201.000000;1.559721
9200.000000;1.557222
9199.000000;1.554181
9198.000000;1.551212
9197.000000;1.548663
9196.000000;1.547384
9195.000000;1.547875
9194.000000;1.549409
9193.000000;1.550925
9192.000000;1.552149
9191.000000;1.553237
9190.000000;1.554144
9189.000000;1.554859
9188.000000;1.555338
9187.000000;1.554681
9186.000000;1.551346
9185.000000;1.545187
9184.000000;1.538748
9183.000000;1.535503
9182.000000;1.536883
9181.000000;1.541305
9180.000000;1.545648
9179.000000;1.547358
9178.000000;1.545884
9177.000000;1.542984
9176.000000;1.541447
9175.000000;1.542840
9174.000000;1.546426
9173.000000;1.550343
9172.000000;1.553287
9171.000000;1.554693
9170.000000;1.554114
9169.000000;1.551672
9168.000000;1.548961
9167.000000;1.548239
9166.000000;1.550416
9165.000000;1.554267
9164.000000;1.557648
9163.000000;1.559060
9162.000000;1.558156
9161.000000;1.555500
9160.000000;1.551999
9159.000000;1.548241
9158.000000;1.544405
9157.000000;1.540880
9156.000000;1.538697
9155.000000;1.538738
9154.000000;1.540410
9153.000000;1.541808
9152.000000;1.541663
9151.000000;1.540722
9150.000000;1.540583
9149.000000;1.541588
9148.000000;1.542427
9147.000000;1.541803
9146.000000;1.540168
9145.000000;1.539373
9144.000000;1.540507
9143.000000;1.542535
9142.000000;1.543486
9141.000000;1.542668
9140.000000;1.540976
9139.000000;1.539201
9138.000000;1.537124
9137.000000;1.534756
9136.000000;1.533435
9135.000000;1.534401
9134.000000;1.536836
9133.000000;1.538606
9132.000000;1.538891
9131.000000;1.538866
9130.000000;1.539699
9129.000000;1.541284
9128.000000;1.543180
9127.000000;1.545317
9126.000000;1.547018
9125.000000;1.546595
9124.000000;1.543210
9123.000000;1.538506
9122.000000;1.535256
9121.000000;1.534780
9120.000000;1.536383
9119.000000;1.538711
9118.000000;1.540656
9117.000000;1.541249
9116.000000;1.540025
9115.000000;1.537763
9114.000000;1.536005
9113.000000;1.535501
9112.000000;1.535598
9111.000000;1.535338
9110.000000;1.534664
9109.000000;1.534224
9108.000000;1.534622
9107.000000;1.536175
9106.000000;1.538789
9105.000000;1.541607
9104.000000;1.543255
9103.000000;1.542951
9102.000000;1.541221
9101.000000;1.539162
9100.000000;1.537355
9099.000000;1.535961
9098.000000;1.535274
9097.000000;1.535386
9096.000000;1.535688
9095.000000;1.535519
9094.000000;1.535099
9093.000000;1.535020
9092.000000;1.534801
9091.000000;1.533060
9090.000000;1.529783
9089.000000;1.527385
9088.000000;1.528405
9087.000000;1.532497
9086.000000;1.536478
9085.000000;1.537466
9084.000000;1.535372
9083.000000;1.532101
9082.000000;1.529276
9081.000000;1.527412
9080.000000;1.526500
9079.000000;1.526318
9078.000000;1.526263
9077.000000;1.525701
9076.000000;1.524794
9075.000000;1.524535
9074.000000;1.525629
9073.000000;1.527439
9072.000000;1.528361
9071.000000;1.527436
9070.000000;1.525411
9069.000000;1.523934
9068.000000;1.523844
9067.000000;1.524658
9066.000000;1.525632
9065.000000;1.526627
9064.000000;1.527554
9063.000000;1.527672
9062.000000;1.526413
9061.000000;1.524733
9060.000000;1.524608
9059.000000;1.526925
9058.000000;1.530536
9057.000000;1.533691
9056.000000;1.535731
9055.000000;1.536788
9054.000000;1.536613
9053.000000;1.534735
