Criado como novo conjunto de dados;"e0108.spp","-4269224.2 Secs"
cm-1;Abs
10000.000000;1.101997
9999.000000;1.100494
9998.000000;1.098989
9997.000000;1.097502
9996.000000;1.095997
9995.000000;1.094541
9994.000000;1.092987
9993.000000;1.091519
9992.000000;1.091026
9991.000000;1.091258
9990.000000;1.091404
9989.000000;1.091079
9988.000000;1.090732
9987.000000;1.090880
9986.000000;1.091405
9985.000000;1.091571
9984.000000;1.090627
9983.000000;1.088466
9982.000000;1.085876
9981.000000;1.084117
9980.000000;1.084048
9979.000000;1.085499
9978.000000;1.087418
9977.000000;1.088654
9976.000000;1.088757
9975.000000;1.088244
9974.000000;1.088019
9973.000000;1.088356
9972.000000;1.088485
9971.000000;1.087404
9970.000000;1.085087
9969.000000;1.082564
9968.000000;1.080854
9967.000000;1.080236
9966.000000;1.080532
9965.000000;1.081409
9964.000000;1.082151
9963.000000;1.081802
9962.000000;1.080192
9961.000000;1.078462
9960.000000;1.077945
9959.000000;1.078648
9958.000000;1.079357
9957.000000;1.079173
9956.000000;1.078464
9955.000000;1.078220
9954.000000;1.078928
9953.000000;1.080173
9952.000000;1.080952
9951.000000;1.080270
9950.000000;1.077875
9949.000000;1.074660
9948.000000;1.072072
9947.000000;1.070941
9946.000000;1.070961
9945.000000;1.071362
9944.000000;1.071928
9943.000000;1.073114
9942.000000;1.075110
9941.000000;1.077068
9940.000000;1.077573
9939.000000;1.076029
9938.000000;1.073531
9937.000000;1.072099
9936.000000;1.072898
9935.000000;1.075181
9934.000000;1.076941
9933.000000;1.076525
9932.000000;1.073734
9931.000000;1.069768
9930.000000;1.066365
9929.000000;1.064788
9928.000000;1.065116
9927.000000;1.066403
9926.000000;1.067659
9925.000000;1.068610
9924.000000;1.069389
9923.000000;1.069801
9922.000000;1.069396
9921.000000;1.068286
9920.000000;1.067339
9919.000000;1.067228
9918.000000;1.067620
9917.000000;1.067584
9916.000000;1.066638
9915.000000;1.065139
9914.000000;1.063761
9913.000000;1.062888
9912.000000;1.062512
9911.000000;1.062439
9910.000000;1.062496
9909.000000;1.062599
9908.000000;1.062729
9907.000000;1.062822
9906.000000;1.062740
9905.000000;1.062445
9904.000000;1.062172
9903.000000;1.062190
9902.000000;1.062386
9901.000000;1.062283
9900.000000;1.061623
9899.000000;1.060782
9898.000000;1.060399
9897.000000;1.060616
9896.000000;1.060906
9895.000000;1.060760
9894.000000;1.060349
9893.000000;1.060258
9892.000000;1.060652
9891.000000;1.060966
9890.000000;1.060473
9889.000000;1.059023
9888.000000;1.057197
9887.000000;1.055856
9886.000000;1.055495
9885.000000;1.055845
9884.000000;1.056067
9883.000000;1.055572
9882.000000;1.054710
9881.000000;1.054415
9880.000000;1.055095
9879.000000;1.056149
9878.000000;1.056669
9877.000000;1.056343
9876.000000;1.055469
9875.000000;1.054350
9874.000000;1.053083
9873.000000;1.051868
9872.000000;1.051161
9871.000000;1.051346
9870.000000;1.052282
9869.000000;1.053254
9868.000000;1.053443
9867.000000;1.052621
9866.000000;1.051410
9865.000000;1.050719
9864.000000;1.050870
9863.000000;1.051408
9862.000000;1.051716
9861.000000;1.051489
9860.000000;1.050556
9859.000000;1.048758
9858.000000;1.046351
9857.000000;1.044181
9856.000000;1.043039
9855.000000;1.042964
9854.000000;1.043452
9853.000000;1.044168
9852.000000;1.045113
9851.000000;1.046279
9850.000000;1.047520
9849.000000;1.048694
9848.000000;1.049529
9847.000000;1.049501
9846.000000;1.048296
9845.000000;1.046406
9844.000000;1.044818
9843.000000;1.044045
9842.000000;1.043776
9841.000000;1.043518
9840.000000;1.043212
9839.000000;1.043106
9838.000000;1.043306
9837.000000;1.043613
9836.000000;1.043637
9835.000000;1.043078
9834.000000;1.042044
9833.000000;1.041000
9832.000000;1.040194
9831.000000;1.039337
9830.000000;1.038196
9829.000000;1.037265
9828.000000;1.037267
9827.000000;1.038043
9826.000000;1.038550
9825.000000;1.038097
9824.000000;1.037050
9823.000000;1.036121
9822.000000;1.035501
9821.000000;1.035039
9820.000000;1.034693
9819.000000;1.034377
9818.000000;1.033791
9817.000000;1.032855
9816.000000;1.032013
9815.000000;1.031680
9814.000000;1.031635
9813.000000;1.031351
9812.000000;1.030687
9811.000000;1.029888
9810.000000;1.029075
9809.000000;1.028179
9808.000000;1.027321
9807.000000;1.026892
9806.000000;1.027253
9805.000000;1.028460
9804.000000;1.030128
9803.000000;1.031459
9802.000000;1.031701
9801.000000;1.030923
9800.000000;1.030094
9799.000000;1.029955
9798.000000;1.030049
9797.000000;1.029398
9796.000000;1.027994
9795.000000;1.026932
9794.000000;1.026911
9793.000000;1.027220
9792.000000;1.026616
9791.000000;1.024940
9790.000000;1.023418
9789.000000;1.023357
9788.000000;1.024826
9787.000000;1.026701
9786.000000;1.027814
9785.000000;1.027906
9784.000000;1.027446
9783.000000;1.026824
9782.000000;1.026023
9781.000000;1.025054
9780.000000;1.024235
9779.000000;1.023774
9778.000000;1.023356
9777.000000;1.022526
9776.000000;1.021405
9775.000000;1.020686
9774.000000;1.020857
9773.000000;1.021662
9772.000000;1.022354
9771.000000;1.022297
9770.000000;1.021294
9769.000000;1.019561
9768.000000;1.017581
9767.000000;1.015928
9766.000000;1.015030
9765.000000;1.014902
9764.000000;1.015066
9763.000000;1.014869
9762.000000;1.014118
9761.000000;1.013371
9760.000000;1.013361
9759.000000;1.014081
9758.000000;1.014704
9757.000000;1.014513
9756.000000;1.013648
9755.000000;1.012723
9754.000000;1.012035
9753.000000;1.011514
9752.000000;1.011184
9751.000000;1.011178
9750.000000;1.011382
9749.000000;1.011488
9748.000000;1.011437
9747.000000;1.011410
9746.000000;1.011351
9745.000000;1.010951
9744.000000;1.010186
9743.000000;1.009492
9742.000000;1.009272
9741.000000;1.009569
9740.000000;1.010324
9739.000000;1.011510
9738.000000;1.012746
9737.000000;1.013198
9736.000000;1.012359
9735.000000;1.010833
9734.000000;1.009854
9733.000000;1.010000
9732.000000;1.010689
9731.000000;1.010894
9730.000000;1.010107
9729.000000;1.008650
9728.000000;1.007329
9727.000000;1.006839
9726.000000;1.007268
9725.000000;1.007961
9724.000000;1.007967
9723.000000;1.006798
9722.000000;1.004783
9721.000000;1.002732
9720.000000;1.001360
9719.000000;1.000974
9718.000000;1.001441
9717.000000;1.002306
9716.000000;1.003064
9715.000000;1.003488
9714.000000;1.003714
9713.000000;1.003965
9712.000000;1.004267
9711.000000;1.004543
9710.000000;1.004934
9709.000000;1.005778
9708.000000;1.007058
9707.000000;1.007993
9706.000000;1.007478
9705.000000;1.005204
9704.000000;1.002293
9703.000000;1.000510
9702.000000;1.000763
9701.000000;1.002425
9700.000000;1.004072
9699.000000;1.004723
9698.000000;1.004307
9697.000000;1.003158
9696.000000;1.001589
9695.000000;1.000073
9694.000000;0.999325
9693.000000;0.999692
9692.000000;1.000521
9691.000000;1.000620
9690.000000;0.999509
9689.000000;0.997928
9688.000000;0.996908
9687.000000;0.996622
9686.000000;0.996471
9685.000000;0.996026
9684.000000;0.995414
9683.000000;0.994809
9682.000000;0.994077
9681.000000;0.993146
9680.000000;0.992374
9679.000000;0.992241
9678.000000;0.992834
9677.000000;0.993854
9676.000000;0.994885
9675.000000;0.995431
9674.000000;0.994972
9673.000000;0.993466
9672.000000;0.991755
9671.000000;0.991006
9670.000000;0.991579
9669.000000;0.992656
9668.000000;0.993121
9667.000000;0.992601
9666.000000;0.991522
9665.000000;0.990422
9664.000000;0.989483
9663.000000;0.988616
9662.000000;0.987701
9661.000000;0.986741
9660.000000;0.985886
9659.000000;0.985296
9658.000000;0.984917
9657.000000;0.984506
9656.000000;0.983975
9655.000000;0.983611
9654.000000;0.983763
9653.000000;0.984382
9652.000000;0.985058
9651.000000;0.985479
9650.000000;0.985667
9649.000000;0.985791
9648.000000;0.985974
9647.000000;0.986257
9646.000000;0.986502
9645.000000;0.986353
9644.000000;0.985592
9643.000000;0.984566
9642.000000;0.983872
9641.000000;0.983519
9640.000000;0.982802
9639.000000;0.981278
9638.000000;0.979520
9637.000000;0.978532
9636.000000;0.978629
9635.000000;0.979310
9634.000000;0.980093
9633.000000;0.980917
9632.000000;0.981665
9631.000000;0.981857
9630.000000;0.981119
9629.000000;0.979635
9628.000000;0.977903
9627.000000;0.976302
9626.000000;0.975138
9625.000000;0.974726
9624.000000;0.974978
9623.000000;0.975148
9622.000000;0.974495
9621.000000;0.973224
9620.000000;0.972347
9619.000000;0.972530
9618.000000;0.973464
9617.000000;0.974434
9616.000000;0.975120
9615.000000;0.975589
9614.000000;0.975810
9613.000000;0.975611
9612.000000;0.975100
9611.000000;0.974776
9610.000000;0.975026
9609.000000;0.975628
9608.000000;0.975913
9607.000000;0.975432
9606.000000;0.974358
9605.000000;0.973217
9604.000000;0.972363
9603.000000;0.971867
9602.000000;0.971764
9601.000000;0.972058
9600.000000;0.972402
9599.000000;0.972126
9598.000000;0.970910
9597.000000;0.969287
9596.000000;0.968135
9595.000000;0.967774
9594.000000;0.967802
9593.000000;0.967696
9592.000000;0.967269
9591.000000;0.966619
9590.000000;0.966044
9589.000000;0.966042
9588.000000;0.966926
9587.000000;0.968162
9586.000000;0.968505
9585.000000;0.967221
9584.000000;0.964990
9583.000000;0.963241
9582.000000;0.962747
9581.000000;0.963180
9580.000000;0.963830
9579.000000;0.964314
9578.000000;0.964561
9577.000000;0.964549
9576.000000;0.964294
9575.000000;0.963855
9574.000000;0.963229
9573.000000;0.962447
9572.000000;0.961849
9571.000000;0.961914
9570.000000;0.962601
9569.000000;0.963150
9568.000000;0.962856
9567.000000;0.961876
9566.000000;0.960923
9565.000000;0.960325
9564.000000;0.959863
9563.000000;0.959492
9562.000000;0.959646
9561.000000;0.960604
9560.000000;0.961897
9559.000000;0.962649
9558.000000;0.962319
9557.000000;0.960998
9556.000000;0.959271
9555.000000;0.958002
9554.000000;0.957862
9553.000000;0.958609
9552.000000;0.959053
9551.000000;0.958262
9550.000000;0.956709
9549.000000;0.955732
9548.000000;0.955930
9547.000000;0.956615
9546.000000;0.956828
9545.000000;0.956329
9544.000000;0.955427
9543.000000;0.954477
9542.000000;0.953947
9541.000000;0.954372
9540.000000;0.955675
9539.000000;0.956863
9538.000000;0.956948
9537.000000;0.955982
9536.000000;0.954767
9535.000000;0.953787
9534.000000;0.952942
9533.000000;0.952143
9532.000000;0.951585
9531.000000;0.951425
9530.000000;0.951587
9529.000000;0.951899
9528.000000;0.952108
9527.000000;0.951870
9526.000000;0.951174
9525.000000;0.950656
9524.000000;0.950963
9523.000000;0.951747
9522.000000;0.951832
9521.000000;0.950572
9520.000000;0.948638
9519.000000;0.947255
9518.000000;0.946990
9517.000000;0.947471
9516.000000;0.947997
9515.000000;0.948190
9514.000000;0.948167
9513.000000;0.948202
9512.000000;0.948215
9511.000000;0.947822
9510.000000;0.947099
9509.000000;0.946934
9508.000000;0.947989
9507.000000;0.949482
9506.000000;0.949784
9505.000000;0.948417
9504.000000;0.946664
9503.000000;0.945916
9502.000000;0.946166
9501.000000;0.946550
9500.000000;0.946678
9499.000000;0.946703
9498.000000;0.946567
9497.000000;0.945990
9496.000000;0.945075
9495.000000;0.944281
9494.000000;0.943858
9493.000000;0.943793
9492.000000;0.944190
9491.000000;0.945100
9490.000000;0.945945
9489.000000;0.945685
9488.000000;0.943886
9487.000000;0.941374
9486.000000;0.939611
9485.000000;0.939529
9484.000000;0.940943
9483.000000;0.942801
9482.000000;0.943977
9481.000000;0.944021
9480.000000;0.943238
9479.000000;0.942152
9478.000000;0.941086
9477.000000;0.940272
9476.000000;0.939994
9475.000000;0.940295
9474.000000;0.940746
9473.000000;0.940854
9472.000000;0.940577
9471.000000;0.940176
9470.000000;0.939734
9469.000000;0.939174
9468.000000;0.938570
9467.000000;0.938005
9466.000000;0.937317
9465.000000;0.936441
9464.000000;0.935885
9463.000000;0.936315
9462.000000;0.937591
9461.000000;0.938677
9460.000000;0.938754
9459.000000;0.938070
9458.000000;0.937505
9457.000000;0.937633
9456.000000;0.938369
9455.000000;0.939203
9454.000000;0.939540
9453.000000;0.939084
9452.000000;0.938132
9451.000000;0.937295
9450.000000;0.936783
9449.000000;0.936186
9448.000000;0.935093
9447.000000;0.933681
9446.000000;0.932517
9445.000000;0.931981
9444.000000;0.932116
9443.000000;0.932828
9442.000000;0.933948
9441.000000;0.935142
9440.000000;0.935979
9439.000000;0.936120
9438.000000;0.935420
9437.000000;0.934008
9436.000000;0.932406
9435.000000;0.931376
9434.000000;0.931413
9433.000000;0.932303
9432.000000;0.933301
9431.000000;0.933791
9430.000000;0.933760
9429.000000;0.933586
9428.000000;0.933462
9427.000000;0.933129
9426.000000;0.932271
9425.000000;0.931112
9424.000000;0.930398
9423.000000;0.930599
9422.000000;0.931247
9421.000000;0.931366
9420.000000;0.930598
9419.000000;0.929625
9418.000000;0.929338
9417.000000;0.929864
9416.000000;0.930623
9415.000000;0.931095
9414.000000;0.931160
9413.000000;0.930755
9412.000000;0.929616
9411.000000;0.927648
9410.000000;0.925372
9409.000000;0.923693
9408.000000;0.923130
9407.000000;0.923362
9406.000000;0.923609
9405.000000;0.923429
9404.000000;0.923066
9403.000000;0.923032
9402.000000;0.923519
9401.000000;0.924298
9400.000000;0.925004
9399.000000;0.925334
9398.000000;0.925043
9397.000000;0.924005
9396.000000;0.922412
9395.000000;0.920830
9394.000000;0.919906
9393.000000;0.919962
9392.000000;0.920792
9391.000000;0.921815
9390.000000;0.922498
9389.000000;0.922684
9388.000000;0.922535
9387.000000;0.922240
9386.000000;0.921919
9385.000000;0.921729
9384.000000;0.921765
9383.000000;0.921744
9382.000000;0.921160
9381.000000;0.919985
9380.000000;0.918961
9379.000000;0.918776
9378.000000;0.919114
9377.000000;0.918966
9376.000000;0.917877
9375.000000;0.916459
9374.000000;0.915598
9373.000000;0.915579
9372.000000;0.916109
9371.000000;0.916806
9370.000000;0.917426
9369.000000;0.917863
9368.000000;0.918142
9367.000000;0.918239
9366.000000;0.917827
9365.000000;0.916536
9364.000000;0.914636
9363.000000;0.913139
9362.000000;0.912951
9361.000000;0.914089
9360.000000;0.915823
9359.000000;0.917298
9358.000000;0.917846
9357.000000;0.917151
9356.000000;0.915598
9355.000000;0.914209
9354.000000;0.913761
9353.000000;0.914024
9352.000000;0.914210
9351.000000;0.914068
9350.000000;0.914033
9349.000000;0.914369
9348.000000;0.914714
9347.000000;0.914657
9346.000000;0.914275
9345.000000;0.913838
9344.000000;0.913315
9343.000000;0.912539
9342.000000;0.911662
9341.000000;0.911075
9340.000000;0.910890
9339.000000;0.910747
9338.000000;0.910247
9337.000000;0.909515
9336.000000;0.909196
9335.000000;0.909802
9334.000000;0.911037
9333.000000;0.911942
9332.000000;0.911882
9331.000000;0.911279
9330.000000;0.911059
9329.000000;0.911504
9328.000000;0.912006
9327.000000;0.911973
9326.000000;0.911532
9325.000000;0.911122
9324.000000;0.910781
9323.000000;0.910218
9322.000000;0.909385
9321.000000;0.908599
9320.000000;0.908155
9319.000000;0.908059
9318.000000;0.908112
9317.000000;0.908063
9316.000000;0.907736
9315.000000;0.907208
9314.000000;0.906772
9313.000000;0.906556
9312.000000;0.906326
9311.000000;0.905858
9310.000000;0.905358
9309.000000;0.905192
9308.000000;0.905317
9307.000000;0.905426
9306.000000;0.905600
9305.000000;0.906276
9304.000000;0.907411
9303.000000;0.908195
9302.000000;0.908022
9301.000000;0.907365
9300.000000;0.907173
9299.000000;0.907598
9298.000000;0.907858
9297.000000;0.907339
9296.000000;0.906355
9295.000000;0.905615
9294.000000;0.905320
9293.000000;0.905069
9292.000000;0.904432
9291.000000;0.903373
9290.000000;0.902230
9289.000000;0.901470
9288.000000;0.901398
9287.000000;0.901995
9286.000000;0.903030
9285.000000;0.904291
9284.000000;0.905549
9283.000000;0.906334
9282.000000;0.906086
9281.000000;0.904773
9280.000000;0.903130
9279.000000;0.901986
9278.000000;0.901453
9277.000000;0.901030
9276.000000;0.900424
9275.000000;0.899940
9274.000000;0.899978
9273.000000;0.900500
9272.000000;0.901129
9271.000000;0.901583
9270.000000;0.901791
9269.000000;0.901766
9268.000000;0.901545
9267.000000;0.901214
9266.000000;0.900820
9265.000000;0.900296
9264.000000;0.899594
9263.000000;0.898881
9262.000000;0.898490
9261.000000;0.898629
9260.000000;0.899182
9259.000000;0.899809
9258.000000;0.900184
9257.000000;0.900133
9256.000000;0.899593
9255.000000;0.898520
9254.000000;0.896951
9253.000000;0.895235
9252.000000;0.894092
9251.000000;0.894152
9250.000000;0.895274
9249.000000;0.896485
9248.000000;0.896805
9247.000000;0.896122
9246.000000;0.895122
9245.000000;0.894436
9244.000000;0.894103
9243.000000;0.893876
9242.000000;0.893760
9241.000000;0.894056
9240.000000;0.894917
9239.000000;0.895998
9238.000000;0.896578
9237.000000;0.896086
9236.000000;0.894636
9235.000000;0.893073
9234.000000;0.892365
9233.000000;0.892864
9232.000000;0.894128
9231.000000;0.895395
9230.000000;0.896092
9229.000000;0.895914
9228.000000;0.894757
9227.000000;0.892859
9226.000000;0.890926
9225.000000;0.889796
9224.000000;0.889832
9223.000000;0.890707
9222.000000;0.891790
9221.000000;0.892663
9220.000000;0.893229
9219.000000;0.893499
9218.000000;0.893476
9217.000000;0.893281
9216.000000;0.893227
9215.000000;0.893574
9214.000000;0.894192
9213.000000;0.894572
9212.000000;0.894292
9211.000000;0.893413
9210.000000;0.892330
9209.000000;0.891356
9208.000000;0.890700
9207.000000;0.890731
9206.000000;0.891783
9205.000000;0.893452
9204.000000;0.894490
9203.000000;0.893927
9202.000000;0.892226
9201.000000;0.890854
9200.000000;0.890687
9199.000000;0.891232
9198.000000;0.891489
9197.000000;0.891106
9196.000000;0.890435
9195.000000;0.889827
9194.000000;0.889334
9193.000000;0.888977
9192.000000;0.888895
9191.000000;0.889168
9190.000000;0.889748
9189.000000;0.890559
9188.000000;0.891448
9187.000000;0.892071
9186.000000;0.892076
9185.000000;0.891465
9184.000000;0.890565
9183.000000;0.889635
9182.000000;0.888693
9181.000000;0.887747
9180.000000;0.886990
9179.000000;0.886634
9178.000000;0.886720
9177.000000;0.887125
9176.000000;0.887617
9175.000000;0.887841
9174.000000;0.887484
9173.000000;0.886671
9172.000000;0.886038
9171.000000;0.886188
9170.000000;0.887027
9169.000000;0.887781
9168.000000;0.887697
9167.000000;0.886729
9166.000000;0.885561
9165.000000;0.884994
9164.000000;0.885292
9163.000000;0.886016
9162.000000;0.886457
9161.000000;0.886246
9160.000000;0.885573
9159.000000;0.884916
9158.000000;0.884672
9157.000000;0.884971
9156.000000;0.885616
9155.000000;0.886137
9154.000000;0.886143
9153.000000;0.885767
9152.000000;0.885566
9151.000000;0.885772
9150.000000;0.885816
9149.000000;0.884936
9148.000000;0.883236
9147.000000;0.881803
9146.000000;0.881620
9145.000000;0.882607
9144.000000;0.883803
9143.000000;0.884336
9142.000000;0.884027
9141.000000;0.883198
9140.000000;0.882244
9139.000000;0.881445
9138.000000;0.880948
9137.000000;0.880722
9136.000000;0.880571
9135.000000;0.880344
9134.000000;0.880162
9133.000000;0.880354
9132.000000;0.881074
9131.000000;0.881961
9130.000000;0.882257
9129.000000;0.881415
9128.000000;0.879702
9127.000000;0.878183
9126.000000;0.877932
9125.000000;0.879116
9124.000000;0.880823
9123.000000;0.881880
9122.000000;0.881864
9121.000000;0.881280
9120.000000;0.880815
9119.000000;0.880674
9118.000000;0.880668
9117.000000;0.880655
9116.000000;0.880596
9115.000000;0.880308
9114.000000;0.879536
9113.000000;0.878395
9112.000000;0.877475
9111.000000;0.877326
9110.000000;0.877913
9109.000000;0.878704
9108.000000;0.879218
9107.000000;0.879390
9106.000000;0.879450
9105.000000;0.879599
9104.000000;0.879799
9103.000000;0.879788
9102.000000;0.879318
9101.000000;0.878451
9100.000000;0.877606
9099.000000;0.877220
9098.000000;0.877348
9097.000000;0.877643
9096.000000;0.877698
9095.000000;0.877341
9094.000000;0.876634
9093.000000;0.875718
9092.000000;0.874744
9091.000000;0.873899
9090.000000;0.873399
9089.000000;0.873394
9088.000000;0.873861
9087.000000;0.874577
9086.000000;0.875233
9085.000000;0.875611
9084.000000;0.875660
9083.000000;0.875424
9082.000000;0.875013
9081.000000;0.874669
9080.000000;0.874729
9079.000000;0.875343
9078.000000;0.876218
9077.000000;0.876802
9076.000000;0.876769
9075.000000;0.876257
9074.000000;0.875613
9073.000000;0.875026
9072.000000;0.874497
9071.000000;0.874106
9070.000000;0.874147
9069.000000;0.874869
9068.000000;0.876063
9067.000000;0.877022
9066.000000;0.877013
9065.000000;0.875897
9064.000000;0.874249
9063.000000;0.872920
9062.000000;0.872482
9061.000000;0.873018
9060.000000;0.874193
9059.000000;0.875425
9058.000000;0.876124
9057.000000;0.875992
9056.000000;0.875173
9055.000000;0.874088
9054.000000;0.873130
9053.000000;0.872548
