Criado como novo conjunto de dados;"e0108.spp","-4220621.4 Secs"
cm-1;Abs
10000.000000;1.997418
9999.000000;2.009897
9998.000000;2.021714
9997.000000;2.020815
9996.000000;2.006603
9995.000000;1.990238
9994.000000;1.980087
9993.000000;1.977965
9992.000000;1.979816
9991.000000;1.982961
9990.000000;1.988424
9989.000000;1.998151
9988.000000;2.009477
9987.000000;2.014702
9986.000000;2.008281
9985.000000;1.994027
9984.000000;1.982181
9983.000000;1.980703
9982.000000;1.990500
9981.000000;2.005613
9980.000000;2.016561
9979.000000;2.016128
9978.000000;2.004640
9977.000000;1.989514
9976.000000;1.978402
9975.000000;1.973741
9974.000000;1.973926
9973.000000;1.976959
9972.000000;1.981141
9971.000000;1.983808
9970.000000;1.982385
9969.000000;1.977694
9968.000000;1.974176
9967.000000;1.975176
9966.000000;1.979312
9965.000000;1.982463
9964.000000;1.982453
9963.000000;1.980679
9962.000000;1.979611
9961.000000;1.980308
9960.000000;1.982463
9959.000000;1.985375
9958.000000;1.988178
9957.000000;1.989959
9956.000000;1.990278
9955.000000;1.989430
9954.000000;1.988179
9953.000000;1.986777
9952.000000;1.983882
9951.000000;1.978784
9950.000000;1.974677
9949.000000;1.975701
9948.000000;1.981498
9947.000000;1.987459
9946.000000;1.989405
9945.000000;1.986498
9944.000000;1.980279
9943.000000;1.973508
9942.000000;1.970082
9941.000000;1.972655
9940.000000;1.978956
9939.000000;1.982723
9938.000000;1.980056
9937.000000;1.973359
9936.000000;1.967365
9935.000000;1.963650
9934.000000;1.961415
9933.000000;1.960686
9932.000000;1.961619
9931.000000;1.962659
9930.000000;1.961868
9929.000000;1.959323
9928.000000;1.956873
9927.000000;1.955893
9926.000000;1.956677
9925.000000;1.959912
9924.000000;1.965452
9923.000000;1.970240
9922.000000;1.970322
9921.000000;1.964429
9920.000000;1.955909
9919.000000;1.949141
9918.000000;1.945146
9917.000000;1.943191
9916.000000;1.943140
9915.000000;1.945693
9914.000000;1.951716
9913.000000;1.960058
9912.000000;1.966651
9911.000000;1.967347
9910.000000;1.962270
9909.000000;1.956847
9908.000000;1.956667
9907.000000;1.962297
9906.000000;1.969664
9905.000000;1.974417
9904.000000;1.975880
9903.000000;1.976238
9902.000000;1.977556
9901.000000;1.980201
9900.000000;1.982296
9899.000000;1.981104
9898.000000;1.975898
9897.000000;1.969233
9896.000000;1.964975
9895.000000;1.965827
9894.000000;1.972712
9893.000000;1.983963
9892.000000;1.993356
9891.000000;1.992179
9890.000000;1.978195
9889.000000;1.959835
9888.000000;1.947231
9887.000000;1.942849
9886.000000;1.943212
9885.000000;1.946464
9884.000000;1.953749
9883.000000;1.963196
9882.000000;1.968089
9881.000000;1.964337
9880.000000;1.955999
9879.000000;1.950037
9878.000000;1.949552
9877.000000;1.953955
9876.000000;1.961267
9875.000000;1.967594
9874.000000;1.967539
9873.000000;1.958653
9872.000000;1.945013
9871.000000;1.934139
9870.000000;1.930789
9869.000000;1.935352
9868.000000;1.945525
9867.000000;1.957013
9866.000000;1.965089
9865.000000;1.968211
9864.000000;1.968559
9863.000000;1.966991
9862.000000;1.960756
9861.000000;1.949335
9860.000000;1.938578
9859.000000;1.934900
9858.000000;1.938127
9857.000000;1.942980
9856.000000;1.946164
9855.000000;1.948652
9854.000000;1.951338
9853.000000;1.952706
9852.000000;1.951667
9851.000000;1.949484
9850.000000;1.948062
9849.000000;1.948588
9848.000000;1.951798
9847.000000;1.957494
9846.000000;1.963114
9845.000000;1.964830
9844.000000;1.961984
9843.000000;1.957856
9842.000000;1.954686
9841.000000;1.951173
9840.000000;1.945156
9839.000000;1.936401
9838.000000;1.926934
9837.000000;1.920501
9836.000000;1.920614
9835.000000;1.926607
9834.000000;1.932667
9833.000000;1.933912
9832.000000;1.933017
9831.000000;1.936502
9830.000000;1.944760
9829.000000;1.950350
9828.000000;1.948079
9827.000000;1.942435
9826.000000;1.940943
9825.000000;1.945081
9824.000000;1.950913
9823.000000;1.955139
9822.000000;1.957316
9821.000000;1.957729
9820.000000;1.956788
9819.000000;1.956051
9818.000000;1.956596
9817.000000;1.956620
9816.000000;1.953529
9815.000000;1.947775
9814.000000;1.942137
9813.000000;1.938838
9812.000000;1.938531
9811.000000;1.940062
9810.000000;1.940539
9809.000000;1.937335
9808.000000;1.931545
9807.000000;1.928083
9806.000000;1.930576
9805.000000;1.937281
9804.000000;1.943328
9803.000000;1.946176
9802.000000;1.946787
9801.000000;1.945946
9800.000000;1.942588
9799.000000;1.936380
9798.000000;1.929399
9797.000000;1.924231
9796.000000;1.922257
9795.000000;1.923928
9794.000000;1.928798
9793.000000;1.934947
9792.000000;1.939835
9791.000000;1.942072
9790.000000;1.941782
9789.000000;1.939409
9788.000000;1.935004
9787.000000;1.929018
9786.000000;1.923006
9785.000000;1.918745
9784.000000;1.916656
9783.000000;1.915171
9782.000000;1.912041
9781.000000;1.906808
9780.000000;1.901305
9779.000000;1.897526
9778.000000;1.895927
9777.000000;1.896214
9776.000000;1.898994
9775.000000;1.904942
9774.000000;1.912344
9773.000000;1.917616
9772.000000;1.919417
9771.000000;1.920472
9770.000000;1.923391
9769.000000;1.926646
9768.000000;1.926758
9767.000000;1.923156
9766.000000;1.918931
9765.000000;1.916753
9764.000000;1.915710
9763.000000;1.912875
9762.000000;1.907447
9761.000000;1.901925
9760.000000;1.899277
9759.000000;1.900046
9758.000000;1.901581
9757.000000;1.900505
9756.000000;1.896740
9755.000000;1.893538
9754.000000;1.893173
9753.000000;1.894349
9752.000000;1.894254
9751.000000;1.891966
9750.000000;1.888542
9749.000000;1.884864
9748.000000;1.881395
9747.000000;1.879134
9746.000000;1.878917
9745.000000;1.880297
9744.000000;1.882507
9743.000000;1.885914
9742.000000;1.890848
9741.000000;1.895256
9740.000000;1.895774
9739.000000;1.892015
9738.000000;1.887559
9737.000000;1.885748
9736.000000;1.886751
9735.000000;1.889234
9734.000000;1.893043
9733.000000;1.899068
9732.000000;1.907198
9731.000000;1.915362
9730.000000;1.920614
9729.000000;1.921376
9728.000000;1.918689
9727.000000;1.914626
9726.000000;1.909750
9725.000000;1.903389
9724.000000;1.896655
9723.000000;1.893223
9722.000000;1.895378
9721.000000;1.900490
9720.000000;1.903582
9719.000000;1.902471
9718.000000;1.898371
9717.000000;1.893143
9716.000000;1.888677
9715.000000;1.888120
9714.000000;1.894399
9713.000000;1.906027
9712.000000;1.916039
9711.000000;1.917699
9710.000000;1.911251
9709.000000;1.902915
9708.000000;1.898576
9707.000000;1.900115
9706.000000;1.905044
9705.000000;1.907509
9704.000000;1.902052
9703.000000;1.888874
9702.000000;1.873975
9701.000000;1.863571
9700.000000;1.860002
9699.000000;1.862565
9698.000000;1.869930
9697.000000;1.880292
9696.000000;1.890221
9695.000000;1.896190
9694.000000;1.898057
9693.000000;1.898993
9692.000000;1.901384
9691.000000;1.903903
9690.000000;1.903341
9689.000000;1.899439
9688.000000;1.896148
9687.000000;1.897206
9686.000000;1.901861
9685.000000;1.905171
9684.000000;1.902427
9683.000000;1.893634
9682.000000;1.883139
9681.000000;1.875279
9680.000000;1.871619
9679.000000;1.871799
9678.000000;1.875297
9677.000000;1.881649
9676.000000;1.889606
9675.000000;1.896721
9674.000000;1.899720
9673.000000;1.895935
9672.000000;1.886049
9671.000000;1.875460
9670.000000;1.870954
9669.000000;1.874923
9668.000000;1.882675
9667.000000;1.886128
9666.000000;1.881221
9665.000000;1.870944
9664.000000;1.861681
9663.000000;1.858548
9662.000000;1.863145
9661.000000;1.873398
9660.000000;1.884785
9659.000000;1.892875
9658.000000;1.895675
9657.000000;1.893539
9656.000000;1.887692
9655.000000;1.880018
9654.000000;1.873266
9653.000000;1.869728
9652.000000;1.869846
9651.000000;1.872711
9650.000000;1.877184
9649.000000;1.881509
9648.000000;1.882924
9647.000000;1.879961
9646.000000;1.874576
9645.000000;1.869631
9644.000000;1.864754
9643.000000;1.857676
9642.000000;1.849849
9641.000000;1.847199
9640.000000;1.853854
9639.000000;1.866609
9638.000000;1.876357
9637.000000;1.876264
9636.000000;1.868726
9635.000000;1.862518
9634.000000;1.863860
9633.000000;1.870842
9632.000000;1.875420
9631.000000;1.871776
9630.000000;1.863033
9629.000000;1.857429
9628.000000;1.858543
9627.000000;1.861980
9626.000000;1.861334
9625.000000;1.855404
9624.000000;1.848383
9623.000000;1.844626
9622.000000;1.845897
9621.000000;1.852231
9620.000000;1.861836
9619.000000;1.870572
9618.000000;1.874850
9617.000000;1.875161
9616.000000;1.874084
9615.000000;1.872108
9614.000000;1.868294
9613.000000;1.863470
9612.000000;1.859620
9611.000000;1.856611
9610.000000;1.852752
9609.000000;1.848909
9608.000000;1.849009
9607.000000;1.854769
9606.000000;1.861887
9605.000000;1.863510
9604.000000;1.857580
9603.000000;1.849204
9602.000000;1.845610
9601.000000;1.850976
9600.000000;1.864216
9599.000000;1.878215
9598.000000;1.883143
9597.000000;1.875077
9596.000000;1.860181
9595.000000;1.847603
9594.000000;1.841148
9593.000000;1.839127
9592.000000;1.839124
9591.000000;1.840525
9590.000000;1.843350
9589.000000;1.846965
9588.000000;1.850380
9587.000000;1.852596
9586.000000;1.852448
9585.000000;1.849684
9584.000000;1.846008
9583.000000;1.843600
9582.000000;1.842941
9581.000000;1.843151
9580.000000;1.843834
9579.000000;1.844486
9578.000000;1.843260
9577.000000;1.839545
9576.000000;1.836786
9575.000000;1.839067
9574.000000;1.845177
9573.000000;1.849425
9572.000000;1.848603
9571.000000;1.844216
9570.000000;1.838070
9569.000000;1.830419
9568.000000;1.822829
9567.000000;1.819163
9566.000000;1.821592
9565.000000;1.827494
9564.000000;1.832359
9563.000000;1.834878
9562.000000;1.836713
9561.000000;1.838143
9560.000000;1.837256
9559.000000;1.833098
9558.000000;1.827198
9557.000000;1.822592
9556.000000;1.822668
9555.000000;1.829334
9554.000000;1.839976
9553.000000;1.847165
9552.000000;1.845046
9551.000000;1.836471
9550.000000;1.829964
9549.000000;1.830591
9548.000000;1.836929
9547.000000;1.844924
9546.000000;1.851656
9545.000000;1.855236
9544.000000;1.854114
9543.000000;1.848903
9542.000000;1.843428
9541.000000;1.841776
9540.000000;1.844689
9539.000000;1.849271
9538.000000;1.851770
9537.000000;1.850848
9536.000000;1.848336
9535.000000;1.846629
9534.000000;1.845508
9533.000000;1.842488
9532.000000;1.837016
9531.000000;1.832759
9530.000000;1.833801
9529.000000;1.839327
9528.000000;1.844061
9527.000000;1.844667
9526.000000;1.843425
9525.000000;1.844263
9524.000000;1.847551
9523.000000;1.850103
9522.000000;1.849234
9521.000000;1.844892
9520.000000;1.838441
9519.000000;1.831965
9518.000000;1.828297
9517.000000;1.829539
9516.000000;1.834737
9515.000000;1.839783
9514.000000;1.840629
9513.000000;1.836919
9512.000000;1.832090
9511.000000;1.830126
9510.000000;1.832355
9509.000000;1.836764
9508.000000;1.840109
9507.000000;1.840874
9506.000000;1.839954
9505.000000;1.838714
9504.000000;1.837471
9503.000000;1.835997
9502.000000;1.834363
9501.000000;1.832704
9500.000000;1.830828
9499.000000;1.828557
9498.000000;1.826021
9497.000000;1.823243
9496.000000;1.819956
9495.000000;1.816480
9494.000000;1.814191
9493.000000;1.814314
9492.000000;1.816628
9491.000000;1.819794
9490.000000;1.822293
9489.000000;1.822801
9488.000000;1.820576
9487.000000;1.816300
9486.000000;1.812430
9485.000000;1.811571
9484.000000;1.813900
9483.000000;1.816717
9482.000000;1.816971
9481.000000;1.814166
9480.000000;1.810860
9479.000000;1.810796
9478.000000;1.816174
9477.000000;1.825504
9476.000000;1.833908
9475.000000;1.836701
9474.000000;1.833408
9473.000000;1.827597
9472.000000;1.823019
9471.000000;1.820836
9470.000000;1.819908
9469.000000;1.818484
9468.000000;1.815506
9467.000000;1.811345
9466.000000;1.807728
9465.000000;1.806623
9464.000000;1.808732
9463.000000;1.812513
9462.000000;1.815790
9461.000000;1.818765
9460.000000;1.823954
9459.000000;1.832915
9458.000000;1.843729
9457.000000;1.851999
9456.000000;1.854173
9455.000000;1.849998
9454.000000;1.842424
9453.000000;1.835495
9452.000000;1.831758
9451.000000;1.830663
9450.000000;1.829098
9449.000000;1.824750
9448.000000;1.819823
9447.000000;1.818782
9446.000000;1.821421
9445.000000;1.821709
9444.000000;1.815995
9443.000000;1.809108
9442.000000;1.808714
9441.000000;1.816333
9440.000000;1.826254
9439.000000;1.832382
9438.000000;1.833806
9437.000000;1.832337
9436.000000;1.828435
9435.000000;1.822372
9434.000000;1.816378
9433.000000;1.813052
9432.000000;1.812273
9431.000000;1.811335
9430.000000;1.808463
9429.000000;1.804839
9428.000000;1.803129
9427.000000;1.805125
9426.000000;1.810289
9425.000000;1.815214
9424.000000;1.815315
9423.000000;1.809072
9422.000000;1.799858
9421.000000;1.792273
9420.000000;1.788159
9419.000000;1.786926
9418.000000;1.788019
9417.000000;1.791338
9416.000000;1.795961
9415.000000;1.800391
9414.000000;1.804220
9413.000000;1.807819
9412.000000;1.810400
9411.000000;1.810534
9410.000000;1.808983
9409.000000;1.808571
9408.000000;1.810178
9407.000000;1.811336
9406.000000;1.810488
9405.000000;1.810267
9404.000000;1.813887
9403.000000;1.819892
9402.000000;1.822843
9401.000000;1.819217
9400.000000;1.811101
9399.000000;1.803344
9398.000000;1.799224
9397.000000;1.799428
9396.000000;1.802559
9395.000000;1.805825
9394.000000;1.807111
9393.000000;1.807151
9392.000000;1.808382
9391.000000;1.811322
9390.000000;1.813317
9389.000000;1.811374
9388.000000;1.805379
9387.000000;1.798113
9386.000000;1.793186
9385.000000;1.793313
9384.000000;1.798904
9383.000000;1.806939
9382.000000;1.812425
9381.000000;1.812724
9380.000000;1.809355
9379.000000;1.805013
9378.000000;1.800923
9377.000000;1.797354
9376.000000;1.794922
9375.000000;1.794111
9374.000000;1.794335
9373.000000;1.794835
9372.000000;1.795829
9371.000000;1.797438
9370.000000;1.798110
9369.000000;1.796040
9368.000000;1.792213
9367.000000;1.789913
9366.000000;1.790786
9365.000000;1.793237
9364.000000;1.795304
9363.000000;1.797235
9362.000000;1.799647
9361.000000;1.800783
9360.000000;1.798286
9359.000000;1.793185
9358.000000;1.789220
9357.000000;1.788015
9356.000000;1.787477
9355.000000;1.785978
9354.000000;1.785842
9353.000000;1.790185
9352.000000;1.797243
9351.000000;1.800285
9350.000000;1.794631
9349.000000;1.783557
9348.000000;1.775048
9347.000000;1.774116
9346.000000;1.779552
9345.000000;1.786443
9344.000000;1.790574
9343.000000;1.790774
9342.000000;1.788418
9341.000000;1.785450
9340.000000;1.782929
9339.000000;1.781202
9338.000000;1.780809
9337.000000;1.782620
9336.000000;1.786586
9335.000000;1.790620
9334.000000;1.792027
9333.000000;1.790659
9332.000000;1.789530
9331.000000;1.791500
9330.000000;1.795794
9329.000000;1.798347
9328.000000;1.796165
9327.000000;1.790745
9326.000000;1.786244
9325.000000;1.785458
9324.000000;1.788041
9323.000000;1.791663
9322.000000;1.794237
9321.000000;1.794874
9320.000000;1.793181
9319.000000;1.788838
9318.000000;1.782645
9317.000000;1.777329
9316.000000;1.776307
9315.000000;1.780809
9314.000000;1.788396
9313.000000;1.794987
9312.000000;1.797835
9311.000000;1.796323
9310.000000;1.791527
9309.000000;1.786015
9308.000000;1.782886
9307.000000;1.783400
9306.000000;1.785677
9305.000000;1.786659
9304.000000;1.785206
9303.000000;1.782608
9302.000000;1.780766
9301.000000;1.781074
9300.000000;1.784296
9299.000000;1.789479
9298.000000;1.793338
9297.000000;1.792900
9296.000000;1.788938
9295.000000;1.785048
9294.000000;1.783380
9293.000000;1.782963
9292.000000;1.782191
9291.000000;1.780903
9290.000000;1.779168
9289.000000;1.776342
9288.000000;1.772788
9287.000000;1.770695
9286.000000;1.771767
9285.000000;1.775177
9284.000000;1.778662
9283.000000;1.780697
9282.000000;1.780791
9281.000000;1.778647
9280.000000;1.774786
9279.000000;1.771466
9278.000000;1.770881
9277.000000;1.772589
9276.000000;1.774057
9275.000000;1.773528
9274.000000;1.771308
9273.000000;1.768629
9272.000000;1.766824
9271.000000;1.767356
9270.000000;1.770815
9269.000000;1.775523
9268.000000;1.778509
9267.000000;1.778572
9266.000000;1.777162
9265.000000;1.775894
9264.000000;1.774835
9263.000000;1.773664
9262.000000;1.772871
9261.000000;1.772700
9260.000000;1.772077
9259.000000;1.769878
9258.000000;1.766943
9257.000000;1.765683
9256.000000;1.767405
9255.000000;1.770827
9254.000000;1.773497
9253.000000;1.774089
9252.000000;1.772989
9251.000000;1.771377
9250.000000;1.770760
9249.000000;1.772706
9248.000000;1.777178
9247.000000;1.781237
9246.000000;1.781139
9245.000000;1.776471
9244.000000;1.771389
9243.000000;1.770608
9242.000000;1.774349
9241.000000;1.778410
9240.000000;1.779473
9239.000000;1.778467
9238.000000;1.777674
9237.000000;1.777036
9236.000000;1.775329
9235.000000;1.773420
9234.000000;1.773508
9233.000000;1.775363
9232.000000;1.775844
9231.000000;1.772947
9230.000000;1.768863
9229.000000;1.767536
9228.000000;1.770089
9227.000000;1.773891
9226.000000;1.775448
9225.000000;1.773362
9224.000000;1.768772
9223.000000;1.763985
9222.000000;1.760858
9221.000000;1.759767
9220.000000;1.759770
9219.000000;1.759770
9218.000000;1.759543
9217.000000;1.759694
9216.000000;1.760786
9215.000000;1.762445
9214.000000;1.763353
9213.000000;1.762636
9212.000000;1.761342
9211.000000;1.761757
9210.000000;1.764741
9209.000000;1.768092
9208.000000;1.768637
9207.000000;1.766241
9206.000000;1.763991
9205.000000;1.764312
9204.000000;1.766901
9203.000000;1.770321
9202.000000;1.773753
9201.000000;1.776403
9200.000000;1.776737
9199.000000;1.773735
9198.000000;1.768133
9197.000000;1.762219
9196.000000;1.758627
9195.000000;1.758747
9194.000000;1.761889
9193.000000;1.766076
9192.000000;1.769911
9191.000000;1.773333
9190.000000;1.776174
9189.000000;1.776553
9188.000000;1.772284
9187.000000;1.764474
9186.000000;1.757599
9185.000000;1.755161
9184.000000;1.756784
9183.000000;1.759965
9182.000000;1.763157
9181.000000;1.765970
9180.000000;1.767519
9179.000000;1.766806
9178.000000;1.764740
9177.000000;1.763323
9176.000000;1.762907
9175.000000;1.762392
9174.000000;1.761622
9173.000000;1.761985
9172.000000;1.764225
9171.000000;1.766787
9170.000000;1.767497
9169.000000;1.766261
9168.000000;1.764943
9167.000000;1.765062
9166.000000;1.766384
9165.000000;1.767381
9164.000000;1.766478
9163.000000;1.763209
9162.000000;1.758689
9161.000000;1.754769
9160.000000;1.752527
9159.000000;1.751881
9158.000000;1.752694
9157.000000;1.755387
9156.000000;1.759579
9155.000000;1.762683
9154.000000;1.761599
9153.000000;1.756406
9152.000000;1.750977
9151.000000;1.749148
9150.000000;1.751113
9149.000000;1.753943
9148.000000;1.754855
9147.000000;1.753208
9146.000000;1.749847
9145.000000;1.745946
9144.000000;1.743059
9143.000000;1.743125
9142.000000;1.747004
9141.000000;1.752931
9140.000000;1.757264
9139.000000;1.757415
9138.000000;1.754087
9137.000000;1.750487
9136.000000;1.749597
9135.000000;1.752088
9134.000000;1.756305
9133.000000;1.759882
9132.000000;1.761440
9131.000000;1.760928
9130.000000;1.758840
9129.000000;1.755872
9128.000000;1.753014
9127.000000;1.750817
9126.000000;1.748536
9125.000000;1.744897
9124.000000;1.740402
9123.000000;1.738114
9122.000000;1.741064
9121.000000;1.748949
9120.000000;1.757726
9119.000000;1.762821
9118.000000;1.762913
9117.000000;1.760261
9116.000000;1.757671
9115.000000;1.755717
9114.000000;1.752674
9113.000000;1.746969
9112.000000;1.739740
9111.000000;1.734494
9110.000000;1.734019
9109.000000;1.738028
9108.000000;1.743894
9107.000000;1.749070
9106.000000;1.752224
9105.000000;1.752758
9104.000000;1.751070
9103.000000;1.749290
9102.000000;1.749736
9101.000000;1.752069
9100.000000;1.753455
9099.000000;1.752473
9098.000000;1.751356
9097.000000;1.752894
9096.000000;1.756811
9095.000000;1.760652
9094.000000;1.762641
9093.000000;1.762076
9092.000000;1.758291
9091.000000;1.751550
9090.000000;1.744400
9089.000000;1.739690
9088.000000;1.737287
9087.000000;1.734664
9086.000000;1.731120
9085.000000;1.729412
9084.000000;1.732036
9083.000000;1.737447
9082.000000;1.741528
9081.000000;1.742342
9080.000000;1.742051
9079.000000;1.744295
9078.000000;1.750898
9077.000000;1.760528
9076.000000;1.769105
9075.000000;1.772128
9074.000000;1.768274
9073.000000;1.760645
9072.000000;1.753670
9071.000000;1.749399
9070.000000;1.747247
9069.000000;1.746362
9068.000000;1.746876
9067.000000;1.748451
9066.000000;1.749116
9065.000000;1.747042
9064.000000;1.743092
9063.000000;1.740267
9062.000000;1.740462
9061.000000;1.742555
9060.000000;1.743794
9059.000000;1.742749
9058.000000;1.740449
9057.000000;1.739005
9056.000000;1.739878
9055.000000;1.743072
9054.000000;1.747220
9053.000000;1.750416
