Criado como novo conjunto de dados;"e0108.spp","-4223681.6 Secs"
cm-1;Abs
10000.000000;1.991033
9999.000000;1.995417
9998.000000;1.999846
9997.000000;2.004320
9996.000000;2.008852
9995.000000;2.013395
9994.000000;2.018060
9993.000000;2.022636
9992.000000;2.027514
9991.000000;2.031986
9990.000000;2.037477
9989.000000;2.038564
9988.000000;2.033251
9987.000000;2.028793
9986.000000;2.028688
9985.000000;2.031430
9984.000000;2.033214
9983.000000;2.032891
9982.000000;2.029707
9981.000000;2.022575
9980.000000;2.013215
9979.000000;2.006512
9978.000000;2.005400
9977.000000;2.007471
9976.000000;2.008805
9975.000000;2.009066
9974.000000;2.009464
9973.000000;2.008096
9972.000000;2.002672
9971.000000;1.996001
9970.000000;1.993543
9969.000000;1.996587
9968.000000;2.000601
9967.000000;2.000986
9966.000000;1.998935
9965.000000;1.999381
9964.000000;2.004783
9963.000000;2.012960
9962.000000;2.019646
9961.000000;2.021752
9960.000000;2.019219
9959.000000;2.014729
9958.000000;2.011060
9957.000000;2.008535
9956.000000;2.005664
9955.000000;2.001783
9954.000000;1.997565
9953.000000;1.993378
9952.000000;1.989002
9951.000000;1.985147
9950.000000;1.983416
9949.000000;1.983674
9948.000000;1.983645
9947.000000;1.982493
9946.000000;1.982062
9945.000000;1.983307
9944.000000;1.984583
9943.000000;1.984833
9942.000000;1.985203
9941.000000;1.985300
9940.000000;1.981640
9939.000000;1.973913
9938.000000;1.969621
9937.000000;1.976972
9936.000000;1.994306
9935.000000;2.010317
9934.000000;2.016455
9933.000000;2.014998
9932.000000;2.011246
9931.000000;2.005289
9930.000000;1.996893
9929.000000;1.992218
9928.000000;1.998191
9927.000000;2.012484
9926.000000;2.023924
9925.000000;2.024408
9924.000000;2.016780
9923.000000;2.007955
9922.000000;2.000401
9921.000000;1.992807
9920.000000;1.984055
9919.000000;1.974377
9918.000000;1.964960
9917.000000;1.957991
9916.000000;1.956127
9915.000000;1.960587
9914.000000;1.969695
9913.000000;1.979980
9912.000000;1.988844
9911.000000;1.995615
9910.000000;1.999918
9909.000000;2.000134
9908.000000;1.994630
9907.000000;1.984796
9906.000000;1.976475
9905.000000;1.976701
9904.000000;1.987111
9903.000000;2.000505
9902.000000;2.005481
9901.000000;1.996389
9900.000000;1.978356
9899.000000;1.960717
9898.000000;1.948557
9897.000000;1.942787
9896.000000;1.944060
9895.000000;1.952860
9894.000000;1.966566
9893.000000;1.979245
9892.000000;1.986080
9891.000000;1.987188
9890.000000;1.985840
9889.000000;1.984381
9888.000000;1.983346
9887.000000;1.982728
9886.000000;1.982192
9885.000000;1.981271
9884.000000;1.980534
9883.000000;1.981762
9882.000000;1.985688
9881.000000;1.990061
9880.000000;1.991767
9879.000000;1.989857
9878.000000;1.984972
9877.000000;1.977471
9876.000000;1.967579
9875.000000;1.956845
9874.000000;1.948241
9873.000000;1.944460
9872.000000;1.946362
9871.000000;1.953244
9870.000000;1.964254
9869.000000;1.977443
9868.000000;1.987981
9867.000000;1.991201
9866.000000;1.987561
9865.000000;1.981750
9864.000000;1.977070
9863.000000;1.972571
9862.000000;1.966293
9861.000000;1.960414
9860.000000;1.960908
9859.000000;1.970571
9858.000000;1.983393
9857.000000;1.988123
9856.000000;1.979373
9855.000000;1.963550
9854.000000;1.951586
9853.000000;1.948574
9852.000000;1.951558
9851.000000;1.955223
9850.000000;1.958027
9849.000000;1.961653
9848.000000;1.966107
9847.000000;1.968220
9846.000000;1.965315
9845.000000;1.958975
9844.000000;1.953989
9843.000000;1.954341
9842.000000;1.960713
9841.000000;1.970661
9840.000000;1.980404
9839.000000;1.986458
9838.000000;1.986771
9837.000000;1.981636
9836.000000;1.973431
9835.000000;1.965229
9834.000000;1.959191
9833.000000;1.955841
9832.000000;1.954841
9831.000000;1.955859
9830.000000;1.958027
9829.000000;1.959316
9828.000000;1.957987
9827.000000;1.955134
9826.000000;1.954658
9825.000000;1.959270
9824.000000;1.966591
9823.000000;1.970920
9822.000000;1.969912
9821.000000;1.966464
9820.000000;1.962814
9819.000000;1.957185
9818.000000;1.947906
9817.000000;1.937746
9816.000000;1.931658
9815.000000;1.931498
9814.000000;1.934410
9813.000000;1.936013
9812.000000;1.934419
9811.000000;1.931218
9810.000000;1.929813
9809.000000;1.932957
9808.000000;1.940113
9807.000000;1.946615
9806.000000;1.947440
9805.000000;1.943142
9804.000000;1.939932
9803.000000;1.942635
9802.000000;1.949226
9801.000000;1.953321
9800.000000;1.951776
9799.000000;1.948048
9798.000000;1.947457
9797.000000;1.951142
9796.000000;1.955119
9795.000000;1.954743
9794.000000;1.950212
9793.000000;1.947030
9792.000000;1.951092
9791.000000;1.963347
9790.000000;1.977713
9789.000000;1.984444
9788.000000;1.978142
9787.000000;1.963014
9786.000000;1.948659
9785.000000;1.941337
9784.000000;1.939470
9783.000000;1.936354
9782.000000;1.927986
9781.000000;1.918408
9780.000000;1.915716
9779.000000;1.923475
9778.000000;1.936862
9777.000000;1.946838
9776.000000;1.948367
9775.000000;1.943638
9774.000000;1.937473
9773.000000;1.932941
9772.000000;1.931572
9771.000000;1.934229
9770.000000;1.939452
9769.000000;1.942544
9768.000000;1.939517
9767.000000;1.932561
9766.000000;1.928275
9765.000000;1.929439
9764.000000;1.932111
9763.000000;1.931693
9762.000000;1.929478
9761.000000;1.930588
9760.000000;1.936096
9759.000000;1.941221
9758.000000;1.942172
9757.000000;1.940977
9756.000000;1.941229
9755.000000;1.941752
9754.000000;1.937852
9753.000000;1.928289
9752.000000;1.917418
9751.000000;1.910154
9750.000000;1.907925
9749.000000;1.909604
9748.000000;1.914342
9747.000000;1.921752
9746.000000;1.929931
9745.000000;1.936240
9744.000000;1.939330
9743.000000;1.938388
9742.000000;1.932609
9741.000000;1.923158
9740.000000;1.913832
9739.000000;1.908096
9738.000000;1.906482
9737.000000;1.907760
9736.000000;1.911343
9735.000000;1.917086
9734.000000;1.923332
9733.000000;1.927032
9732.000000;1.927343
9731.000000;1.927837
9730.000000;1.932127
9729.000000;1.938489
9728.000000;1.941421
9727.000000;1.938144
9726.000000;1.931343
9725.000000;1.925158
9724.000000;1.920627
9723.000000;1.915894
9722.000000;1.909956
9721.000000;1.904343
9720.000000;1.900436
9719.000000;1.897009
9718.000000;1.891867
9717.000000;1.885629
9716.000000;1.882469
9715.000000;1.886061
9714.000000;1.895452
9713.000000;1.905519
9712.000000;1.911713
9711.000000;1.914035
9710.000000;1.915327
9709.000000;1.916701
9708.000000;1.916486
9707.000000;1.913304
9706.000000;1.909114
9705.000000;1.908034
9704.000000;1.912102
9703.000000;1.919218
9702.000000;1.925379
9701.000000;1.928439
9700.000000;1.928694
9699.000000;1.926182
9698.000000;1.920284
9697.000000;1.912664
9696.000000;1.906619
9695.000000;1.903937
9694.000000;1.904357
9693.000000;1.906439
9692.000000;1.909302
9691.000000;1.913402
9690.000000;1.918214
9689.000000;1.920327
9688.000000;1.916174
9687.000000;1.906891
9686.000000;1.898136
9685.000000;1.894406
9684.000000;1.895228
9683.000000;1.897245
9682.000000;1.898629
9681.000000;1.900399
9680.000000;1.904017
9679.000000;1.908926
9678.000000;1.913396
9677.000000;1.916855
9676.000000;1.919789
9675.000000;1.921796
9674.000000;1.920973
9673.000000;1.915741
9672.000000;1.906876
9671.000000;1.897835
9670.000000;1.893338
9669.000000;1.896000
9668.000000;1.903389
9667.000000;1.909312
9666.000000;1.909378
9665.000000;1.905206
9664.000000;1.901855
9663.000000;1.902239
9662.000000;1.905536
9661.000000;1.909646
9660.000000;1.913191
9659.000000;1.915090
9658.000000;1.913919
9657.000000;1.908954
9656.000000;1.901540
9655.000000;1.895207
9654.000000;1.894087
9653.000000;1.899798
9652.000000;1.908794
9651.000000;1.913494
9650.000000;1.908943
9649.000000;1.898791
9648.000000;1.891732
9647.000000;1.892726
9646.000000;1.899241
9645.000000;1.904915
9644.000000;1.905644
9643.000000;1.901741
9642.000000;1.895901
9641.000000;1.890936
9640.000000;1.888394
9639.000000;1.887677
9638.000000;1.886717
9637.000000;1.884332
9636.000000;1.881601
9635.000000;1.880428
9634.000000;1.881837
9633.000000;1.886269
9632.000000;1.893796
9631.000000;1.902067
9630.000000;1.906119
9629.000000;1.903108
9628.000000;1.895267
9627.000000;1.887069
9626.000000;1.881426
9625.000000;1.879353
9624.000000;1.881634
9623.000000;1.887944
9622.000000;1.894468
9621.000000;1.895864
9620.000000;1.890763
9619.000000;1.882824
9618.000000;1.875971
9617.000000;1.870868
9616.000000;1.866420
9615.000000;1.862681
9614.000000;1.860723
9613.000000;1.860592
9612.000000;1.860857
9611.000000;1.860117
9610.000000;1.858885
9609.000000;1.860119
9608.000000;1.866887
9607.000000;1.878528
9606.000000;1.889483
9605.000000;1.893699
9604.000000;1.890826
9603.000000;1.885928
9602.000000;1.883241
9601.000000;1.883196
9600.000000;1.885213
9599.000000;1.889986
9598.000000;1.897218
9597.000000;1.903063
9596.000000;1.902818
9595.000000;1.896385
9594.000000;1.888853
9593.000000;1.885423
9592.000000;1.886990
9591.000000;1.890001
9590.000000;1.889999
9589.000000;1.885923
9588.000000;1.880943
9587.000000;1.879088
9586.000000;1.881567
9585.000000;1.886231
9584.000000;1.889850
9583.000000;1.890137
9582.000000;1.886106
9581.000000;1.878501
9580.000000;1.870528
9579.000000;1.866149
9578.000000;1.866406
9577.000000;1.868493
9576.000000;1.869346
9575.000000;1.868819
9574.000000;1.868138
9573.000000;1.867097
9572.000000;1.865019
9571.000000;1.863382
9570.000000;1.864696
9569.000000;1.868697
9568.000000;1.871795
9567.000000;1.871195
9566.000000;1.868289
9565.000000;1.866620
9564.000000;1.867906
9563.000000;1.871225
9562.000000;1.874903
9561.000000;1.877787
9560.000000;1.878732
9559.000000;1.876439
9558.000000;1.870813
9557.000000;1.863955
9556.000000;1.859183
9555.000000;1.858569
9554.000000;1.861196
9553.000000;1.863937
9552.000000;1.864089
9551.000000;1.861433
9550.000000;1.857879
9549.000000;1.855860
9548.000000;1.856419
9547.000000;1.858401
9546.000000;1.860527
9545.000000;1.863130
9544.000000;1.866903
9543.000000;1.870946
9542.000000;1.872631
9541.000000;1.869902
9540.000000;1.863951
9539.000000;1.858733
9538.000000;1.857341
9537.000000;1.859194
9536.000000;1.860886
9535.000000;1.859649
9534.000000;1.855782
9533.000000;1.851755
9532.000000;1.849755
9531.000000;1.850492
9530.000000;1.853958
9529.000000;1.860330
9528.000000;1.869012
9527.000000;1.876840
9526.000000;1.879121
9525.000000;1.874344
9524.000000;1.867004
9523.000000;1.863303
9522.000000;1.864371
9521.000000;1.865865
9520.000000;1.864735
9519.000000;1.863639
9518.000000;1.866345
9517.000000;1.871377
9516.000000;1.873336
9515.000000;1.870004
9514.000000;1.864607
9513.000000;1.860604
9512.000000;1.858423
9511.000000;1.857881
9510.000000;1.860532
9509.000000;1.867921
9508.000000;1.877769
9507.000000;1.883383
9506.000000;1.879009
9505.000000;1.866074
9504.000000;1.852458
9503.000000;1.845746
9502.000000;1.847726
9501.000000;1.854069
9500.000000;1.858552
9499.000000;1.858273
9498.000000;1.855032
9497.000000;1.852144
9496.000000;1.851077
9495.000000;1.850811
9494.000000;1.849742
9493.000000;1.848129
9492.000000;1.848240
9491.000000;1.852129
9490.000000;1.859151
9489.000000;1.865174
9488.000000;1.865268
9487.000000;1.858256
9486.000000;1.847753
9485.000000;1.838541
9484.000000;1.833348
9483.000000;1.832767
9482.000000;1.836201
9481.000000;1.842089
9480.000000;1.848025
9479.000000;1.851642
9478.000000;1.851733
9477.000000;1.848856
9476.000000;1.845418
9475.000000;1.844887
9474.000000;1.849624
9473.000000;1.858431
9472.000000;1.866279
9471.000000;1.867489
9470.000000;1.860331
9469.000000;1.848819
9468.000000;1.839846
9467.000000;1.838055
9466.000000;1.842526
9465.000000;1.847537
9464.000000;1.847477
9463.000000;1.842404
9462.000000;1.837664
9461.000000;1.837739
9460.000000;1.841859
9459.000000;1.845593
9458.000000;1.845707
9457.000000;1.842510
9456.000000;1.838265
9455.000000;1.835304
9454.000000;1.835157
9453.000000;1.837735
9452.000000;1.841305
9451.000000;1.844109
9450.000000;1.846104
9449.000000;1.848518
9448.000000;1.851768
9447.000000;1.854386
9446.000000;1.854280
9445.000000;1.851222
9444.000000;1.847499
9443.000000;1.845615
9442.000000;1.845543
9441.000000;1.844423
9440.000000;1.839796
9439.000000;1.833163
9438.000000;1.828667
9437.000000;1.828000
9436.000000;1.828485
9435.000000;1.827197
9434.000000;1.825247
9433.000000;1.825712
9432.000000;1.828565
9431.000000;1.830330
9430.000000;1.828888
9429.000000;1.826113
9428.000000;1.824519
9427.000000;1.823503
9426.000000;1.820641
9425.000000;1.815676
9424.000000;1.811446
9423.000000;1.810964
9422.000000;1.814661
9421.000000;1.820265
9420.000000;1.824667
9419.000000;1.826236
9418.000000;1.825848
9417.000000;1.825407
9416.000000;1.825549
9415.000000;1.825439
9414.000000;1.824562
9413.000000;1.823776
9412.000000;1.824127
9411.000000;1.825298
9410.000000;1.825972
9409.000000;1.824994
9408.000000;1.821675
9407.000000;1.816180
9406.000000;1.810818
9405.000000;1.809847
9404.000000;1.816043
9403.000000;1.827170
9402.000000;1.836730
9401.000000;1.839277
9400.000000;1.835036
9399.000000;1.828793
9398.000000;1.824969
9397.000000;1.824396
9396.000000;1.825183
9395.000000;1.825721
9394.000000;1.826383
9393.000000;1.828788
9392.000000;1.833736
9391.000000;1.839670
9390.000000;1.843290
9389.000000;1.842197
9388.000000;1.837005
9387.000000;1.830600
9386.000000;1.825529
9385.000000;1.822357
9384.000000;1.820225
9383.000000;1.818620
9382.000000;1.818537
9381.000000;1.821642
9380.000000;1.827860
9379.000000;1.834005
9378.000000;1.835773
9377.000000;1.831703
9376.000000;1.824503
9375.000000;1.818177
9374.000000;1.814675
9373.000000;1.813673
9372.000000;1.814503
9371.000000;1.816567
9370.000000;1.818296
9369.000000;1.817708
9368.000000;1.814511
9367.000000;1.811048
9366.000000;1.810379
9365.000000;1.813162
9364.000000;1.816975
9363.000000;1.818852
9362.000000;1.817934
9361.000000;1.815628
9360.000000;1.813607
9359.000000;1.811967
9358.000000;1.809851
9357.000000;1.807767
9356.000000;1.808155
9355.000000;1.812943
9354.000000;1.820942
9353.000000;1.828279
9352.000000;1.831596
9351.000000;1.830231
9350.000000;1.825430
9349.000000;1.819040
9348.000000;1.813284
9347.000000;1.810193
9346.000000;1.810300
9345.000000;1.812286
9344.000000;1.814456
9343.000000;1.816356
9342.000000;1.818252
9341.000000;1.819478
9340.000000;1.818458
9339.000000;1.814613
9338.000000;1.809734
9337.000000;1.806986
9336.000000;1.808225
9335.000000;1.812009
9334.000000;1.814303
9333.000000;1.812038
9332.000000;1.806540
9331.000000;1.802544
9330.000000;1.803131
9329.000000;1.806805
9328.000000;1.810149
9327.000000;1.811866
9326.000000;1.812454
9325.000000;1.811103
9324.000000;1.806142
9323.000000;1.798908
9322.000000;1.794135
9321.000000;1.795270
9320.000000;1.800560
9319.000000;1.804613
9318.000000;1.804459
9317.000000;1.802777
9316.000000;1.803466
9315.000000;1.806194
9314.000000;1.807216
9313.000000;1.804557
9312.000000;1.800955
9311.000000;1.801185
9310.000000;1.807122
9309.000000;1.815756
9308.000000;1.821796
9307.000000;1.822096
9306.000000;1.817614
9305.000000;1.811952
9304.000000;1.808726
9303.000000;1.809770
9302.000000;1.814345
9301.000000;1.819349
9300.000000;1.821279
9299.000000;1.819091
9298.000000;1.814946
9297.000000;1.811600
9296.000000;1.809603
9295.000000;1.807793
9294.000000;1.805703
9293.000000;1.804086
9292.000000;1.803459
9291.000000;1.803213
9290.000000;1.802279
9289.000000;1.800263
9288.000000;1.797815
9287.000000;1.796178
9286.000000;1.796531
9285.000000;1.799433
9284.000000;1.804541
9283.000000;1.810546
9282.000000;1.815247
9281.000000;1.816136
9280.000000;1.812055
9279.000000;1.804866
9278.000000;1.798685
9277.000000;1.796615
9276.000000;1.798166
9275.000000;1.800123
9274.000000;1.800023
9273.000000;1.798301
9272.000000;1.797069
9271.000000;1.797695
9270.000000;1.799758
9269.000000;1.801972
9268.000000;1.803122
9267.000000;1.801934
9266.000000;1.797952
9265.000000;1.792955
9264.000000;1.789961
9263.000000;1.790275
9262.000000;1.792163
9261.000000;1.792980
9260.000000;1.792282
9259.000000;1.792131
9258.000000;1.794016
9257.000000;1.796346
9256.000000;1.796608
9255.000000;1.795038
9254.000000;1.794001
9253.000000;1.794615
9252.000000;1.795552
9251.000000;1.795097
9250.000000;1.793248
9249.000000;1.791226
9248.000000;1.789955
9247.000000;1.789744
9246.000000;1.790632
9245.000000;1.792193
9244.000000;1.793503
9243.000000;1.794038
9242.000000;1.794310
9241.000000;1.795120
9240.000000;1.796413
9239.000000;1.796988
9238.000000;1.795266
9237.000000;1.790678
9236.000000;1.784841
9235.000000;1.781172
9234.000000;1.782235
9233.000000;1.786962
9232.000000;1.791330
9231.000000;1.792664
9230.000000;1.792342
9229.000000;1.793027
9228.000000;1.794624
9227.000000;1.794676
9226.000000;1.792047
9225.000000;1.788325
9224.000000;1.785600
9223.000000;1.784482
9222.000000;1.784535
9221.000000;1.785355
9220.000000;1.786505
9219.000000;1.787432
9218.000000;1.788519
9217.000000;1.791129
9216.000000;1.795682
9215.000000;1.800685
9214.000000;1.804386
9213.000000;1.806262
9212.000000;1.806080
9211.000000;1.802929
9210.000000;1.796777
9209.000000;1.790312
9208.000000;1.787370
9207.000000;1.789304
9206.000000;1.793678
9205.000000;1.796598
9204.000000;1.795937
9203.000000;1.792245
9202.000000;1.787579
9201.000000;1.784295
9200.000000;1.784257
9199.000000;1.787815
9198.000000;1.793081
9197.000000;1.796859
9196.000000;1.796878
9195.000000;1.793308
9194.000000;1.788518
9193.000000;1.785531
9192.000000;1.785967
9191.000000;1.788681
9190.000000;1.790563
9189.000000;1.789451
9188.000000;1.786308
9187.000000;1.783888
9186.000000;1.783585
9185.000000;1.784344
9184.000000;1.784304
9183.000000;1.783033
9182.000000;1.781506
9181.000000;1.780027
9180.000000;1.777655
9179.000000;1.773996
9178.000000;1.770694
9177.000000;1.770215
9176.000000;1.773087
9175.000000;1.777138
9174.000000;1.779811
9173.000000;1.780629
9172.000000;1.780729
9171.000000;1.780654
9170.000000;1.779923
9169.000000;1.778713
9168.000000;1.778477
9167.000000;1.780114
9166.000000;1.782223
9165.000000;1.782325
9164.000000;1.779967
9163.000000;1.776993
9162.000000;1.774897
9161.000000;1.774032
9160.000000;1.774406
9159.000000;1.775471
9158.000000;1.776049
9157.000000;1.775473
9156.000000;1.774790
9155.000000;1.776034
9154.000000;1.779520
9153.000000;1.782518
9152.000000;1.781790
9151.000000;1.777202
9150.000000;1.771515
9149.000000;1.767048
9148.000000;1.764239
9147.000000;1.763320
9146.000000;1.765419
9145.000000;1.770893
9144.000000;1.777454
9143.000000;1.781430
9142.000000;1.781103
9141.000000;1.777930
9140.000000;1.774476
9139.000000;1.772311
9138.000000;1.771771
9137.000000;1.772488
9136.000000;1.773715
9135.000000;1.774791
9134.000000;1.775604
9133.000000;1.776183
9132.000000;1.775905
9131.000000;1.774018
9130.000000;1.771216
9129.000000;1.769616
9128.000000;1.770424
9127.000000;1.772292
9126.000000;1.772831
9125.000000;1.771799
9124.000000;1.771474
9123.000000;1.773157
9122.000000;1.775498
9121.000000;1.777298
9120.000000;1.779365
9119.000000;1.782488
9118.000000;1.785405
9117.000000;1.785901
9116.000000;1.783435
9115.000000;1.779575
9114.000000;1.775895
9113.000000;1.772691
9112.000000;1.769874
9111.000000;1.767744
9110.000000;1.766298
9109.000000;1.765042
9108.000000;1.764604
9107.000000;1.767321
9106.000000;1.774459
9105.000000;1.783085
9104.000000;1.787539
9103.000000;1.785138
9102.000000;1.778908
9101.000000;1.773738
9100.000000;1.771843
9099.000000;1.772580
9098.000000;1.774457
9097.000000;1.775943
9096.000000;1.775778
9095.000000;1.774077
9094.000000;1.772726
9093.000000;1.773639
9092.000000;1.776733
9091.000000;1.780275
9090.000000;1.782565
9089.000000;1.782358
9088.000000;1.778784
9087.000000;1.772587
9086.000000;1.766977
9085.000000;1.765286
9084.000000;1.767278
9083.000000;1.768958
9082.000000;1.766933
9081.000000;1.762234
9080.000000;1.758908
9079.000000;1.759898
9078.000000;1.764993
9077.000000;1.771366
9076.000000;1.775260
9075.000000;1.774350
9074.000000;1.769739
9073.000000;1.765268
9072.000000;1.764127
9071.000000;1.766474
9070.000000;1.770530
9069.000000;1.774847
9068.000000;1.778338
9067.000000;1.779189
9066.000000;1.776213
9065.000000;1.771394
9064.000000;1.768735
9063.000000;1.770042
9062.000000;1.773268
9061.000000;1.775402
9060.000000;1.775589
9059.000000;1.774370
9058.000000;1.771388
9057.000000;1.765951
9056.000000;1.759195
9055.000000;1.753291
9054.000000;1.749082
9053.000000;1.746456
