Criado como novo conjunto de dados;"e0108.spp","-4282364.6 Secs"
cm-1;Abs
10000.000000;0.865668
9999.000000;0.865397
9998.000000;0.865126
9997.000000;0.864855
9996.000000;0.864583
9995.000000;0.864317
9994.000000;0.864039
9993.000000;0.863785
9992.000000;0.863488
9991.000000;0.863269
9990.000000;0.862891
9989.000000;0.863179
9988.000000;0.864135
9987.000000;0.864664
9986.000000;0.864502
9985.000000;0.863564
9984.000000;0.861955
9983.000000;0.859895
9982.000000;0.858043
9981.000000;0.857165
9980.000000;0.857474
9979.000000;0.858429
9978.000000;0.859326
9977.000000;0.859942
9976.000000;0.860494
9975.000000;0.861121
9974.000000;0.861631
9973.000000;0.861704
9972.000000;0.861163
9971.000000;0.860070
9970.000000;0.858698
9969.000000;0.857415
9968.000000;0.856481
9967.000000;0.855948
9966.000000;0.855801
9965.000000;0.856031
9964.000000;0.856457
9963.000000;0.856626
9962.000000;0.856190
9961.000000;0.855386
9960.000000;0.854863
9959.000000;0.854966
9958.000000;0.855390
9957.000000;0.855549
9956.000000;0.855131
9955.000000;0.854239
9954.000000;0.853200
9953.000000;0.852343
9952.000000;0.851822
9951.000000;0.851535
9950.000000;0.851280
9949.000000;0.851014
9948.000000;0.850819
9947.000000;0.850634
9946.000000;0.850245
9945.000000;0.849628
9944.000000;0.849069
9943.000000;0.848785
9942.000000;0.848627
9941.000000;0.848309
9940.000000;0.847787
9939.000000;0.847301
9938.000000;0.847176
9937.000000;0.847664
9936.000000;0.848742
9935.000000;0.849890
9934.000000;0.850303
9933.000000;0.849588
9932.000000;0.848178
9931.000000;0.846856
9930.000000;0.845980
9929.000000;0.845368
9928.000000;0.844789
9927.000000;0.844259
9926.000000;0.843914
9925.000000;0.843863
9924.000000;0.844156
9923.000000;0.844678
9922.000000;0.845087
9921.000000;0.845074
9920.000000;0.844674
9919.000000;0.844171
9918.000000;0.843714
9917.000000;0.843225
9916.000000;0.842636
9915.000000;0.841967
9914.000000;0.841181
9913.000000;0.840226
9912.000000;0.839264
9911.000000;0.838606
9910.000000;0.838324
9909.000000;0.838131
9908.000000;0.837746
9907.000000;0.837216
9906.000000;0.836742
9905.000000;0.836391
9904.000000;0.836114
9903.000000;0.835927
9902.000000;0.835869
9901.000000;0.835844
9900.000000;0.835699
9899.000000;0.835464
9898.000000;0.835314
9897.000000;0.835268
9896.000000;0.835098
9895.000000;0.834655
9894.000000;0.834130
9893.000000;0.833796
9892.000000;0.833557
9891.000000;0.833024
9890.000000;0.832091
9889.000000;0.831197
9888.000000;0.830796
9887.000000;0.830746
9886.000000;0.830549
9885.000000;0.830086
9884.000000;0.829749
9883.000000;0.829808
9882.000000;0.830025
9881.000000;0.830067
9880.000000;0.829954
9879.000000;0.829864
9878.000000;0.829754
9877.000000;0.829476
9876.000000;0.829077
9875.000000;0.828692
9874.000000;0.828278
9873.000000;0.827738
9872.000000;0.827205
9871.000000;0.826892
9870.000000;0.826710
9869.000000;0.826335
9868.000000;0.825657
9867.000000;0.824882
9866.000000;0.824220
9865.000000;0.823728
9864.000000;0.823463
9863.000000;0.823472
9862.000000;0.823578
9861.000000;0.823429
9860.000000;0.822894
9859.000000;0.822229
9858.000000;0.821743
9857.000000;0.821503
9856.000000;0.821452
9855.000000;0.821613
9854.000000;0.822010
9853.000000;0.822517
9852.000000;0.822930
9851.000000;0.823103
9850.000000;0.822956
9849.000000;0.822439
9848.000000;0.821570
9847.000000;0.820435
9846.000000;0.819073
9845.000000;0.817472
9844.000000;0.815788
9843.000000;0.814457
9842.000000;0.813931
9841.000000;0.814316
9840.000000;0.815308
9839.000000;0.816453
9838.000000;0.817432
9837.000000;0.818159
9836.000000;0.818658
9835.000000;0.818881
9834.000000;0.818680
9833.000000;0.817984
9832.000000;0.816952
9831.000000;0.815873
9830.000000;0.814989
9829.000000;0.814449
9828.000000;0.814317
9827.000000;0.814426
9826.000000;0.814305
9825.000000;0.813532
9824.000000;0.812187
9823.000000;0.810802
9822.000000;0.809817
9821.000000;0.809262
9820.000000;0.808961
9819.000000;0.808760
9818.000000;0.808428
9817.000000;0.807657
9816.000000;0.806467
9815.000000;0.805457
9814.000000;0.805305
9813.000000;0.805994
9812.000000;0.806799
9811.000000;0.807091
9810.000000;0.806985
9809.000000;0.807037
9808.000000;0.807489
9807.000000;0.808041
9806.000000;0.808286
9805.000000;0.808116
9804.000000;0.807599
9803.000000;0.806714
9802.000000;0.805430
9801.000000;0.803970
9800.000000;0.802720
9799.000000;0.801822
9798.000000;0.801065
9797.000000;0.800332
9796.000000;0.799978
9795.000000;0.800493
9794.000000;0.801793
9793.000000;0.803067
9792.000000;0.803451
9791.000000;0.802760
9790.000000;0.801544
9789.000000;0.800543
9788.000000;0.800149
9787.000000;0.800270
9786.000000;0.800545
9785.000000;0.800649
9784.000000;0.800468
9783.000000;0.800126
9782.000000;0.799921
9781.000000;0.800092
9780.000000;0.800443
9779.000000;0.800263
9778.000000;0.798924
9777.000000;0.796695
9776.000000;0.794701
9775.000000;0.793834
9774.000000;0.793889
9773.000000;0.794003
9772.000000;0.793788
9771.000000;0.793680
9770.000000;0.794157
9769.000000;0.795014
9768.000000;0.795557
9767.000000;0.795318
9766.000000;0.794436
9765.000000;0.793458
9764.000000;0.792889
9763.000000;0.792848
9762.000000;0.793009
9761.000000;0.792881
9760.000000;0.792199
9759.000000;0.791106
9758.000000;0.790031
9757.000000;0.789440
9756.000000;0.789532
9755.000000;0.790009
9754.000000;0.790227
9753.000000;0.789773
9752.000000;0.788895
9751.000000;0.788205
9750.000000;0.787990
9749.000000;0.788010
9748.000000;0.787902
9747.000000;0.787541
9746.000000;0.786977
9745.000000;0.786259
9744.000000;0.785460
9743.000000;0.784743
9742.000000;0.784334
9741.000000;0.784463
9740.000000;0.785212
9739.000000;0.786264
9738.000000;0.786934
9737.000000;0.786775
9736.000000;0.786145
9735.000000;0.785878
9734.000000;0.786335
9733.000000;0.787096
9732.000000;0.787574
9731.000000;0.787559
9730.000000;0.787033
9729.000000;0.785898
9728.000000;0.784173
9727.000000;0.782181
9726.000000;0.780285
9725.000000;0.778663
9724.000000;0.777495
9723.000000;0.777029
9722.000000;0.777172
9721.000000;0.777308
9720.000000;0.776962
9719.000000;0.776444
9718.000000;0.776448
9717.000000;0.777157
9716.000000;0.778117
9715.000000;0.778886
9714.000000;0.779356
9713.000000;0.779485
9712.000000;0.779190
9711.000000;0.778646
9710.000000;0.778259
9709.000000;0.778174
9708.000000;0.778093
9707.000000;0.777733
9706.000000;0.777195
9705.000000;0.776734
9704.000000;0.776371
9703.000000;0.775933
9702.000000;0.775315
9701.000000;0.774535
9700.000000;0.773694
9699.000000;0.773020
9698.000000;0.772788
9697.000000;0.773029
9696.000000;0.773429
9695.000000;0.773639
9694.000000;0.773606
9693.000000;0.773455
9692.000000;0.773210
9691.000000;0.772835
9690.000000;0.772440
9689.000000;0.772165
9688.000000;0.771872
9687.000000;0.771246
9686.000000;0.770292
9685.000000;0.769495
9684.000000;0.769306
9683.000000;0.769633
9682.000000;0.769991
9681.000000;0.770090
9680.000000;0.770048
9679.000000;0.770040
9678.000000;0.769977
9677.000000;0.769669
9676.000000;0.769162
9675.000000;0.768695
9674.000000;0.768367
9673.000000;0.768054
9672.000000;0.767699
9671.000000;0.767478
9670.000000;0.767516
9669.000000;0.767589
9668.000000;0.767337
9667.000000;0.766765
9666.000000;0.766295
9665.000000;0.766226
9664.000000;0.766322
9663.000000;0.766100
9662.000000;0.765425
9661.000000;0.764637
9660.000000;0.764118
9659.000000;0.763941
9658.000000;0.764012
9657.000000;0.764319
9656.000000;0.764811
9655.000000;0.765137
9654.000000;0.764822
9653.000000;0.763836
9652.000000;0.762778
9651.000000;0.762280
9650.000000;0.762327
9649.000000;0.762338
9648.000000;0.761871
9647.000000;0.761056
9646.000000;0.760346
9645.000000;0.760081
9644.000000;0.760373
9643.000000;0.761126
9642.000000;0.761947
9641.000000;0.762189
9640.000000;0.761392
9639.000000;0.759758
9638.000000;0.758084
9637.000000;0.757142
9636.000000;0.757141
9635.000000;0.757660
9634.000000;0.758014
9633.000000;0.757775
9632.000000;0.757099
9631.000000;0.756587
9630.000000;0.756695
9629.000000;0.757241
9628.000000;0.757552
9627.000000;0.757144
9626.000000;0.756162
9625.000000;0.755136
9624.000000;0.754429
9623.000000;0.754020
9622.000000;0.753758
9621.000000;0.753670
9620.000000;0.753919
9619.000000;0.754473
9618.000000;0.754925
9617.000000;0.754796
9616.000000;0.754040
9615.000000;0.753117
9614.000000;0.752488
9613.000000;0.752178
9612.000000;0.751944
9611.000000;0.751743
9610.000000;0.751762
9609.000000;0.752005
9608.000000;0.752110
9607.000000;0.751728
9606.000000;0.750942
9605.000000;0.750187
9604.000000;0.749819
9603.000000;0.749840
9602.000000;0.749904
9601.000000;0.749513
9600.000000;0.748386
9599.000000;0.746840
9598.000000;0.745693
9597.000000;0.745527
9596.000000;0.746080
9595.000000;0.746528
9594.000000;0.746391
9593.000000;0.745945
9592.000000;0.745689
9591.000000;0.745665
9590.000000;0.745500
9589.000000;0.744950
9588.000000;0.744163
9587.000000;0.743421
9586.000000;0.742840
9585.000000;0.742379
9584.000000;0.742020
9583.000000;0.741845
9582.000000;0.741978
9581.000000;0.742446
9580.000000;0.743011
9579.000000;0.743182
9578.000000;0.742549
9577.000000;0.741211
9576.000000;0.739763
9575.000000;0.738768
9574.000000;0.738311
9573.000000;0.738157
9572.000000;0.738223
9571.000000;0.738658
9570.000000;0.739425
9569.000000;0.740035
9568.000000;0.739874
9567.000000;0.738810
9566.000000;0.737398
9565.000000;0.736437
9564.000000;0.736346
9563.000000;0.736922
9562.000000;0.737624
9561.000000;0.738085
9560.000000;0.738344
9559.000000;0.738606
9558.000000;0.738846
9557.000000;0.738740
9556.000000;0.738049
9555.000000;0.736985
9554.000000;0.736087
9553.000000;0.735722
9552.000000;0.735803
9551.000000;0.736026
9550.000000;0.736270
9549.000000;0.736629
9548.000000;0.737037
9547.000000;0.737034
9546.000000;0.736115
9545.000000;0.734367
9544.000000;0.732601
9543.000000;0.731711
9542.000000;0.731880
9541.000000;0.732463
9540.000000;0.732661
9539.000000;0.732254
9538.000000;0.731683
9537.000000;0.731512
9536.000000;0.731915
9535.000000;0.732624
9534.000000;0.733241
9533.000000;0.733502
9532.000000;0.733311
9531.000000;0.732688
9530.000000;0.731807
9529.000000;0.730987
9528.000000;0.730462
9527.000000;0.730083
9526.000000;0.729446
9525.000000;0.728463
9524.000000;0.727616
9523.000000;0.727418
9522.000000;0.727695
9521.000000;0.727750
9520.000000;0.727313
9519.000000;0.727011
9518.000000;0.727626
9517.000000;0.729062
9516.000000;0.730360
9515.000000;0.730687
9514.000000;0.730021
9513.000000;0.728824
9512.000000;0.727370
9511.000000;0.725662
9510.000000;0.723889
9509.000000;0.722648
9508.000000;0.722496
9507.000000;0.723318
9506.000000;0.724298
9505.000000;0.724609
9504.000000;0.724164
9503.000000;0.723594
9502.000000;0.723470
9501.000000;0.723700
9500.000000;0.723746
9499.000000;0.723322
9498.000000;0.722686
9497.000000;0.722316
9496.000000;0.722485
9495.000000;0.723131
9494.000000;0.723923
9493.000000;0.724359
9492.000000;0.724031
9491.000000;0.722973
9490.000000;0.721721
9489.000000;0.720889
9488.000000;0.720687
9487.000000;0.720841
9486.000000;0.720886
9485.000000;0.720500
9484.000000;0.719691
9483.000000;0.718814
9482.000000;0.718325
9481.000000;0.718377
9480.000000;0.718622
9479.000000;0.718513
9478.000000;0.717846
9477.000000;0.716960
9476.000000;0.716438
9475.000000;0.716650
9474.000000;0.717500
9473.000000;0.718452
9472.000000;0.718837
9471.000000;0.718347
9470.000000;0.717311
9469.000000;0.716360
9468.000000;0.715805
9467.000000;0.715455
9466.000000;0.715085
9465.000000;0.714821
9464.000000;0.714868
9463.000000;0.715056
9462.000000;0.714970
9461.000000;0.714530
9460.000000;0.714167
9459.000000;0.714299
9458.000000;0.714789
9457.000000;0.715102
9456.000000;0.714899
9455.000000;0.714340
9454.000000;0.713866
9453.000000;0.713794
9452.000000;0.714140
9451.000000;0.714687
9450.000000;0.715128
9449.000000;0.715185
9448.000000;0.714724
9447.000000;0.713856
9446.000000;0.712924
9445.000000;0.712300
9444.000000;0.712139
9443.000000;0.712302
9442.000000;0.712516
9441.000000;0.712560
9440.000000;0.712326
9439.000000;0.711815
9438.000000;0.711148
9437.000000;0.710529
9436.000000;0.710128
9435.000000;0.709988
9434.000000;0.710071
9433.000000;0.710299
9432.000000;0.710498
9431.000000;0.710404
9430.000000;0.709893
9429.000000;0.709152
9428.000000;0.708504
9427.000000;0.708098
9426.000000;0.707903
9425.000000;0.707914
9424.000000;0.708152
9423.000000;0.708439
9422.000000;0.708422
9421.000000;0.707932
9420.000000;0.707177
9419.000000;0.706524
9418.000000;0.706211
9417.000000;0.706300
9416.000000;0.706694
9415.000000;0.707083
9414.000000;0.707043
9413.000000;0.706384
9412.000000;0.705355
9411.000000;0.704400
9410.000000;0.703800
9409.000000;0.703579
9408.000000;0.703614
9407.000000;0.703727
9406.000000;0.703814
9405.000000;0.703937
9404.000000;0.704178
9403.000000;0.704345
9402.000000;0.704085
9401.000000;0.703386
9400.000000;0.702705
9399.000000;0.702418
9398.000000;0.702389
9397.000000;0.702279
9396.000000;0.702011
9395.000000;0.701667
9394.000000;0.701228
9393.000000;0.700795
9392.000000;0.700787
9391.000000;0.701367
9390.000000;0.701871
9389.000000;0.701419
9388.000000;0.700069
9387.000000;0.698797
9386.000000;0.698271
9385.000000;0.698255
9384.000000;0.698283
9383.000000;0.698293
9382.000000;0.698296
9381.000000;0.698041
9380.000000;0.697451
9379.000000;0.696942
9378.000000;0.696851
9377.000000;0.696931
9376.000000;0.696858
9375.000000;0.696844
9374.000000;0.697226
9373.000000;0.697765
9372.000000;0.697973
9371.000000;0.697908
9370.000000;0.698033
9369.000000;0.698387
9368.000000;0.698532
9367.000000;0.698284
9366.000000;0.697873
9365.000000;0.697321
9364.000000;0.696351
9363.000000;0.695110
9362.000000;0.694351
9361.000000;0.694516
9360.000000;0.695121
9359.000000;0.695435
9358.000000;0.695403
9357.000000;0.695435
9356.000000;0.695585
9355.000000;0.695468
9354.000000;0.694905
9353.000000;0.694195
9352.000000;0.693715
9351.000000;0.693592
9350.000000;0.693780
9349.000000;0.694108
9348.000000;0.694181
9347.000000;0.693550
9346.000000;0.692225
9345.000000;0.690860
9344.000000;0.690241
9343.000000;0.690567
9342.000000;0.691308
9341.000000;0.691751
9340.000000;0.691665
9339.000000;0.691444
9338.000000;0.691602
9337.000000;0.692207
9336.000000;0.692843
9335.000000;0.693085
9334.000000;0.692864
9333.000000;0.692393
9332.000000;0.691865
9331.000000;0.691305
9330.000000;0.690659
9329.000000;0.689939
9328.000000;0.689334
9327.000000;0.689121
9326.000000;0.689354
9325.000000;0.689671
9324.000000;0.689634
9323.000000;0.689291
9322.000000;0.689149
9321.000000;0.689469
9320.000000;0.689855
9319.000000;0.689769
9318.000000;0.689238
9317.000000;0.688735
9316.000000;0.688492
9315.000000;0.688279
9314.000000;0.687848
9313.000000;0.687269
9312.000000;0.686755
9311.000000;0.686405
9310.000000;0.686210
9309.000000;0.686124
9308.000000;0.686023
9307.000000;0.685752
9306.000000;0.685327
9305.000000;0.684978
9304.000000;0.684920
9303.000000;0.685185
9302.000000;0.685680
9301.000000;0.686228
9300.000000;0.686513
9299.000000;0.686199
9298.000000;0.685297
9297.000000;0.684288
9296.000000;0.683706
9295.000000;0.683666
9294.000000;0.683897
9293.000000;0.684122
9292.000000;0.684229
9291.000000;0.684158
9290.000000;0.683854
9289.000000;0.683381
9288.000000;0.682937
9287.000000;0.682681
9286.000000;0.682612
9285.000000;0.682590
9284.000000;0.682429
9283.000000;0.682055
9282.000000;0.681664
9281.000000;0.681652
9280.000000;0.682179
9279.000000;0.682826
9278.000000;0.682918
9277.000000;0.682272
9276.000000;0.681426
9275.000000;0.680985
9274.000000;0.680946
9273.000000;0.680852
9272.000000;0.680469
9271.000000;0.680056
9270.000000;0.680010
9269.000000;0.680460
9268.000000;0.681232
9267.000000;0.681945
9266.000000;0.682113
9265.000000;0.681415
9264.000000;0.680065
9263.000000;0.678794
9262.000000;0.678256
9261.000000;0.678495
9260.000000;0.679064
9259.000000;0.679546
9258.000000;0.679782
9257.000000;0.679679
9256.000000;0.679106
9255.000000;0.678141
9254.000000;0.677222
9253.000000;0.676874
9252.000000;0.677266
9251.000000;0.678069
9250.000000;0.678695
9249.000000;0.678667
9248.000000;0.677898
9247.000000;0.676737
9246.000000;0.675730
9245.000000;0.675241
9244.000000;0.675282
9243.000000;0.675664
9242.000000;0.676226
9241.000000;0.676868
9240.000000;0.677424
9239.000000;0.677646
9238.000000;0.677370
9237.000000;0.676672
9236.000000;0.675849
9235.000000;0.675253
9234.000000;0.675090
9233.000000;0.675333
9232.000000;0.675797
9231.000000;0.676296
9230.000000;0.676698
9229.000000;0.676878
9228.000000;0.676738
9227.000000;0.676305
9226.000000;0.675749
9225.000000;0.675247
9224.000000;0.674866
9223.000000;0.674593
9222.000000;0.674387
9221.000000;0.674145
9220.000000;0.673728
9219.000000;0.673133
9218.000000;0.672587
9217.000000;0.672364
9216.000000;0.672536
9215.000000;0.672983
9214.000000;0.673574
9213.000000;0.674195
9212.000000;0.674612
9211.000000;0.674503
9210.000000;0.673724
9209.000000;0.672524
9208.000000;0.671451
9207.000000;0.671037
9206.000000;0.671446
9205.000000;0.672309
9204.000000;0.672938
9203.000000;0.672875
9202.000000;0.672243
9201.000000;0.671494
9200.000000;0.670849
9199.000000;0.670176
9198.000000;0.669408
9197.000000;0.668838
9196.000000;0.668826
9195.000000;0.669358
9194.000000;0.670061
9193.000000;0.670567
9192.000000;0.670695
9191.000000;0.670382
9190.000000;0.669710
9189.000000;0.669058
9188.000000;0.669010
9187.000000;0.669852
9186.000000;0.671153
9185.000000;0.671981
9184.000000;0.671690
9183.000000;0.670505
9182.000000;0.669296
9181.000000;0.668731
9180.000000;0.668709
9179.000000;0.668626
9178.000000;0.668115
9177.000000;0.667409
9176.000000;0.666978
9175.000000;0.666978
9174.000000;0.667163
9173.000000;0.667238
9172.000000;0.667154
9171.000000;0.667024
9170.000000;0.666893
9169.000000;0.666660
9168.000000;0.666254
9167.000000;0.665800
9166.000000;0.665571
9165.000000;0.665718
9164.000000;0.666096
9163.000000;0.666379
9162.000000;0.666360
9161.000000;0.666112
9160.000000;0.665904
9159.000000;0.665999
9158.000000;0.666452
9157.000000;0.666980
9156.000000;0.667055
9155.000000;0.666347
9154.000000;0.665155
9153.000000;0.664276
9152.000000;0.664286
9151.000000;0.665003
9150.000000;0.665716
9149.000000;0.665890
9148.000000;0.665528
9147.000000;0.664966
9146.000000;0.664495
9145.000000;0.664216
9144.000000;0.664102
9143.000000;0.664083
9142.000000;0.664069
9141.000000;0.663957
9140.000000;0.663684
9139.000000;0.663327
9138.000000;0.663114
9137.000000;0.663201
9136.000000;0.663451
9135.000000;0.663568
9134.000000;0.663510
9133.000000;0.663541
9132.000000;0.663779
9131.000000;0.663917
9130.000000;0.663653
9129.000000;0.663198
9128.000000;0.663032
9127.000000;0.663201
9126.000000;0.663249
9125.000000;0.662893
9124.000000;0.662400
9123.000000;0.662139
9122.000000;0.662074
9121.000000;0.661914
9120.000000;0.661571
9119.000000;0.661210
9118.000000;0.660990
9117.000000;0.660987
9116.000000;0.661243
9115.000000;0.661656
9114.000000;0.661854
9113.000000;0.661438
9112.000000;0.660409
9111.000000;0.659252
9110.000000;0.658565
9109.000000;0.658639
9108.000000;0.659296
9107.000000;0.660008
9106.000000;0.660269
9105.000000;0.660018
9104.000000;0.659645
9103.000000;0.659519
9102.000000;0.659600
9101.000000;0.659650
9100.000000;0.659618
9099.000000;0.659584
9098.000000;0.659459
9097.000000;0.659084
9096.000000;0.658594
9095.000000;0.658336
9094.000000;0.658370
9093.000000;0.658379
9092.000000;0.658166
9091.000000;0.657922
9090.000000;0.657858
9089.000000;0.657860
9088.000000;0.657743
9087.000000;0.657599
9086.000000;0.657604
9085.000000;0.657650
9084.000000;0.657459
9083.000000;0.656989
9082.000000;0.656473
9081.000000;0.656119
9080.000000;0.655972
9079.000000;0.656051
9078.000000;0.656378
9077.000000;0.656866
9076.000000;0.657343
9075.000000;0.657693
9074.000000;0.657864
9073.000000;0.657777
9072.000000;0.657399
9071.000000;0.656897
9070.000000;0.656567
9069.000000;0.656576
9068.000000;0.656858
9067.000000;0.657222
9066.000000;0.657420
9065.000000;0.657196
9064.000000;0.656489
9063.000000;0.655610
9062.000000;0.655026
9061.000000;0.654909
9060.000000;0.655070
9059.000000;0.655309
9058.000000;0.655657
9057.000000;0.656205
9056.000000;0.656876
9055.000000;0.657432
9054.000000;0.657595
9053.000000;0.657166
