Criado como novo conjunto de dados;"e0108.spp","-4246362.8 Secs"
cm-1;Abs
10000.000000;1.004083
9999.000000;1.001992
9998.000000;0.999892
9997.000000;0.997838
9996.000000;0.995716
9995.000000;0.994123
9994.000000;0.993664
9993.000000;0.994103
9992.000000;0.995058
9991.000000;0.996382
9990.000000;0.997879
9989.000000;0.998740
9988.000000;0.998080
9987.000000;0.996093
9986.000000;0.994081
9985.000000;0.993120
9984.000000;0.993119
9983.000000;0.993364
9982.000000;0.993480
9981.000000;0.993545
9980.000000;0.993663
9979.000000;0.993885
9978.000000;0.994349
9977.000000;0.995073
9976.000000;0.995602
9975.000000;0.995250
9974.000000;0.993817
9973.000000;0.991852
9972.000000;0.990138
9971.000000;0.989050
9970.000000;0.988483
9969.000000;0.988219
9968.000000;0.988240
9967.000000;0.988657
9966.000000;0.989386
9965.000000;0.990015
9964.000000;0.990080
9963.000000;0.989476
9962.000000;0.988517
9961.000000;0.987564
9960.000000;0.986646
9959.000000;0.985459
9958.000000;0.983787
9957.000000;0.981957
9956.000000;0.980785
9955.000000;0.980871
9954.000000;0.981901
9953.000000;0.982881
9952.000000;0.983160
9951.000000;0.983009
9950.000000;0.983043
9949.000000;0.983413
9948.000000;0.983879
9947.000000;0.984392
9946.000000;0.985002
9945.000000;0.985242
9944.000000;0.984223
9943.000000;0.981674
9942.000000;0.978510
9941.000000;0.976058
9940.000000;0.974964
9939.000000;0.974978
9938.000000;0.975498
9937.000000;0.975991
9936.000000;0.976148
9935.000000;0.976022
9934.000000;0.976031
9933.000000;0.976501
9932.000000;0.977138
9931.000000;0.977176
9930.000000;0.976204
9929.000000;0.974721
9928.000000;0.973690
9927.000000;0.973583
9926.000000;0.973959
9925.000000;0.974011
9924.000000;0.973433
9923.000000;0.972686
9922.000000;0.972407
9921.000000;0.972713
9920.000000;0.973118
9919.000000;0.973015
9918.000000;0.972185
9917.000000;0.970945
9916.000000;0.969974
9915.000000;0.969898
9914.000000;0.970785
9913.000000;0.971954
9912.000000;0.972431
9911.000000;0.971756
9910.000000;0.970351
9909.000000;0.969114
9908.000000;0.968677
9907.000000;0.968958
9906.000000;0.969286
9905.000000;0.969034
9904.000000;0.968296
9903.000000;0.967856
9902.000000;0.968318
9901.000000;0.969307
9900.000000;0.969788
9899.000000;0.969127
9898.000000;0.967569
9897.000000;0.965682
9896.000000;0.963767
9895.000000;0.961975
9894.000000;0.960646
9893.000000;0.960162
9892.000000;0.960581
9891.000000;0.961627
9890.000000;0.962964
9889.000000;0.964270
9888.000000;0.965151
9887.000000;0.965267
9886.000000;0.964578
9885.000000;0.963309
9884.000000;0.961648
9883.000000;0.959681
9882.000000;0.957672
9881.000000;0.956266
9880.000000;0.956137
9879.000000;0.957264
9878.000000;0.958692
9877.000000;0.959266
9876.000000;0.958688
9875.000000;0.957668
9874.000000;0.956970
9873.000000;0.956641
9872.000000;0.956308
9871.000000;0.955854
9870.000000;0.955357
9869.000000;0.954543
9868.000000;0.952960
9867.000000;0.950892
9866.000000;0.949524
9865.000000;0.949775
9864.000000;0.951252
9863.000000;0.952715
9862.000000;0.953381
9861.000000;0.953392
9860.000000;0.953164
9859.000000;0.952856
9858.000000;0.952567
9857.000000;0.952572
9856.000000;0.953019
9855.000000;0.953598
9854.000000;0.953769
9853.000000;0.953276
9852.000000;0.952312
9851.000000;0.951245
9850.000000;0.950304
9849.000000;0.949534
9848.000000;0.948889
9847.000000;0.948329
9846.000000;0.947879
9845.000000;0.947659
9844.000000;0.947832
9843.000000;0.948404
9842.000000;0.949032
9841.000000;0.949133
9840.000000;0.948342
9839.000000;0.946896
9838.000000;0.945476
9837.000000;0.944678
9836.000000;0.944662
9835.000000;0.945210
9834.000000;0.945885
9833.000000;0.946055
9832.000000;0.945107
9831.000000;0.942995
9830.000000;0.940559
9829.000000;0.938989
9828.000000;0.938808
9827.000000;0.939442
9826.000000;0.939867
9825.000000;0.939603
9824.000000;0.939023
9823.000000;0.938716
9822.000000;0.938691
9821.000000;0.938370
9820.000000;0.937364
9819.000000;0.936037
9818.000000;0.935160
9817.000000;0.935105
9816.000000;0.935588
9815.000000;0.936143
9814.000000;0.936615
9813.000000;0.937081
9812.000000;0.937498
9811.000000;0.937613
9810.000000;0.937189
9809.000000;0.936234
9808.000000;0.935023
9807.000000;0.933961
9806.000000;0.933333
9805.000000;0.933120
9804.000000;0.933064
9803.000000;0.932986
9802.000000;0.932945
9801.000000;0.933045
9800.000000;0.933204
9799.000000;0.933195
9798.000000;0.932852
9797.000000;0.932212
9796.000000;0.931565
9795.000000;0.931362
9794.000000;0.931842
9793.000000;0.932604
9792.000000;0.932759
9791.000000;0.931743
9790.000000;0.929924
9789.000000;0.928279
9788.000000;0.927557
9787.000000;0.927844
9786.000000;0.928699
9785.000000;0.929443
9784.000000;0.929492
9783.000000;0.928779
9782.000000;0.927892
9781.000000;0.927501
9780.000000;0.927641
9779.000000;0.927786
9778.000000;0.927635
9777.000000;0.927481
9776.000000;0.927658
9775.000000;0.927918
9774.000000;0.927642
9773.000000;0.926565
9772.000000;0.925076
9771.000000;0.923831
9770.000000;0.923202
9769.000000;0.922990
9768.000000;0.922585
9767.000000;0.921490
9766.000000;0.919841
9765.000000;0.918387
9764.000000;0.917865
9763.000000;0.918409
9762.000000;0.919538
9761.000000;0.920573
9760.000000;0.921022
9759.000000;0.920785
9758.000000;0.920218
9757.000000;0.919952
9756.000000;0.920427
9755.000000;0.921492
9754.000000;0.922468
9753.000000;0.922634
9752.000000;0.921716
9751.000000;0.920068
9750.000000;0.918459
9749.000000;0.917528
9748.000000;0.917304
9747.000000;0.917271
9746.000000;0.916983
9745.000000;0.916526
9744.000000;0.916280
9743.000000;0.916398
9742.000000;0.916730
9741.000000;0.917125
9740.000000;0.917495
9739.000000;0.917584
9738.000000;0.917008
9737.000000;0.915656
9736.000000;0.913911
9735.000000;0.912386
9734.000000;0.911552
9733.000000;0.911634
9732.000000;0.912572
9731.000000;0.913916
9730.000000;0.914926
9729.000000;0.915007
9728.000000;0.914048
9727.000000;0.912341
9726.000000;0.910329
9725.000000;0.908534
9724.000000;0.907496
9723.000000;0.907476
9722.000000;0.908148
9721.000000;0.908714
9720.000000;0.908454
9719.000000;0.907274
9718.000000;0.905847
9717.000000;0.905183
9716.000000;0.905786
9715.000000;0.907077
9714.000000;0.907841
9713.000000;0.907454
9712.000000;0.906522
9711.000000;0.906101
9710.000000;0.906522
9709.000000;0.907276
9708.000000;0.907835
9707.000000;0.908049
9706.000000;0.907744
9705.000000;0.906528
9704.000000;0.904359
9703.000000;0.901991
9702.000000;0.900446
9701.000000;0.900064
9700.000000;0.900282
9699.000000;0.900317
9698.000000;0.899928
9697.000000;0.899496
9696.000000;0.899545
9695.000000;0.900238
9694.000000;0.901255
9693.000000;0.902067
9692.000000;0.902296
9691.000000;0.901825
9690.000000;0.900705
9689.000000;0.899122
9688.000000;0.897466
9687.000000;0.896229
9686.000000;0.895763
9685.000000;0.896094
9684.000000;0.896933
9683.000000;0.897824
9682.000000;0.898366
9681.000000;0.898438
9680.000000;0.898262
9679.000000;0.898166
9678.000000;0.898245
9677.000000;0.898311
9676.000000;0.898137
9675.000000;0.897649
9674.000000;0.896915
9673.000000;0.896137
9672.000000;0.895586
9671.000000;0.895367
9670.000000;0.895255
9669.000000;0.894941
9668.000000;0.894444
9667.000000;0.894051
9666.000000;0.893857
9665.000000;0.893660
9664.000000;0.893320
9663.000000;0.892906
9662.000000;0.892432
9661.000000;0.891851
9660.000000;0.891400
9659.000000;0.891484
9658.000000;0.891944
9657.000000;0.891942
9656.000000;0.891012
9655.000000;0.889831
9654.000000;0.889407
9653.000000;0.889800
9652.000000;0.890204
9651.000000;0.890057
9650.000000;0.889445
9649.000000;0.888531
9648.000000;0.887357
9647.000000;0.886338
9646.000000;0.886220
9645.000000;0.887183
9644.000000;0.888452
9643.000000;0.889116
9642.000000;0.888959
9641.000000;0.888217
9640.000000;0.887028
9639.000000;0.885567
9638.000000;0.884401
9637.000000;0.884091
9636.000000;0.884502
9635.000000;0.884921
9634.000000;0.884883
9633.000000;0.884568
9632.000000;0.884372
9631.000000;0.884405
9630.000000;0.884452
9629.000000;0.884213
9628.000000;0.883541
9627.000000;0.882619
9626.000000;0.881907
9625.000000;0.881743
9624.000000;0.881957
9623.000000;0.882000
9622.000000;0.881513
9621.000000;0.880689
9620.000000;0.880049
9619.000000;0.879933
9618.000000;0.880236
9617.000000;0.880571
9616.000000;0.880663
9615.000000;0.880573
9614.000000;0.880497
9613.000000;0.880353
9612.000000;0.879743
9611.000000;0.878466
9610.000000;0.876916
9609.000000;0.875800
9608.000000;0.875468
9607.000000;0.875681
9606.000000;0.876012
9605.000000;0.876323
9604.000000;0.876772
9603.000000;0.877435
9602.000000;0.878058
9601.000000;0.878214
9600.000000;0.877702
9599.000000;0.876781
9598.000000;0.875986
9597.000000;0.875688
9596.000000;0.875843
9595.000000;0.876133
9594.000000;0.876229
9593.000000;0.875907
9592.000000;0.875074
9591.000000;0.873826
9590.000000;0.872476
9589.000000;0.871402
9588.000000;0.870846
9587.000000;0.870787
9586.000000;0.870931
9585.000000;0.870864
9584.000000;0.870402
9583.000000;0.869874
9582.000000;0.869908
9581.000000;0.870809
9580.000000;0.872171
9579.000000;0.873139
9578.000000;0.873038
9577.000000;0.871806
9576.000000;0.869982
9575.000000;0.868377
9574.000000;0.867573
9573.000000;0.867579
9572.000000;0.867969
9571.000000;0.868352
9570.000000;0.868604
9569.000000;0.868669
9568.000000;0.868437
9567.000000;0.867967
9566.000000;0.867526
9565.000000;0.867175
9564.000000;0.866562
9563.000000;0.865457
9562.000000;0.864301
9561.000000;0.863806
9560.000000;0.864072
9559.000000;0.864457
9558.000000;0.864348
9557.000000;0.863753
9556.000000;0.863096
9555.000000;0.862714
9554.000000;0.862667
9553.000000;0.862800
9552.000000;0.862886
9551.000000;0.862838
9550.000000;0.862798
9549.000000;0.862899
9548.000000;0.862977
9547.000000;0.862771
9546.000000;0.862348
9545.000000;0.862005
9544.000000;0.861741
9543.000000;0.861220
9542.000000;0.860346
9541.000000;0.859500
9540.000000;0.859046
9539.000000;0.858954
9538.000000;0.859109
9537.000000;0.859592
9536.000000;0.860297
9535.000000;0.860683
9534.000000;0.860392
9533.000000;0.859905
9532.000000;0.860036
9531.000000;0.860807
9530.000000;0.861291
9529.000000;0.860689
9528.000000;0.859188
9527.000000;0.857569
9526.000000;0.856347
9525.000000;0.855631
9524.000000;0.855525
9523.000000;0.856182
9522.000000;0.857341
9521.000000;0.858141
9520.000000;0.857700
9519.000000;0.855974
9518.000000;0.853945
9517.000000;0.852836
9516.000000;0.853153
9515.000000;0.854451
9514.000000;0.855836
9513.000000;0.856579
9512.000000;0.856444
9511.000000;0.855711
9510.000000;0.854953
9509.000000;0.854568
9508.000000;0.854390
9507.000000;0.853931
9506.000000;0.853052
9505.000000;0.852177
9504.000000;0.851703
9503.000000;0.851470
9502.000000;0.851068
9501.000000;0.850476
9500.000000;0.850023
9499.000000;0.849870
9498.000000;0.849893
9497.000000;0.850057
9496.000000;0.850495
9495.000000;0.851096
9494.000000;0.851371
9493.000000;0.850941
9492.000000;0.850001
9491.000000;0.849103
9490.000000;0.848620
9489.000000;0.848559
9488.000000;0.848718
9487.000000;0.848849
9486.000000;0.848731
9485.000000;0.848327
9484.000000;0.847873
9483.000000;0.847697
9482.000000;0.847889
9481.000000;0.848212
9480.000000;0.848320
9479.000000;0.848009
9478.000000;0.847247
9477.000000;0.846056
9476.000000;0.844565
9475.000000;0.843216
9474.000000;0.842690
9473.000000;0.843329
9472.000000;0.844632
9471.000000;0.845552
9470.000000;0.845438
9469.000000;0.844551
9468.000000;0.843601
9467.000000;0.843031
9466.000000;0.842894
9465.000000;0.843070
9464.000000;0.843272
9463.000000;0.843070
9462.000000;0.842360
9461.000000;0.841722
9460.000000;0.841838
9459.000000;0.842556
9458.000000;0.842954
9457.000000;0.842419
9456.000000;0.841240
9455.000000;0.840022
9454.000000;0.839010
9453.000000;0.838230
9452.000000;0.837843
9451.000000;0.837952
9450.000000;0.838305
9449.000000;0.838587
9448.000000;0.838843
9447.000000;0.839258
9446.000000;0.839648
9445.000000;0.839603
9444.000000;0.839138
9443.000000;0.838796
9442.000000;0.838947
9441.000000;0.839267
9440.000000;0.839105
9439.000000;0.838283
9438.000000;0.837322
9437.000000;0.836883
9436.000000;0.837043
9435.000000;0.837217
9434.000000;0.836791
9433.000000;0.835764
9432.000000;0.834670
9431.000000;0.833964
9430.000000;0.833698
9429.000000;0.833803
9428.000000;0.834329
9427.000000;0.835214
9426.000000;0.836016
9425.000000;0.836175
9424.000000;0.835509
9423.000000;0.834298
9422.000000;0.832975
9421.000000;0.831914
9420.000000;0.831403
9419.000000;0.831541
9418.000000;0.832111
9417.000000;0.832751
9416.000000;0.833264
9415.000000;0.833659
9414.000000;0.833907
9413.000000;0.833859
9412.000000;0.833458
9411.000000;0.832891
9410.000000;0.832457
9409.000000;0.832288
9408.000000;0.832215
9407.000000;0.831920
9406.000000;0.831260
9405.000000;0.830430
9404.000000;0.829687
9403.000000;0.828988
9402.000000;0.828133
9401.000000;0.827275
9400.000000;0.826951
9399.000000;0.827460
9398.000000;0.828435
9397.000000;0.829270
9396.000000;0.829721
9395.000000;0.829878
9394.000000;0.829824
9393.000000;0.829687
9392.000000;0.829800
9391.000000;0.830316
9390.000000;0.830770
9389.000000;0.830487
9388.000000;0.829433
9387.000000;0.828251
9386.000000;0.827472
9385.000000;0.827087
9384.000000;0.826909
9383.000000;0.826850
9382.000000;0.826716
9381.000000;0.826219
9380.000000;0.825447
9379.000000;0.824944
9378.000000;0.825027
9377.000000;0.825342
9376.000000;0.825347
9375.000000;0.824945
9374.000000;0.824328
9373.000000;0.823502
9372.000000;0.822432
9371.000000;0.821469
9370.000000;0.821149
9369.000000;0.821553
9368.000000;0.822217
9367.000000;0.822689
9366.000000;0.822902
9365.000000;0.822962
9364.000000;0.822866
9363.000000;0.822527
9362.000000;0.821908
9361.000000;0.821056
9360.000000;0.820146
9359.000000;0.819505
9358.000000;0.819394
9357.000000;0.819676
9356.000000;0.819863
9355.000000;0.819593
9354.000000;0.818952
9353.000000;0.818274
9352.000000;0.817801
9351.000000;0.817643
9350.000000;0.817884
9349.000000;0.818450
9348.000000;0.818914
9347.000000;0.818734
9346.000000;0.817861
9345.000000;0.816967
9344.000000;0.816859
9343.000000;0.817669
9342.000000;0.818750
9341.000000;0.819301
9340.000000;0.819006
9339.000000;0.818115
9338.000000;0.817129
9337.000000;0.816495
9336.000000;0.816378
9335.000000;0.816517
9334.000000;0.816406
9333.000000;0.815799
9332.000000;0.814973
9331.000000;0.814375
9330.000000;0.814143
9329.000000;0.814193
9328.000000;0.814580
9327.000000;0.815401
9326.000000;0.816361
9325.000000;0.816856
9324.000000;0.816670
9323.000000;0.816282
9322.000000;0.816262
9321.000000;0.816583
9320.000000;0.816758
9319.000000;0.816480
9318.000000;0.815836
9317.000000;0.814985
9316.000000;0.813940
9315.000000;0.812748
9314.000000;0.811676
9313.000000;0.811065
9312.000000;0.811034
9311.000000;0.811369
9310.000000;0.811687
9309.000000;0.811693
9308.000000;0.811327
9307.000000;0.810722
9306.000000;0.810101
9305.000000;0.809706
9304.000000;0.809706
9303.000000;0.810047
9302.000000;0.810456
9301.000000;0.810695
9300.000000;0.810793
9299.000000;0.810936
9298.000000;0.811209
9297.000000;0.811586
9296.000000;0.812086
9295.000000;0.812673
9294.000000;0.813036
9293.000000;0.812768
9292.000000;0.811892
9291.000000;0.810922
9290.000000;0.810225
9289.000000;0.809550
9288.000000;0.808437
9287.000000;0.806937
9286.000000;0.805661
9285.000000;0.805146
9284.000000;0.805402
9283.000000;0.806061
9282.000000;0.806816
9281.000000;0.807628
9280.000000;0.808519
9279.000000;0.809254
9278.000000;0.809371
9277.000000;0.808645
9276.000000;0.807414
9275.000000;0.806260
9274.000000;0.805427
9273.000000;0.804767
9272.000000;0.804182
9271.000000;0.803786
9270.000000;0.803601
9269.000000;0.803463
9268.000000;0.803370
9267.000000;0.803562
9266.000000;0.804009
9265.000000;0.804136
9264.000000;0.803464
9263.000000;0.802339
9262.000000;0.801642
9261.000000;0.801815
9260.000000;0.802488
9259.000000;0.803019
9258.000000;0.803080
9257.000000;0.802731
9256.000000;0.802209
9255.000000;0.801770
9254.000000;0.801564
9253.000000;0.801558
9252.000000;0.801623
9251.000000;0.801646
9250.000000;0.801501
9249.000000;0.801056
9248.000000;0.800396
9247.000000;0.799870
9246.000000;0.799704
9245.000000;0.799653
9244.000000;0.799314
9243.000000;0.798714
9242.000000;0.798332
9241.000000;0.798563
9240.000000;0.799414
9239.000000;0.800644
9238.000000;0.801860
9237.000000;0.802527
9236.000000;0.802297
9235.000000;0.801471
9234.000000;0.800793
9233.000000;0.800619
9232.000000;0.800544
9231.000000;0.800036
9230.000000;0.799184
9229.000000;0.798567
9228.000000;0.798514
9227.000000;0.798751
9226.000000;0.798760
9225.000000;0.798352
9224.000000;0.797849
9223.000000;0.797716
9222.000000;0.797989
9221.000000;0.798117
9220.000000;0.797559
9219.000000;0.796510
9218.000000;0.795795
9217.000000;0.795929
9216.000000;0.796512
9215.000000;0.796727
9214.000000;0.796309
9213.000000;0.795761
9212.000000;0.795665
9211.000000;0.796048
9210.000000;0.796466
9209.000000;0.796549
9208.000000;0.796351
9207.000000;0.796176
9206.000000;0.796139
9205.000000;0.795988
9204.000000;0.795425
9203.000000;0.794555
9202.000000;0.793864
9201.000000;0.793695
9200.000000;0.793874
9199.000000;0.793946
9198.000000;0.793715
9197.000000;0.793410
9196.000000;0.793350
9195.000000;0.793584
9194.000000;0.793916
9193.000000;0.794176
9192.000000;0.794358
9191.000000;0.794516
9190.000000;0.794632
9189.000000;0.794649
9188.000000;0.794570
9187.000000;0.794381
9186.000000;0.793893
9185.000000;0.792871
9184.000000;0.791460
9183.000000;0.790341
9182.000000;0.790181
9181.000000;0.790885
9180.000000;0.791602
9179.000000;0.791573
9178.000000;0.790877
9177.000000;0.790247
9176.000000;0.790242
9175.000000;0.790700
9174.000000;0.791003
9173.000000;0.790758
9172.000000;0.790191
9171.000000;0.789859
9170.000000;0.790014
9169.000000;0.790351
9168.000000;0.790421
9167.000000;0.790163
9166.000000;0.789920
9165.000000;0.789952
9164.000000;0.790123
9163.000000;0.790111
9162.000000;0.789793
9161.000000;0.789367
9160.000000;0.789145
9159.000000;0.789264
9158.000000;0.789577
9157.000000;0.789791
9156.000000;0.789707
9155.000000;0.789298
9154.000000;0.788631
9153.000000;0.787874
9152.000000;0.787408
9151.000000;0.787628
9150.000000;0.788387
9149.000000;0.788882
9148.000000;0.788454
9147.000000;0.787450
9146.000000;0.786903
9145.000000;0.787324
9144.000000;0.788171
9143.000000;0.788583
9142.000000;0.788264
9141.000000;0.787489
9140.000000;0.786647
9139.000000;0.786101
9138.000000;0.786168
9137.000000;0.786816
9136.000000;0.787515
9135.000000;0.787739
9134.000000;0.787556
9133.000000;0.787432
9132.000000;0.787490
9131.000000;0.787316
9130.000000;0.786512
9129.000000;0.785210
9128.000000;0.783968
9127.000000;0.783354
9126.000000;0.783641
9125.000000;0.784660
9124.000000;0.785866
9123.000000;0.786715
9122.000000;0.787060
9121.000000;0.787068
9120.000000;0.786792
9119.000000;0.786093
9118.000000;0.785011
9117.000000;0.783938
9116.000000;0.783277
9115.000000;0.783106
9114.000000;0.783288
9113.000000;0.783682
9112.000000;0.784075
9111.000000;0.784106
9110.000000;0.783587
9109.000000;0.782821
9108.000000;0.782365
9107.000000;0.782439
9106.000000;0.782761
9105.000000;0.782949
9104.000000;0.782921
9103.000000;0.782844
9102.000000;0.782856
9101.000000;0.782958
9100.000000;0.783055
9099.000000;0.783052
9098.000000;0.782951
9097.000000;0.782891
9096.000000;0.782991
9095.000000;0.783141
9094.000000;0.783067
9093.000000;0.782654
9092.000000;0.782072
9091.000000;0.781513
9090.000000;0.780941
9089.000000;0.780257
9088.000000;0.779625
9087.000000;0.779416
9086.000000;0.779826
9085.000000;0.780627
9084.000000;0.781282
9083.000000;0.781266
9082.000000;0.780395
9081.000000;0.779033
9080.000000;0.777963
9079.000000;0.777829
9078.000000;0.778580
9077.000000;0.779511
9076.000000;0.779900
9075.000000;0.779560
9074.000000;0.778828
9073.000000;0.778154
9072.000000;0.777752
9071.000000;0.777544
9070.000000;0.777349
9069.000000;0.777143
9068.000000;0.777081
9067.000000;0.777230
9066.000000;0.777388
9065.000000;0.777336
9064.000000;0.777192
9063.000000;0.777293
9062.000000;0.777716
9061.000000;0.778179
9060.000000;0.778436
9059.000000;0.778511
9058.000000;0.778465
9057.000000;0.778249
9056.000000;0.777937
9055.000000;0.777797
9054.000000;0.777879
9053.000000;0.777793
