Criado como novo conjunto de dados;"e0108.spp","-4245463.0 Secs"
cm-1;Abs
10000.000000;0.990540
9999.000000;0.991090
9998.000000;0.991642
9997.000000;0.992193
9996.000000;0.992747
9995.000000;0.993298
9994.000000;0.993857
9993.000000;0.994402
9992.000000;0.994974
9991.000000;0.995500
9990.000000;0.996126
9989.000000;0.996277
9988.000000;0.995614
9987.000000;0.994767
9986.000000;0.994293
9985.000000;0.994303
9984.000000;0.994264
9983.000000;0.993763
9982.000000;0.993066
9981.000000;0.992785
9980.000000;0.993093
9979.000000;0.993565
9978.000000;0.993804
9977.000000;0.993924
9976.000000;0.994347
9975.000000;0.995288
9974.000000;0.996499
9973.000000;0.997348
9972.000000;0.997126
9971.000000;0.995510
9970.000000;0.992896
9969.000000;0.990233
9968.000000;0.988413
9967.000000;0.987780
9966.000000;0.988082
9965.000000;0.988677
9964.000000;0.988838
9963.000000;0.988189
9962.000000;0.986991
9961.000000;0.985853
9960.000000;0.985064
9959.000000;0.984397
9958.000000;0.983643
9957.000000;0.983072
9956.000000;0.983118
9955.000000;0.983801
9954.000000;0.984716
9953.000000;0.985512
9952.000000;0.986053
9951.000000;0.986113
9950.000000;0.985302
9949.000000;0.983572
9948.000000;0.981613
9947.000000;0.980409
9946.000000;0.980287
9945.000000;0.980507
9944.000000;0.980028
9943.000000;0.978736
9942.000000;0.977740
9941.000000;0.978205
9940.000000;0.980005
9939.000000;0.981763
9938.000000;0.982280
9937.000000;0.981653
9936.000000;0.980745
9935.000000;0.979895
9934.000000;0.978722
9933.000000;0.977121
9932.000000;0.975872
9931.000000;0.975898
9930.000000;0.977134
9929.000000;0.978481
9928.000000;0.978907
9927.000000;0.978370
9926.000000;0.977622
9925.000000;0.977382
9924.000000;0.977830
9923.000000;0.978629
9922.000000;0.979148
9921.000000;0.978720
9920.000000;0.977082
9919.000000;0.974701
9918.000000;0.972531
9917.000000;0.971338
9916.000000;0.971287
9915.000000;0.972065
9914.000000;0.973075
9913.000000;0.973493
9912.000000;0.972599
9911.000000;0.970508
9910.000000;0.968442
9909.000000;0.967788
9908.000000;0.968809
9907.000000;0.970485
9906.000000;0.971569
9905.000000;0.971504
9904.000000;0.970394
9903.000000;0.968582
9902.000000;0.966510
9901.000000;0.964674
9900.000000;0.963441
9899.000000;0.963008
9898.000000;0.963541
9897.000000;0.965031
9896.000000;0.966794
9895.000000;0.967521
9894.000000;0.966384
9893.000000;0.964034
9892.000000;0.962125
9891.000000;0.961773
9890.000000;0.962641
9889.000000;0.963441
9888.000000;0.963183
9887.000000;0.961989
9886.000000;0.960818
9885.000000;0.960443
9884.000000;0.960739
9883.000000;0.961030
9882.000000;0.960998
9881.000000;0.960869
9880.000000;0.960719
9879.000000;0.960152
9878.000000;0.958987
9877.000000;0.957805
9876.000000;0.957265
9875.000000;0.957208
9874.000000;0.957001
9873.000000;0.956616
9872.000000;0.956680
9871.000000;0.957403
9870.000000;0.958081
9869.000000;0.957893
9868.000000;0.956788
9867.000000;0.955381
9866.000000;0.954329
9865.000000;0.954026
9864.000000;0.954461
9863.000000;0.955063
9862.000000;0.955004
9861.000000;0.954037
9860.000000;0.952846
9859.000000;0.952241
9858.000000;0.952213
9857.000000;0.952102
9856.000000;0.951598
9855.000000;0.951179
9854.000000;0.951473
9853.000000;0.952463
9852.000000;0.953502
9851.000000;0.953974
9850.000000;0.953828
9849.000000;0.953481
9848.000000;0.953185
9847.000000;0.952595
9846.000000;0.951116
9845.000000;0.948768
9844.000000;0.946580
9843.000000;0.945853
9842.000000;0.946896
9841.000000;0.948593
9840.000000;0.949340
9839.000000;0.948479
9838.000000;0.946772
9837.000000;0.945534
9836.000000;0.945448
9835.000000;0.946180
9834.000000;0.946894
9833.000000;0.946917
9832.000000;0.946049
9831.000000;0.944604
9830.000000;0.943294
9829.000000;0.942817
9828.000000;0.943268
9827.000000;0.944028
9826.000000;0.944372
9825.000000;0.944103
9824.000000;0.943478
9823.000000;0.942719
9822.000000;0.941898
9821.000000;0.941220
9820.000000;0.941049
9819.000000;0.941482
9818.000000;0.942072
9817.000000;0.942119
9816.000000;0.941212
9815.000000;0.939519
9814.000000;0.937703
9813.000000;0.936581
9812.000000;0.936615
9811.000000;0.937568
9810.000000;0.938728
9809.000000;0.939561
9808.000000;0.940039
9807.000000;0.940335
9806.000000;0.940427
9805.000000;0.940116
9804.000000;0.939272
9803.000000;0.937909
9802.000000;0.936177
9801.000000;0.934460
9800.000000;0.933304
9799.000000;0.932944
9798.000000;0.932919
9797.000000;0.932446
9796.000000;0.931308
9795.000000;0.930195
9794.000000;0.929960
9793.000000;0.930640
9792.000000;0.931402
9791.000000;0.931411
9790.000000;0.930601
9789.000000;0.929601
9788.000000;0.929108
9787.000000;0.929408
9786.000000;0.930294
9785.000000;0.931179
9784.000000;0.931412
9783.000000;0.930805
9782.000000;0.929851
9781.000000;0.929215
9780.000000;0.928975
9779.000000;0.928599
9778.000000;0.927670
9777.000000;0.926395
9776.000000;0.925323
9775.000000;0.924841
9774.000000;0.925016
9773.000000;0.925607
9772.000000;0.926106
9771.000000;0.926070
9770.000000;0.925648
9769.000000;0.925459
9768.000000;0.925731
9767.000000;0.925911
9766.000000;0.925469
9765.000000;0.924713
9764.000000;0.924313
9763.000000;0.924271
9762.000000;0.923952
9761.000000;0.923092
9760.000000;0.922174
9759.000000;0.921722
9758.000000;0.921739
9757.000000;0.921938
9756.000000;0.922042
9755.000000;0.921751
9754.000000;0.920899
9753.000000;0.919858
9752.000000;0.919331
9751.000000;0.919504
9750.000000;0.919799
9749.000000;0.919706
9748.000000;0.919435
9747.000000;0.919406
9746.000000;0.919441
9745.000000;0.918948
9744.000000;0.917728
9743.000000;0.916204
9742.000000;0.914974
9741.000000;0.914426
9740.000000;0.914620
9739.000000;0.915158
9738.000000;0.915296
9737.000000;0.914594
9736.000000;0.913434
9735.000000;0.912599
9734.000000;0.912422
9733.000000;0.912640
9732.000000;0.912980
9731.000000;0.913446
9730.000000;0.913984
9729.000000;0.914324
9728.000000;0.914318
9727.000000;0.914116
9726.000000;0.913798
9725.000000;0.913185
9724.000000;0.912285
9723.000000;0.911650
9722.000000;0.911819
9721.000000;0.912461
9720.000000;0.912474
9719.000000;0.911143
9718.000000;0.909020
9717.000000;0.907460
9716.000000;0.907364
9715.000000;0.908447
9714.000000;0.909618
9713.000000;0.909973
9712.000000;0.909549
9711.000000;0.909189
9710.000000;0.909617
9709.000000;0.910607
9708.000000;0.911146
9707.000000;0.910572
9706.000000;0.909409
9705.000000;0.908832
9704.000000;0.909320
9703.000000;0.910103
9702.000000;0.910006
9701.000000;0.908626
9700.000000;0.906526
9699.000000;0.904562
9698.000000;0.903352
9697.000000;0.903199
9696.000000;0.904030
9695.000000;0.905261
9694.000000;0.906022
9693.000000;0.905777
9692.000000;0.904701
9691.000000;0.903414
9690.000000;0.902427
9689.000000;0.901823
9688.000000;0.901269
9687.000000;0.900307
9686.000000;0.898806
9685.000000;0.897210
9684.000000;0.896262
9683.000000;0.896411
9682.000000;0.897510
9681.000000;0.899040
9680.000000;0.900470
9679.000000;0.901437
9678.000000;0.901805
9677.000000;0.901671
9676.000000;0.901203
9675.000000;0.900479
9674.000000;0.899537
9673.000000;0.898519
9672.000000;0.897602
9671.000000;0.896815
9670.000000;0.896087
9669.000000;0.895413
9668.000000;0.894814
9667.000000;0.894202
9666.000000;0.893543
9665.000000;0.893099
9664.000000;0.893229
9663.000000;0.893877
9662.000000;0.894481
9661.000000;0.894545
9660.000000;0.894084
9659.000000;0.893405
9658.000000;0.892738
9657.000000;0.892286
9656.000000;0.892340
9655.000000;0.892987
9654.000000;0.893818
9653.000000;0.894204
9652.000000;0.893866
9651.000000;0.892965
9650.000000;0.891732
9649.000000;0.890287
9648.000000;0.888836
9647.000000;0.887796
9646.000000;0.887561
9645.000000;0.888132
9644.000000;0.888988
9643.000000;0.889390
9642.000000;0.888930
9641.000000;0.887865
9640.000000;0.886884
9639.000000;0.886465
9638.000000;0.886483
9637.000000;0.886435
9636.000000;0.885986
9635.000000;0.885264
9634.000000;0.884714
9633.000000;0.884733
9632.000000;0.885392
9631.000000;0.886402
9630.000000;0.887335
9629.000000;0.887838
9628.000000;0.887621
9627.000000;0.886455
9626.000000;0.884427
9625.000000;0.882169
9624.000000;0.880502
9623.000000;0.879782
9622.000000;0.879760
9621.000000;0.880074
9620.000000;0.880593
9619.000000;0.881232
9618.000000;0.881793
9617.000000;0.882185
9616.000000;0.882505
9615.000000;0.882728
9614.000000;0.882618
9613.000000;0.882124
9612.000000;0.881514
9611.000000;0.880841
9610.000000;0.879705
9609.000000;0.877966
9608.000000;0.876339
9607.000000;0.875685
9606.000000;0.875927
9605.000000;0.876252
9604.000000;0.876276
9603.000000;0.876350
9602.000000;0.876651
9601.000000;0.876682
9600.000000;0.876015
9599.000000;0.875017
9598.000000;0.874382
9597.000000;0.874273
9596.000000;0.874324
9595.000000;0.874281
9594.000000;0.874227
9593.000000;0.874220
9592.000000;0.874071
9591.000000;0.873572
9590.000000;0.872762
9589.000000;0.871921
9588.000000;0.871412
9587.000000;0.871456
9586.000000;0.871920
9585.000000;0.872386
9584.000000;0.872528
9583.000000;0.872360
9582.000000;0.872086
9581.000000;0.871851
9580.000000;0.871724
9579.000000;0.871748
9578.000000;0.871774
9577.000000;0.871393
9576.000000;0.870300
9575.000000;0.868707
9574.000000;0.867188
9573.000000;0.866180
9572.000000;0.865829
9571.000000;0.866201
9570.000000;0.867294
9569.000000;0.868745
9568.000000;0.869831
9567.000000;0.869993
9566.000000;0.869302
9565.000000;0.868268
9564.000000;0.867355
9563.000000;0.866811
9562.000000;0.866784
9561.000000;0.867253
9560.000000;0.867821
9559.000000;0.867867
9558.000000;0.867101
9557.000000;0.865883
9556.000000;0.864841
9555.000000;0.864250
9554.000000;0.863913
9553.000000;0.863612
9552.000000;0.863437
9551.000000;0.863501
9550.000000;0.863528
9549.000000;0.863057
9548.000000;0.862164
9547.000000;0.861654
9546.000000;0.862234
9545.000000;0.863619
9544.000000;0.864702
9543.000000;0.864642
9542.000000;0.863575
9541.000000;0.862233
9540.000000;0.861195
9539.000000;0.860723
9538.000000;0.860929
9537.000000;0.861633
9536.000000;0.862099
9535.000000;0.861443
9534.000000;0.859533
9533.000000;0.857238
9532.000000;0.855613
9531.000000;0.854972
9530.000000;0.854896
9529.000000;0.854895
9528.000000;0.854858
9527.000000;0.854966
9526.000000;0.855454
9525.000000;0.856432
9524.000000;0.857713
9523.000000;0.858772
9522.000000;0.859073
9521.000000;0.858533
9520.000000;0.857565
9519.000000;0.856656
9518.000000;0.856019
9517.000000;0.855615
9516.000000;0.855364
9515.000000;0.855212
9514.000000;0.855114
9513.000000;0.855044
9512.000000;0.854972
9511.000000;0.854823
9510.000000;0.854535
9509.000000;0.854232
9508.000000;0.854224
9507.000000;0.854671
9506.000000;0.855263
9505.000000;0.855365
9504.000000;0.854561
9503.000000;0.853032
9502.000000;0.851373
9501.000000;0.850090
9500.000000;0.849342
9499.000000;0.849078
9498.000000;0.849226
9497.000000;0.849631
9496.000000;0.849953
9495.000000;0.849847
9494.000000;0.849287
9493.000000;0.848546
9492.000000;0.847813
9491.000000;0.847052
9490.000000;0.846321
9489.000000;0.846031
9488.000000;0.846587
9487.000000;0.847853
9486.000000;0.849162
9485.000000;0.849906
9484.000000;0.849959
9483.000000;0.849544
9482.000000;0.848893
9481.000000;0.848082
9480.000000;0.847099
9479.000000;0.845965
9478.000000;0.844858
9477.000000;0.844075
9476.000000;0.843777
9475.000000;0.843794
9474.000000;0.843784
9473.000000;0.843569
9472.000000;0.843199
9471.000000;0.842781
9470.000000;0.842441
9469.000000;0.842406
9468.000000;0.842833
9467.000000;0.843481
9466.000000;0.843821
9465.000000;0.843602
9464.000000;0.843084
9463.000000;0.842581
9462.000000;0.842035
9461.000000;0.841262
9460.000000;0.840455
9459.000000;0.840158
9458.000000;0.840685
9457.000000;0.841703
9456.000000;0.842439
9455.000000;0.842300
9454.000000;0.841395
9453.000000;0.840491
9452.000000;0.840329
9451.000000;0.840896
9450.000000;0.841459
9449.000000;0.841358
9448.000000;0.840633
9447.000000;0.839791
9446.000000;0.839204
9445.000000;0.838947
9444.000000;0.839072
9443.000000;0.839677
9442.000000;0.840615
9441.000000;0.841342
9440.000000;0.841181
9439.000000;0.839810
9438.000000;0.837594
9437.000000;0.835494
9436.000000;0.834484
9435.000000;0.834846
9434.000000;0.835954
9433.000000;0.836800
9432.000000;0.836780
9431.000000;0.836008
9430.000000;0.835013
9429.000000;0.834325
9428.000000;0.834290
9427.000000;0.835026
9426.000000;0.836352
9425.000000;0.837791
9424.000000;0.838715
9423.000000;0.838624
9422.000000;0.837464
9421.000000;0.835777
9420.000000;0.834446
9419.000000;0.834061
9418.000000;0.834439
9417.000000;0.834836
9416.000000;0.834693
9415.000000;0.834135
9414.000000;0.833718
9413.000000;0.833723
9412.000000;0.833759
9411.000000;0.833080
9410.000000;0.831384
9409.000000;0.829253
9408.000000;0.827686
9407.000000;0.827221
9406.000000;0.827618
9405.000000;0.828310
9404.000000;0.828896
9403.000000;0.829140
9402.000000;0.828877
9401.000000;0.828257
9400.000000;0.827850
9399.000000;0.828095
9398.000000;0.828704
9397.000000;0.828929
9396.000000;0.828418
9395.000000;0.827496
9394.000000;0.826651
9393.000000;0.826110
9392.000000;0.825985
9391.000000;0.826381
9390.000000;0.827140
9389.000000;0.827738
9388.000000;0.827742
9387.000000;0.827284
9386.000000;0.826920
9385.000000;0.827102
9384.000000;0.827823
9383.000000;0.828648
9382.000000;0.828973
9381.000000;0.828443
9380.000000;0.827243
9379.000000;0.825927
9378.000000;0.824867
9377.000000;0.824057
9376.000000;0.823476
9375.000000;0.823318
9374.000000;0.823656
9373.000000;0.824146
9372.000000;0.824380
9371.000000;0.824366
9370.000000;0.824338
9369.000000;0.824275
9368.000000;0.824006
9367.000000;0.823686
9366.000000;0.823708
9365.000000;0.824028
9364.000000;0.824021
9363.000000;0.823280
9362.000000;0.822263
9361.000000;0.821796
9360.000000;0.822114
9359.000000;0.822658
9358.000000;0.822733
9357.000000;0.822085
9356.000000;0.820906
9355.000000;0.819606
9354.000000;0.818685
9353.000000;0.818509
9352.000000;0.818967
9351.000000;0.819425
9350.000000;0.819226
9349.000000;0.818283
9348.000000;0.817093
9347.000000;0.816214
9346.000000;0.815848
9345.000000;0.815897
9344.000000;0.816193
9343.000000;0.816508
9342.000000;0.816520
9341.000000;0.816038
9340.000000;0.815329
9339.000000;0.815012
9338.000000;0.815485
9337.000000;0.816540
9336.000000;0.817590
9335.000000;0.818152
9334.000000;0.818074
9333.000000;0.817477
9332.000000;0.816694
9331.000000;0.816177
9330.000000;0.816216
9329.000000;0.816691
9328.000000;0.817194
9327.000000;0.817400
9326.000000;0.817226
9325.000000;0.816688
9324.000000;0.815841
9323.000000;0.814877
9322.000000;0.814095
9321.000000;0.813683
9320.000000;0.813644
9319.000000;0.813901
9318.000000;0.814273
9317.000000;0.814351
9316.000000;0.813744
9315.000000;0.812605
9314.000000;0.811646
9313.000000;0.811388
9312.000000;0.811606
9311.000000;0.811753
9310.000000;0.811712
9309.000000;0.811762
9308.000000;0.811913
9307.000000;0.811770
9306.000000;0.811169
9305.000000;0.810557
9304.000000;0.810496
9303.000000;0.810997
9302.000000;0.811565
9301.000000;0.811778
9300.000000;0.811601
9299.000000;0.811200
9298.000000;0.810690
9297.000000;0.810150
9296.000000;0.809753
9295.000000;0.809691
9294.000000;0.809930
9293.000000;0.810106
9292.000000;0.809808
9291.000000;0.809028
9290.000000;0.808225
9289.000000;0.807814
9288.000000;0.807711
9287.000000;0.807562
9286.000000;0.807318
9285.000000;0.807286
9284.000000;0.807606
9283.000000;0.807990
9282.000000;0.808130
9281.000000;0.808098
9280.000000;0.808109
9279.000000;0.808106
9278.000000;0.807865
9277.000000;0.807440
9276.000000;0.807211
9275.000000;0.807423
9274.000000;0.807879
9273.000000;0.808175
9272.000000;0.808113
9271.000000;0.807820
9270.000000;0.807505
9269.000000;0.807175
9268.000000;0.806629
9267.000000;0.805761
9266.000000;0.804819
9265.000000;0.804253
9264.000000;0.804267
9263.000000;0.804644
9262.000000;0.805090
9261.000000;0.805601
9260.000000;0.806296
9259.000000;0.806942
9258.000000;0.806902
9257.000000;0.805716
9256.000000;0.803650
9255.000000;0.801615
9254.000000;0.800520
9253.000000;0.800627
9252.000000;0.801448
9251.000000;0.802235
9250.000000;0.802611
9249.000000;0.802676
9248.000000;0.802551
9247.000000;0.802087
9246.000000;0.801215
9245.000000;0.800391
9244.000000;0.800317
9243.000000;0.801177
9242.000000;0.802364
9241.000000;0.803037
9240.000000;0.802811
9239.000000;0.801912
9238.000000;0.800896
9237.000000;0.800313
9236.000000;0.800398
9235.000000;0.800903
9234.000000;0.801308
9233.000000;0.801310
9232.000000;0.801024
9231.000000;0.800670
9230.000000;0.800231
9229.000000;0.799578
9228.000000;0.798796
9227.000000;0.798183
9226.000000;0.797946
9225.000000;0.798040
9224.000000;0.798283
9223.000000;0.798537
9222.000000;0.798745
9221.000000;0.798864
9220.000000;0.798768
9219.000000;0.798259
9218.000000;0.797257
9217.000000;0.796060
9216.000000;0.795275
9215.000000;0.795336
9214.000000;0.796082
9213.000000;0.796882
9212.000000;0.797182
9211.000000;0.796918
9210.000000;0.796464
9209.000000;0.796267
9208.000000;0.796489
9207.000000;0.796915
9206.000000;0.797173
9205.000000;0.797113
9204.000000;0.796942
9203.000000;0.796966
9202.000000;0.797248
9201.000000;0.797528
9200.000000;0.797431
9199.000000;0.796742
9198.000000;0.795578
9197.000000;0.794368
9196.000000;0.793586
9195.000000;0.793400
9194.000000;0.793616
9193.000000;0.793982
9192.000000;0.794395
9191.000000;0.794744
9190.000000;0.794782
9189.000000;0.794418
9188.000000;0.794001
9187.000000;0.793983
9186.000000;0.794267
9185.000000;0.794174
9184.000000;0.793186
9183.000000;0.791551
9182.000000;0.790047
9181.000000;0.789310
9180.000000;0.789462
9179.000000;0.790201
9178.000000;0.791055
9177.000000;0.791644
9176.000000;0.791841
9175.000000;0.791702
9174.000000;0.791296
9173.000000;0.790737
9172.000000;0.790366
9171.000000;0.790591
9170.000000;0.791373
9169.000000;0.792083
9168.000000;0.792116
9167.000000;0.791533
9166.000000;0.790880
9165.000000;0.790488
9164.000000;0.790247
9163.000000;0.789971
9162.000000;0.789648
9161.000000;0.789270
9160.000000;0.788783
9159.000000;0.788340
9158.000000;0.788310
9157.000000;0.788822
9156.000000;0.789485
9155.000000;0.789755
9154.000000;0.789484
9153.000000;0.788919
9152.000000;0.788305
9151.000000;0.787738
9150.000000;0.787327
9149.000000;0.787212
9148.000000;0.787367
9147.000000;0.787552
9146.000000;0.787550
9145.000000;0.787349
9144.000000;0.787046
9143.000000;0.786682
9142.000000;0.786258
9141.000000;0.785882
9140.000000;0.785819
9139.000000;0.786326
9138.000000;0.787385
9137.000000;0.788552
9136.000000;0.789187
9135.000000;0.788966
9134.000000;0.788149
9133.000000;0.787277
9132.000000;0.786650
9131.000000;0.786192
9130.000000;0.785731
9129.000000;0.785238
9128.000000;0.784800
9127.000000;0.784543
9126.000000;0.784620
9125.000000;0.785117
9124.000000;0.785899
9123.000000;0.786616
9122.000000;0.786929
9121.000000;0.786710
9120.000000;0.786048
9119.000000;0.785179
9118.000000;0.784416
9117.000000;0.783993
9116.000000;0.783909
9115.000000;0.783987
9114.000000;0.784073
9113.000000;0.784083
9112.000000;0.783907
9111.000000;0.783477
9110.000000;0.782981
9109.000000;0.782758
9108.000000;0.782887
9107.000000;0.783044
9106.000000;0.782955
9105.000000;0.782791
9104.000000;0.782934
9103.000000;0.783421
9102.000000;0.783851
9101.000000;0.783795
9100.000000;0.783191
9099.000000;0.782358
9098.000000;0.781754
9097.000000;0.781638
9096.000000;0.781861
9095.000000;0.782041
9094.000000;0.782011
9093.000000;0.781942
9092.000000;0.781929
9091.000000;0.781679
9090.000000;0.780908
9089.000000;0.779862
9088.000000;0.779128
9087.000000;0.778980
9086.000000;0.779239
9085.000000;0.779693
9084.000000;0.780259
9083.000000;0.780706
9082.000000;0.780675
9081.000000;0.780156
9080.000000;0.779597
9079.000000;0.779332
9078.000000;0.779200
9077.000000;0.778957
9076.000000;0.778745
9075.000000;0.778825
9074.000000;0.779102
9073.000000;0.779253
9072.000000;0.779181
9071.000000;0.779030
9070.000000;0.778898
9069.000000;0.778850
9068.000000;0.779079
9067.000000;0.779629
9066.000000;0.780025
9065.000000;0.779649
9064.000000;0.778578
9063.000000;0.777636
9062.000000;0.777452
9061.000000;0.777797
9060.000000;0.778066
9059.000000;0.778093
9058.000000;0.778168
9057.000000;0.778467
9056.000000;0.778815
9055.000000;0.778963
9054.000000;0.778838
9053.000000;0.778482
