Criado como novo conjunto de dados;"e0108.spp","-4236462.2 Secs"
cm-1;Abs
10000.000000;0.982867
9999.000000;0.983235
9998.000000;0.983043
9997.000000;0.982275
9996.000000;0.981333
9995.000000;0.980573
9994.000000;0.979986
9993.000000;0.979415
9992.000000;0.979010
9991.000000;0.979210
9990.000000;0.980198
9989.000000;0.981572
9988.000000;0.982745
9987.000000;0.983507
9986.000000;0.983948
9985.000000;0.983980
9984.000000;0.983332
9983.000000;0.982048
9982.000000;0.980653
9981.000000;0.979679
9980.000000;0.979217
9979.000000;0.979030
9978.000000;0.978846
9977.000000;0.978432
9976.000000;0.977675
9975.000000;0.976830
9974.000000;0.976445
9973.000000;0.976698
9972.000000;0.976953
9971.000000;0.976335
9970.000000;0.974707
9969.000000;0.972874
9968.000000;0.971818
9967.000000;0.971929
9966.000000;0.972846
9965.000000;0.973746
9964.000000;0.973922
9963.000000;0.973478
9962.000000;0.973303
9961.000000;0.974014
9960.000000;0.975044
9959.000000;0.975267
9958.000000;0.974410
9957.000000;0.973256
9956.000000;0.972455
9955.000000;0.971872
9954.000000;0.971293
9953.000000;0.971037
9952.000000;0.971382
9951.000000;0.971872
9950.000000;0.971770
9949.000000;0.970959
9948.000000;0.969887
9947.000000;0.968860
9946.000000;0.967901
9945.000000;0.967095
9944.000000;0.966538
9943.000000;0.966042
9942.000000;0.965353
9941.000000;0.964542
9940.000000;0.963778
9939.000000;0.962887
9938.000000;0.961681
9937.000000;0.960612
9936.000000;0.960525
9935.000000;0.961675
9934.000000;0.963394
9933.000000;0.964790
9932.000000;0.965414
9931.000000;0.965222
9930.000000;0.964318
9929.000000;0.962925
9928.000000;0.961352
9927.000000;0.959831
9926.000000;0.958525
9925.000000;0.957703
9924.000000;0.957598
9923.000000;0.958075
9922.000000;0.958669
9921.000000;0.958925
9920.000000;0.958595
9919.000000;0.957743
9918.000000;0.956832
9917.000000;0.956480
9916.000000;0.956793
9915.000000;0.957027
9914.000000;0.956381
9913.000000;0.955060
9912.000000;0.954057
9911.000000;0.953923
9910.000000;0.954309
9909.000000;0.954758
9908.000000;0.955244
9907.000000;0.955602
9906.000000;0.955177
9905.000000;0.953642
9904.000000;0.951756
9903.000000;0.950657
9902.000000;0.950592
9901.000000;0.950860
9900.000000;0.950870
9899.000000;0.950700
9898.000000;0.950556
9897.000000;0.950239
9896.000000;0.949468
9895.000000;0.948509
9894.000000;0.948126
9893.000000;0.948794
9892.000000;0.950033
9891.000000;0.950692
9890.000000;0.950077
9889.000000;0.948658
9888.000000;0.947462
9887.000000;0.946870
9886.000000;0.946396
9885.000000;0.945614
9884.000000;0.944791
9883.000000;0.944355
9882.000000;0.944200
9881.000000;0.943969
9880.000000;0.943743
9879.000000;0.943923
9878.000000;0.944525
9877.000000;0.945021
9876.000000;0.944936
9875.000000;0.944303
9874.000000;0.943473
9873.000000;0.942748
9872.000000;0.942281
9871.000000;0.942095
9870.000000;0.942088
9869.000000;0.942121
9868.000000;0.942146
9867.000000;0.942159
9866.000000;0.942086
9865.000000;0.941847
9864.000000;0.941498
9863.000000;0.941154
9862.000000;0.940847
9861.000000;0.940544
9860.000000;0.940227
9859.000000;0.939835
9858.000000;0.939264
9857.000000;0.938607
9856.000000;0.938234
9855.000000;0.938327
9854.000000;0.938421
9853.000000;0.937780
9852.000000;0.936340
9851.000000;0.935025
9850.000000;0.934895
9849.000000;0.936037
9848.000000;0.937367
9847.000000;0.937538
9846.000000;0.936102
9845.000000;0.933865
9844.000000;0.932176
9843.000000;0.931816
9842.000000;0.932485
9841.000000;0.933212
9840.000000;0.933214
9839.000000;0.932445
9838.000000;0.931478
9837.000000;0.930912
9836.000000;0.930781
9835.000000;0.930516
9834.000000;0.929660
9833.000000;0.928548
9832.000000;0.928013
9831.000000;0.928335
9830.000000;0.928818
9829.000000;0.928630
9828.000000;0.927774
9827.000000;0.926942
9826.000000;0.926675
9825.000000;0.926997
9824.000000;0.927591
9823.000000;0.927886
9822.000000;0.927192
9821.000000;0.925353
9820.000000;0.923261
9819.000000;0.922170
9818.000000;0.922378
9817.000000;0.922999
9816.000000;0.923143
9815.000000;0.922870
9814.000000;0.922720
9813.000000;0.922809
9812.000000;0.922815
9811.000000;0.922578
9810.000000;0.922231
9809.000000;0.921832
9808.000000;0.921366
9807.000000;0.920994
9806.000000;0.920952
9805.000000;0.921190
9804.000000;0.921401
9803.000000;0.921393
9802.000000;0.921194
9801.000000;0.920809
9800.000000;0.920205
9799.000000;0.919525
9798.000000;0.918951
9797.000000;0.918275
9796.000000;0.917034
9795.000000;0.915352
9794.000000;0.914286
9793.000000;0.914845
9792.000000;0.916739
9791.000000;0.918491
9790.000000;0.918854
9789.000000;0.917836
9788.000000;0.916262
9787.000000;0.914753
9786.000000;0.913538
9785.000000;0.912889
9784.000000;0.913142
9783.000000;0.914207
9782.000000;0.915439
9781.000000;0.916183
9780.000000;0.916221
9779.000000;0.915629
9778.000000;0.914535
9777.000000;0.913252
9776.000000;0.912361
9775.000000;0.912251
9774.000000;0.912646
9773.000000;0.912874
9772.000000;0.912621
9771.000000;0.912158
9770.000000;0.911814
9769.000000;0.911488
9768.000000;0.910854
9767.000000;0.909911
9766.000000;0.909129
9765.000000;0.908989
9764.000000;0.909461
9763.000000;0.909967
9762.000000;0.909928
9761.000000;0.909315
9760.000000;0.908538
9759.000000;0.907826
9758.000000;0.906981
9757.000000;0.905898
9756.000000;0.905002
9755.000000;0.904770
9754.000000;0.904952
9753.000000;0.904740
9752.000000;0.903832
9751.000000;0.902932
9750.000000;0.902907
9749.000000;0.903710
9748.000000;0.904449
9747.000000;0.904414
9746.000000;0.903741
9745.000000;0.903040
9744.000000;0.902658
9743.000000;0.902441
9742.000000;0.902075
9741.000000;0.901497
9740.000000;0.900929
9739.000000;0.900584
9738.000000;0.900411
9737.000000;0.900227
9736.000000;0.900061
9735.000000;0.900228
9734.000000;0.900914
9733.000000;0.901772
9732.000000;0.902110
9731.000000;0.901526
9730.000000;0.900245
9729.000000;0.898804
9728.000000;0.897573
9727.000000;0.896662
9726.000000;0.896140
9725.000000;0.896099
9724.000000;0.896426
9723.000000;0.896712
9722.000000;0.896564
9721.000000;0.896014
9720.000000;0.895473
9719.000000;0.895252
9718.000000;0.895254
9717.000000;0.895148
9716.000000;0.894747
9715.000000;0.894122
9714.000000;0.893396
9713.000000;0.892633
9712.000000;0.891982
9711.000000;0.891750
9710.000000;0.892176
9709.000000;0.893107
9708.000000;0.893939
9707.000000;0.893998
9706.000000;0.893061
9705.000000;0.891592
9704.000000;0.890395
9703.000000;0.889946
9702.000000;0.890037
9701.000000;0.890097
9700.000000;0.889878
9699.000000;0.889766
9698.000000;0.890329
9697.000000;0.891588
9696.000000;0.892772
9695.000000;0.892895
9694.000000;0.891666
9693.000000;0.889827
9692.000000;0.888471
9691.000000;0.888077
9690.000000;0.888233
9689.000000;0.888246
9688.000000;0.887846
9687.000000;0.887211
9686.000000;0.886504
9685.000000;0.885686
9684.000000;0.884789
9683.000000;0.884105
9682.000000;0.883924
9681.000000;0.884176
9680.000000;0.884429
9679.000000;0.884256
9678.000000;0.883587
9677.000000;0.882778
9676.000000;0.882330
9675.000000;0.882443
9674.000000;0.882739
9673.000000;0.882506
9672.000000;0.881351
9671.000000;0.879660
9670.000000;0.878331
9669.000000;0.877987
9668.000000;0.878483
9667.000000;0.879163
9666.000000;0.879534
9665.000000;0.879623
9664.000000;0.879684
9663.000000;0.879742
9662.000000;0.879566
9661.000000;0.879035
9660.000000;0.878372
9659.000000;0.877953
9658.000000;0.877953
9657.000000;0.878212
9656.000000;0.878330
9655.000000;0.877856
9654.000000;0.876572
9653.000000;0.874799
9652.000000;0.873341
9651.000000;0.872901
9650.000000;0.873513
9649.000000;0.874621
9648.000000;0.875675
9647.000000;0.876456
9646.000000;0.876858
9645.000000;0.876675
9644.000000;0.875845
9643.000000;0.874752
9642.000000;0.873972
9641.000000;0.873710
9640.000000;0.873622
9639.000000;0.873216
9638.000000;0.872321
9637.000000;0.871182
9636.000000;0.870223
9635.000000;0.869781
9634.000000;0.869975
9633.000000;0.870669
9632.000000;0.871518
9631.000000;0.872116
9630.000000;0.872200
9629.000000;0.871778
9628.000000;0.871134
9627.000000;0.870659
9626.000000;0.870585
9625.000000;0.870782
9624.000000;0.870771
9623.000000;0.870052
9622.000000;0.868584
9621.000000;0.866988
9620.000000;0.866126
9619.000000;0.866363
9618.000000;0.867270
9617.000000;0.868053
9616.000000;0.868220
9615.000000;0.867757
9614.000000;0.866851
9613.000000;0.865674
9612.000000;0.864470
9611.000000;0.863613
9610.000000;0.863386
9609.000000;0.863751
9608.000000;0.864355
9607.000000;0.864772
9606.000000;0.864775
9605.000000;0.864483
9604.000000;0.864214
9603.000000;0.864085
9602.000000;0.863781
9601.000000;0.862925
9600.000000;0.861721
9599.000000;0.860987
9598.000000;0.861322
9597.000000;0.862367
9596.000000;0.863100
9595.000000;0.862807
9594.000000;0.861592
9593.000000;0.860040
9592.000000;0.858674
9591.000000;0.857747
9590.000000;0.857265
9589.000000;0.857075
9588.000000;0.857031
9587.000000;0.857153
9586.000000;0.857494
9585.000000;0.857854
9584.000000;0.857864
9583.000000;0.857468
9582.000000;0.857095
9581.000000;0.857163
9580.000000;0.857553
9579.000000;0.857805
9578.000000;0.857688
9577.000000;0.857297
9576.000000;0.856685
9575.000000;0.855750
9574.000000;0.854590
9573.000000;0.853712
9572.000000;0.853642
9571.000000;0.854406
9570.000000;0.855502
9569.000000;0.856319
9568.000000;0.856501
9567.000000;0.856003
9566.000000;0.854992
9565.000000;0.853776
9564.000000;0.852762
9563.000000;0.852326
9562.000000;0.852584
9561.000000;0.853236
9560.000000;0.853719
9559.000000;0.853642
9558.000000;0.853067
9557.000000;0.852308
9556.000000;0.851552
9555.000000;0.850798
9554.000000;0.850091
9553.000000;0.849568
9552.000000;0.849225
9551.000000;0.848886
9550.000000;0.848493
9549.000000;0.848207
9548.000000;0.848111
9547.000000;0.848014
9546.000000;0.847764
9545.000000;0.847572
9544.000000;0.847705
9543.000000;0.847957
9542.000000;0.847738
9541.000000;0.846769
9540.000000;0.845486
9539.000000;0.844657
9538.000000;0.844749
9537.000000;0.845633
9536.000000;0.846714
9535.000000;0.847248
9534.000000;0.846801
9533.000000;0.845577
9532.000000;0.844269
9531.000000;0.843470
9530.000000;0.843233
9529.000000;0.843240
9528.000000;0.843270
9527.000000;0.843410
9526.000000;0.843853
9525.000000;0.844575
9524.000000;0.845183
9523.000000;0.845061
9522.000000;0.843753
9521.000000;0.841379
9520.000000;0.838738
9519.000000;0.836917
9518.000000;0.836580
9517.000000;0.837448
9516.000000;0.838529
9515.000000;0.838939
9514.000000;0.838552
9513.000000;0.837821
9512.000000;0.837115
9511.000000;0.836488
9510.000000;0.836073
9509.000000;0.836251
9508.000000;0.837111
9507.000000;0.837990
9506.000000;0.838004
9505.000000;0.837078
9504.000000;0.836069
9503.000000;0.835792
9502.000000;0.836218
9501.000000;0.836735
9500.000000;0.836924
9499.000000;0.836866
9498.000000;0.836853
9497.000000;0.837011
9496.000000;0.837167
9495.000000;0.837006
9494.000000;0.836400
9493.000000;0.835607
9492.000000;0.835049
9491.000000;0.834863
9490.000000;0.834829
9489.000000;0.834725
9488.000000;0.834551
9487.000000;0.834370
9486.000000;0.834155
9485.000000;0.833880
9484.000000;0.833610
9483.000000;0.833347
9482.000000;0.832969
9481.000000;0.832424
9480.000000;0.831838
9479.000000;0.831309
9478.000000;0.830786
9477.000000;0.830327
9476.000000;0.830242
9475.000000;0.830714
9474.000000;0.831396
9473.000000;0.831689
9472.000000;0.831393
9471.000000;0.830835
9470.000000;0.830388
9469.000000;0.830119
9468.000000;0.829969
9467.000000;0.830044
9466.000000;0.830546
9465.000000;0.831412
9464.000000;0.832135
9463.000000;0.832018
9462.000000;0.830771
9461.000000;0.828880
9460.000000;0.827277
9459.000000;0.826566
9458.000000;0.826642
9457.000000;0.827052
9456.000000;0.827465
9455.000000;0.827694
9454.000000;0.827530
9453.000000;0.826886
9452.000000;0.826014
9451.000000;0.825306
9450.000000;0.824905
9449.000000;0.824725
9448.000000;0.824777
9447.000000;0.825198
9446.000000;0.825961
9445.000000;0.826771
9444.000000;0.827314
9443.000000;0.827427
9442.000000;0.827046
9441.000000;0.826199
9440.000000;0.825106
9439.000000;0.824093
9438.000000;0.823350
9437.000000;0.822872
9436.000000;0.822586
9435.000000;0.822352
9434.000000;0.821912
9433.000000;0.821100
9432.000000;0.820164
9431.000000;0.819593
9430.000000;0.819556
9429.000000;0.819730
9428.000000;0.819772
9427.000000;0.819736
9426.000000;0.819911
9425.000000;0.820435
9424.000000;0.821189
9423.000000;0.821853
9422.000000;0.821965
9421.000000;0.821186
9420.000000;0.819738
9419.000000;0.818408
9418.000000;0.817888
9417.000000;0.818184
9416.000000;0.818797
9415.000000;0.819291
9414.000000;0.819472
9413.000000;0.819201
9412.000000;0.818441
9411.000000;0.817496
9410.000000;0.816867
9409.000000;0.816747
9408.000000;0.816867
9407.000000;0.816902
9406.000000;0.816796
9405.000000;0.816600
9404.000000;0.816247
9403.000000;0.815720
9402.000000;0.815246
9401.000000;0.815016
9400.000000;0.814828
9399.000000;0.814318
9398.000000;0.813618
9397.000000;0.813390
9396.000000;0.814002
9395.000000;0.814914
9394.000000;0.815203
9393.000000;0.814638
9392.000000;0.813893
9391.000000;0.813642
9390.000000;0.813768
9389.000000;0.813672
9388.000000;0.813081
9387.000000;0.812293
9386.000000;0.811743
9385.000000;0.811620
9384.000000;0.811887
9383.000000;0.812393
9382.000000;0.812894
9381.000000;0.813168
9380.000000;0.813217
9379.000000;0.813214
9378.000000;0.813189
9377.000000;0.812960
9376.000000;0.812468
9375.000000;0.811989
9374.000000;0.811834
9373.000000;0.811926
9372.000000;0.811878
9371.000000;0.811455
9370.000000;0.810805
9369.000000;0.810290
9368.000000;0.810200
9367.000000;0.810580
9366.000000;0.811148
9365.000000;0.811377
9364.000000;0.810834
9363.000000;0.809568
9362.000000;0.808125
9361.000000;0.807089
9360.000000;0.806648
9359.000000;0.806610
9358.000000;0.806690
9357.000000;0.806683
9356.000000;0.806491
9355.000000;0.806234
9354.000000;0.806308
9353.000000;0.807046
9352.000000;0.808178
9351.000000;0.808824
9350.000000;0.808267
9349.000000;0.806672
9348.000000;0.804912
9347.000000;0.803749
9346.000000;0.803353
9345.000000;0.803450
9344.000000;0.803643
9343.000000;0.803612
9342.000000;0.803308
9341.000000;0.803040
9340.000000;0.803143
9339.000000;0.803462
9338.000000;0.803436
9337.000000;0.802841
9336.000000;0.802194
9335.000000;0.802156
9334.000000;0.802740
9333.000000;0.803387
9332.000000;0.803687
9331.000000;0.803692
9330.000000;0.803576
9329.000000;0.803325
9328.000000;0.802862
9327.000000;0.802246
9326.000000;0.801640
9325.000000;0.801204
9324.000000;0.801016
9323.000000;0.800960
9322.000000;0.800708
9321.000000;0.800016
9320.000000;0.799095
9319.000000;0.798478
9318.000000;0.798529
9317.000000;0.799232
9316.000000;0.800393
9315.000000;0.801737
9314.000000;0.802764
9313.000000;0.802859
9312.000000;0.801792
9311.000000;0.800016
9310.000000;0.798306
9309.000000;0.797204
9308.000000;0.796825
9307.000000;0.796961
9306.000000;0.797230
9305.000000;0.797317
9304.000000;0.797247
9303.000000;0.797307
9302.000000;0.797589
9301.000000;0.797781
9300.000000;0.797533
9299.000000;0.796885
9298.000000;0.796187
9297.000000;0.795739
9296.000000;0.795667
9295.000000;0.795946
9294.000000;0.796304
9293.000000;0.796244
9292.000000;0.795505
9291.000000;0.794490
9290.000000;0.793948
9289.000000;0.794151
9288.000000;0.794609
9287.000000;0.794652
9286.000000;0.794142
9285.000000;0.793512
9284.000000;0.793273
9283.000000;0.793594
9282.000000;0.794282
9281.000000;0.794973
9280.000000;0.795331
9279.000000;0.795182
9278.000000;0.794597
9277.000000;0.793892
9276.000000;0.793491
9275.000000;0.793647
9274.000000;0.794179
9273.000000;0.794533
9272.000000;0.794242
9271.000000;0.793381
9270.000000;0.792506
9269.000000;0.792128
9268.000000;0.792224
9267.000000;0.792255
9266.000000;0.791658
9265.000000;0.790394
9264.000000;0.789026
9263.000000;0.788230
9262.000000;0.788217
9261.000000;0.788648
9260.000000;0.789069
9259.000000;0.789316
9258.000000;0.789465
9257.000000;0.789574
9256.000000;0.789620
9255.000000;0.789616
9254.000000;0.789604
9253.000000;0.789514
9252.000000;0.789169
9251.000000;0.788503
9250.000000;0.787727
9249.000000;0.787226
9248.000000;0.787256
9247.000000;0.787729
9246.000000;0.788264
9245.000000;0.788491
9244.000000;0.788349
9243.000000;0.788098
9242.000000;0.788042
9241.000000;0.788290
9240.000000;0.788712
9239.000000;0.789007
9238.000000;0.788878
9237.000000;0.788317
9236.000000;0.787774
9235.000000;0.787845
9234.000000;0.788645
9233.000000;0.789534
9232.000000;0.789608
9231.000000;0.788537
9230.000000;0.786900
9229.000000;0.785699
9228.000000;0.785518
9227.000000;0.786075
9226.000000;0.786602
9225.000000;0.786702
9224.000000;0.786721
9223.000000;0.787103
9222.000000;0.787562
9221.000000;0.787315
9220.000000;0.786150
9219.000000;0.784795
9218.000000;0.784013
9217.000000;0.783745
9216.000000;0.783447
9215.000000;0.782947
9214.000000;0.782560
9213.000000;0.782549
9212.000000;0.782896
9211.000000;0.783457
9210.000000;0.783919
9209.000000;0.783774
9208.000000;0.782858
9207.000000;0.781869
9206.000000;0.781771
9205.000000;0.782574
9204.000000;0.783240
9203.000000;0.782966
9202.000000;0.782053
9201.000000;0.781231
9200.000000;0.780692
9199.000000;0.780273
9198.000000;0.780149
9197.000000;0.780664
9196.000000;0.781593
9195.000000;0.782203
9194.000000;0.782179
9193.000000;0.781956
9192.000000;0.781927
9191.000000;0.781773
9190.000000;0.780970
9189.000000;0.779721
9188.000000;0.778973
9187.000000;0.779451
9186.000000;0.780921
9185.000000;0.782435
9184.000000;0.783152
9183.000000;0.782869
9182.000000;0.781909
9181.000000;0.780708
9180.000000;0.779554
9179.000000;0.778596
9178.000000;0.777907
9177.000000;0.777469
9176.000000;0.777169
9175.000000;0.776938
9174.000000;0.776899
9173.000000;0.777289
9172.000000;0.778167
9171.000000;0.779217
9170.000000;0.779886
9169.000000;0.779769
9168.000000;0.778891
9167.000000;0.777706
9166.000000;0.776811
9165.000000;0.776583
9164.000000;0.776915
9163.000000;0.777279
9162.000000;0.777130
9161.000000;0.776395
9160.000000;0.775513
9159.000000;0.774947
9158.000000;0.774716
9157.000000;0.774519
9156.000000;0.774228
9155.000000;0.774031
9154.000000;0.774076
9153.000000;0.774259
9152.000000;0.774479
9151.000000;0.774868
9150.000000;0.775543
9149.000000;0.776285
9148.000000;0.776707
9147.000000;0.776661
9146.000000;0.776290
9145.000000;0.775774
9144.000000;0.775253
9143.000000;0.774871
9142.000000;0.774633
9141.000000;0.774279
9140.000000;0.773611
9139.000000;0.772866
9138.000000;0.772435
9137.000000;0.772227
9136.000000;0.771763
9135.000000;0.771018
9134.000000;0.770697
9133.000000;0.771389
9132.000000;0.772782
9131.000000;0.774024
9130.000000;0.774623
9129.000000;0.774652
9128.000000;0.774293
9127.000000;0.773662
9126.000000;0.773010
9125.000000;0.772648
9124.000000;0.772546
9123.000000;0.772318
9122.000000;0.771733
9121.000000;0.771033
9120.000000;0.770638
9119.000000;0.770679
9118.000000;0.770934
9117.000000;0.771114
9116.000000;0.771156
9115.000000;0.771238
9114.000000;0.771520
9113.000000;0.771828
9112.000000;0.771726
9111.000000;0.771018
9110.000000;0.770075
9109.000000;0.769448
9108.000000;0.769229
9107.000000;0.769065
9106.000000;0.768763
9105.000000;0.768555
9104.000000;0.768672
9103.000000;0.768969
9102.000000;0.769158
9101.000000;0.769190
9100.000000;0.769189
9099.000000;0.769170
9098.000000;0.769050
9097.000000;0.768852
9096.000000;0.768689
9095.000000;0.768598
9094.000000;0.768571
9093.000000;0.768667
9092.000000;0.768916
9091.000000;0.769136
9090.000000;0.769068
9089.000000;0.768688
9088.000000;0.768212
9087.000000;0.767773
9086.000000;0.767345
9085.000000;0.767003
9084.000000;0.767017
9083.000000;0.767484
9082.000000;0.768045
9081.000000;0.768195
9080.000000;0.767857
9079.000000;0.767456
9078.000000;0.767409
9077.000000;0.767726
9076.000000;0.768109
9075.000000;0.768294
9074.000000;0.768178
9073.000000;0.767742
9072.000000;0.767031
9071.000000;0.766231
9070.000000;0.765673
9069.000000;0.765620
9068.000000;0.766024
9067.000000;0.766500
9066.000000;0.766625
9065.000000;0.766298
9064.000000;0.765779
9063.000000;0.765366
9062.000000;0.765080
9061.000000;0.764772
9060.000000;0.764441
9059.000000;0.764296
9058.000000;0.764470
9057.000000;0.764813
9056.000000;0.765053
9055.000000;0.765022
9054.000000;0.764669
9053.000000;0.764001
