Criado como novo conjunto de dados;"e0108.spp","-4218281.3 Secs"
cm-1;Abs
10000.000000;1.964497
9999.000000;1.974603
9998.000000;1.984766
9997.000000;1.995678
9996.000000;2.002501
9995.000000;1.994940
9994.000000;1.975367
9993.000000;1.956603
9992.000000;1.945824
9991.000000;1.941983
9990.000000;1.942403
9989.000000;1.946851
9988.000000;1.954844
9987.000000;1.963202
9986.000000;1.968935
9985.000000;1.972445
9984.000000;1.975256
9983.000000;1.976964
9982.000000;1.976416
9981.000000;1.973627
9980.000000;1.969310
9979.000000;1.964247
9978.000000;1.960233
9977.000000;1.959253
9976.000000;1.960782
9975.000000;1.963231
9974.000000;1.967941
9973.000000;1.976799
9972.000000;1.985853
9971.000000;1.987140
9970.000000;1.979597
9969.000000;1.971967
9968.000000;1.970906
9967.000000;1.973142
9966.000000;1.972629
9965.000000;1.969511
9964.000000;1.967313
9963.000000;1.965941
9962.000000;1.963164
9961.000000;1.960409
9960.000000;1.961062
9959.000000;1.964497
9958.000000;1.967039
9957.000000;1.968296
9956.000000;1.971831
9955.000000;1.979305
9954.000000;1.988306
9953.000000;1.996245
9952.000000;2.002163
9951.000000;2.003873
9950.000000;1.997968
9949.000000;1.984898
9948.000000;1.970483
9947.000000;1.960549
9946.000000;1.957038
9945.000000;1.959287
9944.000000;1.965474
9943.000000;1.972155
9942.000000;1.974679
9941.000000;1.970814
9940.000000;1.965129
9939.000000;1.965536
9938.000000;1.974818
9937.000000;1.987466
9936.000000;1.992684
9935.000000;1.983044
9934.000000;1.963016
9933.000000;1.945663
9932.000000;1.941247
9931.000000;1.950056
9930.000000;1.963466
9929.000000;1.971407
9928.000000;1.970389
9927.000000;1.964629
9926.000000;1.960528
9925.000000;1.961214
9924.000000;1.965354
9923.000000;1.969882
9922.000000;1.973727
9921.000000;1.977933
9920.000000;1.981730
9919.000000;1.981692
9918.000000;1.976320
9917.000000;1.968764
9916.000000;1.963174
9915.000000;1.959956
9914.000000;1.956779
9913.000000;1.953371
9912.000000;1.952522
9911.000000;1.955948
9910.000000;1.961355
9909.000000;1.964769
9908.000000;1.964681
9907.000000;1.963343
9906.000000;1.964101
9905.000000;1.966871
9904.000000;1.966694
9903.000000;1.958290
9902.000000;1.942826
9901.000000;1.927978
9900.000000;1.920171
9899.000000;1.919638
9898.000000;1.923822
9897.000000;1.932731
9896.000000;1.947733
9895.000000;1.965698
9894.000000;1.978688
9893.000000;1.981678
9892.000000;1.977166
9891.000000;1.970138
9890.000000;1.962516
9889.000000;1.954206
9888.000000;1.945839
9887.000000;1.938294
9886.000000;1.932417
9885.000000;1.930610
9884.000000;1.935773
9883.000000;1.946645
9882.000000;1.955571
9881.000000;1.954373
9880.000000;1.943748
9879.000000;1.933030
9878.000000;1.930307
9877.000000;1.935445
9876.000000;1.940654
9875.000000;1.937389
9874.000000;1.925316
9873.000000;1.913164
9872.000000;1.909964
9871.000000;1.917408
9870.000000;1.929757
9869.000000;1.939438
9868.000000;1.942482
9867.000000;1.939477
9866.000000;1.933474
9865.000000;1.927916
9864.000000;1.924659
9863.000000;1.922952
9862.000000;1.921565
9861.000000;1.922081
9860.000000;1.927659
9859.000000;1.937586
9858.000000;1.945952
9857.000000;1.948363
9856.000000;1.947741
9855.000000;1.949560
9854.000000;1.953124
9853.000000;1.951887
9852.000000;1.943375
9851.000000;1.934564
9850.000000;1.934468
9849.000000;1.944751
9848.000000;1.958892
9847.000000;1.968064
9846.000000;1.967010
9845.000000;1.956767
9844.000000;1.943267
9843.000000;1.932554
9842.000000;1.926963
9841.000000;1.925022
9840.000000;1.924451
9839.000000;1.925059
9838.000000;1.927997
9837.000000;1.932670
9836.000000;1.936099
9835.000000;1.935919
9834.000000;1.933293
9833.000000;1.931984
9832.000000;1.934525
9831.000000;1.939261
9830.000000;1.940985
9829.000000;1.935447
9828.000000;1.923960
9827.000000;1.912672
9826.000000;1.907201
9825.000000;1.908391
9824.000000;1.912396
9823.000000;1.914412
9822.000000;1.912967
9821.000000;1.910794
9820.000000;1.911412
9819.000000;1.915807
9818.000000;1.922780
9817.000000;1.930806
9816.000000;1.938117
9815.000000;1.942217
9814.000000;1.941606
9813.000000;1.938403
9812.000000;1.937545
9811.000000;1.941901
9810.000000;1.948673
9809.000000;1.951639
9808.000000;1.946890
9807.000000;1.936427
9806.000000;1.926276
9805.000000;1.921066
9804.000000;1.921131
9803.000000;1.923614
9802.000000;1.924922
9801.000000;1.923509
9800.000000;1.921345
9799.000000;1.921686
9798.000000;1.924711
9797.000000;1.926059
9796.000000;1.921038
9795.000000;1.910812
9794.000000;1.901858
9793.000000;1.898397
9792.000000;1.898325
9791.000000;1.897475
9790.000000;1.896078
9789.000000;1.898699
9788.000000;1.907434
9787.000000;1.917465
9786.000000;1.921564
9785.000000;1.918374
9784.000000;1.913668
9783.000000;1.913810
9782.000000;1.919420
9781.000000;1.925340
9780.000000;1.926113
9779.000000;1.921006
9778.000000;1.913998
9777.000000;1.909649
9776.000000;1.909254
9775.000000;1.910558
9774.000000;1.910432
9773.000000;1.907621
9772.000000;1.903578
9771.000000;1.901708
9770.000000;1.905017
9769.000000;1.912425
9768.000000;1.917948
9767.000000;1.916282
9766.000000;1.909443
9765.000000;1.904407
9764.000000;1.904060
9763.000000;1.904335
9762.000000;1.901419
9761.000000;1.898250
9760.000000;1.900056
9759.000000;1.906247
9758.000000;1.911121
9757.000000;1.911755
9756.000000;1.910751
9755.000000;1.910821
9754.000000;1.911014
9753.000000;1.909864
9752.000000;1.908976
9751.000000;1.910285
9750.000000;1.911705
9749.000000;1.909043
9748.000000;1.902082
9747.000000;1.895906
9746.000000;1.895514
9745.000000;1.900861
9744.000000;1.907269
9743.000000;1.909943
9742.000000;1.908676
9741.000000;1.907750
9740.000000;1.910134
9739.000000;1.912922
9738.000000;1.910354
9737.000000;1.901129
9736.000000;1.890008
9735.000000;1.882176
9734.000000;1.879089
9733.000000;1.880285
9732.000000;1.886082
9731.000000;1.895891
9730.000000;1.905386
9729.000000;1.908900
9728.000000;1.905578
9727.000000;1.900520
9726.000000;1.899081
9725.000000;1.902188
9724.000000;1.906725
9723.000000;1.908348
9722.000000;1.904373
9721.000000;1.896060
9720.000000;1.888339
9719.000000;1.885836
9718.000000;1.888622
9717.000000;1.892177
9716.000000;1.892230
9715.000000;1.889394
9714.000000;1.887700
9713.000000;1.889672
9712.000000;1.894310
9711.000000;1.899020
9710.000000;1.902393
9709.000000;1.904504
9708.000000;1.904879
9707.000000;1.902169
9706.000000;1.896358
9705.000000;1.889265
9704.000000;1.883798
9703.000000;1.882845
9702.000000;1.885376
9701.000000;1.887137
9700.000000;1.886253
9699.000000;1.883827
9698.000000;1.882521
9697.000000;1.885359
9696.000000;1.892590
9695.000000;1.899853
9694.000000;1.900734
9693.000000;1.893096
9692.000000;1.882063
9691.000000;1.874890
9690.000000;1.874482
9689.000000;1.878738
9688.000000;1.884499
9687.000000;1.890075
9686.000000;1.893469
9685.000000;1.891298
9684.000000;1.882755
9683.000000;1.872958
9682.000000;1.868947
9681.000000;1.872721
9680.000000;1.879612
9679.000000;1.883594
9678.000000;1.883647
9677.000000;1.883853
9676.000000;1.888094
9675.000000;1.896087
9674.000000;1.903614
9673.000000;1.905623
9672.000000;1.900478
9671.000000;1.891925
9670.000000;1.885762
9669.000000;1.884338
9668.000000;1.884121
9667.000000;1.879323
9666.000000;1.869051
9665.000000;1.859112
9664.000000;1.856014
9663.000000;1.861175
9662.000000;1.870823
9661.000000;1.879677
9660.000000;1.884374
9659.000000;1.884656
9658.000000;1.882429
9657.000000;1.879983
9656.000000;1.878733
9655.000000;1.879237
9654.000000;1.881245
9653.000000;1.882563
9652.000000;1.879548
9651.000000;1.870952
9650.000000;1.860806
9649.000000;1.855279
9648.000000;1.856279
9647.000000;1.859907
9646.000000;1.862118
9645.000000;1.864030
9644.000000;1.868736
9643.000000;1.874504
9642.000000;1.875554
9641.000000;1.870168
9640.000000;1.863518
9639.000000;1.860904
9638.000000;1.861793
9637.000000;1.861620
9636.000000;1.857822
9635.000000;1.852710
9634.000000;1.850553
9633.000000;1.853019
9632.000000;1.857459
9631.000000;1.859411
9630.000000;1.857546
9629.000000;1.855514
9628.000000;1.857173
9627.000000;1.860759
9626.000000;1.860274
9625.000000;1.853697
9624.000000;1.846896
9623.000000;1.846950
9622.000000;1.854269
9621.000000;1.862876
9620.000000;1.867194
9619.000000;1.866665
9618.000000;1.863934
9617.000000;1.861472
9616.000000;1.860705
9615.000000;1.862517
9614.000000;1.867112
9613.000000;1.872972
9612.000000;1.876849
9611.000000;1.875761
9610.000000;1.869356
9609.000000;1.860673
9608.000000;1.854286
9607.000000;1.852740
9606.000000;1.854521
9605.000000;1.855915
9604.000000;1.855310
9603.000000;1.854941
9602.000000;1.857516
9601.000000;1.862045
9600.000000;1.864198
9599.000000;1.861052
9598.000000;1.854810
9597.000000;1.850770
9596.000000;1.852016
9595.000000;1.856741
9594.000000;1.860534
9593.000000;1.860934
9592.000000;1.858904
9591.000000;1.856281
9590.000000;1.853412
9589.000000;1.849147
9588.000000;1.842823
9587.000000;1.835858
9586.000000;1.830589
9585.000000;1.828532
9584.000000;1.830539
9583.000000;1.837183
9582.000000;1.847356
9581.000000;1.856649
9580.000000;1.859393
9579.000000;1.854224
9578.000000;1.846096
9577.000000;1.841155
9576.000000;1.841085
9575.000000;1.843168
9574.000000;1.844642
9573.000000;1.845194
9572.000000;1.845018
9571.000000;1.843236
9570.000000;1.839829
9569.000000;1.837331
9568.000000;1.838636
9567.000000;1.843362
9566.000000;1.847807
9565.000000;1.848598
9564.000000;1.845319
9563.000000;1.839962
9562.000000;1.835058
9561.000000;1.832487
9560.000000;1.833004
9559.000000;1.835820
9558.000000;1.838976
9557.000000;1.840728
9556.000000;1.840509
9555.000000;1.838754
9554.000000;1.836633
9553.000000;1.835913
9552.000000;1.837361
9551.000000;1.839228
9550.000000;1.839144
9549.000000;1.836625
9548.000000;1.832644
9547.000000;1.828954
9546.000000;1.828116
9545.000000;1.831794
9544.000000;1.838007
9543.000000;1.841697
9542.000000;1.840488
9541.000000;1.838535
9540.000000;1.841322
9539.000000;1.847973
9538.000000;1.851961
9537.000000;1.849744
9536.000000;1.845081
9535.000000;1.843043
9534.000000;1.843789
9533.000000;1.844219
9532.000000;1.842910
9531.000000;1.840751
9530.000000;1.838259
9529.000000;1.835029
9528.000000;1.831289
9527.000000;1.828444
9526.000000;1.827674
9525.000000;1.828634
9524.000000;1.829846
9523.000000;1.830020
9522.000000;1.829862
9521.000000;1.832437
9520.000000;1.839693
9519.000000;1.848562
9518.000000;1.852604
9517.000000;1.848986
9516.000000;1.841775
9515.000000;1.836522
9514.000000;1.834410
9513.000000;1.833175
9512.000000;1.831535
9511.000000;1.830362
9510.000000;1.830116
9509.000000;1.829894
9508.000000;1.829466
9507.000000;1.829596
9506.000000;1.830393
9505.000000;1.831590
9504.000000;1.833554
9503.000000;1.836051
9502.000000;1.836389
9501.000000;1.831049
9500.000000;1.820263
9499.000000;1.808878
9498.000000;1.801899
9497.000000;1.800847
9496.000000;1.804305
9495.000000;1.810213
9494.000000;1.816954
9493.000000;1.823217
9492.000000;1.827599
9491.000000;1.828554
9490.000000;1.825507
9489.000000;1.820464
9488.000000;1.817474
9487.000000;1.819260
9486.000000;1.824712
9485.000000;1.830393
9484.000000;1.833805
9483.000000;1.834127
9482.000000;1.830629
9481.000000;1.822893
9480.000000;1.812869
9479.000000;1.804382
9478.000000;1.799672
9477.000000;1.797639
9476.000000;1.796262
9475.000000;1.795726
9474.000000;1.797863
9473.000000;1.803139
9472.000000;1.809309
9471.000000;1.812637
9470.000000;1.810379
9469.000000;1.802933
9468.000000;1.794044
9467.000000;1.788767
9466.000000;1.790736
9465.000000;1.800356
9464.000000;1.814509
9463.000000;1.827755
9462.000000;1.834440
9461.000000;1.831954
9460.000000;1.823200
9459.000000;1.813417
9458.000000;1.805516
9457.000000;1.800420
9456.000000;1.799089
9455.000000;1.801954
9454.000000;1.807012
9453.000000;1.810399
9452.000000;1.810142
9451.000000;1.808445
9450.000000;1.808813
9449.000000;1.811795
9448.000000;1.814698
9447.000000;1.814763
9446.000000;1.811674
9445.000000;1.807136
9444.000000;1.802937
9443.000000;1.799798
9442.000000;1.797614
9441.000000;1.796363
9440.000000;1.796618
9439.000000;1.798916
9438.000000;1.802581
9437.000000;1.805579
9436.000000;1.806083
9435.000000;1.804222
9434.000000;1.802078
9433.000000;1.801798
9432.000000;1.803620
9431.000000;1.805823
9430.000000;1.806491
9429.000000;1.805451
9428.000000;1.804051
9427.000000;1.802924
9426.000000;1.801498
9425.000000;1.799932
9424.000000;1.800137
9423.000000;1.804077
9422.000000;1.811392
9421.000000;1.819238
9420.000000;1.824374
9419.000000;1.824879
9418.000000;1.820442
9417.000000;1.812425
9416.000000;1.803660
9415.000000;1.797088
9414.000000;1.794138
9413.000000;1.794430
9412.000000;1.796658
9411.000000;1.799576
9410.000000;1.802450
9409.000000;1.804916
9408.000000;1.806557
9407.000000;1.806714
9406.000000;1.805119
9405.000000;1.802782
9404.000000;1.801329
9403.000000;1.800702
9402.000000;1.798554
9401.000000;1.793451
9400.000000;1.787805
9399.000000;1.786040
9398.000000;1.790347
9397.000000;1.798689
9396.000000;1.806563
9395.000000;1.810131
9394.000000;1.807637
9393.000000;1.799955
9392.000000;1.790661
9391.000000;1.783812
9390.000000;1.781611
9389.000000;1.784448
9388.000000;1.791641
9387.000000;1.801252
9386.000000;1.810137
9385.000000;1.815878
9384.000000;1.818622
9383.000000;1.819338
9382.000000;1.816931
9381.000000;1.809835
9380.000000;1.800248
9379.000000;1.793539
9378.000000;1.792911
9377.000000;1.796860
9376.000000;1.802066
9375.000000;1.806642
9374.000000;1.809307
9373.000000;1.807802
9372.000000;1.801286
9371.000000;1.792968
9370.000000;1.787940
9369.000000;1.788817
9368.000000;1.793713
9367.000000;1.798335
9366.000000;1.799759
9365.000000;1.797789
9364.000000;1.794135
9363.000000;1.791162
9362.000000;1.790264
9361.000000;1.791258
9360.000000;1.793500
9359.000000;1.796647
9358.000000;1.799742
9357.000000;1.800818
9356.000000;1.799017
9355.000000;1.796182
9354.000000;1.794820
9353.000000;1.795188
9352.000000;1.795270
9351.000000;1.793429
9350.000000;1.790312
9349.000000;1.788020
9348.000000;1.788393
9347.000000;1.791940
9346.000000;1.797276
9345.000000;1.801615
9344.000000;1.802980
9343.000000;1.802088
9342.000000;1.801110
9341.000000;1.800744
9340.000000;1.799451
9339.000000;1.795752
9338.000000;1.790287
9337.000000;1.784830
9336.000000;1.780344
9335.000000;1.777127
9334.000000;1.776041
9333.000000;1.778360
9332.000000;1.784291
9331.000000;1.791906
9330.000000;1.797717
9329.000000;1.798664
9328.000000;1.793885
9327.000000;1.785191
9326.000000;1.776477
9325.000000;1.771856
9324.000000;1.772958
9323.000000;1.777684
9322.000000;1.782259
9321.000000;1.785033
9320.000000;1.787223
9319.000000;1.789407
9318.000000;1.789122
9317.000000;1.783778
9316.000000;1.775002
9315.000000;1.767493
9314.000000;1.764213
9313.000000;1.765045
9312.000000;1.769100
9311.000000;1.775638
9310.000000;1.782569
9309.000000;1.786477
9308.000000;1.785940
9307.000000;1.783629
9306.000000;1.783358
9305.000000;1.785796
9304.000000;1.788082
9303.000000;1.787067
9302.000000;1.782170
9301.000000;1.775463
9300.000000;1.770025
9299.000000;1.767979
9298.000000;1.768922
9297.000000;1.770313
9296.000000;1.770318
9295.000000;1.769746
9294.000000;1.769952
9293.000000;1.770147
9292.000000;1.768310
9291.000000;1.763943
9290.000000;1.759132
9289.000000;1.756819
9288.000000;1.758401
9287.000000;1.763277
9286.000000;1.769884
9285.000000;1.776722
9284.000000;1.782736
9283.000000;1.786893
9282.000000;1.787857
9281.000000;1.785182
9280.000000;1.781044
9279.000000;1.779152
9278.000000;1.780694
9277.000000;1.782285
9276.000000;1.779497
9275.000000;1.772243
9274.000000;1.764951
9273.000000;1.761768
9272.000000;1.763120
9271.000000;1.766076
9270.000000;1.766568
9269.000000;1.762089
9268.000000;1.754039
9267.000000;1.747349
9266.000000;1.746649
9265.000000;1.752691
9264.000000;1.762471
9263.000000;1.772155
9262.000000;1.779032
9261.000000;1.781293
9260.000000;1.778573
9259.000000;1.773795
9258.000000;1.772035
9257.000000;1.775814
9256.000000;1.782245
9255.000000;1.785525
9254.000000;1.782356
9253.000000;1.774312
9252.000000;1.765805
9251.000000;1.761190
9250.000000;1.761875
9249.000000;1.764729
9248.000000;1.764624
9247.000000;1.760162
9246.000000;1.755763
9245.000000;1.756544
9244.000000;1.762736
9243.000000;1.770011
9242.000000;1.774303
9241.000000;1.774850
9240.000000;1.772661
9239.000000;1.768764
9238.000000;1.764787
9237.000000;1.763086
9236.000000;1.764796
9235.000000;1.768540
9234.000000;1.771692
9233.000000;1.772322
9232.000000;1.769961
9231.000000;1.765506
9230.000000;1.761127
9229.000000;1.759362
9228.000000;1.761117
9227.000000;1.764829
9226.000000;1.768170
9225.000000;1.770337
9224.000000;1.771962
9223.000000;1.773405
9222.000000;1.774377
9221.000000;1.775012
9220.000000;1.775933
9219.000000;1.776770
9218.000000;1.775962
9217.000000;1.772920
9216.000000;1.769337
9215.000000;1.767435
9214.000000;1.767759
9213.000000;1.769333
9212.000000;1.770995
9211.000000;1.771742
9210.000000;1.770574
9209.000000;1.767465
9208.000000;1.764156
9207.000000;1.762233
9206.000000;1.760909
9205.000000;1.758302
9204.000000;1.754594
9203.000000;1.752346
9202.000000;1.753625
9201.000000;1.757969
9200.000000;1.763340
9199.000000;1.767878
9198.000000;1.769998
9197.000000;1.768342
9196.000000;1.763445
9195.000000;1.758480
9194.000000;1.756386
9193.000000;1.756688
9192.000000;1.756392
9191.000000;1.753702
9190.000000;1.749612
9189.000000;1.745972
9188.000000;1.743690
9187.000000;1.743055
9186.000000;1.744192
9185.000000;1.746522
9184.000000;1.748817
9183.000000;1.750387
9182.000000;1.751541
9181.000000;1.752469
9180.000000;1.752552
9179.000000;1.751159
9178.000000;1.748605
9177.000000;1.746011
9176.000000;1.744515
9175.000000;1.744999
9174.000000;1.747769
9173.000000;1.751653
9172.000000;1.754336
9171.000000;1.754724
9170.000000;1.754251
9169.000000;1.754653
9168.000000;1.755461
9167.000000;1.754739
9166.000000;1.751984
9165.000000;1.749368
9164.000000;1.749267
9163.000000;1.751164
9162.000000;1.752037
9161.000000;1.749750
9160.000000;1.745574
9159.000000;1.742924
9158.000000;1.743790
9157.000000;1.746887
9156.000000;1.749482
9155.000000;1.750722
9154.000000;1.752274
9153.000000;1.755535
9152.000000;1.759165
9151.000000;1.760233
9150.000000;1.757682
9149.000000;1.753792
9148.000000;1.751922
9147.000000;1.753307
9146.000000;1.756109
9145.000000;1.757412
9144.000000;1.756281
9143.000000;1.754748
9142.000000;1.755538
9141.000000;1.758993
9140.000000;1.762533
9139.000000;1.763055
9138.000000;1.759582
9137.000000;1.753659
9136.000000;1.747830
9135.000000;1.743958
9134.000000;1.742310
9133.000000;1.741794
9132.000000;1.741349
9131.000000;1.741165
9130.000000;1.742225
9129.000000;1.744836
9128.000000;1.748153
9127.000000;1.750856
9126.000000;1.751727
9125.000000;1.750013
9124.000000;1.746314
9123.000000;1.742945
9122.000000;1.742286
9121.000000;1.744508
9120.000000;1.747674
9119.000000;1.750068
9118.000000;1.751348
9117.000000;1.751227
9116.000000;1.748692
9115.000000;1.743468
9114.000000;1.737120
9113.000000;1.731759
9112.000000;1.728534
9111.000000;1.728115
9110.000000;1.731422
9109.000000;1.738422
9108.000000;1.746881
9107.000000;1.753677
9106.000000;1.756991
9105.000000;1.756445
9104.000000;1.752313
9103.000000;1.746254
9102.000000;1.741878
9101.000000;1.742346
9100.000000;1.747215
9099.000000;1.752657
9098.000000;1.754952
9097.000000;1.753056
9096.000000;1.747991
9095.000000;1.741632
9094.000000;1.736667
9093.000000;1.735927
9092.000000;1.740379
9091.000000;1.747864
9090.000000;1.754200
9089.000000;1.755873
9088.000000;1.752202
9087.000000;1.745766
9086.000000;1.740692
9085.000000;1.739431
9084.000000;1.740549
9083.000000;1.740168
9082.000000;1.736294
9081.000000;1.731400
9080.000000;1.730021
9079.000000;1.734242
9078.000000;1.741924
9077.000000;1.748794
9076.000000;1.752148
9075.000000;1.752589
9074.000000;1.752191
9073.000000;1.751644
9072.000000;1.749822
9071.000000;1.745850
9070.000000;1.740640
9069.000000;1.735874
9068.000000;1.732353
9067.000000;1.730204
9066.000000;1.729910
9065.000000;1.731811
9064.000000;1.734714
9063.000000;1.736213
9062.000000;1.734878
9061.000000;1.731494
9060.000000;1.727985
9059.000000;1.725915
9058.000000;1.726110
9057.000000;1.728771
9056.000000;1.733416
9055.000000;1.738882
9054.000000;1.743445
9053.000000;1.745205
