Criado como novo conjunto de dados;"e0108.spp","-4290825.3 Secs"
cm-1;Abs
10000.000000;0.470267
9999.000000;0.469820
9998.000000;0.470029
9997.000000;0.470325
9996.000000;0.470216
9995.000000;0.469758
9994.000000;0.469297
9993.000000;0.468959
9992.000000;0.468568
9991.000000;0.467981
9990.000000;0.467299
9989.000000;0.466699
9988.000000;0.466186
9987.000000;0.465605
9986.000000;0.464857
9985.000000;0.464022
9984.000000;0.463266
9983.000000;0.462697
9982.000000;0.462365
9981.000000;0.462330
9980.000000;0.462629
9979.000000;0.463157
9978.000000;0.463664
9977.000000;0.463932
9976.000000;0.463961
9975.000000;0.463941
9974.000000;0.464005
9973.000000;0.463992
9972.000000;0.463509
9971.000000;0.462318
9970.000000;0.460657
9969.000000;0.459101
9968.000000;0.458085
9967.000000;0.457650
9966.000000;0.457631
9965.000000;0.457921
9964.000000;0.458390
9963.000000;0.458738
9962.000000;0.458657
9961.000000;0.458157
9960.000000;0.457523
9959.000000;0.456910
9958.000000;0.456168
9957.000000;0.455149
9956.000000;0.454034
9955.000000;0.453217
9954.000000;0.452928
9953.000000;0.453056
9952.000000;0.453307
9951.000000;0.453457
9950.000000;0.453466
9949.000000;0.453399
9948.000000;0.453275
9947.000000;0.452999
9946.000000;0.452465
9945.000000;0.451708
9944.000000;0.450902
9943.000000;0.450220
9942.000000;0.449726
9941.000000;0.449357
9940.000000;0.448981
9939.000000;0.448528
9938.000000;0.448173
9937.000000;0.448306
9936.000000;0.449121
9935.000000;0.450219
9934.000000;0.450817
9933.000000;0.450470
9932.000000;0.449489
9931.000000;0.448555
9930.000000;0.448001
9929.000000;0.447622
9928.000000;0.447110
9927.000000;0.446459
9926.000000;0.445863
9925.000000;0.445378
9924.000000;0.444843
9923.000000;0.444157
9922.000000;0.443488
9921.000000;0.443104
9920.000000;0.443034
9919.000000;0.443042
9918.000000;0.442968
9917.000000;0.442946
9916.000000;0.443178
9915.000000;0.443569
9914.000000;0.443715
9913.000000;0.443207
9912.000000;0.441928
9911.000000;0.440179
9910.000000;0.438651
9909.000000;0.438087
9908.000000;0.438679
9907.000000;0.439749
9906.000000;0.440268
9905.000000;0.439821
9904.000000;0.438923
9903.000000;0.438352
9902.000000;0.438329
9901.000000;0.438439
9900.000000;0.438142
9899.000000;0.437245
9898.000000;0.435979
9897.000000;0.434814
9896.000000;0.434150
9895.000000;0.434041
9894.000000;0.434210
9893.000000;0.434380
9892.000000;0.434563
9891.000000;0.434938
9890.000000;0.435511
9889.000000;0.435980
9888.000000;0.435956
9887.000000;0.435292
9886.000000;0.434194
9885.000000;0.433067
9884.000000;0.432250
9883.000000;0.431862
9882.000000;0.431839
9881.000000;0.432023
9880.000000;0.432157
9879.000000;0.431880
9878.000000;0.430931
9877.000000;0.429443
9876.000000;0.427932
9875.000000;0.426921
9874.000000;0.426571
9873.000000;0.426678
9872.000000;0.426919
9871.000000;0.427042
9870.000000;0.426908
9869.000000;0.426466
9868.000000;0.425753
9867.000000;0.424908
9866.000000;0.424163
9865.000000;0.423749
9864.000000;0.423729
9863.000000;0.423927
9862.000000;0.424115
9861.000000;0.424224
9860.000000;0.424279
9859.000000;0.424174
9858.000000;0.423724
9857.000000;0.423013
9856.000000;0.422480
9855.000000;0.422474
9854.000000;0.422787
9853.000000;0.422834
9852.000000;0.422331
9851.000000;0.421626
9850.000000;0.421256
9849.000000;0.421273
9848.000000;0.421153
9847.000000;0.420417
9846.000000;0.419212
9845.000000;0.418169
9844.000000;0.417745
9843.000000;0.417870
9842.000000;0.418204
9841.000000;0.418486
9840.000000;0.418531
9839.000000;0.418130
9838.000000;0.417259
9837.000000;0.416298
9836.000000;0.415752
9835.000000;0.415691
9834.000000;0.415669
9833.000000;0.415229
9832.000000;0.414353
9831.000000;0.413428
9830.000000;0.412926
9829.000000;0.413099
9828.000000;0.413768
9827.000000;0.414391
9826.000000;0.414522
9825.000000;0.414230
9824.000000;0.413848
9823.000000;0.413365
9822.000000;0.412426
9821.000000;0.411043
9820.000000;0.409889
9819.000000;0.409596
9818.000000;0.410022
9817.000000;0.410501
9816.000000;0.410650
9815.000000;0.410580
9814.000000;0.410421
9813.000000;0.410018
9812.000000;0.409180
9811.000000;0.407989
9810.000000;0.406803
9809.000000;0.406039
9808.000000;0.405936
9807.000000;0.406371
9806.000000;0.406919
9805.000000;0.407209
9804.000000;0.407195
9803.000000;0.407004
9802.000000;0.406652
9801.000000;0.406107
9800.000000;0.405514
9799.000000;0.405061
9798.000000;0.404640
9797.000000;0.403924
9796.000000;0.402849
9795.000000;0.401796
9794.000000;0.401200
9793.000000;0.401118
9792.000000;0.401258
9791.000000;0.401289
9790.000000;0.401075
9789.000000;0.400737
9788.000000;0.400585
9787.000000;0.400844
9786.000000;0.401373
9785.000000;0.401714
9784.000000;0.401508
9783.000000;0.400816
9782.000000;0.400027
9781.000000;0.399546
9780.000000;0.399558
9779.000000;0.399918
9778.000000;0.400191
9777.000000;0.399955
9776.000000;0.399197
9775.000000;0.398324
9774.000000;0.397707
9773.000000;0.397329
9772.000000;0.396968
9771.000000;0.396558
9770.000000;0.396195
9769.000000;0.395886
9768.000000;0.395533
9767.000000;0.395148
9766.000000;0.394846
9765.000000;0.394581
9764.000000;0.394125
9763.000000;0.393428
9762.000000;0.392818
9761.000000;0.392624
9760.000000;0.392739
9759.000000;0.392743
9758.000000;0.392433
9757.000000;0.392003
9756.000000;0.391689
9755.000000;0.391504
9754.000000;0.391415
9753.000000;0.391531
9752.000000;0.391874
9751.000000;0.392137
9750.000000;0.391932
9749.000000;0.391264
9748.000000;0.390509
9747.000000;0.389937
9746.000000;0.389461
9745.000000;0.388877
9744.000000;0.388134
9743.000000;0.387345
9742.000000;0.386705
9741.000000;0.386449
9740.000000;0.386642
9739.000000;0.386953
9738.000000;0.386877
9737.000000;0.386302
9736.000000;0.385623
9735.000000;0.385182
9734.000000;0.384867
9733.000000;0.384484
9732.000000;0.384218
9731.000000;0.384374
9730.000000;0.384804
9729.000000;0.385000
9728.000000;0.384678
9727.000000;0.383961
9726.000000;0.383020
9725.000000;0.381937
9724.000000;0.380965
9723.000000;0.380499
9722.000000;0.380574
9721.000000;0.380705
9720.000000;0.380467
9719.000000;0.380033
9718.000000;0.379880
9717.000000;0.380138
9716.000000;0.380472
9715.000000;0.380541
9714.000000;0.380327
9713.000000;0.380054
9712.000000;0.379978
9711.000000;0.380251
9710.000000;0.380772
9709.000000;0.381154
9708.000000;0.380989
9707.000000;0.380230
9706.000000;0.379253
9705.000000;0.378501
9704.000000;0.378086
9703.000000;0.377749
9702.000000;0.377170
9701.000000;0.376334
9700.000000;0.375602
9699.000000;0.375403
9698.000000;0.375805
9697.000000;0.376416
9696.000000;0.376770
9695.000000;0.376764
9694.000000;0.376629
9693.000000;0.376518
9692.000000;0.376262
9691.000000;0.375586
9690.000000;0.374466
9689.000000;0.373179
9688.000000;0.372055
9687.000000;0.371258
9686.000000;0.370823
9685.000000;0.370759
9684.000000;0.371025
9683.000000;0.371445
9682.000000;0.371764
9681.000000;0.371841
9680.000000;0.371698
9679.000000;0.371370
9678.000000;0.370839
9677.000000;0.370194
9676.000000;0.369717
9675.000000;0.369600
9674.000000;0.369625
9673.000000;0.369344
9672.000000;0.368619
9671.000000;0.367792
9670.000000;0.367233
9669.000000;0.366912
9668.000000;0.366585
9667.000000;0.366239
9666.000000;0.366095
9665.000000;0.366208
9664.000000;0.366312
9663.000000;0.366141
9662.000000;0.365746
9661.000000;0.365364
9660.000000;0.365091
9659.000000;0.364805
9658.000000;0.364359
9657.000000;0.363746
9656.000000;0.363082
9655.000000;0.362507
9654.000000;0.362131
9653.000000;0.362026
9652.000000;0.362187
9651.000000;0.362473
9650.000000;0.362629
9649.000000;0.362445
9648.000000;0.361938
9647.000000;0.361352
9646.000000;0.360915
9645.000000;0.360653
9644.000000;0.360468
9643.000000;0.360337
9642.000000;0.360280
9641.000000;0.360160
9640.000000;0.359698
9639.000000;0.358825
9638.000000;0.357897
9637.000000;0.357392
9636.000000;0.357439
9635.000000;0.357742
9634.000000;0.357955
9633.000000;0.357939
9632.000000;0.357667
9631.000000;0.357112
9630.000000;0.356383
9629.000000;0.355818
9628.000000;0.355726
9627.000000;0.356028
9626.000000;0.356328
9625.000000;0.356317
9624.000000;0.355979
9623.000000;0.355397
9622.000000;0.354614
9621.000000;0.353787
9620.000000;0.353296
9619.000000;0.353449
9618.000000;0.354110
9617.000000;0.354782
9616.000000;0.355072
9615.000000;0.354937
9614.000000;0.354475
9613.000000;0.353687
9612.000000;0.352585
9611.000000;0.351424
9610.000000;0.350606
9609.000000;0.350307
9608.000000;0.350310
9607.000000;0.350269
9606.000000;0.350107
9605.000000;0.350055
9604.000000;0.350296
9603.000000;0.350654
9602.000000;0.350707
9601.000000;0.350202
9600.000000;0.349306
9599.000000;0.348435
9598.000000;0.347895
9597.000000;0.347708
9596.000000;0.347708
9595.000000;0.347684
9594.000000;0.347491
9593.000000;0.347118
9592.000000;0.346689
9591.000000;0.346322
9590.000000;0.345992
9589.000000;0.345590
9588.000000;0.345130
9587.000000;0.344761
9586.000000;0.344539
9585.000000;0.344321
9584.000000;0.343980
9583.000000;0.343627
9582.000000;0.343477
9581.000000;0.343558
9580.000000;0.343696
9579.000000;0.343765
9578.000000;0.343779
9577.000000;0.343719
9576.000000;0.343448
9575.000000;0.342880
9574.000000;0.342164
9573.000000;0.341571
9572.000000;0.341259
9571.000000;0.341176
9570.000000;0.341119
9569.000000;0.340832
9568.000000;0.340174
9567.000000;0.339305
9566.000000;0.338647
9565.000000;0.338526
9564.000000;0.338869
9563.000000;0.339367
9562.000000;0.339840
9561.000000;0.340282
9560.000000;0.340574
9559.000000;0.340406
9558.000000;0.339604
9557.000000;0.338407
9556.000000;0.337292
9555.000000;0.336595
9554.000000;0.336335
9553.000000;0.336304
9552.000000;0.336217
9551.000000;0.335891
9550.000000;0.335403
9549.000000;0.335033
9548.000000;0.334945
9547.000000;0.334962
9546.000000;0.334770
9545.000000;0.334271
9544.000000;0.333636
9543.000000;0.333091
9542.000000;0.332784
9541.000000;0.332788
9540.000000;0.333060
9539.000000;0.333400
9538.000000;0.333609
9537.000000;0.333687
9536.000000;0.333730
9535.000000;0.333679
9534.000000;0.333378
9533.000000;0.332891
9532.000000;0.332494
9531.000000;0.332273
9530.000000;0.331946
9529.000000;0.331265
9528.000000;0.330412
9527.000000;0.329795
9526.000000;0.329621
9525.000000;0.329844
9524.000000;0.330363
9523.000000;0.330948
9522.000000;0.331067
9521.000000;0.330225
9520.000000;0.328620
9519.000000;0.327163
9518.000000;0.326616
9517.000000;0.326855
9516.000000;0.327196
9515.000000;0.327261
9514.000000;0.327251
9513.000000;0.327406
9512.000000;0.327550
9511.000000;0.327343
9510.000000;0.326806
9509.000000;0.326325
9508.000000;0.326172
9507.000000;0.326189
9506.000000;0.326016
9505.000000;0.325520
9504.000000;0.324926
9503.000000;0.324575
9502.000000;0.324641
9501.000000;0.325035
9500.000000;0.325503
9499.000000;0.325775
9498.000000;0.325698
9497.000000;0.325297
9496.000000;0.324732
9495.000000;0.324218
9494.000000;0.323924
9493.000000;0.323865
9492.000000;0.323863
9491.000000;0.323685
9490.000000;0.323285
9489.000000;0.322841
9488.000000;0.322467
9487.000000;0.321996
9486.000000;0.321211
9485.000000;0.320278
9484.000000;0.319730
9483.000000;0.319933
9482.000000;0.320678
9481.000000;0.321377
9480.000000;0.321577
9479.000000;0.321189
9478.000000;0.320364
9477.000000;0.319312
9476.000000;0.318286
9475.000000;0.317578
9474.000000;0.317408
9473.000000;0.317737
9472.000000;0.318183
9471.000000;0.318220
9470.000000;0.317613
9469.000000;0.316686
9468.000000;0.316067
9467.000000;0.316090
9466.000000;0.316510
9465.000000;0.316816
9464.000000;0.316706
9463.000000;0.316220
9462.000000;0.315552
9461.000000;0.314898
9460.000000;0.314409
9459.000000;0.314155
9458.000000;0.314128
9457.000000;0.314287
9456.000000;0.314534
9455.000000;0.314644
9454.000000;0.314419
9453.000000;0.314004
9452.000000;0.313879
9451.000000;0.314324
9450.000000;0.315005
9449.000000;0.315308
9448.000000;0.315025
9447.000000;0.314520
9446.000000;0.314257
9445.000000;0.314370
9444.000000;0.314698
9443.000000;0.314945
9442.000000;0.314756
9441.000000;0.313896
9440.000000;0.312535
9439.000000;0.311243
9438.000000;0.310557
9437.000000;0.310560
9436.000000;0.310899
9435.000000;0.311125
9434.000000;0.310981
9433.000000;0.310499
9432.000000;0.309947
9431.000000;0.309601
9430.000000;0.309512
9429.000000;0.309517
9428.000000;0.309480
9427.000000;0.309411
9426.000000;0.309355
9425.000000;0.309288
9424.000000;0.309182
9423.000000;0.309023
9422.000000;0.308718
9421.000000;0.308128
9420.000000;0.307303
9419.000000;0.306568
9418.000000;0.306245
9417.000000;0.306367
9416.000000;0.306743
9415.000000;0.307165
9414.000000;0.307434
9413.000000;0.307329
9412.000000;0.306779
9411.000000;0.306031
9410.000000;0.305449
9409.000000;0.305120
9408.000000;0.304815
9407.000000;0.304367
9406.000000;0.303921
9405.000000;0.303747
9404.000000;0.303905
9403.000000;0.304209
9402.000000;0.304433
9401.000000;0.304439
9400.000000;0.304138
9399.000000;0.303496
9398.000000;0.302652
9397.000000;0.301933
9396.000000;0.301629
9395.000000;0.301751
9394.000000;0.302084
9393.000000;0.302473
9392.000000;0.302909
9391.000000;0.303303
9390.000000;0.303357
9389.000000;0.302867
9388.000000;0.302042
9387.000000;0.301326
9386.000000;0.300940
9385.000000;0.300795
9384.000000;0.300801
9383.000000;0.300967
9382.000000;0.301170
9381.000000;0.301117
9380.000000;0.300713
9379.000000;0.300188
9378.000000;0.299711
9377.000000;0.299135
9376.000000;0.298381
9375.000000;0.297820
9374.000000;0.297920
9373.000000;0.298614
9372.000000;0.299345
9371.000000;0.299684
9370.000000;0.299626
9369.000000;0.299317
9368.000000;0.298853
9367.000000;0.298371
9366.000000;0.298010
9365.000000;0.297689
9364.000000;0.297188
9363.000000;0.296551
9362.000000;0.296135
9361.000000;0.296129
9360.000000;0.296274
9359.000000;0.296248
9358.000000;0.296064
9357.000000;0.295913
9356.000000;0.295803
9355.000000;0.295655
9354.000000;0.295583
9353.000000;0.295761
9352.000000;0.296068
9351.000000;0.296114
9350.000000;0.295668
9349.000000;0.294845
9348.000000;0.293891
9347.000000;0.292989
9346.000000;0.292326
9345.000000;0.292079
9344.000000;0.292211
9343.000000;0.292394
9342.000000;0.292318
9341.000000;0.292022
9340.000000;0.291811
9339.000000;0.291879
9338.000000;0.292106
9337.000000;0.292247
9336.000000;0.292231
9335.000000;0.292198
9334.000000;0.292254
9333.000000;0.292309
9332.000000;0.292181
9331.000000;0.291827
9330.000000;0.291362
9329.000000;0.290896
9328.000000;0.290458
9327.000000;0.290099
9326.000000;0.289933
9325.000000;0.289998
9324.000000;0.290176
9323.000000;0.290332
9322.000000;0.290427
9321.000000;0.290423
9320.000000;0.290186
9319.000000;0.289637
9318.000000;0.288947
9317.000000;0.288397
9316.000000;0.288091
9315.000000;0.287943
9314.000000;0.287898
9313.000000;0.287949
9312.000000;0.287967
9311.000000;0.287740
9310.000000;0.287266
9309.000000;0.286815
9308.000000;0.286577
9307.000000;0.286426
9306.000000;0.286173
9305.000000;0.285915
9304.000000;0.285930
9303.000000;0.286300
9302.000000;0.286809
9301.000000;0.287195
9300.000000;0.287336
9299.000000;0.287177
9298.000000;0.286679
9297.000000;0.285931
9296.000000;0.285215
9295.000000;0.284832
9294.000000;0.284837
9293.000000;0.284973
9292.000000;0.284896
9291.000000;0.284484
9290.000000;0.283962
9289.000000;0.283671
9288.000000;0.283692
9287.000000;0.283759
9286.000000;0.283597
9285.000000;0.283275
9284.000000;0.283096
9283.000000;0.283191
9282.000000;0.283362
9281.000000;0.283363
9280.000000;0.283192
9279.000000;0.283010
9278.000000;0.282889
9277.000000;0.282768
9276.000000;0.282606
9275.000000;0.282463
9274.000000;0.282427
9273.000000;0.282530
9272.000000;0.282727
9271.000000;0.282868
9270.000000;0.282738
9269.000000;0.282237
9268.000000;0.281568
9267.000000;0.281121
9266.000000;0.281079
9265.000000;0.281187
9264.000000;0.281002
9263.000000;0.280408
9262.000000;0.279788
9261.000000;0.279669
9260.000000;0.280187
9259.000000;0.280924
9258.000000;0.281241
9257.000000;0.280792
9256.000000;0.279750
9255.000000;0.278629
9254.000000;0.277876
9253.000000;0.277597
9252.000000;0.277607
9251.000000;0.277675
9250.000000;0.277709
9249.000000;0.277732
9248.000000;0.277720
9247.000000;0.277557
9246.000000;0.277166
9245.000000;0.276688
9244.000000;0.276427
9243.000000;0.276590
9242.000000;0.277083
9241.000000;0.277603
9240.000000;0.277924
9239.000000;0.278079
9238.000000;0.278234
9237.000000;0.278443
9236.000000;0.278562
9235.000000;0.278408
9234.000000;0.277988
9233.000000;0.277516
9232.000000;0.277205
9231.000000;0.277044
9230.000000;0.276821
9229.000000;0.276345
9228.000000;0.275634
9227.000000;0.274872
9226.000000;0.274259
9225.000000;0.273922
9224.000000;0.273937
9223.000000;0.274300
9222.000000;0.274860
9221.000000;0.275306
9220.000000;0.275342
9219.000000;0.274897
9218.000000;0.274189
9217.000000;0.273571
9216.000000;0.273301
9215.000000;0.273412
9214.000000;0.273747
9213.000000;0.274098
9212.000000;0.274314
9211.000000;0.274311
9210.000000;0.274048
9209.000000;0.273579
9208.000000;0.273098
9207.000000;0.272838
9206.000000;0.272876
9205.000000;0.273050
9204.000000;0.273120
9203.000000;0.272973
9202.000000;0.272662
9201.000000;0.272274
9200.000000;0.271858
9199.000000;0.271454
9198.000000;0.271133
9197.000000;0.270935
9196.000000;0.270820
9195.000000;0.270741
9194.000000;0.270743
9193.000000;0.270943
9192.000000;0.271334
9191.000000;0.271673
9190.000000;0.271644
9189.000000;0.271186
9188.000000;0.270604
9187.000000;0.270267
9186.000000;0.270207
9185.000000;0.270116
9184.000000;0.269750
9183.000000;0.269215
9182.000000;0.268798
9181.000000;0.268606
9180.000000;0.268505
9179.000000;0.268382
9178.000000;0.268284
9177.000000;0.268271
9176.000000;0.268250
9175.000000;0.268064
9174.000000;0.267715
9173.000000;0.267392
9172.000000;0.267273
9171.000000;0.267322
9170.000000;0.267313
9169.000000;0.267062
9168.000000;0.266639
9167.000000;0.266340
9166.000000;0.266418
9165.000000;0.266838
9164.000000;0.267317
9163.000000;0.267585
9162.000000;0.267580
9161.000000;0.267398
9160.000000;0.267164
9159.000000;0.266969
9158.000000;0.266878
9157.000000;0.266886
9156.000000;0.266906
9155.000000;0.266836
9154.000000;0.266664
9153.000000;0.266466
9152.000000;0.266310
9151.000000;0.266202
9150.000000;0.266123
9149.000000;0.266068
9148.000000;0.266036
9147.000000;0.265993
9146.000000;0.265891
9145.000000;0.265712
9144.000000;0.265498
9143.000000;0.265303
9142.000000;0.265120
9141.000000;0.264861
9140.000000;0.264452
9139.000000;0.263962
9138.000000;0.263580
9137.000000;0.263434
9136.000000;0.263470
9135.000000;0.263537
9134.000000;0.263577
9133.000000;0.263642
9132.000000;0.263761
9131.000000;0.263844
9130.000000;0.263759
9129.000000;0.263466
9128.000000;0.263051
9127.000000;0.262662
9126.000000;0.262441
9125.000000;0.262477
9124.000000;0.262733
9123.000000;0.263008
9122.000000;0.263040
9121.000000;0.262717
9120.000000;0.262202
9119.000000;0.261798
9118.000000;0.261674
9117.000000;0.261729
9116.000000;0.261730
9115.000000;0.261567
9114.000000;0.261329
9113.000000;0.261158
9112.000000;0.261078
9111.000000;0.261014
9110.000000;0.260918
9109.000000;0.260817
9108.000000;0.260731
9107.000000;0.260620
9106.000000;0.260428
9105.000000;0.260165
9104.000000;0.259908
9103.000000;0.259769
9102.000000;0.259871
9101.000000;0.260276
9100.000000;0.260845
9099.000000;0.261236
9098.000000;0.261154
9097.000000;0.260660
9096.000000;0.260149
9095.000000;0.259967
9094.000000;0.260089
9093.000000;0.260202
9092.000000;0.260053
9091.000000;0.259661
9090.000000;0.259232
9089.000000;0.258931
9088.000000;0.258769
9087.000000;0.258661
9086.000000;0.258589
9085.000000;0.258648
9084.000000;0.258872
9083.000000;0.259041
9082.000000;0.258820
9081.000000;0.258194
9080.000000;0.257628
9079.000000;0.257633
9078.000000;0.258214
9077.000000;0.258890
9076.000000;0.259224
9075.000000;0.259174
9074.000000;0.258942
9073.000000;0.258681
9072.000000;0.258432
9071.000000;0.258190
9070.000000;0.257935
9069.000000;0.257680
9068.000000;0.257525
9067.000000;0.257579
9066.000000;0.257777
9065.000000;0.257918
9064.000000;0.257916
9063.000000;0.257886
9062.000000;0.257889
9061.000000;0.257770
9060.000000;0.257388
9059.000000;0.256873
9058.000000;0.256498
9057.000000;0.256384
9056.000000;0.256446
9055.000000;0.256535
9054.000000;0.256494
9053.000000;0.256211
