Criado como novo conjunto de dados;"e0108.spp","-4270664.0 Secs"
cm-1;Abs
10000.000000;1.042172
9999.000000;1.042163
9998.000000;1.042454
9997.000000;1.042197
9996.000000;1.041186
9995.000000;1.040361
9994.000000;1.040712
9993.000000;1.042471
9992.000000;1.044711
9991.000000;1.046248
9990.000000;1.046424
9989.000000;1.045311
9988.000000;1.043270
9987.000000;1.040729
9986.000000;1.038332
9985.000000;1.036923
9984.000000;1.036986
9983.000000;1.038065
9982.000000;1.039019
9981.000000;1.039019
9980.000000;1.038178
9979.000000;1.037200
9978.000000;1.036723
9977.000000;1.037097
9976.000000;1.038350
9975.000000;1.039950
9974.000000;1.040818
9973.000000;1.040136
9972.000000;1.038151
9971.000000;1.035887
9970.000000;1.034117
9969.000000;1.032955
9968.000000;1.032285
9967.000000;1.032096
9966.000000;1.032280
9965.000000;1.032534
9964.000000;1.032681
9963.000000;1.032853
9962.000000;1.033165
9961.000000;1.033423
9960.000000;1.033299
9959.000000;1.032617
9958.000000;1.031361
9957.000000;1.029677
9956.000000;1.028047
9955.000000;1.027148
9954.000000;1.027282
9953.000000;1.028092
9952.000000;1.028961
9951.000000;1.029520
9950.000000;1.029611
9949.000000;1.029087
9948.000000;1.028015
9947.000000;1.026955
9946.000000;1.026587
9945.000000;1.026978
9944.000000;1.027466
9943.000000;1.027390
9942.000000;1.026745
9941.000000;1.026015
9940.000000;1.025494
9939.000000;1.025035
9938.000000;1.024447
9937.000000;1.023920
9936.000000;1.023836
9935.000000;1.024190
9934.000000;1.024380
9933.000000;1.023690
9932.000000;1.021962
9931.000000;1.019765
9930.000000;1.017991
9929.000000;1.017345
9928.000000;1.018010
9927.000000;1.019589
9926.000000;1.021383
9925.000000;1.022853
9924.000000;1.023870
9923.000000;1.024461
9922.000000;1.024440
9921.000000;1.023505
9920.000000;1.021665
9919.000000;1.019366
9918.000000;1.017236
9917.000000;1.015846
9916.000000;1.015595
9915.000000;1.016440
9914.000000;1.017613
9913.000000;1.017971
9912.000000;1.016983
9911.000000;1.015281
9910.000000;1.013989
9909.000000;1.013616
9908.000000;1.013761
9907.000000;1.013768
9906.000000;1.013461
9905.000000;1.013187
9904.000000;1.013332
9903.000000;1.013855
9902.000000;1.014247
9901.000000;1.013898
9900.000000;1.012547
9899.000000;1.010475
9898.000000;1.008428
9897.000000;1.007262
9896.000000;1.007423
9895.000000;1.008573
9894.000000;1.009755
9893.000000;1.010126
9892.000000;1.009593
9891.000000;1.008719
9890.000000;1.008098
9889.000000;1.007917
9888.000000;1.007998
9887.000000;1.008053
9886.000000;1.007831
9885.000000;1.007201
9884.000000;1.006210
9883.000000;1.005065
9882.000000;1.004038
9881.000000;1.003393
9880.000000;1.003235
9879.000000;1.003321
9878.000000;1.003189
9877.000000;1.002614
9876.000000;1.001840
9875.000000;1.001205
9874.000000;1.000712
9873.000000;1.000200
9872.000000;0.999767
9871.000000;0.999644
9870.000000;0.999705
9869.000000;0.999481
9868.000000;0.998705
9867.000000;0.997561
9866.000000;0.996365
9865.000000;0.995302
9864.000000;0.994567
9863.000000;0.994469
9862.000000;0.995169
9861.000000;0.996446
9860.000000;0.997807
9859.000000;0.998747
9858.000000;0.998987
9857.000000;0.998687
9856.000000;0.998338
9855.000000;0.998182
9854.000000;0.997827
9853.000000;0.996817
9852.000000;0.995474
9851.000000;0.994671
9850.000000;0.994683
9849.000000;0.994794
9848.000000;0.994238
9847.000000;0.993039
9846.000000;0.991647
9845.000000;0.990279
9844.000000;0.989117
9843.000000;0.988650
9842.000000;0.989144
9841.000000;0.989964
9840.000000;0.990129
9839.000000;0.989555
9838.000000;0.989196
9837.000000;0.989843
9836.000000;0.991214
9835.000000;0.992361
9834.000000;0.992589
9833.000000;0.991783
9832.000000;0.990284
9831.000000;0.988782
9830.000000;0.988037
9829.000000;0.988263
9828.000000;0.988781
9827.000000;0.988580
9826.000000;0.987301
9825.000000;0.985575
9824.000000;0.984425
9823.000000;0.984435
9822.000000;0.985420
9821.000000;0.986663
9820.000000;0.987382
9819.000000;0.987109
9818.000000;0.985829
9817.000000;0.983913
9816.000000;0.981936
9815.000000;0.980470
9814.000000;0.979842
9813.000000;0.979906
9812.000000;0.980074
9811.000000;0.979756
9810.000000;0.978929
9809.000000;0.978229
9808.000000;0.978331
9807.000000;0.979247
9806.000000;0.980335
9805.000000;0.980932
9804.000000;0.980807
9803.000000;0.980044
9802.000000;0.978847
9801.000000;0.977647
9800.000000;0.977040
9799.000000;0.977226
9798.000000;0.977661
9797.000000;0.977655
9796.000000;0.977257
9795.000000;0.977115
9794.000000;0.977444
9793.000000;0.977625
9792.000000;0.977023
9791.000000;0.975816
9790.000000;0.974752
9789.000000;0.974337
9788.000000;0.974531
9787.000000;0.974975
9786.000000;0.975241
9785.000000;0.975013
9784.000000;0.974339
9783.000000;0.973632
9782.000000;0.973226
9781.000000;0.973010
9780.000000;0.972675
9779.000000;0.972209
9778.000000;0.971853
9777.000000;0.971634
9776.000000;0.971299
9775.000000;0.970745
9774.000000;0.970231
9773.000000;0.970085
9772.000000;0.970458
9771.000000;0.971360
9770.000000;0.972600
9769.000000;0.973534
9768.000000;0.973237
9767.000000;0.971315
9766.000000;0.968550
9765.000000;0.966429
9764.000000;0.965935
9763.000000;0.966879
9762.000000;0.968325
9761.000000;0.969418
9760.000000;0.969748
9759.000000;0.969257
9758.000000;0.968172
9757.000000;0.967027
9756.000000;0.966373
9755.000000;0.966251
9754.000000;0.966146
9753.000000;0.965622
9752.000000;0.964889
9751.000000;0.964467
9750.000000;0.964416
9749.000000;0.964236
9748.000000;0.963555
9747.000000;0.962595
9746.000000;0.961827
9745.000000;0.961447
9744.000000;0.961350
9743.000000;0.961397
9742.000000;0.961485
9741.000000;0.961495
9740.000000;0.961406
9739.000000;0.961382
9738.000000;0.961512
9737.000000;0.961537
9736.000000;0.961054
9735.000000;0.960013
9734.000000;0.958834
9733.000000;0.958000
9732.000000;0.957651
9731.000000;0.957572
9730.000000;0.957443
9729.000000;0.957085
9728.000000;0.956542
9727.000000;0.955991
9726.000000;0.955576
9725.000000;0.955410
9724.000000;0.955670
9723.000000;0.956374
9722.000000;0.956907
9721.000000;0.956138
9720.000000;0.953563
9719.000000;0.950298
9718.000000;0.948401
9717.000000;0.948954
9716.000000;0.951035
9715.000000;0.952766
9714.000000;0.953184
9713.000000;0.952831
9712.000000;0.952674
9711.000000;0.952915
9710.000000;0.952996
9709.000000;0.952467
9708.000000;0.951500
9707.000000;0.950589
9706.000000;0.950013
9705.000000;0.949719
9704.000000;0.949615
9703.000000;0.949797
9702.000000;0.950385
9701.000000;0.951231
9700.000000;0.951931
9699.000000;0.952155
9698.000000;0.951903
9697.000000;0.951408
9696.000000;0.950862
9695.000000;0.950294
9694.000000;0.949655
9693.000000;0.948933
9692.000000;0.948188
9691.000000;0.947511
9690.000000;0.946908
9689.000000;0.946238
9688.000000;0.945351
9687.000000;0.944341
9686.000000;0.943566
9685.000000;0.943289
9684.000000;0.943346
9683.000000;0.943311
9682.000000;0.942976
9681.000000;0.942519
9680.000000;0.942143
9679.000000;0.941783
9678.000000;0.941354
9677.000000;0.941181
9676.000000;0.941835
9675.000000;0.943352
9674.000000;0.944793
9673.000000;0.944939
9672.000000;0.943471
9671.000000;0.941241
9670.000000;0.939377
9669.000000;0.938400
9668.000000;0.938273
9667.000000;0.938905
9666.000000;0.940171
9665.000000;0.941529
9664.000000;0.942169
9663.000000;0.941768
9662.000000;0.940815
9661.000000;0.939961
9660.000000;0.939274
9659.000000;0.938402
9658.000000;0.937283
9657.000000;0.936274
9656.000000;0.935623
9655.000000;0.935185
9654.000000;0.934795
9653.000000;0.934595
9652.000000;0.934762
9651.000000;0.935093
9650.000000;0.935138
9649.000000;0.934694
9648.000000;0.933935
9647.000000;0.933082
9646.000000;0.932166
9645.000000;0.931213
9644.000000;0.930479
9643.000000;0.930326
9642.000000;0.930850
9641.000000;0.931700
9640.000000;0.932269
9639.000000;0.932149
9638.000000;0.931475
9637.000000;0.930829
9636.000000;0.930773
9635.000000;0.931388
9634.000000;0.932206
9633.000000;0.932578
9632.000000;0.932183
9631.000000;0.931325
9630.000000;0.930731
9629.000000;0.930919
9628.000000;0.931645
9627.000000;0.932049
9626.000000;0.931462
9625.000000;0.929992
9624.000000;0.928243
9623.000000;0.926672
9622.000000;0.925383
9621.000000;0.924438
9620.000000;0.924049
9619.000000;0.924399
9618.000000;0.925396
9617.000000;0.926654
9616.000000;0.927628
9615.000000;0.927808
9614.000000;0.927023
9613.000000;0.925596
9612.000000;0.924088
9611.000000;0.922890
9610.000000;0.922179
9609.000000;0.922159
9608.000000;0.923009
9607.000000;0.924505
9606.000000;0.925970
9605.000000;0.926770
9604.000000;0.926728
9603.000000;0.925940
9602.000000;0.924441
9601.000000;0.922371
9600.000000;0.920296
9599.000000;0.919019
9598.000000;0.918969
9597.000000;0.919873
9596.000000;0.920996
9595.000000;0.921613
9594.000000;0.921374
9593.000000;0.920427
9592.000000;0.919241
9591.000000;0.918218
9590.000000;0.917412
9589.000000;0.916672
9588.000000;0.916008
9587.000000;0.915682
9586.000000;0.915934
9585.000000;0.916695
9584.000000;0.917595
9583.000000;0.918227
9582.000000;0.918411
9581.000000;0.918242
9580.000000;0.917920
9579.000000;0.917548
9578.000000;0.917118
9577.000000;0.916606
9576.000000;0.916039
9575.000000;0.915533
9574.000000;0.915333
9573.000000;0.915710
9572.000000;0.916602
9571.000000;0.917371
9570.000000;0.917235
9569.000000;0.916085
9568.000000;0.914651
9567.000000;0.913720
9566.000000;0.913377
9565.000000;0.913195
9564.000000;0.912967
9563.000000;0.912944
9562.000000;0.913360
9561.000000;0.914000
9560.000000;0.914353
9559.000000;0.914064
9558.000000;0.913145
9557.000000;0.911848
9556.000000;0.910498
9555.000000;0.909440
9554.000000;0.908947
9553.000000;0.908995
9552.000000;0.909168
9551.000000;0.909010
9550.000000;0.908584
9549.000000;0.908479
9548.000000;0.909030
9547.000000;0.909721
9546.000000;0.909684
9545.000000;0.908725
9544.000000;0.907442
9543.000000;0.906386
9542.000000;0.905591
9541.000000;0.905031
9540.000000;0.905023
9539.000000;0.905794
9538.000000;0.906941
9537.000000;0.907711
9536.000000;0.907675
9535.000000;0.906902
9534.000000;0.905710
9533.000000;0.904594
9532.000000;0.904095
9531.000000;0.904239
9530.000000;0.904222
9529.000000;0.903222
9528.000000;0.901551
9527.000000;0.900522
9526.000000;0.901017
9525.000000;0.902556
9524.000000;0.903887
9523.000000;0.904179
9522.000000;0.903425
9521.000000;0.902058
9520.000000;0.900628
9519.000000;0.899727
9518.000000;0.899728
9517.000000;0.900407
9516.000000;0.901053
9515.000000;0.901098
9514.000000;0.900590
9513.000000;0.899963
9512.000000;0.899460
9511.000000;0.898955
9510.000000;0.898295
9509.000000;0.897596
9508.000000;0.897057
9507.000000;0.896655
9506.000000;0.896232
9505.000000;0.895869
9504.000000;0.895925
9503.000000;0.896590
9502.000000;0.897504
9501.000000;0.897933
9500.000000;0.897344
9499.000000;0.895861
9498.000000;0.894230
9497.000000;0.893294
9496.000000;0.893326
9495.000000;0.893901
9494.000000;0.894493
9493.000000;0.895072
9492.000000;0.895848
9491.000000;0.896569
9490.000000;0.896544
9489.000000;0.895474
9488.000000;0.893873
9487.000000;0.892503
9486.000000;0.891702
9485.000000;0.891425
9484.000000;0.891577
9483.000000;0.892017
9482.000000;0.892532
9481.000000;0.893081
9480.000000;0.893824
9479.000000;0.894685
9478.000000;0.895143
9477.000000;0.894739
9476.000000;0.893555
9475.000000;0.891979
9474.000000;0.890337
9473.000000;0.889032
9472.000000;0.888604
9471.000000;0.889137
9470.000000;0.889912
9469.000000;0.890152
9468.000000;0.889922
9467.000000;0.889808
9466.000000;0.889894
9465.000000;0.889699
9464.000000;0.888984
9463.000000;0.888015
9462.000000;0.887032
9461.000000;0.886061
9460.000000;0.885291
9459.000000;0.885085
9458.000000;0.885453
9457.000000;0.885999
9456.000000;0.886512
9455.000000;0.887158
9454.000000;0.887931
9453.000000;0.888380
9452.000000;0.888145
9451.000000;0.887399
9450.000000;0.886534
9449.000000;0.885745
9448.000000;0.885109
9447.000000;0.884730
9446.000000;0.884586
9445.000000;0.884500
9444.000000;0.884439
9443.000000;0.884558
9442.000000;0.884769
9441.000000;0.884616
9440.000000;0.883784
9439.000000;0.882547
9438.000000;0.881481
9437.000000;0.880934
9436.000000;0.880900
9435.000000;0.881218
9434.000000;0.881701
9433.000000;0.882254
9432.000000;0.882980
9431.000000;0.883967
9430.000000;0.884916
9429.000000;0.885265
9428.000000;0.884788
9427.000000;0.883861
9426.000000;0.883027
9425.000000;0.882550
9424.000000;0.882393
9423.000000;0.882318
9422.000000;0.881934
9421.000000;0.880992
9420.000000;0.879782
9419.000000;0.878944
9418.000000;0.878757
9417.000000;0.878928
9416.000000;0.879114
9415.000000;0.879242
9414.000000;0.879206
9413.000000;0.878783
9412.000000;0.878099
9411.000000;0.877684
9410.000000;0.877703
9409.000000;0.877576
9408.000000;0.876799
9407.000000;0.875799
9406.000000;0.875429
9405.000000;0.875829
9404.000000;0.876286
9403.000000;0.876161
9402.000000;0.875532
9401.000000;0.874933
9400.000000;0.874778
9399.000000;0.875033
9398.000000;0.875257
9397.000000;0.874992
9396.000000;0.874250
9395.000000;0.873474
9394.000000;0.872961
9393.000000;0.872622
9392.000000;0.872458
9391.000000;0.872806
9390.000000;0.873719
9389.000000;0.874465
9388.000000;0.874221
9387.000000;0.873114
9386.000000;0.872069
9385.000000;0.871680
9384.000000;0.871721
9383.000000;0.871725
9382.000000;0.871550
9381.000000;0.871306
9380.000000;0.871124
9379.000000;0.871144
9378.000000;0.871422
9377.000000;0.871746
9376.000000;0.871798
9375.000000;0.871543
9374.000000;0.871203
9373.000000;0.870859
9372.000000;0.870410
9371.000000;0.869941
9370.000000;0.869775
9369.000000;0.870041
9368.000000;0.870470
9367.000000;0.870741
9366.000000;0.870787
9365.000000;0.870639
9364.000000;0.870239
9363.000000;0.869548
9362.000000;0.868685
9361.000000;0.867877
9360.000000;0.867407
9359.000000;0.867570
9358.000000;0.868353
9357.000000;0.869090
9356.000000;0.868857
9355.000000;0.867455
9354.000000;0.865714
9353.000000;0.864584
9352.000000;0.864210
9351.000000;0.864201
9350.000000;0.864416
9349.000000;0.864943
9348.000000;0.865420
9347.000000;0.865077
9346.000000;0.863745
9345.000000;0.862394
9344.000000;0.862186
9343.000000;0.863139
9342.000000;0.864135
9341.000000;0.864234
9340.000000;0.863653
9339.000000;0.863307
9338.000000;0.863644
9337.000000;0.864247
9336.000000;0.864453
9335.000000;0.864055
9334.000000;0.863329
9333.000000;0.862602
9332.000000;0.861968
9331.000000;0.861353
9330.000000;0.860727
9329.000000;0.860209
9328.000000;0.859991
9327.000000;0.860128
9326.000000;0.860452
9325.000000;0.860737
9324.000000;0.860908
9323.000000;0.860983
9322.000000;0.860874
9321.000000;0.860420
9320.000000;0.859659
9319.000000;0.858898
9318.000000;0.858442
9317.000000;0.858364
9316.000000;0.858610
9315.000000;0.859136
9314.000000;0.859850
9313.000000;0.860544
9312.000000;0.861054
9311.000000;0.861381
9310.000000;0.861526
9309.000000;0.861313
9308.000000;0.860574
9307.000000;0.859472
9306.000000;0.858443
9305.000000;0.857801
9304.000000;0.857521
9303.000000;0.857398
9302.000000;0.857311
9301.000000;0.857268
9300.000000;0.857283
9299.000000;0.857279
9298.000000;0.857135
9297.000000;0.856843
9296.000000;0.856578
9295.000000;0.856541
9294.000000;0.856713
9293.000000;0.856830
9292.000000;0.856630
9291.000000;0.856085
9290.000000;0.855393
9289.000000;0.854808
9288.000000;0.854475
9287.000000;0.854311
9286.000000;0.854049
9285.000000;0.853519
9284.000000;0.852917
9283.000000;0.852641
9282.000000;0.852858
9281.000000;0.853366
9280.000000;0.853892
9279.000000;0.854286
9278.000000;0.854428
9277.000000;0.854202
9276.000000;0.853733
9275.000000;0.853379
9274.000000;0.853322
9273.000000;0.853349
9272.000000;0.853240
9271.000000;0.853101
9270.000000;0.853058
9269.000000;0.852832
9268.000000;0.852031
9267.000000;0.850791
9266.000000;0.849760
9265.000000;0.849392
9264.000000;0.849516
9263.000000;0.849687
9262.000000;0.849745
9261.000000;0.849896
9260.000000;0.850360
9259.000000;0.851046
9258.000000;0.851502
9257.000000;0.851206
9256.000000;0.850020
9255.000000;0.848417
9254.000000;0.847188
9253.000000;0.846865
9252.000000;0.847419
9251.000000;0.848387
9250.000000;0.849199
9249.000000;0.849467
9248.000000;0.849173
9247.000000;0.848599
9246.000000;0.848018
9245.000000;0.847475
9244.000000;0.846916
9243.000000;0.846457
9242.000000;0.846370
9241.000000;0.846821
9240.000000;0.847673
9239.000000;0.848486
9238.000000;0.848709
9237.000000;0.848054
9236.000000;0.846839
9235.000000;0.845864
9234.000000;0.845748
9233.000000;0.846408
9232.000000;0.847251
9231.000000;0.847806
9230.000000;0.847994
9229.000000;0.847895
9228.000000;0.847488
9227.000000;0.846720
9226.000000;0.845696
9225.000000;0.844757
9224.000000;0.844350
9223.000000;0.844706
9222.000000;0.845477
9221.000000;0.845846
9220.000000;0.845260
9219.000000;0.844080
9218.000000;0.843300
9217.000000;0.843544
9216.000000;0.844455
9215.000000;0.845083
9214.000000;0.844784
9213.000000;0.843720
9212.000000;0.842577
9211.000000;0.841899
9210.000000;0.841671
9209.000000;0.841542
9208.000000;0.841364
9207.000000;0.841365
9206.000000;0.841728
9205.000000;0.842208
9204.000000;0.842377
9203.000000;0.842151
9202.000000;0.841829
9201.000000;0.841632
9200.000000;0.841418
9199.000000;0.840940
9198.000000;0.840234
9197.000000;0.839632
9196.000000;0.839474
9195.000000;0.839845
9194.000000;0.840506
9193.000000;0.841086
9192.000000;0.841371
9191.000000;0.841359
9190.000000;0.841071
9189.000000;0.840482
9188.000000;0.839712
9187.000000;0.839048
9186.000000;0.838605
9185.000000;0.838156
9184.000000;0.837523
9183.000000;0.836956
9182.000000;0.836809
9181.000000;0.836954
9180.000000;0.836908
9179.000000;0.836530
9178.000000;0.836197
9177.000000;0.836207
9176.000000;0.836397
9175.000000;0.836507
9174.000000;0.836627
9173.000000;0.837013
9172.000000;0.837628
9171.000000;0.838128
9170.000000;0.838255
9169.000000;0.838066
9168.000000;0.837797
9167.000000;0.837600
9166.000000;0.837439
9165.000000;0.837212
9164.000000;0.837010
9163.000000;0.837178
9162.000000;0.837935
9161.000000;0.838937
9160.000000;0.839394
9159.000000;0.838795
9158.000000;0.837427
9157.000000;0.836077
9156.000000;0.835303
9155.000000;0.835088
9154.000000;0.835129
9153.000000;0.835285
9152.000000;0.835660
9151.000000;0.836256
9150.000000;0.836665
9149.000000;0.836340
9148.000000;0.835241
9147.000000;0.834020
9146.000000;0.833397
9145.000000;0.833463
9144.000000;0.833799
9143.000000;0.834116
9142.000000;0.834444
9141.000000;0.834751
9140.000000;0.834808
9139.000000;0.834564
9138.000000;0.834324
9137.000000;0.834330
9136.000000;0.834418
9135.000000;0.834289
9134.000000;0.833925
9133.000000;0.833503
9132.000000;0.833080
9131.000000;0.832661
9130.000000;0.832455
9129.000000;0.832735
9128.000000;0.833383
9127.000000;0.833829
9126.000000;0.833623
9125.000000;0.832935
9124.000000;0.832361
9123.000000;0.832277
9122.000000;0.832483
9121.000000;0.832494
9120.000000;0.832089
9119.000000;0.831479
9118.000000;0.830992
9117.000000;0.830747
9116.000000;0.830697
9115.000000;0.830823
9114.000000;0.831099
9113.000000;0.831357
9112.000000;0.831414
9111.000000;0.831329
9110.000000;0.831341
9109.000000;0.831500
9108.000000;0.831569
9107.000000;0.831383
9106.000000;0.831118
9105.000000;0.831051
9104.000000;0.831172
9103.000000;0.831230
9102.000000;0.831083
9101.000000;0.830821
9100.000000;0.830584
9099.000000;0.830388
9098.000000;0.830191
9097.000000;0.830004
9096.000000;0.829878
9095.000000;0.829822
9094.000000;0.829777
9093.000000;0.829672
9092.000000;0.829452
9091.000000;0.829058
9090.000000;0.828449
9089.000000;0.827724
9088.000000;0.827177
9087.000000;0.827101
9086.000000;0.827500
9085.000000;0.828101
9084.000000;0.828686
9083.000000;0.829254
9082.000000;0.829729
9081.000000;0.829711
9080.000000;0.828829
9079.000000;0.827330
9078.000000;0.826038
9077.000000;0.825606
9076.000000;0.825960
9075.000000;0.826491
9074.000000;0.826664
9073.000000;0.826377
9072.000000;0.825894
9071.000000;0.825566
9070.000000;0.825583
9069.000000;0.825891
9068.000000;0.826300
9067.000000;0.826665
9066.000000;0.826940
9065.000000;0.827152
9064.000000;0.827361
9063.000000;0.827580
9062.000000;0.827654
9061.000000;0.827330
9060.000000;0.826638
9059.000000;0.826065
9058.000000;0.826094
9057.000000;0.826617
9056.000000;0.827065
9055.000000;0.827111
9054.000000;0.826961
9053.000000;0.826894
