Criado como novo conjunto de dados;"e0108.spp","-4267783.9 Secs"
cm-1;Abs
10000.000000;1.098712
9999.000000;1.097872
9998.000000;1.097035
9997.000000;1.096196
9996.000000;1.095365
9995.000000;1.094522
9994.000000;1.093720
9993.000000;1.092945
9992.000000;1.091786
9991.000000;1.090149
9990.000000;1.088654
9989.000000;1.088022
9988.000000;1.088147
9987.000000;1.088128
9986.000000;1.087287
9985.000000;1.086016
9984.000000;1.085436
9983.000000;1.086194
9982.000000;1.087735
9981.000000;1.088940
9980.000000;1.089323
9979.000000;1.089288
9978.000000;1.089201
9977.000000;1.088747
9976.000000;1.087595
9975.000000;1.086272
9974.000000;1.085684
9973.000000;1.085847
9972.000000;1.085732
9971.000000;1.084514
9970.000000;1.082487
9969.000000;1.080540
9968.000000;1.079282
9967.000000;1.078945
9966.000000;1.079630
9965.000000;1.081101
9964.000000;1.082630
9963.000000;1.083581
9962.000000;1.084091
9961.000000;1.084708
9960.000000;1.085406
9959.000000;1.085467
9958.000000;1.084410
9957.000000;1.082598
9956.000000;1.080803
9955.000000;1.079571
9954.000000;1.079116
9953.000000;1.079410
9952.000000;1.080110
9951.000000;1.080719
9950.000000;1.081141
9949.000000;1.081805
9948.000000;1.082938
9947.000000;1.083915
9946.000000;1.083716
9945.000000;1.081970
9944.000000;1.079267
9943.000000;1.076511
9942.000000;1.074321
9941.000000;1.072985
9940.000000;1.072535
9939.000000;1.072743
9938.000000;1.073262
9937.000000;1.073891
9936.000000;1.074497
9935.000000;1.074715
9934.000000;1.074113
9933.000000;1.072825
9932.000000;1.071691
9931.000000;1.071437
9930.000000;1.071912
9929.000000;1.072410
9928.000000;1.072589
9927.000000;1.072733
9926.000000;1.073187
9925.000000;1.073882
9924.000000;1.074447
9923.000000;1.074508
9922.000000;1.073827
9921.000000;1.072427
9920.000000;1.070771
9919.000000;1.069635
9918.000000;1.069556
9917.000000;1.070399
9916.000000;1.071481
9915.000000;1.072054
9914.000000;1.071683
9913.000000;1.070390
9912.000000;1.068671
9911.000000;1.067271
9910.000000;1.066622
9909.000000;1.066402
9908.000000;1.065823
9907.000000;1.064485
9906.000000;1.062841
9905.000000;1.061752
9904.000000;1.061727
9903.000000;1.062559
9902.000000;1.063477
9901.000000;1.063530
9900.000000;1.062122
9899.000000;1.059591
9898.000000;1.057266
9897.000000;1.056564
9896.000000;1.057784
9895.000000;1.059869
9894.000000;1.061400
9893.000000;1.061709
9892.000000;1.060956
9891.000000;1.059538
9890.000000;1.057897
9889.000000;1.056733
9888.000000;1.056760
9887.000000;1.057937
9886.000000;1.059188
9885.000000;1.059225
9884.000000;1.057673
9883.000000;1.055317
9882.000000;1.053369
9881.000000;1.052623
9880.000000;1.053090
9879.000000;1.054138
9878.000000;1.054976
9877.000000;1.055230
9876.000000;1.055134
9875.000000;1.055137
9874.000000;1.055400
9873.000000;1.055738
9872.000000;1.055990
9871.000000;1.056249
9870.000000;1.056601
9869.000000;1.056717
9868.000000;1.055900
9867.000000;1.053759
9866.000000;1.050916
9865.000000;1.048834
9864.000000;1.048652
9863.000000;1.050096
9862.000000;1.051661
9861.000000;1.051990
9860.000000;1.051004
9859.000000;1.049588
9858.000000;1.048488
9857.000000;1.047812
9856.000000;1.047318
9855.000000;1.046783
9854.000000;1.046105
9853.000000;1.045408
9852.000000;1.045150
9851.000000;1.045851
9850.000000;1.047435
9849.000000;1.048954
9848.000000;1.049236
9847.000000;1.047912
9846.000000;1.045745
9845.000000;1.043943
9844.000000;1.043163
9843.000000;1.043090
9842.000000;1.042844
9841.000000;1.041745
9840.000000;1.039812
9839.000000;1.037753
9838.000000;1.036548
9837.000000;1.036856
9836.000000;1.038464
9835.000000;1.040264
9834.000000;1.041044
9833.000000;1.040467
9832.000000;1.039244
9831.000000;1.038380
9830.000000;1.038399
9829.000000;1.039186
9828.000000;1.040246
9827.000000;1.040978
9826.000000;1.040961
9825.000000;1.040214
9824.000000;1.039110
9823.000000;1.037933
9822.000000;1.036703
9821.000000;1.035563
9820.000000;1.035007
9819.000000;1.035364
9818.000000;1.036211
9817.000000;1.036656
9816.000000;1.036225
9815.000000;1.035224
9814.000000;1.034249
9813.000000;1.033602
9812.000000;1.033142
9811.000000;1.032460
9810.000000;1.031266
9809.000000;1.029819
9808.000000;1.028904
9807.000000;1.029058
9806.000000;1.029947
9805.000000;1.030800
9804.000000;1.031267
9803.000000;1.031419
9802.000000;1.031126
9801.000000;1.030188
9800.000000;1.029069
9799.000000;1.028709
9798.000000;1.029283
9797.000000;1.029852
9796.000000;1.029702
9795.000000;1.029380
9794.000000;1.029697
9793.000000;1.030238
9792.000000;1.029803
9791.000000;1.028164
9790.000000;1.026479
9789.000000;1.025778
9788.000000;1.025778
9787.000000;1.025527
9786.000000;1.024744
9785.000000;1.024090
9784.000000;1.024325
9783.000000;1.025538
9782.000000;1.027105
9781.000000;1.028185
9780.000000;1.028255
9779.000000;1.027276
9778.000000;1.025534
9777.000000;1.023479
9776.000000;1.021758
9775.000000;1.021036
9774.000000;1.021460
9773.000000;1.022416
9772.000000;1.023133
9771.000000;1.023413
9770.000000;1.023439
9769.000000;1.023098
9768.000000;1.022090
9767.000000;1.020663
9766.000000;1.019598
9765.000000;1.019283
9764.000000;1.019316
9763.000000;1.019226
9762.000000;1.019080
9761.000000;1.019083
9760.000000;1.019120
9759.000000;1.019116
9758.000000;1.019346
9757.000000;1.019836
9756.000000;1.019867
9755.000000;1.018742
9754.000000;1.016780
9753.000000;1.014913
9752.000000;1.013511
9751.000000;1.012353
9750.000000;1.011672
9749.000000;1.012282
9748.000000;1.014331
9747.000000;1.016574
9746.000000;1.017438
9745.000000;1.016499
9744.000000;1.014593
9743.000000;1.012827
9742.000000;1.011892
9741.000000;1.011946
9740.000000;1.012600
9739.000000;1.013114
9738.000000;1.012967
9737.000000;1.012194
9736.000000;1.011012
9735.000000;1.009437
9734.000000;1.007610
9733.000000;1.006223
9732.000000;1.006064
9731.000000;1.007162
9730.000000;1.008679
9729.000000;1.009661
9728.000000;1.009658
9727.000000;1.008652
9726.000000;1.006874
9725.000000;1.004924
9724.000000;1.003698
9723.000000;1.003786
9722.000000;1.004895
9721.000000;1.005984
9720.000000;1.006089
9719.000000;1.005112
9718.000000;1.003850
9717.000000;1.003211
9716.000000;1.003331
9715.000000;1.003558
9714.000000;1.003271
9713.000000;1.002495
9712.000000;1.001657
9711.000000;1.001090
9710.000000;1.001025
9709.000000;1.001677
9708.000000;1.002843
9707.000000;1.003622
9706.000000;1.003185
9705.000000;1.001867
9704.000000;1.000904
9703.000000;1.000951
9702.000000;1.001356
9701.000000;1.001124
9700.000000;1.000156
9699.000000;0.999170
9698.000000;0.998707
9697.000000;0.998635
9696.000000;0.998533
9695.000000;0.998273
9694.000000;0.998216
9693.000000;0.998871
9692.000000;1.000239
9691.000000;1.001482
9690.000000;1.001613
9689.000000;1.000685
9688.000000;0.999862
9687.000000;0.999950
9686.000000;1.000298
9685.000000;0.999649
9684.000000;0.997792
9683.000000;0.995737
9682.000000;0.994381
9681.000000;0.993679
9680.000000;0.993219
9679.000000;0.992961
9678.000000;0.993071
9677.000000;0.993380
9676.000000;0.993425
9675.000000;0.992970
9674.000000;0.992297
9673.000000;0.991972
9672.000000;0.992372
9671.000000;0.993339
9670.000000;0.994208
9669.000000;0.994281
9668.000000;0.993428
9667.000000;0.992220
9666.000000;0.991436
9665.000000;0.991411
9664.000000;0.991790
9663.000000;0.991856
9662.000000;0.991142
9661.000000;0.989849
9660.000000;0.988608
9659.000000;0.987770
9658.000000;0.987067
9657.000000;0.986112
9656.000000;0.985073
9655.000000;0.984555
9654.000000;0.984834
9653.000000;0.985502
9652.000000;0.985970
9651.000000;0.986086
9650.000000;0.986097
9649.000000;0.986171
9648.000000;0.986181
9647.000000;0.985882
9646.000000;0.985153
9645.000000;0.984155
9644.000000;0.983322
9643.000000;0.983069
9642.000000;0.983403
9641.000000;0.983885
9640.000000;0.984109
9639.000000;0.984133
9638.000000;0.984287
9637.000000;0.984607
9636.000000;0.984684
9635.000000;0.984159
9634.000000;0.983203
9633.000000;0.982350
9632.000000;0.981926
9631.000000;0.981828
9630.000000;0.981834
9629.000000;0.981932
9628.000000;0.982181
9627.000000;0.982412
9626.000000;0.982305
9625.000000;0.981757
9624.000000;0.980923
9623.000000;0.979893
9622.000000;0.978582
9621.000000;0.977128
9620.000000;0.976117
9619.000000;0.976091
9618.000000;0.976912
9617.000000;0.977860
9616.000000;0.978304
9615.000000;0.978113
9614.000000;0.977494
9613.000000;0.976775
9612.000000;0.976368
9611.000000;0.976585
9610.000000;0.977309
9609.000000;0.977983
9608.000000;0.978088
9607.000000;0.977564
9606.000000;0.976727
9605.000000;0.975922
9604.000000;0.975251
9603.000000;0.974486
9602.000000;0.973278
9601.000000;0.971668
9600.000000;0.970367
9599.000000;0.970150
9598.000000;0.970847
9597.000000;0.971335
9596.000000;0.970799
9595.000000;0.969692
9594.000000;0.969044
9593.000000;0.969154
9592.000000;0.969466
9591.000000;0.969596
9590.000000;0.969803
9589.000000;0.970292
9588.000000;0.970619
9587.000000;0.970214
9586.000000;0.969155
9585.000000;0.967980
9584.000000;0.966923
9583.000000;0.965810
9582.000000;0.964689
9581.000000;0.964123
9580.000000;0.964582
9579.000000;0.965774
9578.000000;0.966787
9577.000000;0.966833
9576.000000;0.965811
9575.000000;0.964306
9574.000000;0.963168
9573.000000;0.962980
9572.000000;0.963628
9571.000000;0.964332
9570.000000;0.964269
9569.000000;0.963304
9568.000000;0.962066
9567.000000;0.961300
9566.000000;0.961219
9565.000000;0.961514
9564.000000;0.961829
9563.000000;0.962090
9562.000000;0.962385
9561.000000;0.962635
9560.000000;0.962472
9559.000000;0.961565
9558.000000;0.960094
9557.000000;0.958759
9556.000000;0.958165
9555.000000;0.958237
9554.000000;0.958379
9553.000000;0.958228
9552.000000;0.958022
9551.000000;0.958169
9550.000000;0.958696
9549.000000;0.959291
9548.000000;0.959700
9547.000000;0.959848
9546.000000;0.959656
9545.000000;0.959028
9544.000000;0.958066
9543.000000;0.957143
9542.000000;0.956655
9541.000000;0.956733
9540.000000;0.957137
9539.000000;0.957365
9538.000000;0.956989
9537.000000;0.956033
9536.000000;0.954987
9535.000000;0.954312
9534.000000;0.953993
9533.000000;0.953712
9532.000000;0.953308
9531.000000;0.952837
9530.000000;0.952294
9529.000000;0.951647
9528.000000;0.951170
9527.000000;0.951347
9526.000000;0.952289
9525.000000;0.953476
9524.000000;0.954225
9523.000000;0.954210
9522.000000;0.953418
9521.000000;0.951948
9520.000000;0.950178
9519.000000;0.948914
9518.000000;0.948875
9517.000000;0.949968
9516.000000;0.951319
9515.000000;0.952105
9514.000000;0.952166
9513.000000;0.951821
9512.000000;0.951344
9511.000000;0.950831
9510.000000;0.950442
9509.000000;0.950485
9508.000000;0.951092
9507.000000;0.951852
9506.000000;0.952012
9505.000000;0.951230
9504.000000;0.950026
9503.000000;0.949232
9502.000000;0.949020
9501.000000;0.948829
9500.000000;0.948310
9499.000000;0.947912
9498.000000;0.948130
9497.000000;0.948494
9496.000000;0.947985
9495.000000;0.946493
9494.000000;0.945177
9493.000000;0.945042
9492.000000;0.945661
9491.000000;0.945818
9490.000000;0.945129
9489.000000;0.944398
9488.000000;0.944346
9487.000000;0.944584
9486.000000;0.944192
9485.000000;0.942990
9484.000000;0.941792
9483.000000;0.941468
9482.000000;0.942075
9481.000000;0.942898
9480.000000;0.943125
9479.000000;0.942395
9478.000000;0.940962
9477.000000;0.939492
9476.000000;0.938627
9475.000000;0.938502
9474.000000;0.938641
9473.000000;0.938410
9472.000000;0.937647
9471.000000;0.936839
9470.000000;0.936651
9469.000000;0.937303
9468.000000;0.938326
9467.000000;0.938893
9466.000000;0.938475
9465.000000;0.937308
9464.000000;0.936270
9463.000000;0.936187
9462.000000;0.937151
9461.000000;0.938421
9460.000000;0.939028
9459.000000;0.938529
9458.000000;0.937261
9457.000000;0.935962
9456.000000;0.935191
9455.000000;0.935007
9454.000000;0.935022
9453.000000;0.934754
9452.000000;0.934045
9451.000000;0.933215
9450.000000;0.932820
9449.000000;0.933193
9448.000000;0.934152
9447.000000;0.935106
9446.000000;0.935522
9445.000000;0.935393
9444.000000;0.935266
9443.000000;0.935689
9442.000000;0.936574
9441.000000;0.937184
9440.000000;0.936827
9439.000000;0.935533
9438.000000;0.933996
9437.000000;0.932921
9436.000000;0.932519
9435.000000;0.932545
9434.000000;0.932619
9433.000000;0.932467
9432.000000;0.932032
9431.000000;0.931467
9430.000000;0.931022
9429.000000;0.930854
9428.000000;0.930905
9427.000000;0.930953
9426.000000;0.930829
9425.000000;0.930645
9424.000000;0.930716
9423.000000;0.931119
9422.000000;0.931357
9421.000000;0.930768
9420.000000;0.929407
9419.000000;0.928245
9418.000000;0.928153
9417.000000;0.928868
9416.000000;0.929358
9415.000000;0.929139
9414.000000;0.928683
9413.000000;0.928477
9412.000000;0.928281
9411.000000;0.927666
9410.000000;0.926848
9409.000000;0.926488
9408.000000;0.926851
9407.000000;0.927611
9406.000000;0.928358
9405.000000;0.928849
9404.000000;0.928786
9403.000000;0.927878
9402.000000;0.926329
9401.000000;0.924881
9400.000000;0.924154
9399.000000;0.924125
9398.000000;0.924402
9397.000000;0.924731
9396.000000;0.925010
9395.000000;0.925062
9394.000000;0.924717
9393.000000;0.924039
9392.000000;0.923239
9391.000000;0.922457
9390.000000;0.921811
9389.000000;0.921530
9388.000000;0.921748
9387.000000;0.922204
9386.000000;0.922398
9385.000000;0.922100
9384.000000;0.921523
9383.000000;0.921003
9382.000000;0.920697
9381.000000;0.920591
9380.000000;0.920536
9379.000000;0.920168
9378.000000;0.919117
9377.000000;0.917518
9376.000000;0.916185
9375.000000;0.916005
9374.000000;0.917109
9373.000000;0.918753
9372.000000;0.920041
9371.000000;0.920637
9370.000000;0.920764
9369.000000;0.920722
9368.000000;0.920636
9367.000000;0.920578
9366.000000;0.920629
9365.000000;0.920657
9364.000000;0.920219
9363.000000;0.918974
9362.000000;0.917215
9361.000000;0.915773
9360.000000;0.915282
9359.000000;0.915657
9358.000000;0.916340
9357.000000;0.916887
9356.000000;0.917194
9355.000000;0.917312
9354.000000;0.917266
9353.000000;0.917031
9352.000000;0.916593
9351.000000;0.915979
9350.000000;0.915261
9349.000000;0.914490
9348.000000;0.913595
9347.000000;0.912471
9346.000000;0.911300
9345.000000;0.910649
9344.000000;0.910982
9343.000000;0.912047
9342.000000;0.912979
9341.000000;0.913089
9340.000000;0.912437
9339.000000;0.911607
9338.000000;0.911125
9337.000000;0.911204
9336.000000;0.911811
9335.000000;0.912708
9334.000000;0.913489
9333.000000;0.913814
9332.000000;0.913638
9331.000000;0.913095
9330.000000;0.912208
9329.000000;0.910909
9328.000000;0.909407
9327.000000;0.908316
9326.000000;0.908187
9325.000000;0.908920
9324.000000;0.909797
9323.000000;0.910183
9322.000000;0.910102
9321.000000;0.910011
9320.000000;0.910108
9319.000000;0.910128
9318.000000;0.909848
9317.000000;0.909524
9316.000000;0.909545
9315.000000;0.909806
9314.000000;0.909789
9313.000000;0.909280
9312.000000;0.908688
9311.000000;0.908478
9310.000000;0.908539
9309.000000;0.908374
9308.000000;0.907792
9307.000000;0.907160
9306.000000;0.906954
9305.000000;0.907247
9304.000000;0.907695
9303.000000;0.907929
9302.000000;0.907906
9301.000000;0.907864
9300.000000;0.907962
9299.000000;0.907989
9298.000000;0.907583
9297.000000;0.906785
9296.000000;0.906189
9295.000000;0.906333
9294.000000;0.906983
9293.000000;0.907237
9292.000000;0.906386
9291.000000;0.904639
9290.000000;0.902977
9289.000000;0.902365
9288.000000;0.902995
9287.000000;0.904141
9286.000000;0.904753
9285.000000;0.904367
9284.000000;0.903435
9283.000000;0.902736
9282.000000;0.902606
9281.000000;0.902884
9280.000000;0.903365
9279.000000;0.903902
9278.000000;0.904120
9277.000000;0.903524
9276.000000;0.902172
9275.000000;0.900876
9274.000000;0.900421
9273.000000;0.900749
9272.000000;0.901180
9271.000000;0.901268
9270.000000;0.901124
9269.000000;0.901015
9268.000000;0.901009
9267.000000;0.901063
9266.000000;0.901168
9265.000000;0.901279
9264.000000;0.901301
9263.000000;0.901238
9262.000000;0.901232
9261.000000;0.901423
9260.000000;0.901872
9259.000000;0.902538
9258.000000;0.903104
9257.000000;0.902912
9256.000000;0.901471
9255.000000;0.899181
9254.000000;0.897204
9253.000000;0.896383
9252.000000;0.896503
9251.000000;0.896769
9250.000000;0.896728
9249.000000;0.896457
9248.000000;0.896107
9247.000000;0.895703
9246.000000;0.895366
9245.000000;0.895371
9244.000000;0.895880
9243.000000;0.896809
9242.000000;0.897945
9241.000000;0.899046
9240.000000;0.899818
9239.000000;0.900040
9238.000000;0.899782
9237.000000;0.899306
9236.000000;0.898721
9235.000000;0.898015
9234.000000;0.897402
9233.000000;0.897251
9232.000000;0.897489
9231.000000;0.897437
9230.000000;0.896562
9229.000000;0.895181
9228.000000;0.894127
9227.000000;0.893869
9226.000000;0.894214
9225.000000;0.894748
9224.000000;0.895249
9223.000000;0.895612
9222.000000;0.895660
9221.000000;0.895220
9220.000000;0.894343
9219.000000;0.893375
9218.000000;0.892756
9217.000000;0.892677
9216.000000;0.892889
9215.000000;0.892970
9214.000000;0.892853
9213.000000;0.892955
9212.000000;0.893635
9211.000000;0.894620
9210.000000;0.895144
9209.000000;0.894708
9208.000000;0.893605
9207.000000;0.892680
9206.000000;0.892590
9205.000000;0.893234
9204.000000;0.893837
9203.000000;0.893678
9202.000000;0.892797
9201.000000;0.891872
9200.000000;0.891356
9199.000000;0.890970
9198.000000;0.890198
9197.000000;0.889087
9196.000000;0.888250
9195.000000;0.888171
9194.000000;0.888776
9193.000000;0.889619
9192.000000;0.890209
9191.000000;0.890183
9190.000000;0.889466
9189.000000;0.888389
9188.000000;0.887469
9187.000000;0.887008
9186.000000;0.886956
9185.000000;0.887109
9184.000000;0.887265
9183.000000;0.887233
9182.000000;0.886949
9181.000000;0.886548
9180.000000;0.886129
9179.000000;0.885519
9178.000000;0.884593
9177.000000;0.883797
9176.000000;0.883894
9175.000000;0.885057
9174.000000;0.886574
9173.000000;0.887632
9172.000000;0.888082
9171.000000;0.888180
9170.000000;0.887929
9169.000000;0.887098
9168.000000;0.885767
9167.000000;0.884443
9166.000000;0.883670
9165.000000;0.883722
9164.000000;0.884564
9163.000000;0.885833
9162.000000;0.886897
9161.000000;0.887234
9160.000000;0.886829
9159.000000;0.886074
9158.000000;0.885348
9157.000000;0.884867
9156.000000;0.884750
9155.000000;0.884914
9154.000000;0.884959
9153.000000;0.884542
9152.000000;0.883904
9151.000000;0.883699
9150.000000;0.884158
9149.000000;0.884760
9148.000000;0.884886
9147.000000;0.884571
9146.000000;0.884340
9145.000000;0.884505
9144.000000;0.884857
9143.000000;0.884964
9142.000000;0.884535
9141.000000;0.883561
9140.000000;0.882383
9139.000000;0.881616
9138.000000;0.881733
9137.000000;0.882553
9136.000000;0.883262
9135.000000;0.883156
9134.000000;0.882342
9133.000000;0.881611
9132.000000;0.881623
9131.000000;0.882324
9130.000000;0.883123
9129.000000;0.883464
9128.000000;0.883181
9127.000000;0.882422
9126.000000;0.881424
9125.000000;0.880404
9124.000000;0.879546
9123.000000;0.878994
9122.000000;0.878800
9121.000000;0.878901
9120.000000;0.879168
9119.000000;0.879483
9118.000000;0.879808
9117.000000;0.880160
9116.000000;0.880484
9115.000000;0.880570
9114.000000;0.880204
9113.000000;0.879419
9112.000000;0.878544
9111.000000;0.877984
9110.000000;0.878001
9109.000000;0.878646
9108.000000;0.879733
9107.000000;0.880814
9106.000000;0.881351
9105.000000;0.881136
9104.000000;0.880497
9103.000000;0.879981
9102.000000;0.879824
9101.000000;0.879835
9100.000000;0.879768
9099.000000;0.879644
9098.000000;0.879647
9097.000000;0.879835
9096.000000;0.880076
9095.000000;0.880258
9094.000000;0.880405
9093.000000;0.880538
9092.000000;0.880518
9091.000000;0.880175
9090.000000;0.879573
9089.000000;0.879001
9088.000000;0.878602
9087.000000;0.878179
9086.000000;0.877512
9085.000000;0.876810
9084.000000;0.876578
9083.000000;0.877020
9082.000000;0.877772
9081.000000;0.878289
9080.000000;0.878318
9079.000000;0.877901
9078.000000;0.877136
9077.000000;0.876195
9076.000000;0.875450
9075.000000;0.875272
9074.000000;0.875632
9073.000000;0.876065
9072.000000;0.876139
9071.000000;0.875905
9070.000000;0.875798
9069.000000;0.876114
9068.000000;0.876614
9067.000000;0.876680
9066.000000;0.875904
9065.000000;0.874525
9064.000000;0.873218
9063.000000;0.872483
9062.000000;0.872350
9061.000000;0.872630
9060.000000;0.873182
9059.000000;0.873808
9058.000000;0.874146
9057.000000;0.874010
9056.000000;0.873761
9055.000000;0.873970
9054.000000;0.874701
9053.000000;0.875371
