Criado como novo conjunto de dados;"e0108.spp","-4217741.4 Secs"
cm-1;Abs
10000.000000;2.006778
9999.000000;1.987592
9998.000000;1.976008
9997.000000;1.976698
9996.000000;1.986995
9995.000000;1.999523
9994.000000;2.007669
9993.000000;2.008892
9992.000000;2.004603
9991.000000;1.998570
9990.000000;1.994238
9989.000000;1.992864
9988.000000;1.993437
9987.000000;1.994030
9986.000000;1.994163
9985.000000;1.995501
9984.000000;1.999202
9983.000000;2.003064
9982.000000;2.003057
9981.000000;1.999233
9980.000000;1.997991
9979.000000;2.005248
9978.000000;2.018525
9977.000000;2.027890
9976.000000;2.025882
9975.000000;2.014838
9974.000000;2.002155
9973.000000;1.992524
9972.000000;1.987128
9971.000000;1.986013
9970.000000;1.987862
9969.000000;1.989201
9968.000000;1.986802
9967.000000;1.980413
9966.000000;1.971830
9965.000000;1.962872
9964.000000;1.956257
9963.000000;1.956771
9962.000000;1.967035
9961.000000;1.981957
9960.000000;1.991192
9959.000000;1.989246
9958.000000;1.980319
9957.000000;1.971157
9956.000000;1.964038
9955.000000;1.958367
9954.000000;1.955041
9953.000000;1.955986
9952.000000;1.960683
9951.000000;1.965967
9950.000000;1.969118
9949.000000;1.969733
9948.000000;1.969092
9947.000000;1.968626
9946.000000;1.969135
9945.000000;1.970093
9944.000000;1.969535
9943.000000;1.965983
9942.000000;1.960537
9941.000000;1.956934
9940.000000;1.958428
9939.000000;1.964557
9938.000000;1.971472
9937.000000;1.975276
9936.000000;1.973835
9935.000000;1.966423
9934.000000;1.955832
9933.000000;1.948232
9932.000000;1.947934
9931.000000;1.953692
9930.000000;1.959936
9929.000000;1.961873
9928.000000;1.959805
9927.000000;1.957705
9926.000000;1.958110
9925.000000;1.959926
9924.000000;1.961038
9923.000000;1.960404
9922.000000;1.957767
9921.000000;1.953489
9920.000000;1.948906
9919.000000;1.946176
9918.000000;1.946593
9917.000000;1.949916
9916.000000;1.955192
9915.000000;1.960853
9914.000000;1.965234
9913.000000;1.967780
9912.000000;1.969205
9911.000000;1.970111
9910.000000;1.969628
9909.000000;1.966368
9908.000000;1.960620
9907.000000;1.954471
9906.000000;1.950350
9905.000000;1.950193
9904.000000;1.954333
9903.000000;1.959678
9902.000000;1.960482
9901.000000;1.953852
9900.000000;1.943262
9899.000000;1.934288
9898.000000;1.929205
9897.000000;1.927438
9896.000000;1.929430
9895.000000;1.937155
9894.000000;1.950302
9893.000000;1.964093
9892.000000;1.972674
9891.000000;1.974204
9890.000000;1.971031
9889.000000;1.965951
9888.000000;1.960700
9887.000000;1.956499
9886.000000;1.953644
9885.000000;1.951603
9884.000000;1.950179
9883.000000;1.949723
9882.000000;1.950280
9881.000000;1.950767
9880.000000;1.949647
9879.000000;1.946729
9878.000000;1.943123
9877.000000;1.939512
9876.000000;1.935869
9875.000000;1.932524
9874.000000;1.930340
9873.000000;1.929903
9872.000000;1.931242
9871.000000;1.934103
9870.000000;1.937415
9869.000000;1.938634
9868.000000;1.935100
9867.000000;1.926964
9866.000000;1.918616
9865.000000;1.916340
9864.000000;1.923562
9863.000000;1.937453
9862.000000;1.950330
9861.000000;1.956025
9860.000000;1.954743
9859.000000;1.950173
9858.000000;1.944525
9857.000000;1.939331
9856.000000;1.938086
9855.000000;1.943364
9854.000000;1.951334
9853.000000;1.953184
9852.000000;1.945057
9851.000000;1.933646
9850.000000;1.928587
9849.000000;1.932487
9848.000000;1.939949
9847.000000;1.944449
9846.000000;1.944186
9845.000000;1.940609
9844.000000;1.935455
9843.000000;1.930414
9842.000000;1.926461
9841.000000;1.924019
9840.000000;1.924188
9839.000000;1.928764
9838.000000;1.938665
9837.000000;1.951750
9836.000000;1.961983
9835.000000;1.962965
9834.000000;1.954243
9833.000000;1.941927
9832.000000;1.932690
9831.000000;1.928668
9830.000000;1.927663
9829.000000;1.926861
9828.000000;1.925168
9827.000000;1.922558
9826.000000;1.919572
9825.000000;1.918166
9824.000000;1.920450
9823.000000;1.924802
9822.000000;1.925550
9821.000000;1.919646
9820.000000;1.911516
9819.000000;1.907560
9818.000000;1.908228
9817.000000;1.908882
9816.000000;1.907543
9815.000000;1.907735
9814.000000;1.912667
9813.000000;1.921399
9812.000000;1.932179
9811.000000;1.944801
9810.000000;1.957643
9809.000000;1.966127
9808.000000;1.967260
9807.000000;1.963436
9806.000000;1.957982
9805.000000;1.950108
9804.000000;1.938931
9803.000000;1.928577
9802.000000;1.924045
9801.000000;1.925169
9800.000000;1.927883
9799.000000;1.929043
9798.000000;1.927723
9797.000000;1.923829
9796.000000;1.918139
9795.000000;1.912571
9794.000000;1.908217
9793.000000;1.903946
9792.000000;1.898690
9791.000000;1.894416
9790.000000;1.895150
9789.000000;1.902431
9788.000000;1.913161
9787.000000;1.922787
9786.000000;1.928465
9785.000000;1.929137
9784.000000;1.925287
9783.000000;1.918742
9782.000000;1.911779
9781.000000;1.906357
9780.000000;1.903883
9779.000000;1.904443
9778.000000;1.906074
9777.000000;1.906294
9776.000000;1.905405
9775.000000;1.907086
9774.000000;1.913755
9773.000000;1.922928
9772.000000;1.930198
9771.000000;1.933404
9770.000000;1.931906
9769.000000;1.924080
9768.000000;1.909276
9767.000000;1.891858
9766.000000;1.878914
9765.000000;1.874416
9764.000000;1.877713
9763.000000;1.886131
9762.000000;1.897046
9761.000000;1.907541
9760.000000;1.914660
9759.000000;1.917749
9758.000000;1.918853
9757.000000;1.919314
9756.000000;1.917724
9755.000000;1.912534
9754.000000;1.904905
9753.000000;1.897614
9752.000000;1.892172
9751.000000;1.888018
9750.000000;1.884225
9749.000000;1.881477
9748.000000;1.882144
9747.000000;1.888313
9746.000000;1.899218
9745.000000;1.909876
9744.000000;1.913536
9743.000000;1.907531
9742.000000;1.895868
9741.000000;1.885579
9740.000000;1.881181
9739.000000;1.882433
9738.000000;1.886835
9737.000000;1.892833
9736.000000;1.900234
9735.000000;1.908326
9734.000000;1.914363
9733.000000;1.915567
9732.000000;1.913120
9731.000000;1.911464
9730.000000;1.912584
9729.000000;1.913555
9728.000000;1.911100
9727.000000;1.906537
9726.000000;1.903811
9725.000000;1.903956
9724.000000;1.904051
9723.000000;1.901088
9722.000000;1.895050
9721.000000;1.888137
9720.000000;1.882707
9719.000000;1.880365
9718.000000;1.881166
9717.000000;1.883512
9716.000000;1.886414
9715.000000;1.890713
9714.000000;1.896622
9713.000000;1.901709
9712.000000;1.904104
9711.000000;1.906084
9710.000000;1.910261
9709.000000;1.913769
9708.000000;1.910488
9707.000000;1.899574
9706.000000;1.887263
9705.000000;1.879092
9704.000000;1.874862
9703.000000;1.872071
9702.000000;1.870923
9701.000000;1.873547
9700.000000;1.880114
9699.000000;1.888381
9698.000000;1.895648
9697.000000;1.899292
9696.000000;1.897288
9695.000000;1.890623
9694.000000;1.884022
9693.000000;1.882066
9692.000000;1.884965
9691.000000;1.889002
9690.000000;1.890561
9689.000000;1.888814
9688.000000;1.885101
9687.000000;1.881147
9686.000000;1.877655
9685.000000;1.873655
9684.000000;1.867972
9683.000000;1.862181
9682.000000;1.860811
9681.000000;1.867077
9680.000000;1.878392
9679.000000;1.886981
9678.000000;1.886506
9677.000000;1.877801
9676.000000;1.867099
9675.000000;1.860497
9674.000000;1.860197
9673.000000;1.863936
9672.000000;1.867586
9671.000000;1.869080
9670.000000;1.869823
9669.000000;1.871943
9668.000000;1.875039
9667.000000;1.876504
9666.000000;1.874696
9665.000000;1.870976
9664.000000;1.867740
9663.000000;1.865411
9662.000000;1.863465
9661.000000;1.862651
9660.000000;1.863340
9659.000000;1.863261
9658.000000;1.859452
9657.000000;1.852412
9656.000000;1.846744
9655.000000;1.846892
9654.000000;1.852857
9653.000000;1.860491
9652.000000;1.865946
9651.000000;1.869263
9650.000000;1.872975
9649.000000;1.878192
9648.000000;1.883356
9647.000000;1.885969
9646.000000;1.884209
9645.000000;1.878134
9644.000000;1.870619
9643.000000;1.866086
9642.000000;1.867046
9641.000000;1.871378
9640.000000;1.873838
9639.000000;1.871345
9638.000000;1.865662
9637.000000;1.860205
9636.000000;1.856289
9635.000000;1.853381
9634.000000;1.851472
9633.000000;1.851178
9632.000000;1.851426
9631.000000;1.849457
9630.000000;1.845060
9629.000000;1.842496
9628.000000;1.845323
9627.000000;1.851142
9626.000000;1.853809
9625.000000;1.850823
9624.000000;1.846607
9623.000000;1.847396
9622.000000;1.854657
9621.000000;1.864253
9620.000000;1.870986
9619.000000;1.872926
9618.000000;1.871150
9617.000000;1.867435
9616.000000;1.863959
9615.000000;1.863225
9614.000000;1.865964
9613.000000;1.869844
9612.000000;1.871622
9611.000000;1.869890
9610.000000;1.864843
9609.000000;1.856967
9608.000000;1.847788
9607.000000;1.841117
9606.000000;1.840867
9605.000000;1.846790
9604.000000;1.853653
9603.000000;1.856127
9602.000000;1.854533
9601.000000;1.853773
9600.000000;1.857090
9599.000000;1.862874
9598.000000;1.867148
9597.000000;1.867810
9596.000000;1.865730
9595.000000;1.862851
9594.000000;1.860430
9593.000000;1.858291
9592.000000;1.854984
9591.000000;1.849397
9590.000000;1.842885
9589.000000;1.838894
9588.000000;1.839607
9587.000000;1.843512
9586.000000;1.847259
9585.000000;1.849834
9584.000000;1.853176
9583.000000;1.858175
9582.000000;1.862395
9581.000000;1.863318
9580.000000;1.862150
9579.000000;1.861816
9578.000000;1.862058
9577.000000;1.859021
9576.000000;1.850615
9575.000000;1.840457
9574.000000;1.834697
9573.000000;1.836329
9572.000000;1.843112
9571.000000;1.849688
9570.000000;1.851604
9569.000000;1.848317
9568.000000;1.842969
9567.000000;1.839193
9566.000000;1.838081
9565.000000;1.838329
9564.000000;1.838841
9563.000000;1.839925
9562.000000;1.841653
9561.000000;1.842843
9560.000000;1.842784
9559.000000;1.842642
9558.000000;1.843638
9557.000000;1.844704
9556.000000;1.843849
9555.000000;1.841205
9554.000000;1.838728
9553.000000;1.837280
9552.000000;1.836086
9551.000000;1.835362
9550.000000;1.837133
9549.000000;1.842236
9548.000000;1.847808
9547.000000;1.848963
9546.000000;1.843671
9545.000000;1.835382
9544.000000;1.829888
9543.000000;1.830102
9542.000000;1.833986
9541.000000;1.837062
9540.000000;1.836966
9539.000000;1.835226
9538.000000;1.834617
9537.000000;1.836142
9536.000000;1.839092
9535.000000;1.842522
9534.000000;1.845529
9533.000000;1.846883
9532.000000;1.845548
9531.000000;1.841870
9530.000000;1.837350
9529.000000;1.833039
9528.000000;1.829623
9527.000000;1.828073
9526.000000;1.828137
9525.000000;1.827988
9524.000000;1.826871
9523.000000;1.825890
9522.000000;1.825029
9521.000000;1.822162
9520.000000;1.816955
9519.000000;1.813266
9518.000000;1.815157
9517.000000;1.821859
9516.000000;1.828656
9515.000000;1.832736
9514.000000;1.835558
9513.000000;1.837992
9512.000000;1.837088
9511.000000;1.831035
9510.000000;1.823904
9509.000000;1.821535
9508.000000;1.824644
9507.000000;1.828526
9506.000000;1.829052
9505.000000;1.826376
9504.000000;1.823107
9503.000000;1.822365
9502.000000;1.827022
9501.000000;1.837863
9500.000000;1.851362
9499.000000;1.860175
9498.000000;1.857937
9497.000000;1.845017
9496.000000;1.828999
9495.000000;1.818593
9494.000000;1.817757
9493.000000;1.825008
9492.000000;1.835918
9491.000000;1.845808
9490.000000;1.851465
9489.000000;1.851584
9488.000000;1.847056
9487.000000;1.840996
9486.000000;1.836641
9485.000000;1.834410
9484.000000;1.831765
9483.000000;1.827170
9482.000000;1.823171
9481.000000;1.823249
9480.000000;1.826799
9479.000000;1.829419
9478.000000;1.828342
9477.000000;1.825367
9476.000000;1.823284
9475.000000;1.821718
9474.000000;1.818314
9473.000000;1.812972
9472.000000;1.808302
9471.000000;1.806515
9470.000000;1.807907
9469.000000;1.811618
9468.000000;1.816197
9467.000000;1.819149
9466.000000;1.817903
9465.000000;1.813016
9464.000000;1.809125
9463.000000;1.810994
9462.000000;1.818693
9461.000000;1.826929
9460.000000;1.829733
9459.000000;1.826054
9458.000000;1.819729
9457.000000;1.814853
9456.000000;1.812784
9455.000000;1.812369
9454.000000;1.811111
9453.000000;1.806765
9452.000000;1.799826
9451.000000;1.794286
9450.000000;1.794103
9449.000000;1.798769
9448.000000;1.803659
9447.000000;1.805459
9446.000000;1.805759
9445.000000;1.807548
9444.000000;1.810065
9443.000000;1.809698
9442.000000;1.805355
9441.000000;1.800401
9440.000000;1.798770
9439.000000;1.801036
9438.000000;1.804470
9437.000000;1.805779
9436.000000;1.803959
9435.000000;1.801346
9434.000000;1.801781
9433.000000;1.806853
9432.000000;1.813590
9431.000000;1.816607
9430.000000;1.813394
9429.000000;1.806756
9428.000000;1.801448
9427.000000;1.799680
9426.000000;1.800505
9425.000000;1.802259
9424.000000;1.804464
9423.000000;1.807563
9422.000000;1.811489
9421.000000;1.815051
9420.000000;1.816732
9419.000000;1.815815
9418.000000;1.812798
9417.000000;1.808621
9416.000000;1.803774
9415.000000;1.798936
9414.000000;1.796051
9413.000000;1.797352
9412.000000;1.802743
9411.000000;1.808460
9410.000000;1.809235
9409.000000;1.802965
9408.000000;1.792988
9407.000000;1.785358
9406.000000;1.784558
9405.000000;1.790558
9404.000000;1.798727
9403.000000;1.803899
9402.000000;1.805052
9401.000000;1.804835
9400.000000;1.805261
9399.000000;1.805599
9398.000000;1.804349
9397.000000;1.801523
9396.000000;1.798038
9395.000000;1.794607
9394.000000;1.792463
9393.000000;1.793307
9392.000000;1.797090
9391.000000;1.801010
9390.000000;1.802047
9389.000000;1.800028
9388.000000;1.797146
9387.000000;1.795048
9386.000000;1.793863
9385.000000;1.793712
9384.000000;1.794842
9383.000000;1.796117
9382.000000;1.795775
9381.000000;1.794002
9380.000000;1.792938
9379.000000;1.793607
9378.000000;1.794124
9377.000000;1.791915
9376.000000;1.786988
9375.000000;1.782177
9374.000000;1.780535
9373.000000;1.782706
9372.000000;1.786339
9371.000000;1.788229
9370.000000;1.787792
9369.000000;1.787712
9368.000000;1.790138
9367.000000;1.793433
9366.000000;1.794178
9365.000000;1.792034
9364.000000;1.790608
9363.000000;1.792914
9362.000000;1.797893
9361.000000;1.802272
9360.000000;1.804355
9359.000000;1.804478
9358.000000;1.802732
9357.000000;1.798269
9356.000000;1.790911
9355.000000;1.782377
9354.000000;1.775701
9353.000000;1.773490
9352.000000;1.776040
9351.000000;1.780695
9350.000000;1.783632
9349.000000;1.782942
9348.000000;1.779710
9347.000000;1.775997
9346.000000;1.773068
9345.000000;1.771963
9344.000000;1.773740
9343.000000;1.778011
9342.000000;1.782584
9341.000000;1.785776
9340.000000;1.788171
9339.000000;1.790931
9338.000000;1.793605
9337.000000;1.795078
9336.000000;1.795654
9335.000000;1.796286
9334.000000;1.796103
9333.000000;1.792962
9332.000000;1.787129
9331.000000;1.782104
9330.000000;1.780727
9329.000000;1.782529
9328.000000;1.785613
9327.000000;1.788958
9326.000000;1.792041
9325.000000;1.793944
9324.000000;1.793855
9323.000000;1.791790
9322.000000;1.788315
9321.000000;1.784011
9320.000000;1.779435
9319.000000;1.774977
9318.000000;1.770826
9317.000000;1.767940
9316.000000;1.768670
9315.000000;1.774765
9314.000000;1.784174
9313.000000;1.791122
9312.000000;1.791053
9311.000000;1.785024
9310.000000;1.777693
9309.000000;1.772252
9308.000000;1.768878
9307.000000;1.766844
9306.000000;1.766105
9305.000000;1.766530
9304.000000;1.766965
9303.000000;1.766098
9302.000000;1.764002
9301.000000;1.762056
9300.000000;1.761245
9299.000000;1.761096
9298.000000;1.760764
9297.000000;1.760852
9296.000000;1.763149
9295.000000;1.768155
9294.000000;1.773752
9293.000000;1.777221
9292.000000;1.778113
9291.000000;1.777935
9290.000000;1.777485
9289.000000;1.776348
9288.000000;1.774749
9287.000000;1.773829
9286.000000;1.773867
9285.000000;1.773903
9284.000000;1.773714
9283.000000;1.774841
9282.000000;1.778543
9281.000000;1.783575
9280.000000;1.787096
9279.000000;1.787213
9278.000000;1.784015
9277.000000;1.778999
9276.000000;1.774251
9275.000000;1.771583
9274.000000;1.771464
9273.000000;1.772540
9272.000000;1.772523
9271.000000;1.769821
9270.000000;1.764726
9269.000000;1.759492
9268.000000;1.756879
9267.000000;1.757624
9266.000000;1.759409
9265.000000;1.759223
9264.000000;1.756883
9263.000000;1.755043
9262.000000;1.755465
9261.000000;1.757119
9260.000000;1.758736
9259.000000;1.761325
9258.000000;1.766575
9257.000000;1.773586
9256.000000;1.778796
9255.000000;1.779348
9254.000000;1.775397
9253.000000;1.769218
9252.000000;1.763577
9251.000000;1.760712
9250.000000;1.761107
9249.000000;1.762874
9248.000000;1.763781
9247.000000;1.763781
9246.000000;1.763849
9245.000000;1.763624
9244.000000;1.762051
9243.000000;1.759244
9242.000000;1.756348
9241.000000;1.754060
9240.000000;1.752578
9239.000000;1.752589
9238.000000;1.754632
9237.000000;1.757390
9236.000000;1.758310
9235.000000;1.756566
9234.000000;1.754103
9233.000000;1.753128
9232.000000;1.754014
9231.000000;1.756067
9230.000000;1.758682
9229.000000;1.760993
9228.000000;1.761700
9227.000000;1.760463
9226.000000;1.758701
9225.000000;1.758269
9224.000000;1.760087
9223.000000;1.764078
9222.000000;1.769076
9221.000000;1.772463
9220.000000;1.771715
9219.000000;1.767635
9218.000000;1.764359
9217.000000;1.765050
9216.000000;1.768936
9215.000000;1.773123
9214.000000;1.775988
9213.000000;1.777474
9212.000000;1.777162
9211.000000;1.774300
9210.000000;1.769517
9209.000000;1.764834
9208.000000;1.761831
9207.000000;1.760662
9206.000000;1.760809
9205.000000;1.761834
9204.000000;1.763201
9203.000000;1.764008
9202.000000;1.763151
9201.000000;1.759964
9200.000000;1.755309
9199.000000;1.751879
9198.000000;1.752315
9197.000000;1.756211
9196.000000;1.759486
9195.000000;1.758141
9194.000000;1.752726
9193.000000;1.747555
9192.000000;1.745821
9191.000000;1.746973
9190.000000;1.748245
9189.000000;1.747446
9188.000000;1.744648
9187.000000;1.742166
9186.000000;1.742670
9185.000000;1.746540
9184.000000;1.751223
9183.000000;1.753864
9182.000000;1.754393
9181.000000;1.754954
9180.000000;1.756546
9179.000000;1.757934
9178.000000;1.758132
9177.000000;1.757986
9176.000000;1.758063
9175.000000;1.756757
9174.000000;1.752282
9173.000000;1.745675
9172.000000;1.740394
9171.000000;1.739243
9170.000000;1.742263
9169.000000;1.747281
9168.000000;1.751889
9167.000000;1.754829
9166.000000;1.756291
9165.000000;1.757447
9164.000000;1.759328
9163.000000;1.761607
9162.000000;1.762425
9161.000000;1.760027
9160.000000;1.754830
9159.000000;1.749358
9158.000000;1.746259
9157.000000;1.746577
9156.000000;1.749627
9155.000000;1.753926
9154.000000;1.757572
9153.000000;1.758435
9152.000000;1.755910
9151.000000;1.752774
9150.000000;1.753298
9149.000000;1.758383
9148.000000;1.763762
9147.000000;1.764757
9146.000000;1.762197
9145.000000;1.760585
9144.000000;1.760847
9143.000000;1.758684
9142.000000;1.751217
9141.000000;1.741946
9140.000000;1.736498
9139.000000;1.736413
9138.000000;1.739345
9137.000000;1.743098
9136.000000;1.746572
9135.000000;1.747611
9134.000000;1.743985
9133.000000;1.737588
9132.000000;1.734218
9131.000000;1.737497
9130.000000;1.744766
9129.000000;1.749960
9128.000000;1.749955
9127.000000;1.746758
9126.000000;1.743933
9125.000000;1.743106
9124.000000;1.743953
9123.000000;1.745558
9122.000000;1.747148
9121.000000;1.748488
9120.000000;1.750135
9119.000000;1.752721
9118.000000;1.755642
9117.000000;1.756929
9116.000000;1.754898
9115.000000;1.749851
9114.000000;1.743926
9113.000000;1.739449
9112.000000;1.737444
9111.000000;1.737381
9110.000000;1.738112
9109.000000;1.738894
9108.000000;1.739349
9107.000000;1.738820
9106.000000;1.736641
9105.000000;1.733179
9104.000000;1.730088
9103.000000;1.729005
9102.000000;1.730058
9101.000000;1.732042
9100.000000;1.733952
9099.000000;1.736036
9098.000000;1.739337
9097.000000;1.744353
9096.000000;1.750118
9095.000000;1.754343
9094.000000;1.754813
9093.000000;1.751334
9092.000000;1.745960
9091.000000;1.741077
9090.000000;1.737817
9089.000000;1.736150
9088.000000;1.735631
9087.000000;1.735701
9086.000000;1.735894
9085.000000;1.736283
9084.000000;1.737373
9083.000000;1.739063
9082.000000;1.740040
9081.000000;1.738668
9080.000000;1.734386
9079.000000;1.728220
9078.000000;1.722513
9077.000000;1.720341
9076.000000;1.724016
9075.000000;1.732565
9074.000000;1.740791
9073.000000;1.743059
9072.000000;1.739063
9071.000000;1.733990
9070.000000;1.732586
9069.000000;1.735190
9068.000000;1.739385
9067.000000;1.743153
9066.000000;1.745547
9065.000000;1.745558
9064.000000;1.742299
9063.000000;1.737049
9062.000000;1.733343
9061.000000;1.733664
9060.000000;1.736757
9059.000000;1.738821
9058.000000;1.737306
9057.000000;1.733151
9056.000000;1.729224
9055.000000;1.727349
9054.000000;1.727185
9053.000000;1.727474
