Criado como novo conjunto de dados;"e0108.spp","-4269044.2 Secs"
cm-1;Abs
10000.000000;1.090094
9999.000000;1.090144
9998.000000;1.090215
9997.000000;1.090247
9996.000000;1.090349
9995.000000;1.090310
9994.000000;1.090691
9993.000000;1.092573
9992.000000;1.094822
9991.000000;1.096357
9990.000000;1.096458
9989.000000;1.095192
9988.000000;1.093123
9987.000000;1.091156
9986.000000;1.089873
9985.000000;1.088891
9984.000000;1.087248
9983.000000;1.084711
9982.000000;1.082287
9981.000000;1.081185
9980.000000;1.081700
9979.000000;1.083326
9978.000000;1.085513
9977.000000;1.087881
9976.000000;1.090062
9975.000000;1.091855
9974.000000;1.093400
9973.000000;1.094703
9972.000000;1.095109
9971.000000;1.093745
9970.000000;1.090560
9969.000000;1.086573
9968.000000;1.083086
9967.000000;1.080941
9966.000000;1.080430
9965.000000;1.081348
9964.000000;1.082896
9963.000000;1.083899
9962.000000;1.083622
9961.000000;1.082415
9960.000000;1.081349
9959.000000;1.081166
9958.000000;1.081672
9957.000000;1.082016
9956.000000;1.081445
9955.000000;1.079921
9954.000000;1.078118
9953.000000;1.076758
9952.000000;1.075988
9951.000000;1.075511
9950.000000;1.075188
9949.000000;1.075279
9948.000000;1.076043
9947.000000;1.077262
9946.000000;1.078297
9945.000000;1.078618
9944.000000;1.078221
9943.000000;1.077596
9942.000000;1.077370
9941.000000;1.077805
9940.000000;1.078440
9939.000000;1.078357
9938.000000;1.077154
9937.000000;1.075612
9936.000000;1.074969
9935.000000;1.075415
9934.000000;1.075756
9933.000000;1.074846
9932.000000;1.073056
9931.000000;1.071794
9930.000000;1.071732
9929.000000;1.072178
9928.000000;1.072255
9927.000000;1.072034
9926.000000;1.072045
9925.000000;1.072104
9924.000000;1.071295
9923.000000;1.069259
9922.000000;1.066929
9921.000000;1.065635
9920.000000;1.065741
9919.000000;1.066395
9918.000000;1.066484
9917.000000;1.065662
9916.000000;1.064512
9915.000000;1.063962
9914.000000;1.064574
9913.000000;1.066168
9912.000000;1.067890
9911.000000;1.068747
9910.000000;1.068379
9909.000000;1.067374
9908.000000;1.066626
9907.000000;1.066394
9906.000000;1.066188
9905.000000;1.065559
9904.000000;1.064633
9903.000000;1.063663
9902.000000;1.062478
9901.000000;1.060950
9900.000000;1.059738
9899.000000;1.059776
9898.000000;1.060909
9897.000000;1.061719
9896.000000;1.061139
9895.000000;1.059723
9894.000000;1.058774
9893.000000;1.058706
9892.000000;1.058909
9891.000000;1.058938
9890.000000;1.059055
9889.000000;1.059462
9888.000000;1.059680
9887.000000;1.059122
9886.000000;1.057966
9885.000000;1.057102
9884.000000;1.057250
9883.000000;1.058264
9882.000000;1.059189
9881.000000;1.059019
9880.000000;1.057536
9879.000000;1.055481
9878.000000;1.053853
9877.000000;1.053072
9876.000000;1.052817
9875.000000;1.052529
9874.000000;1.051894
9873.000000;1.051017
9872.000000;1.050394
9871.000000;1.050610
9870.000000;1.051729
9869.000000;1.052979
9868.000000;1.053348
9867.000000;1.052590
9866.000000;1.051388
9865.000000;1.050471
9864.000000;1.049894
9863.000000;1.049241
9862.000000;1.048195
9861.000000;1.046735
9860.000000;1.045041
9859.000000;1.043494
9858.000000;1.042685
9857.000000;1.043124
9856.000000;1.044805
9855.000000;1.047048
9854.000000;1.048793
9853.000000;1.049242
9852.000000;1.048460
9851.000000;1.047353
9850.000000;1.046872
9849.000000;1.047161
9848.000000;1.047675
9847.000000;1.048062
9846.000000;1.048524
9845.000000;1.049243
9844.000000;1.049835
9843.000000;1.049630
9842.000000;1.048307
9841.000000;1.046052
9840.000000;1.043365
9839.000000;1.040925
9838.000000;1.039400
9837.000000;1.038999
9836.000000;1.039248
9835.000000;1.039458
9834.000000;1.039384
9833.000000;1.039213
9832.000000;1.039032
9831.000000;1.038685
9830.000000;1.038124
9829.000000;1.037503
9828.000000;1.036848
9827.000000;1.035990
9826.000000;1.035001
9825.000000;1.034340
9824.000000;1.034237
9823.000000;1.034193
9822.000000;1.033573
9821.000000;1.032654
9820.000000;1.032495
9819.000000;1.033533
9818.000000;1.034780
9817.000000;1.034885
9816.000000;1.033778
9815.000000;1.032604
9814.000000;1.032134
9813.000000;1.031992
9812.000000;1.031675
9811.000000;1.031613
9810.000000;1.032564
9809.000000;1.034264
9808.000000;1.035457
9807.000000;1.035396
9806.000000;1.034693
9805.000000;1.034377
9804.000000;1.034574
9803.000000;1.034487
9802.000000;1.033426
9801.000000;1.031484
9800.000000;1.029311
9799.000000;1.027529
9798.000000;1.026368
9797.000000;1.025655
9796.000000;1.025087
9795.000000;1.024554
9794.000000;1.024190
9793.000000;1.024077
9792.000000;1.024008
9791.000000;1.023685
9790.000000;1.023097
9789.000000;1.022637
9788.000000;1.022805
9787.000000;1.023801
9786.000000;1.025355
9785.000000;1.026886
9784.000000;1.027836
9783.000000;1.027896
9782.000000;1.027028
9781.000000;1.025457
9780.000000;1.023676
9779.000000;1.022307
9778.000000;1.021776
9777.000000;1.022119
9776.000000;1.023018
9775.000000;1.023882
9774.000000;1.023946
9773.000000;1.022768
9772.000000;1.020934
9771.000000;1.019826
9770.000000;1.020132
9769.000000;1.020735
9768.000000;1.019733
9767.000000;1.016664
9766.000000;1.013160
9765.000000;1.011220
9764.000000;1.011400
9763.000000;1.012885
9762.000000;1.014708
9761.000000;1.016321
9760.000000;1.017336
9759.000000;1.017478
9758.000000;1.016965
9757.000000;1.016490
9756.000000;1.016563
9755.000000;1.016979
9754.000000;1.017061
9753.000000;1.016381
9752.000000;1.015168
9751.000000;1.014014
9750.000000;1.013271
9749.000000;1.012793
9748.000000;1.012221
9747.000000;1.011366
9746.000000;1.010250
9745.000000;1.009031
9744.000000;1.008115
9743.000000;1.008074
9742.000000;1.009020
9741.000000;1.010146
9740.000000;1.010379
9739.000000;1.009568
9738.000000;1.008531
9737.000000;1.007893
9736.000000;1.007471
9735.000000;1.007036
9734.000000;1.007070
9733.000000;1.008167
9732.000000;1.010001
9731.000000;1.011477
9730.000000;1.011812
9729.000000;1.011035
9728.000000;1.009563
9727.000000;1.007786
9726.000000;1.006096
9725.000000;1.004919
9724.000000;1.004510
9723.000000;1.004800
9722.000000;1.005420
9721.000000;1.005857
9720.000000;1.005794
9719.000000;1.005443
9718.000000;1.005348
9717.000000;1.005642
9716.000000;1.005689
9715.000000;1.004771
9714.000000;1.003039
9713.000000;1.001469
9712.000000;1.000951
9711.000000;1.001587
9710.000000;1.002752
9709.000000;1.003629
9708.000000;1.003788
9707.000000;1.003415
9706.000000;1.002961
9705.000000;1.002533
9704.000000;1.001894
9703.000000;1.001104
9702.000000;1.000679
9701.000000;1.000799
9700.000000;1.000789
9699.000000;0.999912
9698.000000;0.998396
9697.000000;0.997126
9696.000000;0.996571
9695.000000;0.996593
9694.000000;0.997021
9693.000000;0.997682
9692.000000;0.997981
9691.000000;0.997279
9690.000000;0.995824
9689.000000;0.994626
9688.000000;0.994186
9687.000000;0.993973
9686.000000;0.993438
9685.000000;0.992893
9684.000000;0.992971
9683.000000;0.993720
9682.000000;0.994702
9681.000000;0.995541
9680.000000;0.995900
9679.000000;0.995294
9678.000000;0.993581
9677.000000;0.991531
9676.000000;0.990364
9675.000000;0.990619
9674.000000;0.991706
9673.000000;0.992502
9672.000000;0.992202
9671.000000;0.990774
9670.000000;0.988926
9669.000000;0.987669
9668.000000;0.987641
9667.000000;0.988684
9666.000000;0.989972
9665.000000;0.990504
9664.000000;0.989602
9663.000000;0.987359
9662.000000;0.984770
9661.000000;0.983077
9660.000000;0.982670
9659.000000;0.982811
9658.000000;0.982681
9657.000000;0.982428
9656.000000;0.982739
9655.000000;0.983609
9654.000000;0.984147
9653.000000;0.983755
9652.000000;0.982971
9651.000000;0.982842
9650.000000;0.983739
9649.000000;0.985061
9648.000000;0.985891
9647.000000;0.985710
9646.000000;0.984620
9645.000000;0.983181
9644.000000;0.982160
9643.000000;0.982229
9642.000000;0.983572
9641.000000;0.985576
9640.000000;0.986988
9639.000000;0.986710
9638.000000;0.984717
9637.000000;0.982209
9636.000000;0.980650
9635.000000;0.980521
9634.000000;0.980974
9633.000000;0.980739
9632.000000;0.979402
9631.000000;0.977781
9630.000000;0.977051
9629.000000;0.977599
9628.000000;0.978782
9627.000000;0.979691
9626.000000;0.979973
9625.000000;0.979828
9624.000000;0.979443
9623.000000;0.978673
9622.000000;0.977260
9621.000000;0.975205
9620.000000;0.972931
9619.000000;0.971195
9618.000000;0.970743
9617.000000;0.971834
9616.000000;0.973976
9615.000000;0.976193
9614.000000;0.977638
9613.000000;0.977899
9612.000000;0.976915
9611.000000;0.974974
9610.000000;0.972839
9609.000000;0.971438
9608.000000;0.971161
9607.000000;0.971661
9606.000000;0.972466
9605.000000;0.973460
9604.000000;0.974496
9603.000000;0.974893
9602.000000;0.973904
9601.000000;0.971708
9600.000000;0.969519
9599.000000;0.968547
9598.000000;0.969014
9597.000000;0.970185
9596.000000;0.971129
9595.000000;0.971364
9594.000000;0.970980
9593.000000;0.970357
9592.000000;0.969767
9591.000000;0.969162
9590.000000;0.968352
9589.000000;0.967386
9588.000000;0.966660
9587.000000;0.966545
9586.000000;0.966935
9585.000000;0.967249
9584.000000;0.966969
9583.000000;0.966134
9582.000000;0.965245
9581.000000;0.964702
9580.000000;0.964469
9579.000000;0.964315
9578.000000;0.964253
9577.000000;0.964549
9576.000000;0.965308
9575.000000;0.966187
9574.000000;0.966609
9573.000000;0.966207
9572.000000;0.965090
9571.000000;0.963758
9570.000000;0.962744
9569.000000;0.962235
9568.000000;0.961992
9567.000000;0.961699
9566.000000;0.961363
9565.000000;0.961292
9564.000000;0.961678
9563.000000;0.962316
9562.000000;0.962732
9561.000000;0.962485
9560.000000;0.961462
9559.000000;0.960033
9558.000000;0.958854
9557.000000;0.958324
9556.000000;0.958278
9555.000000;0.958356
9554.000000;0.958581
9553.000000;0.959221
9552.000000;0.960121
9551.000000;0.960591
9550.000000;0.960145
9549.000000;0.959063
9548.000000;0.958027
9547.000000;0.957428
9546.000000;0.957181
9545.000000;0.956947
9544.000000;0.956315
9543.000000;0.955040
9542.000000;0.953347
9541.000000;0.951842
9540.000000;0.950985
9539.000000;0.950811
9538.000000;0.951218
9537.000000;0.952150
9536.000000;0.953339
9535.000000;0.954257
9534.000000;0.954676
9533.000000;0.954971
9532.000000;0.955440
9531.000000;0.955625
9530.000000;0.954822
9529.000000;0.953109
9528.000000;0.951364
9527.000000;0.950289
9526.000000;0.949875
9525.000000;0.949820
9524.000000;0.949978
9523.000000;0.950232
9522.000000;0.950304
9521.000000;0.949976
9520.000000;0.949336
9519.000000;0.948687
9518.000000;0.948300
9517.000000;0.948321
9516.000000;0.948803
9515.000000;0.949691
9514.000000;0.950776
9513.000000;0.951668
9512.000000;0.951903
9511.000000;0.951270
9510.000000;0.950129
9509.000000;0.949170
9508.000000;0.948664
9507.000000;0.948195
9506.000000;0.947419
9505.000000;0.946808
9504.000000;0.947135
9503.000000;0.948311
9502.000000;0.949272
9501.000000;0.949167
9500.000000;0.948264
9499.000000;0.947467
9498.000000;0.947293
9497.000000;0.947513
9496.000000;0.947534
9495.000000;0.946927
9494.000000;0.945764
9493.000000;0.944558
9492.000000;0.943767
9491.000000;0.943339
9490.000000;0.942907
9489.000000;0.942378
9488.000000;0.941991
9487.000000;0.941808
9486.000000;0.941584
9485.000000;0.941298
9484.000000;0.941414
9483.000000;0.942255
9482.000000;0.943326
9481.000000;0.943623
9480.000000;0.942658
9479.000000;0.940987
9478.000000;0.939726
9477.000000;0.939646
9476.000000;0.940622
9475.000000;0.941808
9474.000000;0.942333
9473.000000;0.941928
9472.000000;0.940924
9471.000000;0.939830
9470.000000;0.939071
9469.000000;0.938965
9468.000000;0.939576
9467.000000;0.940569
9466.000000;0.941454
9465.000000;0.942039
9464.000000;0.942371
9463.000000;0.942247
9462.000000;0.941169
9461.000000;0.939056
9460.000000;0.936703
9459.000000;0.935195
9458.000000;0.934939
9457.000000;0.935461
9456.000000;0.935979
9455.000000;0.936011
9454.000000;0.935598
9453.000000;0.935200
9452.000000;0.935321
9451.000000;0.935994
9450.000000;0.936612
9449.000000;0.936463
9448.000000;0.935475
9447.000000;0.934329
9446.000000;0.933837
9445.000000;0.934271
9444.000000;0.935185
9443.000000;0.935770
9442.000000;0.935433
9441.000000;0.934230
9440.000000;0.932820
9439.000000;0.931988
9438.000000;0.932084
9437.000000;0.932803
9436.000000;0.933482
9435.000000;0.933705
9434.000000;0.933638
9433.000000;0.933672
9432.000000;0.933706
9431.000000;0.933100
9430.000000;0.931580
9429.000000;0.929888
9428.000000;0.929109
9427.000000;0.929476
9426.000000;0.930262
9425.000000;0.930758
9424.000000;0.930807
9423.000000;0.930351
9422.000000;0.929136
9421.000000;0.927312
9420.000000;0.925802
9419.000000;0.925487
9418.000000;0.926251
9417.000000;0.927252
9416.000000;0.927989
9415.000000;0.928574
9414.000000;0.929043
9413.000000;0.929022
9412.000000;0.928308
9411.000000;0.927371
9410.000000;0.926946
9409.000000;0.927246
9408.000000;0.927747
9407.000000;0.927700
9406.000000;0.926766
9405.000000;0.925262
9404.000000;0.923935
9403.000000;0.923445
9402.000000;0.923920
9401.000000;0.924794
9400.000000;0.925106
9399.000000;0.924228
9398.000000;0.922537
9397.000000;0.921222
9396.000000;0.921174
9395.000000;0.922083
9394.000000;0.922855
9393.000000;0.922904
9392.000000;0.922638
9391.000000;0.922605
9390.000000;0.922700
9389.000000;0.922558
9388.000000;0.922298
9387.000000;0.922353
9386.000000;0.922759
9385.000000;0.923091
9384.000000;0.923059
9383.000000;0.922791
9382.000000;0.922533
9381.000000;0.922384
9380.000000;0.922309
9379.000000;0.922055
9378.000000;0.921157
9377.000000;0.919449
9376.000000;0.917629
9375.000000;0.916875
9374.000000;0.917733
9373.000000;0.919591
9372.000000;0.921320
9371.000000;0.922184
9370.000000;0.922045
9369.000000;0.921121
9368.000000;0.919872
9367.000000;0.918893
9366.000000;0.918520
9365.000000;0.918515
9364.000000;0.918317
9363.000000;0.917604
9362.000000;0.916514
9361.000000;0.915421
9360.000000;0.914702
9359.000000;0.914660
9358.000000;0.915404
9357.000000;0.916611
9356.000000;0.917545
9355.000000;0.917551
9354.000000;0.916644
9353.000000;0.915485
9352.000000;0.914706
9351.000000;0.914377
9350.000000;0.914204
9349.000000;0.914044
9348.000000;0.913965
9347.000000;0.913897
9346.000000;0.913575
9345.000000;0.912919
9344.000000;0.912160
9343.000000;0.911490
9342.000000;0.910914
9341.000000;0.910628
9340.000000;0.911120
9339.000000;0.912503
9338.000000;0.914049
9337.000000;0.914841
9336.000000;0.914737
9335.000000;0.914245
9334.000000;0.913641
9333.000000;0.912808
9332.000000;0.911884
9331.000000;0.911409
9330.000000;0.911653
9329.000000;0.912285
9328.000000;0.912918
9327.000000;0.913497
9326.000000;0.913911
9325.000000;0.913720
9324.000000;0.912683
9323.000000;0.911246
9322.000000;0.910127
9321.000000;0.909645
9320.000000;0.909773
9319.000000;0.910508
9318.000000;0.911688
9317.000000;0.912600
9316.000000;0.912335
9315.000000;0.910692
9314.000000;0.908422
9313.000000;0.906510
9312.000000;0.905476
9311.000000;0.905324
9310.000000;0.905771
9309.000000;0.906371
9308.000000;0.906708
9307.000000;0.906707
9306.000000;0.906656
9305.000000;0.906828
9304.000000;0.907192
9303.000000;0.907553
9302.000000;0.907833
9301.000000;0.908041
9300.000000;0.908077
9299.000000;0.907791
9298.000000;0.907209
9297.000000;0.906550
9296.000000;0.906022
9295.000000;0.905702
9294.000000;0.905634
9293.000000;0.905889
9292.000000;0.906455
9291.000000;0.907096
9290.000000;0.907410
9289.000000;0.907088
9288.000000;0.906124
9287.000000;0.904833
9286.000000;0.903670
9285.000000;0.902982
9284.000000;0.902800
9283.000000;0.902849
9282.000000;0.902806
9281.000000;0.902605
9280.000000;0.902458
9279.000000;0.902569
9278.000000;0.902919
9277.000000;0.903329
9276.000000;0.903643
9275.000000;0.903759
9274.000000;0.903578
9273.000000;0.903050
9272.000000;0.902240
9271.000000;0.901283
9270.000000;0.900345
9269.000000;0.899665
9268.000000;0.899492
9267.000000;0.899800
9266.000000;0.900113
9265.000000;0.899827
9264.000000;0.898771
9263.000000;0.897396
9262.000000;0.896444
9261.000000;0.896501
9260.000000;0.897671
9259.000000;0.899408
9258.000000;0.900714
9257.000000;0.900824
9256.000000;0.899868
9255.000000;0.898698
9254.000000;0.898041
9253.000000;0.897984
9252.000000;0.898237
9251.000000;0.898561
9250.000000;0.898770
9249.000000;0.898582
9248.000000;0.897772
9247.000000;0.896443
9246.000000;0.895034
9245.000000;0.894120
9244.000000;0.894169
9243.000000;0.895249
9242.000000;0.896834
9241.000000;0.898074
9240.000000;0.898429
9239.000000;0.897996
9238.000000;0.897139
9237.000000;0.896053
9236.000000;0.894834
9235.000000;0.893757
9234.000000;0.893228
9233.000000;0.893524
9232.000000;0.894690
9231.000000;0.896446
9230.000000;0.898083
9229.000000;0.898759
9228.000000;0.898296
9227.000000;0.897445
9226.000000;0.896945
9225.000000;0.896543
9224.000000;0.895481
9223.000000;0.893869
9222.000000;0.892888
9221.000000;0.893441
9220.000000;0.895106
9219.000000;0.896643
9218.000000;0.897187
9217.000000;0.896690
9216.000000;0.895553
9215.000000;0.894276
9214.000000;0.893353
9213.000000;0.893069
9212.000000;0.893340
9211.000000;0.893847
9210.000000;0.894260
9209.000000;0.894297
9208.000000;0.893837
9207.000000;0.893196
9206.000000;0.892994
9205.000000;0.893381
9204.000000;0.893627
9203.000000;0.892936
9202.000000;0.891570
9201.000000;0.890645
9200.000000;0.890733
9199.000000;0.891201
9198.000000;0.891110
9197.000000;0.890298
9196.000000;0.889236
9195.000000;0.888217
9194.000000;0.887271
9193.000000;0.886682
9192.000000;0.886947
9191.000000;0.888074
9190.000000;0.889326
9189.000000;0.889922
9188.000000;0.889785
9187.000000;0.889381
9186.000000;0.889024
9185.000000;0.888613
9184.000000;0.887991
9183.000000;0.887279
9182.000000;0.886775
9181.000000;0.886632
9180.000000;0.886705
9179.000000;0.886676
9178.000000;0.886353
9177.000000;0.885870
9176.000000;0.885542
9175.000000;0.885504
9174.000000;0.885605
9173.000000;0.885767
9172.000000;0.886249
9171.000000;0.887278
9170.000000;0.888436
9169.000000;0.888778
9168.000000;0.887813
9167.000000;0.886173
9166.000000;0.885026
9165.000000;0.884879
9164.000000;0.885238
9163.000000;0.885414
9162.000000;0.885343
9161.000000;0.885432
9160.000000;0.885832
9159.000000;0.886157
9158.000000;0.885949
9157.000000;0.885246
9156.000000;0.884602
9155.000000;0.884564
9154.000000;0.885164
9153.000000;0.885889
9152.000000;0.886175
9151.000000;0.885921
9150.000000;0.885475
9149.000000;0.885096
9148.000000;0.884606
9147.000000;0.883719
9146.000000;0.882609
9145.000000;0.881899
9144.000000;0.882041
9143.000000;0.882890
9142.000000;0.883929
9141.000000;0.884744
9140.000000;0.885160
9139.000000;0.885116
9138.000000;0.884627
9137.000000;0.883835
9136.000000;0.882958
9135.000000;0.882186
9134.000000;0.881691
9133.000000;0.881592
9132.000000;0.881789
9131.000000;0.881928
9130.000000;0.881754
9129.000000;0.881405
9128.000000;0.881167
9127.000000;0.881029
9126.000000;0.880751
9125.000000;0.880346
9124.000000;0.880159
9123.000000;0.880427
9122.000000;0.881031
9121.000000;0.881779
9120.000000;0.882599
9119.000000;0.883277
9118.000000;0.883344
9117.000000;0.882555
9116.000000;0.881336
9115.000000;0.880426
9114.000000;0.880151
9113.000000;0.880271
9112.000000;0.880417
9111.000000;0.880386
9110.000000;0.880073
9109.000000;0.879461
9108.000000;0.878753
9107.000000;0.878259
9106.000000;0.878046
9105.000000;0.877895
9104.000000;0.877648
9103.000000;0.877451
9102.000000;0.877547
9101.000000;0.877946
9100.000000;0.878402
9099.000000;0.878653
9098.000000;0.878650
9097.000000;0.878590
9096.000000;0.878706
9095.000000;0.878967
9094.000000;0.879040
9093.000000;0.878645
9092.000000;0.877884
9091.000000;0.877107
9090.000000;0.876574
9089.000000;0.876417
9088.000000;0.876753
9087.000000;0.877500
9086.000000;0.878120
9085.000000;0.877931
9084.000000;0.876841
9083.000000;0.875517
9082.000000;0.874725
9081.000000;0.874692
9080.000000;0.875203
9079.000000;0.876012
9078.000000;0.876938
9077.000000;0.877730
9076.000000;0.878121
9075.000000;0.878054
9074.000000;0.877693
9073.000000;0.877226
9072.000000;0.876684
9071.000000;0.875961
9070.000000;0.875044
9069.000000;0.874243
9068.000000;0.874051
9067.000000;0.874578
9066.000000;0.875240
9065.000000;0.875294
9064.000000;0.874693
9063.000000;0.874091
9062.000000;0.873969
9061.000000;0.874152
9060.000000;0.874310
9059.000000;0.874491
9058.000000;0.874864
9057.000000;0.875268
9056.000000;0.875404
9055.000000;0.875280
9054.000000;0.875110
9053.000000;0.874968
