Criado como novo conjunto de dados;"e0108.spp","-4234122.1 Secs"
cm-1;Abs
10000.000000;0.976478
9999.000000;0.975565
9998.000000;0.974781
9997.000000;0.974333
9996.000000;0.973897
9995.000000;0.973027
9994.000000;0.972005
9993.000000;0.971653
9992.000000;0.972326
9991.000000;0.973454
9990.000000;0.974281
9989.000000;0.974640
9988.000000;0.974755
9987.000000;0.974663
9986.000000;0.974262
9985.000000;0.973729
9984.000000;0.973385
9983.000000;0.973116
9982.000000;0.972357
9981.000000;0.970852
9980.000000;0.969119
9979.000000;0.967936
9978.000000;0.967514
9977.000000;0.967397
9976.000000;0.967151
9975.000000;0.966910
9974.000000;0.967101
9973.000000;0.967740
9972.000000;0.968238
9971.000000;0.967989
9970.000000;0.967050
9969.000000;0.966071
9968.000000;0.965569
9967.000000;0.965475
9966.000000;0.965433
9965.000000;0.965252
9964.000000;0.964949
9963.000000;0.964605
9962.000000;0.964487
9961.000000;0.965016
9960.000000;0.966175
9959.000000;0.967016
9958.000000;0.966350
9957.000000;0.964177
9956.000000;0.961962
9955.000000;0.961142
9954.000000;0.961634
9953.000000;0.962146
9952.000000;0.961718
9951.000000;0.960458
9950.000000;0.958881
9949.000000;0.957188
9948.000000;0.955413
9947.000000;0.953858
9946.000000;0.953010
9945.000000;0.953180
9944.000000;0.954304
9943.000000;0.955898
9942.000000;0.957085
9941.000000;0.956999
9940.000000;0.955556
9939.000000;0.953735
9938.000000;0.952815
9937.000000;0.953260
9936.000000;0.954422
9935.000000;0.955239
9934.000000;0.955054
9933.000000;0.953858
9932.000000;0.952141
9931.000000;0.950705
9930.000000;0.950296
9929.000000;0.951088
9928.000000;0.952496
9927.000000;0.953668
9926.000000;0.954199
9925.000000;0.954310
9924.000000;0.954336
9923.000000;0.954207
9922.000000;0.953516
9921.000000;0.952038
9920.000000;0.950108
9919.000000;0.948469
9918.000000;0.947766
9917.000000;0.948089
9916.000000;0.948907
9915.000000;0.949447
9914.000000;0.949279
9913.000000;0.948623
9912.000000;0.948123
9911.000000;0.948276
9910.000000;0.948955
9909.000000;0.949354
9908.000000;0.948505
9907.000000;0.946125
9906.000000;0.943088
9905.000000;0.940908
9904.000000;0.940546
9903.000000;0.941610
9902.000000;0.942743
9901.000000;0.942895
9900.000000;0.942178
9899.000000;0.941453
9898.000000;0.941284
9897.000000;0.941441
9896.000000;0.941393
9895.000000;0.941079
9894.000000;0.940970
9893.000000;0.941362
9892.000000;0.941849
9891.000000;0.941750
9890.000000;0.940967
9889.000000;0.940126
9888.000000;0.939775
9887.000000;0.939739
9886.000000;0.939480
9885.000000;0.938845
9884.000000;0.938102
9883.000000;0.937334
9882.000000;0.936272
9881.000000;0.934883
9880.000000;0.933751
9879.000000;0.933568
9878.000000;0.934403
9877.000000;0.935613
9876.000000;0.936401
9875.000000;0.936383
9874.000000;0.935771
9873.000000;0.935138
9872.000000;0.934904
9871.000000;0.934960
9870.000000;0.934799
9869.000000;0.934021
9868.000000;0.932663
9867.000000;0.931049
9866.000000;0.929541
9865.000000;0.928517
9864.000000;0.928296
9863.000000;0.928856
9862.000000;0.929754
9861.000000;0.930446
9860.000000;0.930642
9859.000000;0.930325
9858.000000;0.929628
9857.000000;0.928756
9856.000000;0.927860
9855.000000;0.926952
9854.000000;0.926096
9853.000000;0.925653
9852.000000;0.925995
9851.000000;0.926863
9850.000000;0.927397
9849.000000;0.927047
9848.000000;0.926149
9847.000000;0.925285
9846.000000;0.924459
9845.000000;0.923317
9844.000000;0.921967
9843.000000;0.921051
9842.000000;0.920981
9841.000000;0.921488
9840.000000;0.921937
9839.000000;0.921858
9838.000000;0.921227
9837.000000;0.920515
9836.000000;0.920412
9835.000000;0.921151
9834.000000;0.922078
9833.000000;0.922145
9832.000000;0.920991
9831.000000;0.919388
9830.000000;0.918556
9829.000000;0.919072
9828.000000;0.920350
9827.000000;0.921079
9826.000000;0.920357
9825.000000;0.918542
9824.000000;0.916881
9823.000000;0.916217
9822.000000;0.916268
9821.000000;0.916251
9820.000000;0.915868
9819.000000;0.915389
9818.000000;0.915050
9817.000000;0.914847
9816.000000;0.914734
9815.000000;0.914568
9814.000000;0.914014
9813.000000;0.912953
9812.000000;0.911914
9811.000000;0.911652
9810.000000;0.912320
9809.000000;0.913427
9808.000000;0.914512
9807.000000;0.915392
9806.000000;0.915843
9805.000000;0.915624
9804.000000;0.914877
9803.000000;0.914002
9802.000000;0.913068
9801.000000;0.911845
9800.000000;0.910476
9799.000000;0.909498
9798.000000;0.909043
9797.000000;0.908625
9796.000000;0.907985
9795.000000;0.907594
9794.000000;0.907891
9793.000000;0.908477
9792.000000;0.908562
9791.000000;0.907923
9790.000000;0.907048
9789.000000;0.906480
9788.000000;0.906366
9787.000000;0.906514
9786.000000;0.906609
9785.000000;0.906453
9784.000000;0.906084
9783.000000;0.905590
9782.000000;0.904832
9781.000000;0.903620
9780.000000;0.902190
9779.000000;0.901133
9778.000000;0.900740
9777.000000;0.900689
9776.000000;0.900485
9775.000000;0.899914
9774.000000;0.899048
9773.000000;0.898233
9772.000000;0.898127
9771.000000;0.899216
9770.000000;0.901019
9769.000000;0.902265
9768.000000;0.902187
9767.000000;0.901239
9766.000000;0.900251
9765.000000;0.899431
9764.000000;0.898596
9763.000000;0.897879
9762.000000;0.897610
9761.000000;0.897822
9760.000000;0.898359
9759.000000;0.899198
9758.000000;0.900179
9757.000000;0.900740
9756.000000;0.900493
9755.000000;0.899854
9754.000000;0.899508
9753.000000;0.899376
9752.000000;0.898704
9751.000000;0.897133
9750.000000;0.895177
9749.000000;0.893593
9748.000000;0.892703
9747.000000;0.892349
9746.000000;0.892123
9745.000000;0.891615
9744.000000;0.890851
9743.000000;0.890438
9742.000000;0.890910
9741.000000;0.891993
9740.000000;0.892853
9739.000000;0.893006
9738.000000;0.892574
9737.000000;0.891797
9736.000000;0.890829
9735.000000;0.890054
9734.000000;0.889966
9733.000000;0.890526
9732.000000;0.891092
9731.000000;0.891176
9730.000000;0.890873
9729.000000;0.890380
9728.000000;0.889572
9727.000000;0.888399
9726.000000;0.887323
9725.000000;0.886919
9724.000000;0.887179
9723.000000;0.887544
9722.000000;0.887608
9721.000000;0.887537
9720.000000;0.887752
9719.000000;0.888396
9718.000000;0.889210
9717.000000;0.889826
9716.000000;0.890039
9715.000000;0.889738
9714.000000;0.888780
9713.000000;0.887172
9712.000000;0.885393
9711.000000;0.884222
9710.000000;0.884058
9709.000000;0.884582
9708.000000;0.885166
9707.000000;0.885413
9706.000000;0.885149
9705.000000;0.884251
9704.000000;0.882822
9703.000000;0.881324
9702.000000;0.880194
9701.000000;0.879478
9700.000000;0.879105
9699.000000;0.879217
9698.000000;0.879805
9697.000000;0.880320
9696.000000;0.880296
9695.000000;0.880200
9694.000000;0.880914
9693.000000;0.882282
9692.000000;0.882919
9691.000000;0.881823
9690.000000;0.879558
9689.000000;0.877399
9688.000000;0.875846
9687.000000;0.874552
9686.000000;0.873414
9685.000000;0.873027
9684.000000;0.873904
9683.000000;0.875672
9682.000000;0.877270
9681.000000;0.877857
9680.000000;0.877416
9679.000000;0.876539
9678.000000;0.875740
9677.000000;0.875110
9676.000000;0.874549
9675.000000;0.874076
9674.000000;0.873705
9673.000000;0.873255
9672.000000;0.872602
9671.000000;0.872024
9670.000000;0.871916
9669.000000;0.872172
9668.000000;0.872223
9667.000000;0.871748
9666.000000;0.871013
9665.000000;0.870412
9664.000000;0.870052
9663.000000;0.869908
9662.000000;0.869978
9661.000000;0.870039
9660.000000;0.869622
9659.000000;0.868595
9658.000000;0.867561
9657.000000;0.867341
9656.000000;0.868138
9655.000000;0.869377
9654.000000;0.870280
9653.000000;0.870536
9652.000000;0.870500
9651.000000;0.870770
9650.000000;0.871437
9649.000000;0.871796
9648.000000;0.871091
9647.000000;0.869504
9646.000000;0.867969
9645.000000;0.866974
9644.000000;0.866122
9643.000000;0.865061
9642.000000;0.864228
9641.000000;0.864164
9640.000000;0.864535
9639.000000;0.864453
9638.000000;0.863575
9637.000000;0.862357
9636.000000;0.861387
9635.000000;0.860951
9634.000000;0.861128
9633.000000;0.861724
9632.000000;0.862144
9631.000000;0.861912
9630.000000;0.861377
9629.000000;0.861403
9628.000000;0.862229
9627.000000;0.863127
9626.000000;0.863363
9625.000000;0.863000
9624.000000;0.862487
9623.000000;0.861938
9622.000000;0.861242
9621.000000;0.860536
9620.000000;0.860098
9619.000000;0.859904
9618.000000;0.859704
9617.000000;0.859439
9616.000000;0.859232
9615.000000;0.859020
9614.000000;0.858597
9613.000000;0.858097
9612.000000;0.858013
9611.000000;0.858490
9610.000000;0.858877
9609.000000;0.858337
9608.000000;0.856837
9607.000000;0.855305
9606.000000;0.854731
9605.000000;0.855267
9604.000000;0.856218
9603.000000;0.856726
9602.000000;0.856348
9601.000000;0.855141
9600.000000;0.853459
9599.000000;0.851817
9598.000000;0.850743
9597.000000;0.850536
9596.000000;0.851058
9595.000000;0.851818
9594.000000;0.852311
9593.000000;0.852280
9592.000000;0.851754
9591.000000;0.850965
9590.000000;0.850254
9589.000000;0.849922
9588.000000;0.850054
9587.000000;0.850425
9586.000000;0.850617
9585.000000;0.850304
9584.000000;0.849529
9583.000000;0.848748
9582.000000;0.848497
9581.000000;0.848898
9580.000000;0.849473
9579.000000;0.849558
9578.000000;0.848961
9577.000000;0.848121
9576.000000;0.847574
9575.000000;0.847366
9574.000000;0.847128
9573.000000;0.846620
9572.000000;0.845992
9571.000000;0.845489
9570.000000;0.845136
9569.000000;0.844863
9568.000000;0.844753
9567.000000;0.844931
9566.000000;0.845277
9565.000000;0.845496
9564.000000;0.845444
9563.000000;0.845228
9562.000000;0.844975
9561.000000;0.844653
9560.000000;0.844156
9559.000000;0.843388
9558.000000;0.842250
9557.000000;0.840817
9556.000000;0.839582
9555.000000;0.839209
9554.000000;0.839777
9553.000000;0.840478
9552.000000;0.840412
9551.000000;0.839572
9550.000000;0.838725
9549.000000;0.838400
9548.000000;0.838416
9547.000000;0.838429
9546.000000;0.838475
9545.000000;0.838684
9544.000000;0.838786
9543.000000;0.838305
9542.000000;0.837221
9541.000000;0.836153
9540.000000;0.835844
9539.000000;0.836558
9538.000000;0.837896
9537.000000;0.839038
9536.000000;0.839237
9535.000000;0.838355
9534.000000;0.837001
9533.000000;0.835997
9532.000000;0.835666
9531.000000;0.835672
9530.000000;0.835527
9529.000000;0.835093
9528.000000;0.834568
9527.000000;0.834165
9526.000000;0.834011
9525.000000;0.834235
9524.000000;0.834868
9523.000000;0.835568
9522.000000;0.835664
9521.000000;0.834745
9520.000000;0.833188
9519.000000;0.831925
9518.000000;0.831590
9517.000000;0.831975
9516.000000;0.832357
9515.000000;0.832232
9514.000000;0.831642
9513.000000;0.830929
9512.000000;0.830357
9511.000000;0.829967
9510.000000;0.829633
9509.000000;0.829241
9508.000000;0.828841
9507.000000;0.828584
9506.000000;0.828454
9505.000000;0.828214
9504.000000;0.827741
9503.000000;0.827322
9502.000000;0.827352
9501.000000;0.827811
9500.000000;0.828269
9499.000000;0.828441
9498.000000;0.828483
9497.000000;0.828655
9496.000000;0.828966
9495.000000;0.829275
9494.000000;0.829470
9493.000000;0.829361
9492.000000;0.828624
9491.000000;0.827154
9490.000000;0.825405
9489.000000;0.824136
9488.000000;0.823790
9487.000000;0.824204
9486.000000;0.824825
9485.000000;0.825126
9484.000000;0.824952
9483.000000;0.824628
9482.000000;0.824628
9481.000000;0.824952
9480.000000;0.824956
9479.000000;0.824030
9478.000000;0.822396
9477.000000;0.820953
9476.000000;0.820378
9475.000000;0.820641
9474.000000;0.821356
9473.000000;0.822176
9472.000000;0.822687
9471.000000;0.822295
9470.000000;0.820719
9469.000000;0.818584
9468.000000;0.817209
9467.000000;0.817568
9466.000000;0.819464
9465.000000;0.821653
9464.000000;0.822771
9463.000000;0.822269
9462.000000;0.820666
9461.000000;0.819004
9460.000000;0.818070
9459.000000;0.817988
9458.000000;0.818358
9457.000000;0.818693
9456.000000;0.818807
9455.000000;0.818947
9454.000000;0.819503
9453.000000;0.820473
9452.000000;0.821247
9451.000000;0.821141
9450.000000;0.820165
9449.000000;0.819045
9448.000000;0.818435
9447.000000;0.818331
9446.000000;0.818333
9445.000000;0.818236
9444.000000;0.818133
9443.000000;0.818105
9442.000000;0.818095
9441.000000;0.818010
9440.000000;0.817699
9439.000000;0.816915
9438.000000;0.815608
9437.000000;0.814245
9436.000000;0.813472
9435.000000;0.813368
9434.000000;0.813314
9433.000000;0.812765
9432.000000;0.811932
9431.000000;0.811516
9430.000000;0.811907
9429.000000;0.812849
9428.000000;0.813753
9427.000000;0.814148
9426.000000;0.813922
9425.000000;0.813353
9424.000000;0.812877
9423.000000;0.812684
9422.000000;0.812558
9421.000000;0.812203
9420.000000;0.811613
9419.000000;0.811009
9418.000000;0.810549
9417.000000;0.810340
9416.000000;0.810545
9415.000000;0.811133
9414.000000;0.811571
9413.000000;0.811172
9412.000000;0.809898
9411.000000;0.808495
9410.000000;0.807657
9409.000000;0.807327
9408.000000;0.807025
9407.000000;0.806582
9406.000000;0.806234
9405.000000;0.806121
9404.000000;0.806062
9403.000000;0.805849
9402.000000;0.805507
9401.000000;0.805221
9400.000000;0.805144
9399.000000;0.805312
9398.000000;0.805641
9397.000000;0.805971
9396.000000;0.806185
9395.000000;0.806253
9394.000000;0.806154
9393.000000;0.805880
9392.000000;0.805622
9391.000000;0.805759
9390.000000;0.806407
9389.000000;0.807062
9388.000000;0.806981
9387.000000;0.805976
9386.000000;0.804635
9385.000000;0.803677
9384.000000;0.803300
9383.000000;0.803221
9382.000000;0.803139
9381.000000;0.802997
9380.000000;0.802891
9379.000000;0.802862
9378.000000;0.802796
9377.000000;0.802513
9376.000000;0.801972
9375.000000;0.801380
9374.000000;0.801042
9373.000000;0.801107
9372.000000;0.801497
9371.000000;0.802013
9370.000000;0.802390
9369.000000;0.802389
9368.000000;0.801990
9367.000000;0.801429
9366.000000;0.800846
9365.000000;0.800018
9364.000000;0.798766
9363.000000;0.797523
9362.000000;0.797050
9361.000000;0.797481
9360.000000;0.798099
9359.000000;0.798240
9358.000000;0.797990
9357.000000;0.797679
9356.000000;0.797182
9355.000000;0.796257
9354.000000;0.795272
9353.000000;0.794947
9352.000000;0.795385
9351.000000;0.795926
9350.000000;0.796035
9349.000000;0.795823
9348.000000;0.795570
9347.000000;0.795228
9346.000000;0.794720
9345.000000;0.794333
9344.000000;0.794402
9343.000000;0.794796
9342.000000;0.795074
9341.000000;0.795020
9340.000000;0.794770
9339.000000;0.794503
9338.000000;0.794310
9337.000000;0.794287
9336.000000;0.794448
9335.000000;0.794520
9334.000000;0.794124
9333.000000;0.793248
9332.000000;0.792331
9331.000000;0.791810
9330.000000;0.791734
9329.000000;0.791905
9328.000000;0.792149
9327.000000;0.792313
9326.000000;0.792193
9325.000000;0.791707
9324.000000;0.791076
9323.000000;0.790649
9322.000000;0.790509
9321.000000;0.790429
9320.000000;0.790248
9319.000000;0.790144
9318.000000;0.790437
9317.000000;0.791185
9316.000000;0.792047
9315.000000;0.792563
9314.000000;0.792529
9313.000000;0.792068
9312.000000;0.791383
9311.000000;0.790521
9310.000000;0.789461
9309.000000;0.788364
9308.000000;0.787577
9307.000000;0.787329
9306.000000;0.787532
9305.000000;0.787965
9304.000000;0.788528
9303.000000;0.789161
9302.000000;0.789635
9301.000000;0.789678
9300.000000;0.789333
9299.000000;0.788948
9298.000000;0.788729
9297.000000;0.788505
9296.000000;0.788114
9295.000000;0.787807
9294.000000;0.787976
9293.000000;0.788547
9292.000000;0.788975
9291.000000;0.788900
9290.000000;0.788556
9289.000000;0.788371
9288.000000;0.788366
9287.000000;0.788179
9286.000000;0.787622
9285.000000;0.786954
9284.000000;0.786579
9283.000000;0.786617
9282.000000;0.786889
9281.000000;0.787154
9280.000000;0.787223
9279.000000;0.786929
9278.000000;0.786221
9277.000000;0.785377
9276.000000;0.784923
9275.000000;0.785123
9274.000000;0.785605
9273.000000;0.785700
9272.000000;0.785159
9271.000000;0.784357
9270.000000;0.783749
9269.000000;0.783372
9268.000000;0.783028
9267.000000;0.782736
9266.000000;0.782700
9265.000000;0.782858
9264.000000;0.782767
9263.000000;0.782087
9262.000000;0.781084
9261.000000;0.780492
9260.000000;0.780835
9259.000000;0.781891
9258.000000;0.782828
9257.000000;0.782945
9256.000000;0.782353
9255.000000;0.781791
9254.000000;0.781739
9253.000000;0.781886
9252.000000;0.781639
9251.000000;0.780974
9250.000000;0.780396
9249.000000;0.780090
9248.000000;0.779567
9247.000000;0.778373
9246.000000;0.776836
9245.000000;0.775800
9244.000000;0.775753
9243.000000;0.776435
9242.000000;0.777229
9241.000000;0.777716
9240.000000;0.777842
9239.000000;0.777785
9238.000000;0.777769
9237.000000;0.777931
9236.000000;0.778241
9235.000000;0.778540
9234.000000;0.778669
9233.000000;0.778591
9232.000000;0.778422
9231.000000;0.778330
9230.000000;0.778332
9229.000000;0.778210
9228.000000;0.777727
9227.000000;0.776980
9226.000000;0.776400
9225.000000;0.776354
9224.000000;0.776819
9223.000000;0.777461
9222.000000;0.777895
9221.000000;0.777807
9220.000000;0.777056
9219.000000;0.775866
9218.000000;0.774765
9217.000000;0.774129
9216.000000;0.773838
9215.000000;0.773599
9214.000000;0.773499
9213.000000;0.773941
9212.000000;0.774945
9211.000000;0.775790
9210.000000;0.775612
9209.000000;0.774328
9208.000000;0.772823
9207.000000;0.772151
9206.000000;0.772554
9205.000000;0.773268
9204.000000;0.773297
9203.000000;0.772396
9202.000000;0.771203
9201.000000;0.770490
9200.000000;0.770447
9199.000000;0.770748
9198.000000;0.771068
9197.000000;0.771292
9196.000000;0.771366
9195.000000;0.771245
9194.000000;0.771046
9193.000000;0.771017
9192.000000;0.771271
9191.000000;0.771677
9190.000000;0.772046
9189.000000;0.772278
9188.000000;0.772271
9187.000000;0.771863
9186.000000;0.770958
9185.000000;0.769634
9184.000000;0.768089
9183.000000;0.766570
9182.000000;0.765421
9181.000000;0.765052
9180.000000;0.765704
9179.000000;0.767218
9178.000000;0.769029
9177.000000;0.770420
9176.000000;0.770880
9175.000000;0.770378
9174.000000;0.769348
9173.000000;0.768370
9172.000000;0.767822
9171.000000;0.767767
9170.000000;0.768005
9169.000000;0.768156
9168.000000;0.767855
9167.000000;0.767111
9166.000000;0.766428
9165.000000;0.766299
9164.000000;0.766587
9163.000000;0.766668
9162.000000;0.766260
9161.000000;0.765825
9160.000000;0.766000
9159.000000;0.766845
9158.000000;0.767841
9157.000000;0.768397
9156.000000;0.768194
9155.000000;0.767271
9154.000000;0.766106
9153.000000;0.765528
9152.000000;0.766105
9151.000000;0.767504
9150.000000;0.768689
9149.000000;0.768895
9148.000000;0.768251
9147.000000;0.767368
9146.000000;0.766615
9145.000000;0.766010
9144.000000;0.765603
9143.000000;0.765577
9142.000000;0.765878
9141.000000;0.766063
9140.000000;0.765727
9139.000000;0.765013
9138.000000;0.764460
9137.000000;0.764369
9136.000000;0.764501
9135.000000;0.764453
9134.000000;0.764119
9133.000000;0.763699
9132.000000;0.763404
9131.000000;0.763332
9130.000000;0.763507
9129.000000;0.763811
9128.000000;0.763914
9127.000000;0.763532
9126.000000;0.762802
9125.000000;0.762235
9124.000000;0.762205
9123.000000;0.762619
9122.000000;0.763109
9121.000000;0.763377
9120.000000;0.763299
9119.000000;0.762862
9118.000000;0.762192
9117.000000;0.761528
9116.000000;0.761031
9115.000000;0.760680
9114.000000;0.760439
9113.000000;0.760427
9112.000000;0.760789
9111.000000;0.761447
9110.000000;0.762077
9109.000000;0.762314
9108.000000;0.761944
9107.000000;0.761041
9106.000000;0.759997
9105.000000;0.759309
9104.000000;0.759184
9103.000000;0.759391
9102.000000;0.759606
9101.000000;0.759791
9100.000000;0.760106
9099.000000;0.760532
9098.000000;0.760832
9097.000000;0.760854
9096.000000;0.760689
9095.000000;0.760476
9094.000000;0.760256
9093.000000;0.760064
9092.000000;0.760027
9091.000000;0.760231
9090.000000;0.760540
9089.000000;0.760663
9088.000000;0.760432
9087.000000;0.760036
9086.000000;0.759925
9085.000000;0.760395
9084.000000;0.761191
9083.000000;0.761610
9082.000000;0.761136
9081.000000;0.759946
9080.000000;0.758722
9079.000000;0.758043
9078.000000;0.758030
9077.000000;0.758415
9076.000000;0.758728
9075.000000;0.758533
9074.000000;0.757798
9073.000000;0.757054
9072.000000;0.756917
9071.000000;0.757391
9070.000000;0.757851
9069.000000;0.757807
9068.000000;0.757434
9067.000000;0.757180
9066.000000;0.757116
9065.000000;0.756952
9064.000000;0.756567
9063.000000;0.756246
9062.000000;0.756329
9061.000000;0.756810
9060.000000;0.757303
9059.000000;0.757382
9058.000000;0.756982
9057.000000;0.756519
9056.000000;0.756524
9055.000000;0.757081
9054.000000;0.757729
9053.000000;0.757991
