Criado como novo conjunto de dados;"e0108.spp","-4230342.1 Secs"
cm-1;Abs
10000.000000;1.844982
9999.000000;1.855234
9998.000000;1.865730
9997.000000;1.876567
9996.000000;1.886056
9995.000000;1.887514
9994.000000;1.881049
9993.000000;1.874965
9992.000000;1.874369
9991.000000;1.877288
9990.000000;1.878572
9989.000000;1.877035
9988.000000;1.876138
9987.000000;1.879362
9986.000000;1.886160
9985.000000;1.892034
9984.000000;1.891891
9983.000000;1.883835
9982.000000;1.870706
9981.000000;1.858660
9980.000000;1.854001
9979.000000;1.859619
9978.000000;1.872387
9977.000000;1.883891
9976.000000;1.885989
9975.000000;1.878493
9974.000000;1.869843
9973.000000;1.867287
9972.000000;1.869056
9971.000000;1.868047
9970.000000;1.861687
9969.000000;1.855159
9968.000000;1.854557
9967.000000;1.860496
9966.000000;1.869092
9965.000000;1.876322
9964.000000;1.879634
9963.000000;1.877035
9962.000000;1.868058
9961.000000;1.855900
9960.000000;1.845999
9959.000000;1.841718
9958.000000;1.842327
9957.000000;1.844970
9956.000000;1.847706
9955.000000;1.850365
9954.000000;1.853143
9953.000000;1.855204
9952.000000;1.855070
9951.000000;1.852446
9950.000000;1.849239
9949.000000;1.848176
9948.000000;1.850342
9947.000000;1.854387
9946.000000;1.858254
9945.000000;1.860943
9944.000000;1.862030
9943.000000;1.860703
9942.000000;1.856697
9941.000000;1.851547
9940.000000;1.847634
9939.000000;1.845916
9938.000000;1.845523
9937.000000;1.845548
9936.000000;1.846069
9935.000000;1.847575
9934.000000;1.850452
9933.000000;1.854829
9932.000000;1.860189
9931.000000;1.865197
9930.000000;1.868805
9929.000000;1.871738
9928.000000;1.875421
9927.000000;1.878680
9926.000000;1.877344
9925.000000;1.869250
9924.000000;1.858225
9923.000000;1.850325
9922.000000;1.847430
9921.000000;1.846453
9920.000000;1.844325
9919.000000;1.841985
9918.000000;1.842280
9917.000000;1.846052
9916.000000;1.851577
9915.000000;1.856200
9914.000000;1.857712
9913.000000;1.855093
9912.000000;1.849013
9911.000000;1.841478
9910.000000;1.834392
9909.000000;1.828646
9908.000000;1.824748
9907.000000;1.823442
9906.000000;1.824958
9905.000000;1.828239
9904.000000;1.831793
9903.000000;1.834975
9902.000000;1.837722
9901.000000;1.839390
9900.000000;1.838834
9899.000000;1.836061
9898.000000;1.832818
9897.000000;1.830920
9896.000000;1.831106
9895.000000;1.833340
9894.000000;1.836388
9893.000000;1.837348
9892.000000;1.833765
9891.000000;1.826679
9890.000000;1.820557
9889.000000;1.819399
9888.000000;1.822983
9887.000000;1.827781
9886.000000;1.831008
9885.000000;1.832187
9884.000000;1.831151
9883.000000;1.827087
9882.000000;1.820709
9881.000000;1.815481
9880.000000;1.814831
9879.000000;1.818525
9878.000000;1.822555
9877.000000;1.822670
9876.000000;1.818285
9875.000000;1.813321
9874.000000;1.812946
9873.000000;1.819038
9872.000000;1.828110
9871.000000;1.833588
9870.000000;1.831713
9869.000000;1.825476
9868.000000;1.821220
9867.000000;1.821734
9866.000000;1.824068
9865.000000;1.824011
9864.000000;1.821088
9863.000000;1.817948
9862.000000;1.816487
9861.000000;1.816418
9860.000000;1.816505
9859.000000;1.815269
9858.000000;1.811289
9857.000000;1.804953
9856.000000;1.799675
9855.000000;1.799383
9854.000000;1.804434
9853.000000;1.811007
9852.000000;1.815047
9851.000000;1.816052
9850.000000;1.816168
9849.000000;1.816731
9848.000000;1.817107
9847.000000;1.816083
9846.000000;1.813194
9845.000000;1.809155
9844.000000;1.805965
9843.000000;1.806188
9842.000000;1.810478
9841.000000;1.815365
9840.000000;1.815558
9839.000000;1.809854
9838.000000;1.802844
9837.000000;1.799588
9836.000000;1.800513
9835.000000;1.802723
9834.000000;1.805129
9833.000000;1.809612
9832.000000;1.816633
9831.000000;1.822405
9830.000000;1.821940
9829.000000;1.814777
9828.000000;1.805933
9827.000000;1.800237
9826.000000;1.798228
9825.000000;1.798348
9824.000000;1.800452
9823.000000;1.805308
9822.000000;1.811613
9821.000000;1.815605
9820.000000;1.814458
9819.000000;1.809044
9818.000000;1.802736
9817.000000;1.798776
9816.000000;1.799213
9815.000000;1.804475
9814.000000;1.812377
9813.000000;1.818341
9812.000000;1.818737
9811.000000;1.814521
9810.000000;1.810041
9809.000000;1.808546
9808.000000;1.810318
9807.000000;1.814167
9806.000000;1.818786
9805.000000;1.822629
9804.000000;1.823867
9803.000000;1.821603
9802.000000;1.817236
9801.000000;1.813687
9800.000000;1.812396
9799.000000;1.811483
9798.000000;1.807616
9797.000000;1.799633
9796.000000;1.790178
9795.000000;1.784148
9794.000000;1.785092
9793.000000;1.792086
9792.000000;1.799625
9791.000000;1.801708
9790.000000;1.797798
9789.000000;1.793325
9788.000000;1.793397
9787.000000;1.797979
9786.000000;1.803106
9785.000000;1.805616
9784.000000;1.805564
9783.000000;1.804228
9782.000000;1.801848
9781.000000;1.798278
9780.000000;1.794468
9779.000000;1.791589
9778.000000;1.789385
9777.000000;1.787017
9776.000000;1.785099
9775.000000;1.785304
9774.000000;1.787981
9773.000000;1.791329
9772.000000;1.793138
9771.000000;1.792564
9770.000000;1.790182
9769.000000;1.787180
9768.000000;1.784739
9767.000000;1.783783
9766.000000;1.784571
9765.000000;1.786539
9764.000000;1.789099
9763.000000;1.791431
9762.000000;1.791502
9761.000000;1.787753
9760.000000;1.782085
9759.000000;1.778992
9758.000000;1.780666
9757.000000;1.784277
9756.000000;1.785488
9755.000000;1.783619
9754.000000;1.781592
9753.000000;1.781956
9752.000000;1.784767
9751.000000;1.788451
9750.000000;1.791221
9749.000000;1.792108
9748.000000;1.791748
9747.000000;1.791541
9746.000000;1.791153
9745.000000;1.788240
9744.000000;1.782091
9743.000000;1.775962
9742.000000;1.773672
9741.000000;1.775210
9740.000000;1.777621
9739.000000;1.779131
9738.000000;1.780217
9737.000000;1.781164
9736.000000;1.781199
9735.000000;1.780361
9734.000000;1.779858
9733.000000;1.779954
9732.000000;1.779418
9731.000000;1.777403
9730.000000;1.774274
9729.000000;1.770803
9728.000000;1.768635
9727.000000;1.770903
9726.000000;1.779074
9725.000000;1.788940
9724.000000;1.792959
9723.000000;1.788449
9722.000000;1.780533
9721.000000;1.775039
9720.000000;1.772639
9719.000000;1.771575
9718.000000;1.772168
9717.000000;1.775542
9716.000000;1.779993
9715.000000;1.782088
9714.000000;1.780864
9713.000000;1.778320
9712.000000;1.776540
9711.000000;1.776524
9710.000000;1.778296
9709.000000;1.780200
9708.000000;1.779463
9707.000000;1.775409
9706.000000;1.770812
9705.000000;1.768082
9704.000000;1.765680
9703.000000;1.760910
9702.000000;1.755066
9701.000000;1.752187
9700.000000;1.753499
9699.000000;1.756396
9698.000000;1.758765
9697.000000;1.761835
9696.000000;1.767402
9695.000000;1.774138
9694.000000;1.779020
9693.000000;1.780979
9692.000000;1.780946
9691.000000;1.779672
9690.000000;1.777479
9689.000000;1.775456
9688.000000;1.774971
9687.000000;1.775687
9686.000000;1.775305
9685.000000;1.771931
9684.000000;1.766277
9683.000000;1.760996
9682.000000;1.757817
9681.000000;1.755543
9680.000000;1.751570
9679.000000;1.745768
9678.000000;1.741743
9677.000000;1.743336
9676.000000;1.750402
9675.000000;1.758591
9674.000000;1.763364
9673.000000;1.763651
9672.000000;1.761283
9671.000000;1.758259
9670.000000;1.755672
9669.000000;1.753905
9668.000000;1.752223
9667.000000;1.749077
9666.000000;1.744386
9665.000000;1.740720
9664.000000;1.740679
9663.000000;1.743570
9662.000000;1.746037
9661.000000;1.746276
9660.000000;1.746372
9659.000000;1.749597
9658.000000;1.756457
9657.000000;1.763978
9656.000000;1.768146
9655.000000;1.766930
9654.000000;1.761435
9653.000000;1.754797
9652.000000;1.750191
9651.000000;1.748934
9650.000000;1.749740
9649.000000;1.750106
9648.000000;1.748942
9647.000000;1.747730
9646.000000;1.748590
9645.000000;1.751583
9644.000000;1.754451
9643.000000;1.754785
9642.000000;1.752218
9641.000000;1.748620
9640.000000;1.746616
9639.000000;1.747986
9638.000000;1.752601
9637.000000;1.758104
9636.000000;1.760721
9635.000000;1.757334
9634.000000;1.748109
9633.000000;1.737307
9632.000000;1.730566
9631.000000;1.731033
9630.000000;1.737475
9629.000000;1.745355
9628.000000;1.750461
9627.000000;1.752331
9626.000000;1.753550
9625.000000;1.755796
9624.000000;1.757647
9623.000000;1.756392
9622.000000;1.751473
9621.000000;1.745667
9620.000000;1.742758
9619.000000;1.744208
9618.000000;1.747888
9617.000000;1.750436
9616.000000;1.751251
9615.000000;1.753174
9614.000000;1.758644
9613.000000;1.766305
9612.000000;1.772207
9611.000000;1.773543
9610.000000;1.770007
9609.000000;1.762298
9608.000000;1.751635
9607.000000;1.740804
9606.000000;1.733333
9605.000000;1.730890
9604.000000;1.732650
9603.000000;1.737108
9602.000000;1.742899
9601.000000;1.747589
9600.000000;1.748203
9599.000000;1.744768
9598.000000;1.741194
9597.000000;1.740495
9596.000000;1.740852
9595.000000;1.738388
9594.000000;1.732779
9593.000000;1.727793
9592.000000;1.726595
9591.000000;1.728804
9590.000000;1.732216
9589.000000;1.735299
9588.000000;1.737466
9587.000000;1.738355
9586.000000;1.737552
9585.000000;1.734630
9584.000000;1.729647
9583.000000;1.724126
9582.000000;1.720901
9581.000000;1.722110
9580.000000;1.727580
9579.000000;1.735452
9578.000000;1.743659
9577.000000;1.750143
9576.000000;1.752704
9575.000000;1.750484
9574.000000;1.745321
9573.000000;1.740177
9572.000000;1.736670
9571.000000;1.734709
9570.000000;1.733440
9569.000000;1.731514
9568.000000;1.727407
9567.000000;1.721615
9566.000000;1.718195
9565.000000;1.721700
9564.000000;1.732129
9563.000000;1.743859
9562.000000;1.749971
9561.000000;1.747464
9560.000000;1.738173
9559.000000;1.726610
9558.000000;1.718138
9557.000000;1.716628
9556.000000;1.721383
9555.000000;1.726960
9554.000000;1.728149
9553.000000;1.725166
9552.000000;1.722043
9551.000000;1.720972
9550.000000;1.720492
9549.000000;1.718677
9548.000000;1.716181
9547.000000;1.715069
9546.000000;1.715523
9545.000000;1.715404
9544.000000;1.713290
9543.000000;1.710669
9542.000000;1.710304
9541.000000;1.713118
9540.000000;1.717414
9539.000000;1.720920
9538.000000;1.722832
9537.000000;1.723411
9536.000000;1.722727
9535.000000;1.721144
9534.000000;1.720210
9533.000000;1.721434
9532.000000;1.724094
9531.000000;1.725272
9530.000000;1.722714
9529.000000;1.717132
9528.000000;1.711243
9527.000000;1.707215
9526.000000;1.705536
9525.000000;1.705589
9524.000000;1.706655
9523.000000;1.708579
9522.000000;1.711669
9521.000000;1.715649
9520.000000;1.718937
9519.000000;1.719836
9518.000000;1.718542
9517.000000;1.716906
9516.000000;1.716069
9515.000000;1.715803
9514.000000;1.716129
9513.000000;1.717576
9512.000000;1.719299
9511.000000;1.718681
9510.000000;1.714299
9509.000000;1.708501
9508.000000;1.705208
9507.000000;1.705446
9506.000000;1.706364
9505.000000;1.704938
9504.000000;1.701748
9503.000000;1.700191
9502.000000;1.702169
9501.000000;1.705435
9500.000000;1.706105
9499.000000;1.703639
9498.000000;1.701816
9497.000000;1.704087
9496.000000;1.709235
9495.000000;1.712962
9494.000000;1.713304
9493.000000;1.712300
9492.000000;1.711977
9491.000000;1.711436
9490.000000;1.709190
9489.000000;1.706300
9488.000000;1.705021
9487.000000;1.705523
9486.000000;1.706022
9485.000000;1.705587
9484.000000;1.705033
9483.000000;1.705238
9482.000000;1.706007
9481.000000;1.706485
9480.000000;1.705590
9479.000000;1.702406
9478.000000;1.697551
9477.000000;1.693658
9476.000000;1.692897
9475.000000;1.694444
9474.000000;1.695711
9473.000000;1.695852
9472.000000;1.696397
9471.000000;1.698276
9470.000000;1.700310
9469.000000;1.701333
9468.000000;1.701840
9467.000000;1.702200
9466.000000;1.700878
9465.000000;1.696382
9464.000000;1.690093
9463.000000;1.685215
9462.000000;1.683579
9461.000000;1.684753
9460.000000;1.687639
9459.000000;1.691577
9458.000000;1.695807
9457.000000;1.699102
9456.000000;1.700556
9455.000000;1.700096
9454.000000;1.698003
9453.000000;1.694836
9452.000000;1.692125
9451.000000;1.691979
9450.000000;1.694905
9449.000000;1.698412
9448.000000;1.698946
9447.000000;1.695637
9446.000000;1.691238
9445.000000;1.688943
9444.000000;1.689318
9443.000000;1.690727
9442.000000;1.691806
9441.000000;1.692591
9440.000000;1.693413
9439.000000;1.694114
9438.000000;1.694987
9437.000000;1.696926
9436.000000;1.699611
9435.000000;1.700661
9434.000000;1.697788
9433.000000;1.691673
9432.000000;1.685589
9431.000000;1.681996
9430.000000;1.680479
9429.000000;1.679307
9428.000000;1.678108
9427.000000;1.678055
9426.000000;1.680002
9425.000000;1.683471
9424.000000;1.687195
9423.000000;1.690011
9422.000000;1.691229
9421.000000;1.690735
9420.000000;1.689378
9419.000000;1.688816
9418.000000;1.690302
9417.000000;1.693612
9416.000000;1.696965
9415.000000;1.698044
9414.000000;1.695750
9413.000000;1.691181
9412.000000;1.686682
9411.000000;1.683692
9410.000000;1.681642
9409.000000;1.679353
9408.000000;1.677064
9407.000000;1.676144
9406.000000;1.677053
9405.000000;1.678769
9404.000000;1.680530
9403.000000;1.682948
9402.000000;1.686531
9401.000000;1.689710
9400.000000;1.689733
9399.000000;1.686099
9398.000000;1.682077
9397.000000;1.682021
9396.000000;1.687424
9395.000000;1.695391
9394.000000;1.700707
9393.000000;1.700156
9392.000000;1.695256
9391.000000;1.690278
9390.000000;1.687840
9389.000000;1.687130
9388.000000;1.686209
9387.000000;1.684889
9386.000000;1.684347
9385.000000;1.684615
9384.000000;1.684246
9383.000000;1.682805
9382.000000;1.682093
9381.000000;1.683889
9380.000000;1.687441
9379.000000;1.690101
9378.000000;1.690016
9377.000000;1.687453
9376.000000;1.683891
9375.000000;1.680795
9374.000000;1.679071
9373.000000;1.678691
9372.000000;1.678801
9371.000000;1.678833
9370.000000;1.679332
9369.000000;1.680805
9368.000000;1.682022
9367.000000;1.680793
9366.000000;1.676727
9365.000000;1.672088
9364.000000;1.669367
9363.000000;1.668928
9362.000000;1.669461
9361.000000;1.670033
9360.000000;1.671039
9359.000000;1.673160
9358.000000;1.675869
9357.000000;1.677340
9356.000000;1.675986
9355.000000;1.672305
9354.000000;1.669113
9353.000000;1.669282
9352.000000;1.672845
9351.000000;1.676778
9350.000000;1.677999
9349.000000;1.676277
9348.000000;1.673724
9347.000000;1.671952
9346.000000;1.670753
9345.000000;1.669454
9344.000000;1.668373
9343.000000;1.668179
9342.000000;1.668503
9341.000000;1.668296
9340.000000;1.667545
9339.000000;1.667628
9338.000000;1.669497
9337.000000;1.672158
9336.000000;1.673682
9335.000000;1.673494
9334.000000;1.672746
9333.000000;1.672432
9332.000000;1.672210
9331.000000;1.671487
9330.000000;1.670681
9329.000000;1.670637
9328.000000;1.671316
9327.000000;1.671851
9326.000000;1.671764
9325.000000;1.671372
9324.000000;1.671020
9323.000000;1.670722
9322.000000;1.670696
9321.000000;1.671545
9320.000000;1.673509
9319.000000;1.675747
9318.000000;1.676795
9317.000000;1.675799
9316.000000;1.672994
9315.000000;1.669013
9314.000000;1.664044
9313.000000;1.657976
9312.000000;1.651478
9311.000000;1.646693
9310.000000;1.646344
9309.000000;1.651472
9308.000000;1.659641
9307.000000;1.665859
9306.000000;1.666570
9305.000000;1.663128
9304.000000;1.660289
9303.000000;1.661063
9302.000000;1.663751
9301.000000;1.664247
9300.000000;1.661130
9299.000000;1.657596
9298.000000;1.657826
9297.000000;1.662290
9296.000000;1.667144
9295.000000;1.668107
9294.000000;1.664521
9293.000000;1.659285
9292.000000;1.655694
9291.000000;1.655089
9290.000000;1.656766
9289.000000;1.659125
9288.000000;1.660905
9287.000000;1.661869
9286.000000;1.662656
9285.000000;1.664021
9284.000000;1.666078
9283.000000;1.668024
9282.000000;1.668511
9281.000000;1.666607
9280.000000;1.662841
9279.000000;1.659113
9278.000000;1.657147
9277.000000;1.657082
9276.000000;1.657685
9275.000000;1.657657
9274.000000;1.656580
9273.000000;1.654849
9272.000000;1.653308
9271.000000;1.652989
9270.000000;1.654427
9269.000000;1.656807
9268.000000;1.658382
9267.000000;1.658157
9266.000000;1.656633
9265.000000;1.654600
9264.000000;1.651975
9263.000000;1.648392
9262.000000;1.644305
9261.000000;1.640824
9260.000000;1.638802
9259.000000;1.638483
9258.000000;1.639525
9257.000000;1.640883
9256.000000;1.641323
9255.000000;1.640952
9254.000000;1.641945
9253.000000;1.646567
9252.000000;1.654199
9251.000000;1.660959
9250.000000;1.662868
9249.000000;1.659408
9248.000000;1.653627
9247.000000;1.649051
9246.000000;1.647019
9245.000000;1.646494
9244.000000;1.645836
9243.000000;1.644748
9242.000000;1.644431
9241.000000;1.645974
9240.000000;1.649096
9239.000000;1.652579
9238.000000;1.655365
9237.000000;1.656886
9236.000000;1.656685
9235.000000;1.654313
9234.000000;1.649976
9233.000000;1.644903
9232.000000;1.640850
9231.000000;1.639558
9230.000000;1.642083
9229.000000;1.647635
9228.000000;1.653166
9227.000000;1.655181
9226.000000;1.652750
9225.000000;1.648406
9224.000000;1.645707
9223.000000;1.646257
9222.000000;1.648947
9221.000000;1.651355
9220.000000;1.651640
9219.000000;1.649545
9218.000000;1.646184
9217.000000;1.643192
9216.000000;1.641870
9215.000000;1.642546
9214.000000;1.644355
9213.000000;1.645795
9212.000000;1.645880
9211.000000;1.644797
9210.000000;1.643249
9209.000000;1.641605
9208.000000;1.640370
9207.000000;1.640806
9206.000000;1.643669
9205.000000;1.647328
9204.000000;1.648517
9203.000000;1.645881
9202.000000;1.641892
9201.000000;1.640144
9200.000000;1.641492
9199.000000;1.643803
9198.000000;1.644911
9197.000000;1.644516
9196.000000;1.643185
9195.000000;1.641164
9194.000000;1.638945
9193.000000;1.637853
9192.000000;1.638911
9191.000000;1.641408
9190.000000;1.643347
9189.000000;1.643432
9188.000000;1.642246
9187.000000;1.641401
9186.000000;1.641784
9185.000000;1.642702
9184.000000;1.642835
9183.000000;1.641929
9182.000000;1.641046
9181.000000;1.640998
9180.000000;1.641144
9179.000000;1.640273
9178.000000;1.638238
9177.000000;1.636036
9176.000000;1.634437
9175.000000;1.633295
9174.000000;1.632399
9173.000000;1.632393
9172.000000;1.634164
9171.000000;1.637421
9170.000000;1.640409
9169.000000;1.641268
9168.000000;1.639741
9167.000000;1.637342
9166.000000;1.635708
9165.000000;1.635002
9164.000000;1.634250
9163.000000;1.633084
9162.000000;1.632210
9161.000000;1.631890
9160.000000;1.631308
9159.000000;1.630143
9158.000000;1.629674
9157.000000;1.631230
9156.000000;1.634211
9155.000000;1.636660
9154.000000;1.637508
9153.000000;1.637407
9152.000000;1.637446
9151.000000;1.638001
9150.000000;1.638739
9149.000000;1.638849
9148.000000;1.637690
9147.000000;1.635947
9146.000000;1.635376
9145.000000;1.636377
9144.000000;1.636731
9143.000000;1.634437
9142.000000;1.631227
9141.000000;1.630866
9140.000000;1.634101
9139.000000;1.637506
9138.000000;1.638036
9137.000000;1.636861
9136.000000;1.637104
9135.000000;1.639457
9134.000000;1.641777
9133.000000;1.642110
9132.000000;1.640584
9131.000000;1.638464
9130.000000;1.636700
9129.000000;1.635569
9128.000000;1.634770
9127.000000;1.633743
9126.000000;1.632289
9125.000000;1.630564
9124.000000;1.628472
9123.000000;1.625903
9122.000000;1.623730
9121.000000;1.623444
9120.000000;1.625099
9119.000000;1.626589
9118.000000;1.626088
9117.000000;1.624577
9116.000000;1.624520
9115.000000;1.626501
9114.000000;1.628499
9113.000000;1.628505
9112.000000;1.626760
9111.000000;1.625008
9110.000000;1.624540
9109.000000;1.625577
9108.000000;1.627781
9107.000000;1.630534
9106.000000;1.632733
9105.000000;1.632920
9104.000000;1.630257
9103.000000;1.625564
9102.000000;1.621170
9101.000000;1.619265
9100.000000;1.620065
9099.000000;1.621594
9098.000000;1.621582
9097.000000;1.619634
9096.000000;1.617269
9095.000000;1.616010
9094.000000;1.615995
9093.000000;1.616474
9092.000000;1.617073
9091.000000;1.618080
9090.000000;1.619706
9089.000000;1.621686
9088.000000;1.623763
9087.000000;1.626005
9086.000000;1.628165
9085.000000;1.629116
9084.000000;1.627802
9083.000000;1.624761
9082.000000;1.621721
9081.000000;1.619546
9080.000000;1.617697
9079.000000;1.616037
9078.000000;1.615736
9077.000000;1.617289
9076.000000;1.618776
9075.000000;1.617980
9074.000000;1.615888
9073.000000;1.615827
9072.000000;1.618996
9071.000000;1.622869
9070.000000;1.624612
9069.000000;1.624285
9068.000000;1.623292
9067.000000;1.621546
9066.000000;1.618352
9065.000000;1.614813
9064.000000;1.612896
9063.000000;1.612486
9062.000000;1.611479
9061.000000;1.609016
9060.000000;1.606849
9059.000000;1.606866
9058.000000;1.608806
9057.000000;1.611204
9056.000000;1.613472
9055.000000;1.616041
9054.000000;1.619145
9053.000000;1.622444
