Criado como novo conjunto de dados;"e0108.spp","-4236642.2 Secs"
cm-1;Abs
10000.000000;0.989272
9999.000000;0.986994
9998.000000;0.984808
9997.000000;0.982457
9996.000000;0.981093
9995.000000;0.981353
9994.000000;0.982249
9993.000000;0.983122
9992.000000;0.983761
9991.000000;0.984068
9990.000000;0.983541
9989.000000;0.981871
9988.000000;0.979673
9987.000000;0.978126
9986.000000;0.977780
9985.000000;0.978062
9984.000000;0.978142
9983.000000;0.977995
9982.000000;0.978223
9981.000000;0.978957
9980.000000;0.979461
9979.000000;0.979062
9978.000000;0.978092
9977.000000;0.977476
9976.000000;0.977588
9975.000000;0.977968
9974.000000;0.978065
9973.000000;0.977763
9972.000000;0.977080
9971.000000;0.975929
9970.000000;0.974507
9969.000000;0.973508
9968.000000;0.973441
9967.000000;0.973893
9966.000000;0.973904
9965.000000;0.973085
9964.000000;0.971964
9963.000000;0.971239
9962.000000;0.971043
9961.000000;0.971012
9960.000000;0.970724
9959.000000;0.969888
9958.000000;0.968354
9957.000000;0.966245
9956.000000;0.964054
9955.000000;0.962383
9954.000000;0.961541
9953.000000;0.961510
9952.000000;0.962245
9951.000000;0.963792
9950.000000;0.965956
9949.000000;0.967981
9948.000000;0.968863
9947.000000;0.968182
9946.000000;0.966565
9945.000000;0.965178
9944.000000;0.964763
9943.000000;0.965218
9942.000000;0.965916
9941.000000;0.966179
9940.000000;0.965581
9939.000000;0.964283
9938.000000;0.963238
9937.000000;0.963563
9936.000000;0.965271
9935.000000;0.966837
9934.000000;0.966529
9933.000000;0.964179
9932.000000;0.961209
9931.000000;0.959043
9930.000000;0.957986
9929.000000;0.957627
9928.000000;0.957637
9927.000000;0.957802
9926.000000;0.957746
9925.000000;0.957231
9924.000000;0.956672
9923.000000;0.956831
9922.000000;0.957887
9921.000000;0.959085
9920.000000;0.959489
9919.000000;0.958918
9918.000000;0.957969
9917.000000;0.957247
9916.000000;0.956843
9915.000000;0.956558
9914.000000;0.956359
9913.000000;0.956316
9912.000000;0.956153
9911.000000;0.955298
9910.000000;0.953658
9909.000000;0.952101
9908.000000;0.951753
9907.000000;0.952790
9906.000000;0.954213
9905.000000;0.954881
9904.000000;0.954591
9903.000000;0.954058
9902.000000;0.954053
9901.000000;0.954784
9900.000000;0.955856
9899.000000;0.956494
9898.000000;0.955956
9897.000000;0.953997
9896.000000;0.951009
9895.000000;0.947804
9894.000000;0.945329
9893.000000;0.944425
9892.000000;0.945421
9891.000000;0.947752
9890.000000;0.950150
9889.000000;0.951516
9888.000000;0.951662
9887.000000;0.951165
9886.000000;0.950588
9885.000000;0.949956
9884.000000;0.948976
9883.000000;0.947647
9882.000000;0.946550
9881.000000;0.946328
9880.000000;0.946799
9879.000000;0.946795
9878.000000;0.945268
9877.000000;0.942501
9876.000000;0.939879
9875.000000;0.938512
9874.000000;0.938464
9873.000000;0.939241
9872.000000;0.940445
9871.000000;0.941681
9870.000000;0.942387
9869.000000;0.942289
9868.000000;0.941824
9867.000000;0.941663
9866.000000;0.941940
9865.000000;0.942225
9864.000000;0.942119
9863.000000;0.941491
9862.000000;0.940253
9861.000000;0.938381
9860.000000;0.936203
9859.000000;0.934320
9858.000000;0.933133
9857.000000;0.932653
9856.000000;0.932712
9855.000000;0.933094
9854.000000;0.933503
9853.000000;0.933734
9852.000000;0.933999
9851.000000;0.934784
9850.000000;0.936219
9849.000000;0.937742
9848.000000;0.938531
9847.000000;0.938178
9846.000000;0.936874
9845.000000;0.935120
9844.000000;0.933429
9843.000000;0.932173
9842.000000;0.931494
9841.000000;0.931222
9840.000000;0.930963
9839.000000;0.930457
9838.000000;0.929919
9837.000000;0.929907
9836.000000;0.930644
9835.000000;0.931518
9834.000000;0.931500
9833.000000;0.930190
9832.000000;0.928277
9831.000000;0.926852
9830.000000;0.926456
9829.000000;0.926856
9828.000000;0.927480
9827.000000;0.927856
9826.000000;0.927864
9825.000000;0.927809
9824.000000;0.928096
9823.000000;0.928617
9822.000000;0.928672
9821.000000;0.927784
9820.000000;0.926393
9819.000000;0.925374
9818.000000;0.925042
9817.000000;0.925008
9816.000000;0.924852
9815.000000;0.924490
9814.000000;0.923906
9813.000000;0.923069
9812.000000;0.922269
9811.000000;0.922046
9810.000000;0.922562
9809.000000;0.923349
9808.000000;0.923851
9807.000000;0.923930
9806.000000;0.923658
9805.000000;0.922916
9804.000000;0.921512
9803.000000;0.919575
9802.000000;0.917686
9801.000000;0.916646
9800.000000;0.916984
9799.000000;0.918312
9798.000000;0.919214
9797.000000;0.918378
9796.000000;0.916143
9795.000000;0.914414
9794.000000;0.914650
9793.000000;0.916317
9792.000000;0.917694
9791.000000;0.917870
9790.000000;0.917375
9789.000000;0.917005
9788.000000;0.916792
9787.000000;0.916370
9786.000000;0.915752
9785.000000;0.915298
9784.000000;0.915150
9783.000000;0.915088
9782.000000;0.914940
9781.000000;0.914847
9780.000000;0.914984
9779.000000;0.915147
9778.000000;0.914767
9777.000000;0.913460
9776.000000;0.911567
9775.000000;0.909986
9774.000000;0.909375
9773.000000;0.909587
9772.000000;0.909980
9771.000000;0.910184
9770.000000;0.910379
9769.000000;0.910808
9768.000000;0.911222
9767.000000;0.910969
9766.000000;0.909622
9765.000000;0.907459
9764.000000;0.905368
9763.000000;0.904230
9762.000000;0.904311
9761.000000;0.905104
9760.000000;0.905748
9759.000000;0.905769
9758.000000;0.905518
9757.000000;0.905817
9756.000000;0.907042
9755.000000;0.908542
9754.000000;0.909131
9753.000000;0.908277
9752.000000;0.906675
9751.000000;0.905496
9750.000000;0.905231
9749.000000;0.905452
9748.000000;0.905501
9747.000000;0.905076
9746.000000;0.904158
9745.000000;0.902829
9744.000000;0.901438
9743.000000;0.900633
9742.000000;0.900824
9741.000000;0.901663
9740.000000;0.902338
9739.000000;0.902344
9738.000000;0.901797
9737.000000;0.901089
9736.000000;0.900555
9735.000000;0.900431
9734.000000;0.900778
9733.000000;0.901312
9732.000000;0.901488
9731.000000;0.900962
9730.000000;0.899915
9729.000000;0.898851
9728.000000;0.898106
9727.000000;0.897580
9726.000000;0.896900
9725.000000;0.895889
9724.000000;0.894904
9723.000000;0.894551
9722.000000;0.894908
9721.000000;0.895182
9720.000000;0.894471
9719.000000;0.892863
9718.000000;0.891418
9717.000000;0.890973
9716.000000;0.891293
9715.000000;0.891611
9714.000000;0.891710
9713.000000;0.892038
9712.000000;0.892877
9711.000000;0.893780
9710.000000;0.893987
9709.000000;0.893211
9708.000000;0.891857
9707.000000;0.890611
9706.000000;0.889951
9705.000000;0.889954
9704.000000;0.890375
9703.000000;0.890830
9702.000000;0.890970
9701.000000;0.890612
9700.000000;0.889833
9699.000000;0.888960
9698.000000;0.888332
9697.000000;0.888040
9696.000000;0.888015
9695.000000;0.888361
9694.000000;0.889329
9693.000000;0.890764
9692.000000;0.891833
9691.000000;0.891676
9690.000000;0.890292
9689.000000;0.888459
9688.000000;0.886815
9687.000000;0.885433
9686.000000;0.884359
9685.000000;0.883989
9684.000000;0.884536
9683.000000;0.885468
9682.000000;0.885893
9681.000000;0.885426
9680.000000;0.884352
9679.000000;0.883109
9678.000000;0.881973
9677.000000;0.881183
9676.000000;0.880966
9675.000000;0.881297
9674.000000;0.881848
9673.000000;0.882197
9672.000000;0.881995
9671.000000;0.881096
9670.000000;0.879807
9669.000000;0.878900
9668.000000;0.878929
9667.000000;0.879551
9666.000000;0.879895
9665.000000;0.879686
9664.000000;0.879562
9663.000000;0.880105
9662.000000;0.881034
9661.000000;0.881651
9660.000000;0.881665
9659.000000;0.881168
9658.000000;0.880142
9657.000000;0.878564
9656.000000;0.876892
9655.000000;0.875888
9654.000000;0.875835
9653.000000;0.876298
9652.000000;0.876694
9651.000000;0.876810
9650.000000;0.876688
9649.000000;0.876382
9648.000000;0.876008
9647.000000;0.875721
9646.000000;0.875443
9645.000000;0.874806
9644.000000;0.873640
9643.000000;0.872387
9642.000000;0.871737
9641.000000;0.871872
9640.000000;0.872225
9639.000000;0.872067
9638.000000;0.871216
9637.000000;0.870160
9636.000000;0.869585
9635.000000;0.869830
9634.000000;0.870688
9633.000000;0.871601
9632.000000;0.872037
9631.000000;0.871780
9630.000000;0.871012
9629.000000;0.870190
9628.000000;0.869736
9627.000000;0.869729
9626.000000;0.869839
9625.000000;0.869589
9624.000000;0.868714
9623.000000;0.867332
9622.000000;0.865859
9621.000000;0.864822
9620.000000;0.864645
9619.000000;0.865428
9618.000000;0.866827
9617.000000;0.868158
9616.000000;0.868724
9615.000000;0.868217
9614.000000;0.866975
9613.000000;0.865795
9612.000000;0.865310
9611.000000;0.865444
9610.000000;0.865568
9609.000000;0.865261
9608.000000;0.864753
9607.000000;0.864536
9606.000000;0.864722
9605.000000;0.864974
9604.000000;0.864898
9603.000000;0.864276
9602.000000;0.863042
9601.000000;0.861329
9600.000000;0.859587
9599.000000;0.858379
9598.000000;0.857977
9597.000000;0.858245
9596.000000;0.858894
9595.000000;0.859678
9594.000000;0.860340
9593.000000;0.860597
9592.000000;0.860301
9591.000000;0.859529
9590.000000;0.858463
9589.000000;0.857319
9588.000000;0.856380
9587.000000;0.855913
9586.000000;0.855927
9585.000000;0.856146
9584.000000;0.856285
9583.000000;0.856292
9582.000000;0.856285
9581.000000;0.856374
9580.000000;0.856578
9579.000000;0.856790
9578.000000;0.856789
9577.000000;0.856397
9576.000000;0.855692
9575.000000;0.854984
9574.000000;0.854547
9573.000000;0.854469
9572.000000;0.854703
9571.000000;0.855056
9570.000000;0.855143
9569.000000;0.854655
9568.000000;0.853771
9567.000000;0.853032
9566.000000;0.852649
9565.000000;0.852235
9564.000000;0.851460
9563.000000;0.850719
9562.000000;0.850765
9561.000000;0.851755
9560.000000;0.852983
9559.000000;0.853563
9558.000000;0.853138
9557.000000;0.851973
9556.000000;0.850670
9555.000000;0.849832
9554.000000;0.849665
9553.000000;0.849715
9552.000000;0.849248
9551.000000;0.848069
9550.000000;0.846802
9549.000000;0.846201
9548.000000;0.846350
9547.000000;0.846740
9546.000000;0.846941
9545.000000;0.846942
9544.000000;0.846903
9543.000000;0.846935
9542.000000;0.847156
9541.000000;0.847668
9540.000000;0.848324
9539.000000;0.848733
9538.000000;0.848624
9537.000000;0.848099
9536.000000;0.847455
9535.000000;0.846883
9534.000000;0.846449
9533.000000;0.846159
9532.000000;0.845881
9531.000000;0.845376
9530.000000;0.844578
9529.000000;0.843710
9528.000000;0.842939
9527.000000;0.842108
9526.000000;0.841129
9525.000000;0.840440
9524.000000;0.840565
9523.000000;0.841198
9522.000000;0.841229
9521.000000;0.839983
9520.000000;0.838114
9519.000000;0.836941
9518.000000;0.837113
9517.000000;0.838176
9516.000000;0.839251
9515.000000;0.839766
9514.000000;0.839615
9513.000000;0.838995
9512.000000;0.838220
9511.000000;0.837523
9510.000000;0.837029
9509.000000;0.836938
9508.000000;0.837532
9507.000000;0.838711
9506.000000;0.839686
9505.000000;0.839556
9504.000000;0.838283
9503.000000;0.836777
9502.000000;0.835932
9501.000000;0.835828
9500.000000;0.835979
9499.000000;0.836017
9498.000000;0.835929
9497.000000;0.835864
9496.000000;0.835990
9495.000000;0.836414
9494.000000;0.836965
9493.000000;0.837105
9492.000000;0.836335
9491.000000;0.834822
9490.000000;0.833407
9489.000000;0.832859
9488.000000;0.833149
9487.000000;0.833520
9486.000000;0.833308
9485.000000;0.832645
9484.000000;0.832266
9483.000000;0.832591
9482.000000;0.833152
9481.000000;0.833031
9480.000000;0.831850
9479.000000;0.830180
9478.000000;0.828972
9477.000000;0.828740
9476.000000;0.829297
9475.000000;0.830093
9474.000000;0.830672
9473.000000;0.830839
9472.000000;0.830567
9471.000000;0.829890
9470.000000;0.829019
9469.000000;0.828463
9468.000000;0.828773
9467.000000;0.829951
9466.000000;0.831207
9465.000000;0.831553
9464.000000;0.830671
9463.000000;0.829069
9462.000000;0.827471
9461.000000;0.826292
9460.000000;0.825652
9459.000000;0.825559
9458.000000;0.825881
9457.000000;0.826288
9456.000000;0.826426
9455.000000;0.826154
9454.000000;0.825595
9453.000000;0.825063
9452.000000;0.824923
9451.000000;0.825250
9450.000000;0.825599
9449.000000;0.825389
9448.000000;0.824662
9447.000000;0.824157
9446.000000;0.824387
9445.000000;0.824919
9444.000000;0.824938
9443.000000;0.824362
9442.000000;0.823897
9441.000000;0.824010
9440.000000;0.824321
9439.000000;0.824211
9438.000000;0.823651
9437.000000;0.823150
9436.000000;0.823036
9435.000000;0.823153
9434.000000;0.823162
9433.000000;0.822873
9432.000000;0.822279
9431.000000;0.821534
9430.000000;0.820985
9429.000000;0.820989
9428.000000;0.821521
9427.000000;0.822047
9426.000000;0.821989
9425.000000;0.821345
9424.000000;0.820701
9423.000000;0.820572
9422.000000;0.820835
9421.000000;0.820892
9420.000000;0.820336
9419.000000;0.819339
9418.000000;0.818384
9417.000000;0.817793
9416.000000;0.817587
9415.000000;0.817707
9414.000000;0.818138
9413.000000;0.818729
9412.000000;0.819069
9411.000000;0.818730
9410.000000;0.817665
9409.000000;0.816243
9408.000000;0.814925
9407.000000;0.814039
9406.000000;0.813874
9405.000000;0.814634
9404.000000;0.816021
9403.000000;0.817070
9402.000000;0.816825
9401.000000;0.815317
9400.000000;0.813584
9399.000000;0.812627
9398.000000;0.812546
9397.000000;0.812812
9396.000000;0.813049
9395.000000;0.813289
9394.000000;0.813681
9393.000000;0.814297
9392.000000;0.815137
9391.000000;0.816017
9390.000000;0.816491
9389.000000;0.816232
9388.000000;0.815526
9387.000000;0.815084
9386.000000;0.815285
9385.000000;0.815797
9384.000000;0.815984
9383.000000;0.815461
9382.000000;0.814256
9381.000000;0.812732
9380.000000;0.811484
9379.000000;0.810979
9378.000000;0.811076
9377.000000;0.811111
9376.000000;0.810670
9375.000000;0.810075
9374.000000;0.809849
9373.000000;0.809934
9372.000000;0.809819
9371.000000;0.809344
9370.000000;0.808920
9369.000000;0.808878
9368.000000;0.808982
9367.000000;0.808795
9366.000000;0.808292
9365.000000;0.807848
9364.000000;0.807697
9363.000000;0.807645
9362.000000;0.807380
9361.000000;0.806909
9360.000000;0.806545
9359.000000;0.806488
9358.000000;0.806571
9357.000000;0.806465
9356.000000;0.806074
9355.000000;0.805583
9354.000000;0.805171
9353.000000;0.804872
9352.000000;0.804758
9351.000000;0.805016
9350.000000;0.805619
9349.000000;0.806064
9348.000000;0.805715
9347.000000;0.804511
9346.000000;0.803135
9345.000000;0.802388
9344.000000;0.802504
9343.000000;0.803120
9342.000000;0.803760
9341.000000;0.804217
9340.000000;0.804540
9339.000000;0.804840
9338.000000;0.805167
9337.000000;0.805441
9336.000000;0.805443
9335.000000;0.804908
9334.000000;0.803773
9333.000000;0.802341
9332.000000;0.801155
9331.000000;0.800642
9330.000000;0.800820
9329.000000;0.801333
9328.000000;0.801742
9327.000000;0.801847
9326.000000;0.801775
9325.000000;0.801803
9324.000000;0.802102
9323.000000;0.802619
9322.000000;0.803149
9321.000000;0.803476
9320.000000;0.803456
9319.000000;0.803071
9318.000000;0.802484
9317.000000;0.801978
9316.000000;0.801696
9315.000000;0.801441
9314.000000;0.800835
9313.000000;0.799747
9312.000000;0.798480
9311.000000;0.797474
9310.000000;0.796885
9309.000000;0.796538
9308.000000;0.796221
9307.000000;0.795951
9306.000000;0.795924
9305.000000;0.796275
9304.000000;0.796864
9303.000000;0.797308
9302.000000;0.797326
9301.000000;0.797050
9300.000000;0.796900
9299.000000;0.797112
9298.000000;0.797527
9297.000000;0.797840
9296.000000;0.797882
9295.000000;0.797574
9294.000000;0.796884
9293.000000;0.796030
9292.000000;0.795504
9291.000000;0.795564
9290.000000;0.795805
9289.000000;0.795556
9288.000000;0.794694
9287.000000;0.793750
9286.000000;0.793230
9285.000000;0.793176
9284.000000;0.793404
9283.000000;0.793826
9282.000000;0.794367
9281.000000;0.794823
9280.000000;0.794996
9279.000000;0.794840
9278.000000;0.794403
9277.000000;0.793821
9276.000000;0.793384
9275.000000;0.793331
9274.000000;0.793477
9273.000000;0.793322
9272.000000;0.792668
9271.000000;0.791865
9270.000000;0.791345
9269.000000;0.791217
9268.000000;0.791463
9267.000000;0.792123
9266.000000;0.792930
9265.000000;0.793110
9264.000000;0.792077
9263.000000;0.790253
9262.000000;0.788782
9261.000000;0.788376
9260.000000;0.788759
9259.000000;0.789185
9258.000000;0.789169
9257.000000;0.788651
9256.000000;0.787811
9255.000000;0.786966
9254.000000;0.786460
9253.000000;0.786483
9252.000000;0.786974
9251.000000;0.787693
9250.000000;0.788305
9249.000000;0.788469
9248.000000;0.788044
9247.000000;0.787251
9246.000000;0.786521
9245.000000;0.786184
9244.000000;0.786323
9243.000000;0.786835
9242.000000;0.787453
9241.000000;0.787834
9240.000000;0.787857
9239.000000;0.787793
9238.000000;0.787965
9237.000000;0.788285
9236.000000;0.788413
9235.000000;0.788325
9234.000000;0.788367
9233.000000;0.788645
9232.000000;0.788741
9231.000000;0.788243
9230.000000;0.787295
9229.000000;0.786390
9228.000000;0.785822
9227.000000;0.785597
9226.000000;0.785650
9225.000000;0.785830
9224.000000;0.785804
9223.000000;0.785362
9222.000000;0.784816
9221.000000;0.784739
9220.000000;0.785222
9219.000000;0.785659
9218.000000;0.785406
9217.000000;0.784448
9216.000000;0.783256
9215.000000;0.782230
9214.000000;0.781553
9213.000000;0.781417
9212.000000;0.781978
9211.000000;0.783002
9210.000000;0.783842
9209.000000;0.783991
9208.000000;0.783567
9207.000000;0.783094
9206.000000;0.782926
9205.000000;0.783039
9204.000000;0.783256
9203.000000;0.783452
9202.000000;0.783511
9201.000000;0.783285
9200.000000;0.782706
9199.000000;0.781861
9198.000000;0.780961
9197.000000;0.780306
9196.000000;0.780214
9195.000000;0.780777
9194.000000;0.781649
9193.000000;0.782265
9192.000000;0.782353
9191.000000;0.782081
9190.000000;0.781666
9189.000000;0.781101
9188.000000;0.780402
9187.000000;0.779857
9186.000000;0.779748
9185.000000;0.779978
9184.000000;0.780214
9183.000000;0.780284
9182.000000;0.780148
9181.000000;0.779613
9180.000000;0.778464
9179.000000;0.776959
9178.000000;0.775844
9177.000000;0.775687
9176.000000;0.776351
9175.000000;0.777228
9174.000000;0.777828
9173.000000;0.778063
9172.000000;0.778099
9171.000000;0.778135
9170.000000;0.778258
9169.000000;0.778378
9168.000000;0.778325
9167.000000;0.778023
9166.000000;0.777549
9165.000000;0.777046
9164.000000;0.776685
9163.000000;0.776694
9162.000000;0.777184
9161.000000;0.777855
9160.000000;0.778081
9159.000000;0.777486
9158.000000;0.776337
9157.000000;0.775212
9156.000000;0.774403
9155.000000;0.773830
9154.000000;0.773436
9153.000000;0.773381
9152.000000;0.773820
9151.000000;0.774662
9150.000000;0.775630
9149.000000;0.776433
9148.000000;0.776822
9147.000000;0.776632
9146.000000;0.775940
9145.000000;0.775113
9144.000000;0.774559
9143.000000;0.774413
9142.000000;0.774452
9141.000000;0.774347
9140.000000;0.773998
9139.000000;0.773655
9138.000000;0.773678
9137.000000;0.774104
9136.000000;0.774485
9135.000000;0.774284
9134.000000;0.773483
9133.000000;0.772688
9132.000000;0.772527
9131.000000;0.772999
9130.000000;0.773544
9129.000000;0.773698
9128.000000;0.773493
9127.000000;0.773210
9126.000000;0.772974
9125.000000;0.772742
9124.000000;0.772534
9123.000000;0.772410
9122.000000;0.772253
9121.000000;0.771835
9120.000000;0.771171
9119.000000;0.770603
9118.000000;0.770397
9117.000000;0.770424
9116.000000;0.770373
9115.000000;0.770180
9114.000000;0.770025
9113.000000;0.769975
9112.000000;0.769890
9111.000000;0.769691
9110.000000;0.769496
9109.000000;0.769399
9108.000000;0.769291
9107.000000;0.769038
9106.000000;0.768697
9105.000000;0.768420
9104.000000;0.768251
9103.000000;0.768181
9102.000000;0.768296
9101.000000;0.768645
9100.000000;0.768980
9099.000000;0.768914
9098.000000;0.768441
9097.000000;0.768111
9096.000000;0.768519
9095.000000;0.769658
9094.000000;0.770890
9093.000000;0.771510
9092.000000;0.771257
9091.000000;0.770398
9090.000000;0.769472
9089.000000;0.768929
9088.000000;0.768836
9087.000000;0.768878
9086.000000;0.768734
9085.000000;0.768455
9084.000000;0.768331
9083.000000;0.768407
9082.000000;0.768363
9081.000000;0.767993
9080.000000;0.767589
9079.000000;0.767618
9078.000000;0.768100
9077.000000;0.768543
9076.000000;0.768488
9075.000000;0.767946
9074.000000;0.767285
9073.000000;0.766837
9072.000000;0.766660
9071.000000;0.766572
9070.000000;0.766386
9069.000000;0.766162
9068.000000;0.766203
9067.000000;0.766653
9066.000000;0.767171
9065.000000;0.767192
9064.000000;0.766545
9063.000000;0.765621
9062.000000;0.764919
9061.000000;0.764610
9060.000000;0.764623
9059.000000;0.764891
9058.000000;0.765316
9057.000000;0.765641
9056.000000;0.765609
9055.000000;0.765191
9054.000000;0.764548
9053.000000;0.763844
