Criado como novo conjunto de dados;"e0108.spp","-4287225.0 Secs"
cm-1;Abs
10000.000000;0.948152
9999.000000;0.948169
9998.000000;0.948187
9997.000000;0.948204
9996.000000;0.948221
9995.000000;0.948238
9994.000000;0.948255
9993.000000;0.948273
9992.000000;0.948289
9991.000000;0.948308
9990.000000;0.948324
9989.000000;0.948322
9988.000000;0.948099
9987.000000;0.947479
9986.000000;0.946629
9985.000000;0.945764
9984.000000;0.944806
9983.000000;0.943547
9982.000000;0.942112
9981.000000;0.940955
9980.000000;0.940330
9979.000000;0.940028
9978.000000;0.939820
9977.000000;0.939904
9976.000000;0.940581
9975.000000;0.941627
9974.000000;0.942338
9973.000000;0.942234
9972.000000;0.941414
9971.000000;0.940201
9970.000000;0.938879
9969.000000;0.937877
9968.000000;0.937670
9967.000000;0.938176
9966.000000;0.938591
9965.000000;0.938229
9964.000000;0.937308
9963.000000;0.936596
9962.000000;0.936458
9961.000000;0.936636
9960.000000;0.936751
9959.000000;0.936626
9958.000000;0.936183
9957.000000;0.935490
9956.000000;0.934898
9955.000000;0.934737
9954.000000;0.934791
9953.000000;0.934447
9952.000000;0.933442
9951.000000;0.932127
9950.000000;0.930917
9949.000000;0.929873
9948.000000;0.928983
9947.000000;0.928439
9946.000000;0.928312
9945.000000;0.928284
9944.000000;0.928063
9943.000000;0.927857
9942.000000;0.927991
9941.000000;0.928170
9940.000000;0.927643
9939.000000;0.926253
9938.000000;0.924886
9937.000000;0.924555
9936.000000;0.925199
9935.000000;0.925741
9934.000000;0.925299
9933.000000;0.924063
9932.000000;0.922969
9931.000000;0.922766
9930.000000;0.923504
9929.000000;0.924737
9928.000000;0.925937
9927.000000;0.926687
9926.000000;0.926680
9925.000000;0.925746
9924.000000;0.923998
9923.000000;0.921960
9922.000000;0.920448
9921.000000;0.920112
9920.000000;0.920940
9919.000000;0.922212
9918.000000;0.923093
9917.000000;0.923322
9916.000000;0.923268
9915.000000;0.923313
9914.000000;0.923336
9913.000000;0.922873
9912.000000;0.921686
9911.000000;0.920094
9910.000000;0.918827
9909.000000;0.918564
9908.000000;0.919415
9907.000000;0.920713
9906.000000;0.921434
9905.000000;0.921023
9904.000000;0.919833
9903.000000;0.918614
9902.000000;0.917629
9901.000000;0.916525
9900.000000;0.915093
9899.000000;0.913830
9898.000000;0.913394
9897.000000;0.913627
9896.000000;0.913545
9895.000000;0.912518
9894.000000;0.911198
9893.000000;0.910851
9892.000000;0.911788
9891.000000;0.912894
9890.000000;0.912927
9889.000000;0.911910
9888.000000;0.910887
9887.000000;0.910583
9886.000000;0.910815
9885.000000;0.911134
9884.000000;0.911402
9883.000000;0.911479
9882.000000;0.910915
9881.000000;0.909472
9880.000000;0.907765
9879.000000;0.906830
9878.000000;0.907027
9877.000000;0.907646
9876.000000;0.907671
9875.000000;0.906802
9874.000000;0.905671
9873.000000;0.905174
9872.000000;0.905594
9871.000000;0.906334
9870.000000;0.906573
9869.000000;0.906232
9868.000000;0.906045
9867.000000;0.906515
9866.000000;0.907126
9865.000000;0.906966
9864.000000;0.905973
9863.000000;0.905008
9862.000000;0.904677
9861.000000;0.904616
9860.000000;0.904084
9859.000000;0.902890
9858.000000;0.901463
9857.000000;0.900346
9856.000000;0.899899
9855.000000;0.900240
9854.000000;0.901133
9853.000000;0.901998
9852.000000;0.902250
9851.000000;0.901628
9850.000000;0.900172
9849.000000;0.898131
9848.000000;0.896020
9847.000000;0.894570
9846.000000;0.894297
9845.000000;0.895106
9844.000000;0.896389
9843.000000;0.897492
9842.000000;0.898084
9841.000000;0.898229
9840.000000;0.898267
9839.000000;0.898505
9838.000000;0.898866
9837.000000;0.898894
9836.000000;0.898308
9835.000000;0.897401
9834.000000;0.896648
9833.000000;0.896072
9832.000000;0.895259
9831.000000;0.893944
9830.000000;0.892336
9829.000000;0.890927
9828.000000;0.890189
9827.000000;0.890359
9826.000000;0.891227
9825.000000;0.892062
9824.000000;0.892054
9823.000000;0.891047
9822.000000;0.889730
9821.000000;0.888943
9820.000000;0.888913
9819.000000;0.889205
9818.000000;0.889297
9817.000000;0.889068
9816.000000;0.888779
9815.000000;0.888699
9814.000000;0.888790
9813.000000;0.888743
9812.000000;0.888339
9811.000000;0.887721
9810.000000;0.887217
9809.000000;0.886909
9808.000000;0.886514
9807.000000;0.885775
9806.000000;0.884843
9805.000000;0.884152
9804.000000;0.883938
9803.000000;0.883981
9802.000000;0.883858
9801.000000;0.883349
9800.000000;0.882534
9799.000000;0.881550
9798.000000;0.880409
9797.000000;0.879187
9796.000000;0.878273
9795.000000;0.878216
9794.000000;0.879157
9793.000000;0.880521
9792.000000;0.881468
9791.000000;0.881665
9790.000000;0.881510
9789.000000;0.881560
9788.000000;0.881912
9787.000000;0.882274
9786.000000;0.882514
9785.000000;0.882828
9784.000000;0.883265
9783.000000;0.883361
9782.000000;0.882564
9781.000000;0.880980
9780.000000;0.879352
9779.000000;0.878237
9778.000000;0.877518
9777.000000;0.876868
9776.000000;0.876334
9775.000000;0.876091
9774.000000;0.875866
9773.000000;0.875173
9772.000000;0.874128
9771.000000;0.873536
9770.000000;0.873951
9769.000000;0.875022
9768.000000;0.875940
9767.000000;0.876222
9766.000000;0.875796
9765.000000;0.874699
9764.000000;0.873153
9763.000000;0.871793
9762.000000;0.871323
9761.000000;0.871836
9760.000000;0.872670
9759.000000;0.873018
9758.000000;0.872608
9757.000000;0.871797
9756.000000;0.871148
9755.000000;0.870932
9754.000000;0.870930
9753.000000;0.870692
9752.000000;0.870024
9751.000000;0.869171
9750.000000;0.868547
9749.000000;0.868404
9748.000000;0.868782
9747.000000;0.869490
9746.000000;0.870005
9745.000000;0.869685
9744.000000;0.868418
9743.000000;0.866937
9742.000000;0.866139
9741.000000;0.866110
9740.000000;0.866072
9739.000000;0.865284
9738.000000;0.863833
9737.000000;0.862502
9736.000000;0.862017
9735.000000;0.862433
9734.000000;0.863109
9733.000000;0.863341
9732.000000;0.863066
9731.000000;0.862831
9730.000000;0.863050
9729.000000;0.863531
9728.000000;0.863835
9727.000000;0.863782
9726.000000;0.863376
9725.000000;0.862590
9724.000000;0.861639
9723.000000;0.861145
9722.000000;0.861460
9721.000000;0.861995
9720.000000;0.861813
9719.000000;0.860883
9718.000000;0.860129
9717.000000;0.860149
9716.000000;0.860509
9715.000000;0.860508
9714.000000;0.860113
9713.000000;0.859793
9712.000000;0.859860
9711.000000;0.860263
9710.000000;0.860699
9709.000000;0.860638
9708.000000;0.859594
9707.000000;0.857775
9706.000000;0.856195
9705.000000;0.855749
9704.000000;0.856274
9703.000000;0.856802
9702.000000;0.856645
9701.000000;0.855951
9700.000000;0.855259
9699.000000;0.854847
9698.000000;0.854597
9697.000000;0.854330
9696.000000;0.854178
9695.000000;0.854552
9694.000000;0.855603
9693.000000;0.856746
9692.000000;0.856995
9691.000000;0.855968
9690.000000;0.854314
9689.000000;0.853000
9688.000000;0.852349
9687.000000;0.851950
9686.000000;0.851300
9685.000000;0.850303
9684.000000;0.849257
9683.000000;0.848594
9682.000000;0.848579
9681.000000;0.849051
9680.000000;0.849491
9679.000000;0.849442
9678.000000;0.848865
9677.000000;0.848067
9676.000000;0.847466
9675.000000;0.847391
9674.000000;0.847797
9673.000000;0.848099
9672.000000;0.847654
9671.000000;0.846597
9670.000000;0.845854
9669.000000;0.846034
9668.000000;0.846618
9667.000000;0.846629
9666.000000;0.845816
9665.000000;0.844753
9664.000000;0.843909
9663.000000;0.843178
9662.000000;0.842339
9661.000000;0.841524
9660.000000;0.841067
9659.000000;0.841151
9658.000000;0.841666
9657.000000;0.842281
9656.000000;0.842641
9655.000000;0.842629
9654.000000;0.842385
9653.000000;0.841981
9652.000000;0.841279
9651.000000;0.840297
9650.000000;0.839455
9649.000000;0.839125
9648.000000;0.839083
9647.000000;0.838798
9646.000000;0.838169
9645.000000;0.837563
9644.000000;0.837154
9643.000000;0.836706
9642.000000;0.836117
9641.000000;0.835773
9640.000000;0.836098
9639.000000;0.836950
9638.000000;0.837674
9637.000000;0.837690
9636.000000;0.837003
9635.000000;0.836229
9634.000000;0.836056
9633.000000;0.836539
9632.000000;0.836986
9631.000000;0.836747
9630.000000;0.836001
9629.000000;0.835481
9628.000000;0.835537
9627.000000;0.835827
9626.000000;0.835911
9625.000000;0.835697
9624.000000;0.835229
9623.000000;0.834450
9622.000000;0.833421
9621.000000;0.832482
9620.000000;0.831980
9619.000000;0.831972
9618.000000;0.832316
9617.000000;0.832832
9616.000000;0.833246
9615.000000;0.833260
9614.000000;0.832852
9613.000000;0.832330
9612.000000;0.831952
9611.000000;0.831640
9610.000000;0.831190
9609.000000;0.830563
9608.000000;0.829863
9607.000000;0.829237
9606.000000;0.828900
9605.000000;0.829037
9604.000000;0.829511
9603.000000;0.829872
9602.000000;0.829787
9601.000000;0.829283
9600.000000;0.828470
9599.000000;0.827369
9598.000000;0.826265
9597.000000;0.825817
9596.000000;0.826333
9595.000000;0.827054
9594.000000;0.826695
9593.000000;0.824842
9592.000000;0.822530
9591.000000;0.821220
9590.000000;0.821419
9589.000000;0.822388
9588.000000;0.823015
9587.000000;0.822812
9586.000000;0.822110
9585.000000;0.821476
9584.000000;0.821110
9583.000000;0.820809
9582.000000;0.820365
9581.000000;0.819790
9580.000000;0.819203
9579.000000;0.818714
9578.000000;0.818522
9577.000000;0.818868
9576.000000;0.819711
9575.000000;0.820588
9574.000000;0.821013
9573.000000;0.820941
9572.000000;0.820651
9571.000000;0.820272
9570.000000;0.819667
9569.000000;0.818774
9568.000000;0.817794
9567.000000;0.816961
9566.000000;0.816304
9565.000000;0.815756
9564.000000;0.815362
9563.000000;0.815292
9562.000000;0.815640
9561.000000;0.816267
9560.000000;0.816813
9559.000000;0.816904
9558.000000;0.816424
9557.000000;0.815628
9556.000000;0.814939
9555.000000;0.814613
9554.000000;0.814569
9553.000000;0.814489
9552.000000;0.814071
9551.000000;0.813288
9550.000000;0.812507
9549.000000;0.812278
9548.000000;0.812820
9547.000000;0.813680
9546.000000;0.814033
9545.000000;0.813420
9544.000000;0.812147
9543.000000;0.810915
9542.000000;0.810177
9541.000000;0.809897
9540.000000;0.809837
9539.000000;0.809923
9538.000000;0.810264
9537.000000;0.810905
9536.000000;0.811601
9535.000000;0.811908
9534.000000;0.811574
9533.000000;0.810842
9532.000000;0.810268
9531.000000;0.810177
9530.000000;0.810313
9529.000000;0.810136
9528.000000;0.809428
9527.000000;0.808509
9526.000000;0.807883
9525.000000;0.807792
9524.000000;0.808137
9523.000000;0.808634
9522.000000;0.808945
9521.000000;0.808825
9520.000000;0.808336
9519.000000;0.807859
9518.000000;0.807721
9517.000000;0.807835
9516.000000;0.807857
9515.000000;0.807638
9514.000000;0.807302
9513.000000;0.806904
9512.000000;0.806283
9511.000000;0.805380
9510.000000;0.804482
9509.000000;0.803982
9508.000000;0.803979
9507.000000;0.804214
9506.000000;0.804345
9505.000000;0.804213
9504.000000;0.803967
9503.000000;0.803951
9502.000000;0.804301
9501.000000;0.804598
9500.000000;0.804212
9499.000000;0.803100
9498.000000;0.801969
9497.000000;0.801449
9496.000000;0.801413
9495.000000;0.801427
9494.000000;0.801552
9493.000000;0.802177
9492.000000;0.803144
9491.000000;0.803612
9490.000000;0.802968
9489.000000;0.801473
9488.000000;0.799791
9487.000000;0.798282
9486.000000;0.797026
9485.000000;0.796234
9484.000000;0.796225
9483.000000;0.796979
9482.000000;0.797976
9481.000000;0.798558
9480.000000;0.798407
9479.000000;0.797724
9478.000000;0.797013
9477.000000;0.796610
9476.000000;0.796385
9475.000000;0.796006
9474.000000;0.795476
9473.000000;0.795197
9472.000000;0.795370
9471.000000;0.795534
9470.000000;0.794985
9469.000000;0.793658
9468.000000;0.792426
9467.000000;0.792411
9466.000000;0.793969
9465.000000;0.796312
9464.000000;0.798088
9463.000000;0.798431
9462.000000;0.797543
9461.000000;0.796289
9460.000000;0.795322
9459.000000;0.794695
9458.000000;0.794199
9457.000000;0.793748
9456.000000;0.793345
9455.000000;0.792911
9454.000000;0.792393
9453.000000;0.791952
9452.000000;0.791833
9451.000000;0.792028
9450.000000;0.792196
9449.000000;0.791992
9448.000000;0.791434
9447.000000;0.790884
9446.000000;0.790658
9445.000000;0.790696
9444.000000;0.790694
9443.000000;0.790531
9442.000000;0.790361
9441.000000;0.790221
9440.000000;0.789808
9439.000000;0.788938
9438.000000;0.788086
9437.000000;0.788007
9436.000000;0.788781
9435.000000;0.789602
9434.000000;0.789692
9433.000000;0.789119
9432.000000;0.788491
9431.000000;0.788140
9430.000000;0.787923
9429.000000;0.787655
9428.000000;0.787372
9427.000000;0.787191
9426.000000;0.787174
9425.000000;0.787317
9424.000000;0.787510
9423.000000;0.787503
9422.000000;0.787082
9421.000000;0.786292
9420.000000;0.785366
9419.000000;0.784489
9418.000000;0.783805
9417.000000;0.783550
9416.000000;0.783936
9415.000000;0.784825
9414.000000;0.785656
9413.000000;0.785811
9412.000000;0.785058
9411.000000;0.783710
9410.000000;0.782435
9409.000000;0.781819
9408.000000;0.781952
9407.000000;0.782415
9406.000000;0.782712
9405.000000;0.782691
9404.000000;0.782488
9403.000000;0.782222
9402.000000;0.781947
9401.000000;0.781776
9400.000000;0.781774
9399.000000;0.781739
9398.000000;0.781370
9397.000000;0.780718
9396.000000;0.780219
9395.000000;0.780170
9394.000000;0.780388
9393.000000;0.780509
9392.000000;0.780420
9391.000000;0.780257
9390.000000;0.780101
9389.000000;0.779905
9388.000000;0.779594
9387.000000;0.779109
9386.000000;0.778418
9385.000000;0.777662
9384.000000;0.777170
9383.000000;0.777142
9382.000000;0.777358
9381.000000;0.777438
9380.000000;0.777337
9379.000000;0.777300
9378.000000;0.777328
9377.000000;0.777024
9376.000000;0.776176
9375.000000;0.775222
9374.000000;0.774829
9373.000000;0.775119
9372.000000;0.775602
9371.000000;0.775832
9370.000000;0.775842
9369.000000;0.775917
9368.000000;0.776204
9367.000000;0.776678
9366.000000;0.777249
9365.000000;0.777696
9364.000000;0.777648
9363.000000;0.776861
9362.000000;0.775554
9361.000000;0.774347
9360.000000;0.773825
9359.000000;0.774128
9358.000000;0.774880
9357.000000;0.775472
9356.000000;0.775536
9355.000000;0.775237
9354.000000;0.775027
9353.000000;0.775061
9352.000000;0.775001
9351.000000;0.774512
9350.000000;0.773718
9349.000000;0.772952
9348.000000;0.772219
9347.000000;0.771280
9346.000000;0.770241
9345.000000;0.769652
9344.000000;0.769842
9343.000000;0.770432
9342.000000;0.770743
9341.000000;0.770549
9340.000000;0.770191
9339.000000;0.770061
9338.000000;0.770213
9337.000000;0.770459
9336.000000;0.770613
9335.000000;0.770555
9334.000000;0.770224
9333.000000;0.769685
9332.000000;0.769154
9331.000000;0.768831
9330.000000;0.768689
9329.000000;0.768510
9328.000000;0.768173
9327.000000;0.767846
9326.000000;0.767775
9325.000000;0.767918
9324.000000;0.767915
9323.000000;0.767477
9322.000000;0.766701
9321.000000;0.765959
9320.000000;0.765569
9319.000000;0.765637
9318.000000;0.766077
9317.000000;0.766651
9316.000000;0.767047
9315.000000;0.767090
9314.000000;0.766887
9313.000000;0.766695
9312.000000;0.766640
9311.000000;0.766633
9310.000000;0.766477
9309.000000;0.765976
9308.000000;0.765060
9307.000000;0.763948
9306.000000;0.763103
9305.000000;0.762840
9304.000000;0.763020
9303.000000;0.763277
9302.000000;0.763456
9301.000000;0.763633
9300.000000;0.763810
9299.000000;0.763860
9298.000000;0.763769
9297.000000;0.763659
9296.000000;0.763562
9295.000000;0.763390
9294.000000;0.763161
9293.000000;0.762974
9292.000000;0.762733
9291.000000;0.762184
9290.000000;0.761347
9289.000000;0.760632
9288.000000;0.760370
9287.000000;0.760437
9286.000000;0.760497
9285.000000;0.760447
9284.000000;0.760449
9283.000000;0.760705
9282.000000;0.761314
9281.000000;0.762146
9280.000000;0.762732
9279.000000;0.762515
9278.000000;0.761443
9277.000000;0.760146
9276.000000;0.759335
9275.000000;0.759178
9274.000000;0.759425
9273.000000;0.759873
9272.000000;0.760399
9271.000000;0.760675
9270.000000;0.760313
9269.000000;0.759362
9268.000000;0.758362
9267.000000;0.757773
9266.000000;0.757507
9265.000000;0.757112
9264.000000;0.756329
9263.000000;0.755397
9262.000000;0.754900
9261.000000;0.755287
9260.000000;0.756453
9259.000000;0.757745
9258.000000;0.758433
9257.000000;0.758198
9256.000000;0.757215
9255.000000;0.755910
9254.000000;0.754746
9253.000000;0.754083
9252.000000;0.754030
9251.000000;0.754407
9250.000000;0.754901
9249.000000;0.755251
9248.000000;0.755230
9247.000000;0.754648
9246.000000;0.753575
9245.000000;0.752496
9244.000000;0.751981
9243.000000;0.752186
9242.000000;0.752802
9241.000000;0.753499
9240.000000;0.754199
9239.000000;0.754895
9238.000000;0.755396
9237.000000;0.755440
9236.000000;0.755000
9235.000000;0.754372
9234.000000;0.753937
9233.000000;0.753841
9232.000000;0.753900
9231.000000;0.753818
9230.000000;0.753509
9229.000000;0.753156
9228.000000;0.752943
9227.000000;0.752811
9226.000000;0.752606
9225.000000;0.752382
9224.000000;0.752415
9223.000000;0.752864
9222.000000;0.753492
9221.000000;0.753782
9220.000000;0.753350
9219.000000;0.752299
9218.000000;0.751167
9217.000000;0.750524
9216.000000;0.750540
9215.000000;0.750925
9214.000000;0.751284
9213.000000;0.751475
9212.000000;0.751620
9211.000000;0.751828
9210.000000;0.751987
9209.000000;0.751822
9208.000000;0.751168
9207.000000;0.750213
9206.000000;0.749405
9205.000000;0.749022
9204.000000;0.748921
9203.000000;0.748838
9202.000000;0.748810
9201.000000;0.749025
9200.000000;0.749300
9199.000000;0.749143
9198.000000;0.748487
9197.000000;0.747955
9196.000000;0.748082
9195.000000;0.748603
9194.000000;0.748838
9193.000000;0.748558
9192.000000;0.748052
9191.000000;0.747510
9190.000000;0.746861
9189.000000;0.746197
9188.000000;0.745889
9187.000000;0.746084
9186.000000;0.746423
9185.000000;0.746445
9184.000000;0.746087
9183.000000;0.745634
9182.000000;0.745366
9181.000000;0.745382
9180.000000;0.745597
9179.000000;0.745785
9178.000000;0.745723
9177.000000;0.745435
9176.000000;0.745195
9175.000000;0.745210
9174.000000;0.745412
9173.000000;0.745598
9172.000000;0.745656
9171.000000;0.745586
9170.000000;0.745434
9169.000000;0.745269
9168.000000;0.745136
9167.000000;0.744942
9166.000000;0.744498
9165.000000;0.743778
9164.000000;0.743022
9163.000000;0.742507
9162.000000;0.742267
9161.000000;0.742136
9160.000000;0.741998
9159.000000;0.741914
9158.000000;0.742045
9157.000000;0.742504
9156.000000;0.743238
9155.000000;0.743962
9154.000000;0.744274
9153.000000;0.743964
9152.000000;0.743238
9151.000000;0.742563
9150.000000;0.742266
9149.000000;0.742282
9148.000000;0.742290
9147.000000;0.742071
9146.000000;0.741720
9145.000000;0.741508
9144.000000;0.741551
9143.000000;0.741674
9142.000000;0.741607
9141.000000;0.741273
9140.000000;0.740848
9139.000000;0.740559
9138.000000;0.740462
9137.000000;0.740394
9136.000000;0.740176
9135.000000;0.739884
9134.000000;0.739880
9133.000000;0.740425
9132.000000;0.741243
9131.000000;0.741646
9130.000000;0.741213
9129.000000;0.740259
9128.000000;0.739480
9127.000000;0.739258
9126.000000;0.739454
9125.000000;0.739732
9124.000000;0.739842
9123.000000;0.739666
9122.000000;0.739258
9121.000000;0.738908
9120.000000;0.738922
9119.000000;0.739257
9118.000000;0.739490
9117.000000;0.739241
9116.000000;0.738564
9115.000000;0.737872
9114.000000;0.737577
9113.000000;0.737783
9112.000000;0.738208
9111.000000;0.738388
9110.000000;0.738105
9109.000000;0.737617
9108.000000;0.737341
9107.000000;0.737343
9106.000000;0.737316
9105.000000;0.737062
9104.000000;0.736754
9103.000000;0.736652
9102.000000;0.736755
9101.000000;0.736861
9100.000000;0.736812
9099.000000;0.736571
9098.000000;0.736182
9097.000000;0.735807
9096.000000;0.735678
9095.000000;0.735881
9094.000000;0.736226
9093.000000;0.736422
9092.000000;0.736316
9091.000000;0.735974
9090.000000;0.735610
9089.000000;0.735462
9088.000000;0.735560
9087.000000;0.735587
9086.000000;0.735173
9085.000000;0.734379
9084.000000;0.733704
9083.000000;0.733481
9082.000000;0.733524
9081.000000;0.733500
9080.000000;0.733440
9079.000000;0.733619
9078.000000;0.734092
9077.000000;0.734612
9076.000000;0.734949
9075.000000;0.735053
9074.000000;0.734957
9073.000000;0.734708
9072.000000;0.734383
9071.000000;0.734039
9070.000000;0.733671
9069.000000;0.733358
9068.000000;0.733270
9067.000000;0.733381
9066.000000;0.733346
9065.000000;0.732946
9064.000000;0.732517
9063.000000;0.732586
9062.000000;0.733125
9061.000000;0.733519
9060.000000;0.733321
9059.000000;0.732707
9058.000000;0.732115
9057.000000;0.731772
9056.000000;0.731689
9055.000000;0.731796
9054.000000;0.731864
9053.000000;0.731591
