Criado como novo conjunto de dados;"e0108.spp","-4287404.9 Secs"
cm-1;Abs
10000.000000;0.944971
9999.000000;0.944364
9998.000000;0.943017
9997.000000;0.941861
9996.000000;0.941758
9995.000000;0.942602
9994.000000;0.943454
9993.000000;0.943498
9992.000000;0.942663
9991.000000;0.941363
9990.000000;0.939958
9989.000000;0.938606
9988.000000;0.937412
9987.000000;0.936492
9986.000000;0.935913
9985.000000;0.935571
9984.000000;0.935151
9983.000000;0.934328
9982.000000;0.933211
9981.000000;0.932473
9980.000000;0.932691
9979.000000;0.933543
9978.000000;0.934030
9977.000000;0.933722
9976.000000;0.933372
9975.000000;0.933928
9974.000000;0.935229
9973.000000;0.936130
9972.000000;0.935806
9971.000000;0.934498
9970.000000;0.932982
9969.000000;0.931722
9968.000000;0.930751
9967.000000;0.930053
9966.000000;0.929697
9965.000000;0.929650
9964.000000;0.929733
9963.000000;0.929901
9962.000000;0.930417
9961.000000;0.931551
9960.000000;0.932988
9959.000000;0.933664
9958.000000;0.932524
9957.000000;0.929647
9956.000000;0.926483
9955.000000;0.924729
9954.000000;0.924903
9953.000000;0.926059
9952.000000;0.926833
9951.000000;0.926705
9950.000000;0.926199
9949.000000;0.926009
9948.000000;0.926162
9947.000000;0.926090
9946.000000;0.925422
9945.000000;0.924447
9944.000000;0.923746
9943.000000;0.923570
9942.000000;0.923784
9941.000000;0.924226
9940.000000;0.924783
9939.000000;0.925136
9938.000000;0.924838
9937.000000;0.923840
9936.000000;0.922678
9935.000000;0.921865
9934.000000;0.921258
9933.000000;0.920281
9932.000000;0.918737
9931.000000;0.917181
9930.000000;0.916439
9929.000000;0.916779
9928.000000;0.917586
9927.000000;0.917877
9926.000000;0.917220
9925.000000;0.916089
9924.000000;0.915262
9923.000000;0.915001
9922.000000;0.915030
9921.000000;0.915143
9920.000000;0.915445
9919.000000;0.915972
9918.000000;0.916503
9917.000000;0.916902
9916.000000;0.917262
9915.000000;0.917496
9914.000000;0.917175
9913.000000;0.916112
9912.000000;0.914858
9911.000000;0.914222
9910.000000;0.914405
9909.000000;0.914870
9908.000000;0.914934
9907.000000;0.914274
9906.000000;0.913016
9905.000000;0.911618
9904.000000;0.910526
9903.000000;0.909694
9902.000000;0.908619
9901.000000;0.907090
9900.000000;0.905698
9899.000000;0.905263
9898.000000;0.905912
9897.000000;0.907062
9896.000000;0.908138
9895.000000;0.908926
9894.000000;0.909352
9893.000000;0.909403
9892.000000;0.909292
9891.000000;0.909213
9890.000000;0.908891
9889.000000;0.907844
9888.000000;0.906176
9887.000000;0.904643
9886.000000;0.903752
9885.000000;0.903229
9884.000000;0.902586
9883.000000;0.901846
9882.000000;0.901379
9881.000000;0.901301
9880.000000;0.901401
9879.000000;0.901512
9878.000000;0.901632
9877.000000;0.901713
9876.000000;0.901585
9875.000000;0.901123
9874.000000;0.900343
9873.000000;0.899380
9872.000000;0.898506
9871.000000;0.898096
9870.000000;0.898382
9869.000000;0.899163
9868.000000;0.899855
9867.000000;0.899888
9866.000000;0.899116
9865.000000;0.897899
9864.000000;0.896778
9863.000000;0.896049
9862.000000;0.895619
9861.000000;0.895237
9860.000000;0.894801
9859.000000;0.894396
9858.000000;0.894109
9857.000000;0.893935
9856.000000;0.893809
9855.000000;0.893610
9854.000000;0.893173
9853.000000;0.892468
9852.000000;0.891767
9851.000000;0.891429
9850.000000;0.891477
9849.000000;0.891497
9848.000000;0.891028
9847.000000;0.890026
9846.000000;0.888960
9845.000000;0.888486
9844.000000;0.888969
9843.000000;0.890138
9842.000000;0.891177
9841.000000;0.891270
9840.000000;0.890205
9839.000000;0.888459
9838.000000;0.886828
9837.000000;0.885982
9836.000000;0.886189
9835.000000;0.887168
9834.000000;0.888193
9833.000000;0.888566
9832.000000;0.888158
9831.000000;0.887501
9830.000000;0.887299
9829.000000;0.887820
9828.000000;0.888650
9827.000000;0.888948
9826.000000;0.888059
9825.000000;0.886084
9824.000000;0.883888
9823.000000;0.882407
9822.000000;0.881917
9821.000000;0.881979
9820.000000;0.882014
9819.000000;0.881818
9818.000000;0.881608
9817.000000;0.881722
9816.000000;0.882231
9815.000000;0.882772
9814.000000;0.882812
9813.000000;0.882186
9812.000000;0.881243
9811.000000;0.880362
9810.000000;0.879529
9809.000000;0.878628
9808.000000;0.877940
9807.000000;0.877905
9806.000000;0.878432
9805.000000;0.878874
9804.000000;0.878764
9803.000000;0.878253
9802.000000;0.877688
9801.000000;0.877120
9800.000000;0.876460
9799.000000;0.875824
9798.000000;0.875439
9797.000000;0.875347
9796.000000;0.875445
9795.000000;0.875717
9794.000000;0.876163
9793.000000;0.876537
9792.000000;0.876427
9791.000000;0.875671
9790.000000;0.874557
9789.000000;0.873554
9788.000000;0.872911
9787.000000;0.872544
9786.000000;0.872272
9785.000000;0.872061
9784.000000;0.872004
9783.000000;0.872052
9782.000000;0.871876
9781.000000;0.871145
9780.000000;0.869932
9779.000000;0.868731
9778.000000;0.868073
9777.000000;0.868197
9776.000000;0.868964
9775.000000;0.869890
9774.000000;0.870301
9773.000000;0.869810
9772.000000;0.868804
9771.000000;0.868191
9770.000000;0.868440
9769.000000;0.869022
9768.000000;0.869039
9767.000000;0.868268
9766.000000;0.867302
9765.000000;0.866780
9764.000000;0.866806
9763.000000;0.867148
9762.000000;0.867580
9761.000000;0.867855
9760.000000;0.867670
9759.000000;0.866984
9758.000000;0.866264
9757.000000;0.866095
9756.000000;0.866530
9755.000000;0.867009
9754.000000;0.866943
9753.000000;0.866207
9752.000000;0.865045
9751.000000;0.863721
9750.000000;0.862437
9749.000000;0.861416
9748.000000;0.860823
9747.000000;0.860624
9746.000000;0.860647
9745.000000;0.860736
9744.000000;0.860753
9743.000000;0.860546
9742.000000;0.860125
9741.000000;0.859785
9740.000000;0.859773
9739.000000;0.859832
9738.000000;0.859385
9737.000000;0.858292
9736.000000;0.857145
9735.000000;0.856667
9734.000000;0.856998
9733.000000;0.857723
9732.000000;0.858359
9731.000000;0.858571
9730.000000;0.858125
9729.000000;0.857051
9728.000000;0.855865
9727.000000;0.855236
9726.000000;0.855286
9725.000000;0.855420
9724.000000;0.855007
9723.000000;0.854070
9722.000000;0.853158
9721.000000;0.852663
9720.000000;0.852513
9719.000000;0.852458
9718.000000;0.852418
9717.000000;0.852415
9716.000000;0.852316
9715.000000;0.851893
9714.000000;0.851187
9713.000000;0.850600
9712.000000;0.850456
9711.000000;0.850613
9710.000000;0.850704
9709.000000;0.850667
9708.000000;0.850740
9707.000000;0.850932
9706.000000;0.850888
9705.000000;0.850434
9704.000000;0.849921
9703.000000;0.849746
9702.000000;0.849731
9701.000000;0.849340
9700.000000;0.848420
9699.000000;0.847372
9698.000000;0.846599
9697.000000;0.846118
9696.000000;0.845821
9695.000000;0.845828
9694.000000;0.846330
9693.000000;0.847179
9692.000000;0.847799
9691.000000;0.847593
9690.000000;0.846429
9689.000000;0.844751
9688.000000;0.843203
9687.000000;0.842133
9686.000000;0.841531
9685.000000;0.841358
9684.000000;0.841658
9683.000000;0.842258
9682.000000;0.842618
9681.000000;0.842306
9680.000000;0.841563
9679.000000;0.841089
9678.000000;0.841282
9677.000000;0.841878
9676.000000;0.842323
9675.000000;0.842286
9674.000000;0.841786
9673.000000;0.841050
9672.000000;0.840343
9671.000000;0.839821
9670.000000;0.839485
9669.000000;0.839333
9668.000000;0.839456
9667.000000;0.839828
9666.000000;0.840079
9665.000000;0.839759
9664.000000;0.838896
9663.000000;0.838053
9662.000000;0.837743
9661.000000;0.837932
9660.000000;0.838190
9659.000000;0.838144
9658.000000;0.837695
9657.000000;0.836957
9656.000000;0.836100
9655.000000;0.835221
9654.000000;0.834318
9653.000000;0.833465
9652.000000;0.832954
9651.000000;0.833076
9650.000000;0.833722
9649.000000;0.834401
9648.000000;0.834732
9647.000000;0.834760
9646.000000;0.834685
9645.000000;0.834460
9644.000000;0.833820
9643.000000;0.832641
9642.000000;0.831189
9641.000000;0.830037
9640.000000;0.829689
9639.000000;0.830126
9638.000000;0.830682
9637.000000;0.830639
9636.000000;0.830052
9635.000000;0.829758
9634.000000;0.830359
9633.000000;0.831408
9632.000000;0.831877
9631.000000;0.831316
9630.000000;0.830230
9629.000000;0.829313
9628.000000;0.828640
9627.000000;0.827789
9626.000000;0.826531
9625.000000;0.825122
9624.000000;0.823967
9623.000000;0.823269
9622.000000;0.823107
9621.000000;0.823666
9620.000000;0.825059
9619.000000;0.826907
9618.000000;0.828359
9617.000000;0.828766
9616.000000;0.828230
9615.000000;0.827254
9614.000000;0.825976
9613.000000;0.824120
9612.000000;0.821758
9611.000000;0.819733
9610.000000;0.818978
9609.000000;0.819540
9608.000000;0.820549
9607.000000;0.821137
9606.000000;0.821203
9605.000000;0.821197
9604.000000;0.821364
9603.000000;0.821442
9602.000000;0.821110
9601.000000;0.820514
9600.000000;0.820128
9599.000000;0.820185
9598.000000;0.820439
9597.000000;0.820524
9596.000000;0.820344
9595.000000;0.820019
9594.000000;0.819642
9593.000000;0.819249
9592.000000;0.818903
9591.000000;0.818594
9590.000000;0.818126
9589.000000;0.817321
9588.000000;0.816293
9587.000000;0.815379
9586.000000;0.814834
9585.000000;0.814743
9584.000000;0.815099
9583.000000;0.815754
9582.000000;0.816375
9581.000000;0.816723
9580.000000;0.816959
9579.000000;0.817351
9578.000000;0.817667
9577.000000;0.817265
9576.000000;0.815925
9575.000000;0.814281
9574.000000;0.813204
9573.000000;0.812996
9572.000000;0.813380
9571.000000;0.813965
9570.000000;0.814440
9569.000000;0.814465
9568.000000;0.813792
9567.000000;0.812555
9566.000000;0.811244
9565.000000;0.810340
9564.000000;0.810038
9563.000000;0.810263
9562.000000;0.810769
9561.000000;0.811211
9560.000000;0.811262
9559.000000;0.810778
9558.000000;0.809862
9557.000000;0.808795
9556.000000;0.807901
9555.000000;0.807345
9554.000000;0.807027
9553.000000;0.806761
9552.000000;0.806625
9551.000000;0.806945
9550.000000;0.807814
9549.000000;0.808806
9548.000000;0.809363
9547.000000;0.809329
9546.000000;0.808916
9545.000000;0.808277
9544.000000;0.807434
9543.000000;0.806576
9542.000000;0.806033
9541.000000;0.805866
9540.000000;0.805742
9539.000000;0.805432
9538.000000;0.805216
9537.000000;0.805528
9536.000000;0.806284
9535.000000;0.806862
9534.000000;0.806795
9533.000000;0.806279
9532.000000;0.805807
9531.000000;0.805441
9530.000000;0.804726
9529.000000;0.803392
9528.000000;0.801902
9527.000000;0.801076
9526.000000;0.801229
9525.000000;0.801914
9524.000000;0.802469
9523.000000;0.802576
9522.000000;0.802232
9521.000000;0.801510
9520.000000;0.800620
9519.000000;0.799988
9518.000000;0.799913
9517.000000;0.800162
9516.000000;0.800165
9515.000000;0.799641
9514.000000;0.798816
9513.000000;0.798024
9512.000000;0.797361
9511.000000;0.796833
9510.000000;0.796591
9509.000000;0.796796
9508.000000;0.797360
9507.000000;0.797956
9506.000000;0.798270
9505.000000;0.798176
9504.000000;0.797785
9503.000000;0.797402
9502.000000;0.797301
9501.000000;0.797424
9500.000000;0.797384
9499.000000;0.796893
9498.000000;0.796089
9497.000000;0.795306
9496.000000;0.794679
9495.000000;0.794168
9494.000000;0.793875
9493.000000;0.794025
9492.000000;0.794551
9491.000000;0.794942
9490.000000;0.794707
9489.000000;0.793919
9488.000000;0.793136
9487.000000;0.792778
9486.000000;0.792664
9485.000000;0.792237
9484.000000;0.791257
9483.000000;0.790198
9482.000000;0.789800
9481.000000;0.790219
9480.000000;0.790775
9479.000000;0.790710
9478.000000;0.790055
9477.000000;0.789504
9476.000000;0.789550
9475.000000;0.790052
9474.000000;0.790635
9473.000000;0.791103
9472.000000;0.791281
9471.000000;0.790853
9470.000000;0.789733
9469.000000;0.788418
9468.000000;0.787610
9467.000000;0.787501
9466.000000;0.787665
9465.000000;0.787597
9464.000000;0.787134
9463.000000;0.786408
9462.000000;0.785673
9461.000000;0.785213
9460.000000;0.785195
9459.000000;0.785518
9458.000000;0.785947
9457.000000;0.786366
9456.000000;0.786769
9455.000000;0.787057
9454.000000;0.787066
9453.000000;0.786789
9452.000000;0.786340
9451.000000;0.785711
9450.000000;0.784823
9449.000000;0.783868
9448.000000;0.783313
9447.000000;0.783440
9446.000000;0.784070
9445.000000;0.784816
9444.000000;0.785390
9443.000000;0.785581
9442.000000;0.785228
9441.000000;0.784432
9440.000000;0.783628
9439.000000;0.783229
9438.000000;0.783292
9437.000000;0.783608
9436.000000;0.783954
9435.000000;0.784116
9434.000000;0.783879
9433.000000;0.783200
9432.000000;0.782284
9431.000000;0.781373
9430.000000;0.780587
9429.000000;0.780076
9428.000000;0.780030
9427.000000;0.780365
9426.000000;0.780612
9425.000000;0.780407
9424.000000;0.779911
9423.000000;0.779513
9422.000000;0.779286
9421.000000;0.779052
9420.000000;0.778798
9419.000000;0.778678
9418.000000;0.778675
9417.000000;0.778617
9416.000000;0.778482
9415.000000;0.778380
9414.000000;0.778235
9413.000000;0.777833
9412.000000;0.777204
9411.000000;0.776597
9410.000000;0.776067
9409.000000;0.775437
9408.000000;0.774777
9407.000000;0.774532
9406.000000;0.774955
9405.000000;0.775653
9404.000000;0.775951
9403.000000;0.775604
9402.000000;0.774972
9401.000000;0.774588
9400.000000;0.774661
9399.000000;0.774933
9398.000000;0.774966
9397.000000;0.774612
9396.000000;0.774164
9395.000000;0.773943
9394.000000;0.773888
9393.000000;0.773775
9392.000000;0.773714
9391.000000;0.774030
9390.000000;0.774603
9389.000000;0.774775
9388.000000;0.774120
9387.000000;0.772983
9386.000000;0.771999
9385.000000;0.771338
9384.000000;0.770729
9383.000000;0.770013
9382.000000;0.769336
9381.000000;0.768914
9380.000000;0.768834
9379.000000;0.769036
9378.000000;0.769297
9377.000000;0.769374
9376.000000;0.769338
9375.000000;0.769587
9374.000000;0.770284
9373.000000;0.770926
9372.000000;0.770816
9371.000000;0.769911
9370.000000;0.768854
9369.000000;0.768193
9368.000000;0.767881
9367.000000;0.767576
9366.000000;0.767150
9365.000000;0.766728
9364.000000;0.766464
9363.000000;0.766397
9362.000000;0.766447
9361.000000;0.766473
9360.000000;0.766438
9359.000000;0.766534
9358.000000;0.766951
9357.000000;0.767501
9356.000000;0.767675
9355.000000;0.767208
9354.000000;0.766418
9353.000000;0.765825
9352.000000;0.765581
9351.000000;0.765460
9350.000000;0.765297
9349.000000;0.765194
9348.000000;0.765282
9347.000000;0.765476
9346.000000;0.765556
9345.000000;0.765415
9344.000000;0.765122
9343.000000;0.764755
9342.000000;0.764258
9341.000000;0.763546
9340.000000;0.762729
9339.000000;0.762113
9338.000000;0.761922
9337.000000;0.762095
9336.000000;0.762454
9335.000000;0.762931
9334.000000;0.763465
9333.000000;0.763761
9332.000000;0.763451
9331.000000;0.762568
9330.000000;0.761615
9329.000000;0.761027
9328.000000;0.760784
9327.000000;0.760658
9326.000000;0.760615
9325.000000;0.760724
9324.000000;0.760859
9323.000000;0.760774
9322.000000;0.760413
9321.000000;0.759909
9320.000000;0.759354
9319.000000;0.758824
9318.000000;0.758577
9317.000000;0.758883
9316.000000;0.759600
9315.000000;0.760196
9314.000000;0.760297
9313.000000;0.759972
9312.000000;0.759450
9311.000000;0.758838
9310.000000;0.758255
9309.000000;0.757913
9308.000000;0.757850
9307.000000;0.757794
9306.000000;0.757534
9305.000000;0.757243
9304.000000;0.757204
9303.000000;0.757391
9302.000000;0.757594
9301.000000;0.757790
9300.000000;0.758073
9299.000000;0.758326
9298.000000;0.758289
9297.000000;0.757925
9296.000000;0.757447
9295.000000;0.756971
9294.000000;0.756436
9293.000000;0.755857
9292.000000;0.755382
9291.000000;0.755072
9290.000000;0.754858
9289.000000;0.754769
9288.000000;0.754926
9287.000000;0.755255
9286.000000;0.755443
9285.000000;0.755269
9284.000000;0.754777
9283.000000;0.754101
9282.000000;0.753402
9281.000000;0.753013
9280.000000;0.753257
9279.000000;0.753949
9278.000000;0.754385
9277.000000;0.754079
9276.000000;0.753282
9275.000000;0.752543
9274.000000;0.752047
9273.000000;0.751669
9272.000000;0.751409
9271.000000;0.751362
9270.000000;0.751389
9269.000000;0.751196
9268.000000;0.750729
9267.000000;0.750190
9266.000000;0.749664
9265.000000;0.749056
9264.000000;0.748426
9263.000000;0.748084
9262.000000;0.748242
9261.000000;0.748772
9260.000000;0.749367
9259.000000;0.749776
9258.000000;0.749832
9257.000000;0.749486
9256.000000;0.748910
9255.000000;0.748418
9254.000000;0.748190
9253.000000;0.748165
9252.000000;0.748250
9251.000000;0.748451
9250.000000;0.748741
9249.000000;0.748940
9248.000000;0.748871
9247.000000;0.748554
9246.000000;0.748158
9245.000000;0.747831
9244.000000;0.747656
9243.000000;0.747688
9242.000000;0.747906
9241.000000;0.748149
9240.000000;0.748200
9239.000000;0.747924
9238.000000;0.747345
9237.000000;0.746634
9236.000000;0.746041
9235.000000;0.745771
9234.000000;0.745838
9233.000000;0.746045
9232.000000;0.746194
9231.000000;0.746297
9230.000000;0.746517
9229.000000;0.746856
9228.000000;0.747006
9227.000000;0.746642
9226.000000;0.745886
9225.000000;0.745306
9224.000000;0.745333
9223.000000;0.745765
9222.000000;0.746012
9221.000000;0.745770
9220.000000;0.745286
9219.000000;0.744950
9218.000000;0.744880
9217.000000;0.744940
9216.000000;0.744966
9215.000000;0.744830
9214.000000;0.744495
9213.000000;0.744146
9212.000000;0.744087
9211.000000;0.744317
9210.000000;0.744363
9209.000000;0.743798
9208.000000;0.742822
9207.000000;0.742075
9206.000000;0.741865
9205.000000;0.741858
9204.000000;0.741587
9203.000000;0.741063
9202.000000;0.740702
9201.000000;0.740778
9200.000000;0.741093
9199.000000;0.741222
9198.000000;0.741011
9197.000000;0.740748
9196.000000;0.740766
9195.000000;0.740972
9194.000000;0.740954
9193.000000;0.740560
9192.000000;0.740128
9191.000000;0.740017
9190.000000;0.740143
9189.000000;0.740205
9188.000000;0.740174
9187.000000;0.740263
9186.000000;0.740485
9185.000000;0.740591
9184.000000;0.740458
9183.000000;0.740256
9182.000000;0.740146
9181.000000;0.740034
9180.000000;0.739737
9179.000000;0.739187
9178.000000;0.738409
9177.000000;0.737460
9176.000000;0.736516
9175.000000;0.735883
9174.000000;0.735796
9173.000000;0.736223
9172.000000;0.736919
9171.000000;0.737594
9170.000000;0.738040
9169.000000;0.738192
9168.000000;0.738107
9167.000000;0.737850
9166.000000;0.737446
9165.000000;0.737017
9164.000000;0.736844
9163.000000;0.737104
9162.000000;0.737567
9161.000000;0.737765
9160.000000;0.737509
9159.000000;0.737058
9158.000000;0.736761
9157.000000;0.736717
9156.000000;0.736793
9155.000000;0.736802
9154.000000;0.736590
9153.000000;0.736157
9152.000000;0.735763
9151.000000;0.735711
9150.000000;0.735941
9149.000000;0.736003
9148.000000;0.735551
9147.000000;0.734717
9146.000000;0.733926
9145.000000;0.733520
9144.000000;0.733634
9143.000000;0.734218
9142.000000;0.734982
9141.000000;0.735479
9140.000000;0.735511
9139.000000;0.735363
9138.000000;0.735454
9137.000000;0.735794
9136.000000;0.735989
9135.000000;0.735775
9134.000000;0.735306
9133.000000;0.734871
9132.000000;0.734499
9131.000000;0.733992
9130.000000;0.733249
9129.000000;0.732429
9128.000000;0.731763
9127.000000;0.731302
9126.000000;0.730969
9125.000000;0.730838
9124.000000;0.731190
9123.000000;0.732127
9122.000000;0.733240
9121.000000;0.733875
9120.000000;0.733731
9119.000000;0.733059
9118.000000;0.732257
9117.000000;0.731529
9116.000000;0.730987
9115.000000;0.730819
9114.000000;0.731094
9113.000000;0.731525
9112.000000;0.731675
9111.000000;0.731423
9110.000000;0.731052
9109.000000;0.730871
9108.000000;0.730852
9107.000000;0.730665
9106.000000;0.730021
9105.000000;0.728979
9104.000000;0.727983
9103.000000;0.727555
9102.000000;0.727887
9101.000000;0.728717
9100.000000;0.729614
9099.000000;0.730336
9098.000000;0.730884
9097.000000;0.731294
9096.000000;0.731500
9095.000000;0.731406
9094.000000;0.731034
9093.000000;0.730549
9092.000000;0.730128
9091.000000;0.729771
9090.000000;0.729279
9089.000000;0.728534
9088.000000;0.727757
9087.000000;0.727353
9086.000000;0.727441
9085.000000;0.727687
9084.000000;0.727673
9083.000000;0.727307
9082.000000;0.726798
9081.000000;0.726379
9080.000000;0.726223
9079.000000;0.726503
9078.000000;0.727267
9077.000000;0.728227
9076.000000;0.728871
9075.000000;0.728911
9074.000000;0.728517
9073.000000;0.728046
9072.000000;0.727646
9071.000000;0.727259
9070.000000;0.726934
9069.000000;0.726906
9068.000000;0.727259
9067.000000;0.727656
9066.000000;0.727620
9065.000000;0.727090
9064.000000;0.726523
9063.000000;0.726343
9062.000000;0.726453
9061.000000;0.726448
9060.000000;0.726225
9059.000000;0.726147
9058.000000;0.726551
9057.000000;0.727293
9056.000000;0.727851
9055.000000;0.727810
9054.000000;0.727199
9053.000000;0.726414
