Criado como novo conjunto de dados;"e0108.spp","-4231602.0 Secs"
cm-1;Abs
10000.000000;1.761220
9999.000000;1.764619
9998.000000;1.765394
9997.000000;1.764631
9996.000000;1.764459
9995.000000;1.766745
9994.000000;1.771415
9993.000000;1.776226
9992.000000;1.778833
9991.000000;1.778875
9990.000000;1.777449
9989.000000;1.775072
9988.000000;1.771611
9987.000000;1.767986
9986.000000;1.766314
9985.000000;1.767738
9984.000000;1.770541
9983.000000;1.771186
9982.000000;1.767747
9981.000000;1.761926
9980.000000;1.757186
9979.000000;1.755373
9978.000000;1.755670
9977.000000;1.756503
9976.000000;1.757697
9975.000000;1.760410
9974.000000;1.765449
9973.000000;1.772031
9972.000000;1.778124
9971.000000;1.781775
9970.000000;1.782053
9969.000000;1.779479
9968.000000;1.776192
9967.000000;1.774608
9966.000000;1.775033
9965.000000;1.775403
9964.000000;1.773951
9963.000000;1.771177
9962.000000;1.768194
9961.000000;1.764353
9960.000000;1.758386
9959.000000;1.751446
9958.000000;1.746791
9957.000000;1.745966
9956.000000;1.746967
9955.000000;1.746957
9954.000000;1.745687
9953.000000;1.745116
9952.000000;1.746619
9951.000000;1.749676
9950.000000;1.752339
9949.000000;1.752043
9948.000000;1.747297
9947.000000;1.740048
9946.000000;1.735226
9945.000000;1.736212
9944.000000;1.741287
9943.000000;1.745811
9942.000000;1.747396
9941.000000;1.747016
9940.000000;1.745482
9939.000000;1.742362
9938.000000;1.739401
9937.000000;1.741444
9936.000000;1.751130
9935.000000;1.763775
9934.000000;1.770104
9933.000000;1.765665
9932.000000;1.755565
9931.000000;1.748241
9930.000000;1.747323
9929.000000;1.750302
9928.000000;1.752865
9927.000000;1.753589
9926.000000;1.754374
9925.000000;1.756910
9924.000000;1.760084
9923.000000;1.761299
9922.000000;1.759774
9921.000000;1.757795
9920.000000;1.758069
9919.000000;1.760733
9918.000000;1.763753
9917.000000;1.765278
9916.000000;1.764977
9915.000000;1.763299
9914.000000;1.760261
9913.000000;1.755655
9912.000000;1.749564
9911.000000;1.742418
9910.000000;1.735038
9909.000000;1.728541
9908.000000;1.724071
9907.000000;1.722454
9906.000000;1.723633
9905.000000;1.726400
9904.000000;1.729402
9903.000000;1.732755
9902.000000;1.737552
9901.000000;1.743012
9900.000000;1.745179
9899.000000;1.740416
9898.000000;1.730604
9897.000000;1.722539
9896.000000;1.721332
9895.000000;1.725891
9894.000000;1.731075
9893.000000;1.733344
9892.000000;1.733270
9891.000000;1.733302
9890.000000;1.734631
9889.000000;1.736210
9888.000000;1.736150
9887.000000;1.733571
9886.000000;1.729462
9885.000000;1.725873
9884.000000;1.723950
9883.000000;1.723357
9882.000000;1.723602
9881.000000;1.724645
9880.000000;1.725754
9879.000000;1.725364
9878.000000;1.723344
9877.000000;1.722158
9876.000000;1.723982
9875.000000;1.727217
9874.000000;1.728074
9873.000000;1.726053
9872.000000;1.725252
9871.000000;1.728977
9870.000000;1.735010
9869.000000;1.737619
9868.000000;1.733928
9867.000000;1.726953
9866.000000;1.722131
9865.000000;1.722359
9864.000000;1.726311
9863.000000;1.730166
9862.000000;1.730959
9861.000000;1.728834
9860.000000;1.725948
9859.000000;1.723705
9858.000000;1.721893
9857.000000;1.719919
9856.000000;1.717552
9855.000000;1.714441
9854.000000;1.710043
9853.000000;1.704639
9852.000000;1.699878
9851.000000;1.697399
9850.000000;1.697486
9849.000000;1.699797
9848.000000;1.704395
9847.000000;1.711073
9846.000000;1.718085
9845.000000;1.722587
9844.000000;1.722459
9843.000000;1.717512
9842.000000;1.709439
9841.000000;1.701195
9840.000000;1.695885
9839.000000;1.695081
9838.000000;1.697747
9837.000000;1.701095
9836.000000;1.703028
9835.000000;1.703895
9834.000000;1.705732
9833.000000;1.709814
9832.000000;1.714796
9831.000000;1.717215
9830.000000;1.715007
9829.000000;1.710794
9828.000000;1.709767
9827.000000;1.713772
9826.000000;1.718807
9825.000000;1.719600
9824.000000;1.716187
9823.000000;1.713380
9822.000000;1.714276
9821.000000;1.717344
9820.000000;1.719606
9819.000000;1.720022
9818.000000;1.718852
9817.000000;1.715990
9816.000000;1.711843
9815.000000;1.708315
9814.000000;1.706916
9813.000000;1.706725
9812.000000;1.705872
9811.000000;1.704611
9810.000000;1.705040
9809.000000;1.707712
9808.000000;1.710503
9807.000000;1.711337
9806.000000;1.710405
9805.000000;1.709036
9804.000000;1.707560
9803.000000;1.705232
9802.000000;1.701961
9801.000000;1.699157
9800.000000;1.698367
9799.000000;1.699325
9798.000000;1.699759
9797.000000;1.697472
9796.000000;1.693059
9795.000000;1.689812
9794.000000;1.690141
9793.000000;1.692759
9792.000000;1.694259
9791.000000;1.693111
9790.000000;1.690852
9789.000000;1.689522
9788.000000;1.689782
9787.000000;1.691857
9786.000000;1.696491
9785.000000;1.703691
9784.000000;1.711358
9783.000000;1.716328
9782.000000;1.716870
9781.000000;1.713340
9780.000000;1.706668
9779.000000;1.697976
9778.000000;1.689474
9777.000000;1.683760
9776.000000;1.682012
9775.000000;1.683726
9774.000000;1.688046
9773.000000;1.694196
9772.000000;1.700292
9771.000000;1.703182
9770.000000;1.700912
9769.000000;1.694808
9768.000000;1.688073
9767.000000;1.683021
9766.000000;1.680428
9765.000000;1.680270
9764.000000;1.681633
9763.000000;1.682563
9762.000000;1.681412
9761.000000;1.678723
9760.000000;1.677033
9759.000000;1.678179
9758.000000;1.681589
9757.000000;1.685463
9756.000000;1.688758
9755.000000;1.691384
9754.000000;1.693029
9753.000000;1.692920
9752.000000;1.690934
9751.000000;1.688214
9750.000000;1.686347
9749.000000;1.686284
9748.000000;1.688194
9747.000000;1.691647
9746.000000;1.695385
9745.000000;1.697474
9744.000000;1.696722
9743.000000;1.694040
9742.000000;1.691511
9741.000000;1.689901
9740.000000;1.687584
9739.000000;1.682602
9738.000000;1.675762
9737.000000;1.670444
9736.000000;1.669328
9735.000000;1.671864
9734.000000;1.674979
9733.000000;1.676067
9732.000000;1.675158
9731.000000;1.674438
9730.000000;1.675530
9729.000000;1.677661
9728.000000;1.678849
9727.000000;1.677830
9726.000000;1.674928
9725.000000;1.671852
9724.000000;1.669865
9723.000000;1.668338
9722.000000;1.665889
9721.000000;1.662538
9720.000000;1.660186
9719.000000;1.661043
9718.000000;1.665644
9717.000000;1.672164
9716.000000;1.677478
9715.000000;1.679024
9714.000000;1.676374
9713.000000;1.671455
9712.000000;1.667098
9711.000000;1.664914
9710.000000;1.664127
9709.000000;1.662623
9708.000000;1.659368
9707.000000;1.655721
9706.000000;1.654210
9705.000000;1.655956
9704.000000;1.659445
9703.000000;1.661685
9702.000000;1.660787
9701.000000;1.657582
9700.000000;1.654293
9699.000000;1.652500
9698.000000;1.653177
9697.000000;1.657097
9696.000000;1.664027
9695.000000;1.671803
9694.000000;1.676953
9693.000000;1.677252
9692.000000;1.673632
9691.000000;1.668914
9690.000000;1.665031
9689.000000;1.662165
9688.000000;1.660162
9687.000000;1.659660
9686.000000;1.661442
9685.000000;1.665192
9684.000000;1.669386
9683.000000;1.672335
9682.000000;1.672964
9681.000000;1.670872
9680.000000;1.666495
9679.000000;1.661322
9678.000000;1.657244
9677.000000;1.655377
9676.000000;1.655720
9675.000000;1.657682
9674.000000;1.660292
9673.000000;1.661901
9672.000000;1.660681
9671.000000;1.656357
9670.000000;1.651139
9669.000000;1.648132
9668.000000;1.648886
9667.000000;1.652676
9666.000000;1.657461
9665.000000;1.660977
9664.000000;1.661563
9663.000000;1.659229
9662.000000;1.656026
9661.000000;1.654332
9660.000000;1.654376
9659.000000;1.654003
9658.000000;1.651437
9657.000000;1.647662
9656.000000;1.645245
9655.000000;1.645411
9654.000000;1.647104
9653.000000;1.648811
9652.000000;1.650623
9651.000000;1.653719
9650.000000;1.658367
9649.000000;1.663173
9648.000000;1.666004
9647.000000;1.665742
9646.000000;1.663317
9645.000000;1.660733
9644.000000;1.659057
9643.000000;1.657630
9642.000000;1.655160
9641.000000;1.651092
9640.000000;1.645763
9639.000000;1.640069
9638.000000;1.635727
9637.000000;1.634968
9636.000000;1.638431
9635.000000;1.643466
9634.000000;1.646096
9633.000000;1.645391
9632.000000;1.644262
9631.000000;1.645018
9630.000000;1.646150
9629.000000;1.645148
9628.000000;1.642918
9627.000000;1.642966
9626.000000;1.646837
9625.000000;1.652027
9624.000000;1.654616
9623.000000;1.653212
9622.000000;1.649336
9621.000000;1.644884
9620.000000;1.641082
9619.000000;1.639360
9618.000000;1.641175
9617.000000;1.646050
9616.000000;1.650611
9615.000000;1.651113
9614.000000;1.647557
9613.000000;1.644222
9612.000000;1.645350
9611.000000;1.650868
9610.000000;1.656481
9609.000000;1.657775
9608.000000;1.654024
9607.000000;1.647918
9606.000000;1.642721
9605.000000;1.640297
9604.000000;1.640626
9603.000000;1.642054
9602.000000;1.642277
9601.000000;1.640164
9600.000000;1.636775
9599.000000;1.634006
9598.000000;1.632546
9597.000000;1.631915
9596.000000;1.632127
9595.000000;1.633955
9594.000000;1.637097
9593.000000;1.639184
9592.000000;1.637835
9591.000000;1.633527
9590.000000;1.629231
9589.000000;1.627261
9588.000000;1.627535
9587.000000;1.628843
9586.000000;1.630819
9585.000000;1.633810
9584.000000;1.637076
9583.000000;1.638324
9582.000000;1.635922
9581.000000;1.631210
9580.000000;1.627613
9579.000000;1.627344
9578.000000;1.629591
9577.000000;1.632038
9576.000000;1.633447
9575.000000;1.633858
9574.000000;1.632830
9573.000000;1.629354
9572.000000;1.623987
9571.000000;1.619414
9570.000000;1.617864
9569.000000;1.619035
9568.000000;1.621549
9567.000000;1.625309
9566.000000;1.630627
9565.000000;1.635718
9564.000000;1.637311
9563.000000;1.634567
9562.000000;1.630729
9561.000000;1.629385
9560.000000;1.630390
9559.000000;1.630741
9558.000000;1.628693
9557.000000;1.625489
9556.000000;1.623105
9555.000000;1.621901
9554.000000;1.620935
9553.000000;1.619501
9552.000000;1.617790
9551.000000;1.616739
9550.000000;1.617677
9549.000000;1.621336
9548.000000;1.626473
9547.000000;1.630005
9546.000000;1.629526
9545.000000;1.625761
9544.000000;1.621736
9543.000000;1.619492
9542.000000;1.618500
9541.000000;1.617235
9540.000000;1.615310
9539.000000;1.613657
9538.000000;1.613214
9537.000000;1.614084
9536.000000;1.615795
9535.000000;1.617790
9534.000000;1.619456
9533.000000;1.619960
9532.000000;1.618482
9531.000000;1.614840
9530.000000;1.610061
9529.000000;1.606262
9528.000000;1.605483
9527.000000;1.608334
9526.000000;1.613722
9525.000000;1.619691
9524.000000;1.624391
9523.000000;1.626461
9522.000000;1.625151
9521.000000;1.620851
9520.000000;1.615433
9519.000000;1.611434
9518.000000;1.610596
9517.000000;1.613139
9516.000000;1.618006
9515.000000;1.623119
9514.000000;1.625574
9513.000000;1.623058
9512.000000;1.616302
9511.000000;1.609322
9510.000000;1.606041
9509.000000;1.606957
9508.000000;1.609351
9507.000000;1.610682
9506.000000;1.611373
9505.000000;1.613633
9504.000000;1.618002
9503.000000;1.621960
9502.000000;1.622059
9501.000000;1.617297
9500.000000;1.610094
9499.000000;1.604035
9498.000000;1.601023
9497.000000;1.600423
9496.000000;1.600497
9495.000000;1.600433
9494.000000;1.600861
9493.000000;1.602728
9492.000000;1.606093
9491.000000;1.609962
9490.000000;1.612883
9489.000000;1.613512
9488.000000;1.611368
9487.000000;1.607575
9486.000000;1.604311
9485.000000;1.603033
9484.000000;1.603267
9483.000000;1.603565
9482.000000;1.603313
9481.000000;1.602965
9480.000000;1.602923
9479.000000;1.602865
9478.000000;1.602084
9477.000000;1.600070
9476.000000;1.596854
9475.000000;1.593347
9474.000000;1.591306
9473.000000;1.591916
9472.000000;1.594225
9471.000000;1.595935
9470.000000;1.595833
9469.000000;1.594668
9468.000000;1.593648
9467.000000;1.593231
9466.000000;1.593684
9465.000000;1.595612
9464.000000;1.598967
9463.000000;1.602229
9462.000000;1.603929
9461.000000;1.604642
9460.000000;1.605918
9459.000000;1.607585
9458.000000;1.607733
9457.000000;1.605521
9456.000000;1.602472
9455.000000;1.600351
9454.000000;1.598994
9453.000000;1.597014
9452.000000;1.593814
9451.000000;1.590080
9450.000000;1.586850
9449.000000;1.584874
9448.000000;1.584447
9447.000000;1.585188
9446.000000;1.586298
9445.000000;1.587715
9444.000000;1.590675
9443.000000;1.596137
9442.000000;1.602584
9441.000000;1.606350
9440.000000;1.604862
9439.000000;1.599149
9438.000000;1.592532
9437.000000;1.587569
9436.000000;1.584840
9435.000000;1.583842
9434.000000;1.584094
9433.000000;1.585403
9432.000000;1.587662
9431.000000;1.590527
9430.000000;1.593059
9429.000000;1.593842
9428.000000;1.592228
9427.000000;1.589460
9426.000000;1.587727
9425.000000;1.587852
9424.000000;1.588226
9423.000000;1.586536
9422.000000;1.582657
9421.000000;1.579055
9420.000000;1.578140
9419.000000;1.579929
9418.000000;1.582528
9417.000000;1.584428
9416.000000;1.585571
9415.000000;1.586304
9414.000000;1.586321
9413.000000;1.585206
9412.000000;1.583435
9411.000000;1.582165
9410.000000;1.582149
9409.000000;1.583253
9408.000000;1.584801
9407.000000;1.585882
9406.000000;1.585379
9405.000000;1.582377
9404.000000;1.577212
9403.000000;1.571944
9402.000000;1.569290
9401.000000;1.570950
9400.000000;1.576507
9399.000000;1.583459
9398.000000;1.588641
9397.000000;1.590397
9396.000000;1.589774
9395.000000;1.589240
9394.000000;1.590085
9393.000000;1.591379
9392.000000;1.591471
9391.000000;1.590015
9390.000000;1.588025
9389.000000;1.586039
9388.000000;1.583373
9387.000000;1.579706
9386.000000;1.576392
9385.000000;1.575309
9384.000000;1.576696
9383.000000;1.578718
9382.000000;1.579167
9381.000000;1.577260
9380.000000;1.573855
9379.000000;1.570513
9378.000000;1.568552
9377.000000;1.568358
9376.000000;1.569145
9375.000000;1.569836
9374.000000;1.570615
9373.000000;1.573129
9372.000000;1.578427
9371.000000;1.584805
9370.000000;1.588574
9369.000000;1.587580
9368.000000;1.583269
9367.000000;1.578596
9366.000000;1.574931
9365.000000;1.571772
9364.000000;1.568727
9363.000000;1.566622
9362.000000;1.566420
9361.000000;1.567872
9360.000000;1.569862
9359.000000;1.571711
9358.000000;1.573464
9357.000000;1.575136
9356.000000;1.576500
9355.000000;1.577594
9354.000000;1.578706
9353.000000;1.579577
9352.000000;1.579123
9351.000000;1.576500
9350.000000;1.572403
9349.000000;1.568758
9348.000000;1.567032
9347.000000;1.567325
9346.000000;1.569085
9345.000000;1.571818
9344.000000;1.574563
9343.000000;1.575458
9342.000000;1.573138
9341.000000;1.568697
9340.000000;1.565130
9339.000000;1.564356
9338.000000;1.565528
9337.000000;1.566703
9336.000000;1.567356
9335.000000;1.568186
9334.000000;1.568922
9333.000000;1.568080
9332.000000;1.565459
9331.000000;1.563484
9330.000000;1.564984
9329.000000;1.570001
9328.000000;1.575531
9327.000000;1.578462
9326.000000;1.578086
9325.000000;1.575598
9324.000000;1.572209
9323.000000;1.568441
9322.000000;1.564708
9321.000000;1.561740
9320.000000;1.560333
9319.000000;1.560868
9318.000000;1.562987
9317.000000;1.565482
9316.000000;1.566537
9315.000000;1.564960
9314.000000;1.561682
9313.000000;1.559246
9312.000000;1.559504
9311.000000;1.561991
9310.000000;1.564438
9309.000000;1.564789
9308.000000;1.562847
9307.000000;1.560169
9306.000000;1.558618
9305.000000;1.559067
9304.000000;1.561030
9303.000000;1.563028
9302.000000;1.563502
9301.000000;1.561880
9300.000000;1.559048
9299.000000;1.556777
9298.000000;1.556495
9297.000000;1.558292
9296.000000;1.560802
9295.000000;1.562078
9294.000000;1.560950
9293.000000;1.557881
9292.000000;1.554554
9291.000000;1.552507
9290.000000;1.552098
9289.000000;1.552706
9288.000000;1.553684
9287.000000;1.554853
9286.000000;1.556174
9285.000000;1.557400
9284.000000;1.558295
9283.000000;1.558886
9282.000000;1.559260
9281.000000;1.559431
9280.000000;1.559684
9279.000000;1.560663
9278.000000;1.562691
9277.000000;1.565008
9276.000000;1.565990
9275.000000;1.564317
9274.000000;1.559919
9273.000000;1.553937
9272.000000;1.548052
9271.000000;1.543709
9270.000000;1.541425
9269.000000;1.540569
9268.000000;1.540081
9267.000000;1.539665
9266.000000;1.540192
9265.000000;1.542931
9264.000000;1.548387
9263.000000;1.555569
9262.000000;1.562032
9261.000000;1.564964
9260.000000;1.563109
9259.000000;1.557921
9258.000000;1.552534
9257.000000;1.549628
9256.000000;1.550224
9255.000000;1.553717
9254.000000;1.558374
9253.000000;1.561946
9252.000000;1.562685
9251.000000;1.560383
9250.000000;1.556255
9249.000000;1.551701
9248.000000;1.547619
9247.000000;1.544901
9246.000000;1.544626
9245.000000;1.547014
9244.000000;1.550546
9243.000000;1.552945
9242.000000;1.553192
9241.000000;1.552035
9240.000000;1.550659
9239.000000;1.549577
9238.000000;1.548751
9237.000000;1.548017
9236.000000;1.547073
9235.000000;1.545656
9234.000000;1.544131
9233.000000;1.543405
9232.000000;1.543905
9231.000000;1.545000
9230.000000;1.545668
9229.000000;1.545520
9228.000000;1.544922
9227.000000;1.544245
9226.000000;1.543627
9225.000000;1.543478
9224.000000;1.544334
9223.000000;1.546028
9222.000000;1.547545
9221.000000;1.548004
9220.000000;1.547618
9219.000000;1.547347
9218.000000;1.547656
9217.000000;1.547860
9216.000000;1.546788
9215.000000;1.543989
9214.000000;1.540378
9213.000000;1.537775
9212.000000;1.537637
9211.000000;1.539882
9210.000000;1.542813
9209.000000;1.544465
9208.000000;1.544262
9207.000000;1.543424
9206.000000;1.543652
9205.000000;1.545307
9204.000000;1.547084
9203.000000;1.547464
9202.000000;1.546039
9201.000000;1.543474
9200.000000;1.540838
9199.000000;1.539310
9198.000000;1.539965
9197.000000;1.542940
9196.000000;1.546651
9195.000000;1.548568
9194.000000;1.547348
9193.000000;1.543876
9192.000000;1.540119
9191.000000;1.537461
9190.000000;1.536295
9189.000000;1.536530
9188.000000;1.537753
9187.000000;1.539210
9186.000000;1.540357
9185.000000;1.541378
9184.000000;1.542716
9183.000000;1.544099
9182.000000;1.544455
9181.000000;1.543131
9180.000000;1.540941
9179.000000;1.539527
9178.000000;1.539651
9177.000000;1.540344
9176.000000;1.539858
9175.000000;1.537427
9174.000000;1.533970
9173.000000;1.531108
9172.000000;1.529708
9171.000000;1.529438
9170.000000;1.529445
9169.000000;1.529183
9168.000000;1.528660
9167.000000;1.528257
9166.000000;1.528386
9165.000000;1.529108
9164.000000;1.529913
9163.000000;1.530124
9162.000000;1.529861
9161.000000;1.530270
9160.000000;1.532385
9159.000000;1.535895
9158.000000;1.539313
9157.000000;1.541392
9156.000000;1.542118
9155.000000;1.542210
9154.000000;1.542080
9153.000000;1.541677
9152.000000;1.541062
9151.000000;1.540620
9150.000000;1.540582
9149.000000;1.540667
9148.000000;1.540346
9147.000000;1.539229
9146.000000;1.537140
9145.000000;1.534179
9144.000000;1.530951
9143.000000;1.528556
9142.000000;1.527956
9141.000000;1.529112
9140.000000;1.530802
9139.000000;1.531424
9138.000000;1.530139
9137.000000;1.527585
9136.000000;1.525556
9135.000000;1.525743
9134.000000;1.528465
9133.000000;1.532366
9132.000000;1.535430
9131.000000;1.536606
9130.000000;1.536422
9129.000000;1.536152
9128.000000;1.536656
9127.000000;1.537944
9126.000000;1.539359
9125.000000;1.539941
9124.000000;1.539045
9123.000000;1.537033
9122.000000;1.535203
9121.000000;1.534777
9120.000000;1.535984
9119.000000;1.538104
9118.000000;1.539973
9117.000000;1.540362
9116.000000;1.538586
9115.000000;1.535149
9114.000000;1.531425
9113.000000;1.528444
9112.000000;1.526324
9111.000000;1.525065
9110.000000;1.525142
9109.000000;1.526623
9108.000000;1.528267
9107.000000;1.528594
9106.000000;1.527719
9105.000000;1.526973
9104.000000;1.526773
9103.000000;1.526135
9102.000000;1.524625
9101.000000;1.523532
9100.000000;1.524249
9099.000000;1.526425
9098.000000;1.528412
9097.000000;1.529041
9096.000000;1.528438
9095.000000;1.527402
9094.000000;1.526750
9093.000000;1.526947
9092.000000;1.527664
9091.000000;1.527888
9090.000000;1.526881
9089.000000;1.524991
9088.000000;1.523125
9087.000000;1.521688
9086.000000;1.520658
9085.000000;1.520331
9084.000000;1.521149
9083.000000;1.522788
9082.000000;1.524201
9081.000000;1.524822
9080.000000;1.525203
9079.000000;1.526158
9078.000000;1.527636
9077.000000;1.528712
9076.000000;1.528442
9075.000000;1.526678
9074.000000;1.524344
9073.000000;1.522878
9072.000000;1.523062
9071.000000;1.524447
9070.000000;1.526066
9069.000000;1.527245
9068.000000;1.527419
9067.000000;1.525765
9066.000000;1.522079
9065.000000;1.517979
9064.000000;1.516023
9063.000000;1.517133
9062.000000;1.519552
9061.000000;1.520778
9060.000000;1.520165
9059.000000;1.519061
9058.000000;1.518863
9057.000000;1.519799
9056.000000;1.521238
9055.000000;1.522307
9054.000000;1.522270
9053.000000;1.521081
