Criado como novo conjunto de dados;"e0108.spp","-4225661.9 Secs"
cm-1;Abs
10000.000000;1.885107
9999.000000;1.883438
9998.000000;1.880471
9997.000000;1.875442
9996.000000;1.871250
9995.000000;1.872821
9994.000000;1.880622
9993.000000;1.888419
9992.000000;1.889733
9991.000000;1.884751
9990.000000;1.878359
9989.000000;1.874192
9988.000000;1.873115
9987.000000;1.874827
9986.000000;1.878234
9985.000000;1.881121
9984.000000;1.881913
9983.000000;1.881675
9982.000000;1.882625
9981.000000;1.885091
9980.000000;1.887400
9979.000000;1.888249
9978.000000;1.887683
9977.000000;1.886110
9976.000000;1.883799
9975.000000;1.881090
9974.000000;1.878181
9973.000000;1.874848
9972.000000;1.870868
9971.000000;1.866848
9970.000000;1.864301
9969.000000;1.864645
9968.000000;1.868163
9967.000000;1.873750
9966.000000;1.879430
9965.000000;1.883266
9964.000000;1.884135
9963.000000;1.881853
9962.000000;1.876851
9961.000000;1.869990
9960.000000;1.862730
9959.000000;1.857060
9958.000000;1.854493
9957.000000;1.854565
9956.000000;1.854892
9955.000000;1.853408
9954.000000;1.850656
9953.000000;1.849810
9952.000000;1.853803
9951.000000;1.861648
9950.000000;1.867981
9949.000000;1.867751
9948.000000;1.861742
9947.000000;1.855697
9946.000000;1.853971
9945.000000;1.855714
9944.000000;1.857175
9943.000000;1.856668
9942.000000;1.856364
9941.000000;1.859308
9940.000000;1.865495
9939.000000;1.871105
9938.000000;1.871803
9937.000000;1.866974
9936.000000;1.859983
9935.000000;1.854253
9934.000000;1.850556
9933.000000;1.848172
9932.000000;1.847119
9931.000000;1.847917
9930.000000;1.848795
9929.000000;1.846061
9928.000000;1.839146
9927.000000;1.831654
9926.000000;1.826951
9925.000000;1.825816
9924.000000;1.827467
9923.000000;1.830939
9922.000000;1.835437
9921.000000;1.839511
9920.000000;1.840850
9919.000000;1.838964
9918.000000;1.837191
9917.000000;1.839664
9916.000000;1.847080
9915.000000;1.855628
9914.000000;1.859378
9913.000000;1.855450
9912.000000;1.847155
9911.000000;1.840697
9910.000000;1.839966
9909.000000;1.844484
9908.000000;1.850567
9907.000000;1.854746
9906.000000;1.856745
9905.000000;1.858795
9904.000000;1.862071
9903.000000;1.864471
9902.000000;1.862717
9901.000000;1.856914
9900.000000;1.851669
9899.000000;1.851507
9898.000000;1.856084
9897.000000;1.860764
9896.000000;1.861237
9895.000000;1.856608
9894.000000;1.848647
9893.000000;1.839926
9892.000000;1.833070
9891.000000;1.830448
9890.000000;1.833171
9889.000000;1.839728
9888.000000;1.846123
9887.000000;1.848347
9886.000000;1.845448
9885.000000;1.840000
9884.000000;1.834954
9883.000000;1.830549
9882.000000;1.825472
9881.000000;1.820759
9880.000000;1.820269
9879.000000;1.825869
9878.000000;1.833543
9877.000000;1.836421
9876.000000;1.832219
9875.000000;1.825755
9874.000000;1.823647
9873.000000;1.828499
9872.000000;1.837398
9871.000000;1.844091
9870.000000;1.843523
9869.000000;1.835734
9868.000000;1.824835
9867.000000;1.814727
9866.000000;1.807290
9865.000000;1.804278
9864.000000;1.808625
9863.000000;1.821160
9862.000000;1.836242
9861.000000;1.844487
9860.000000;1.842621
9859.000000;1.837401
9858.000000;1.837191
9857.000000;1.843081
9856.000000;1.849319
9855.000000;1.850258
9854.000000;1.845367
9853.000000;1.838084
9852.000000;1.832473
9851.000000;1.831150
9850.000000;1.833973
9849.000000;1.837710
9848.000000;1.838346
9847.000000;1.835350
9846.000000;1.832974
9845.000000;1.835938
9844.000000;1.843466
9843.000000;1.848205
9842.000000;1.843686
9841.000000;1.832785
9840.000000;1.824561
9839.000000;1.823808
9838.000000;1.827174
9837.000000;1.829073
9836.000000;1.828943
9835.000000;1.829873
9834.000000;1.831939
9833.000000;1.831460
9832.000000;1.826737
9831.000000;1.820662
9830.000000;1.816868
9829.000000;1.816320
9828.000000;1.818013
9827.000000;1.820098
9826.000000;1.819767
9825.000000;1.814991
9824.000000;1.807636
9823.000000;1.802509
9822.000000;1.802672
9821.000000;1.807437
9820.000000;1.814601
9819.000000;1.822332
9818.000000;1.828069
9817.000000;1.828197
9816.000000;1.821548
9815.000000;1.812003
9814.000000;1.805217
9813.000000;1.804046
9812.000000;1.808488
9811.000000;1.817092
9810.000000;1.825933
9809.000000;1.828886
9808.000000;1.822473
9807.000000;1.809568
9806.000000;1.796433
9805.000000;1.787926
9804.000000;1.786518
9803.000000;1.792600
9802.000000;1.802926
9801.000000;1.810481
9800.000000;1.809877
9799.000000;1.803106
9798.000000;1.796733
9797.000000;1.794381
9796.000000;1.794577
9795.000000;1.794719
9794.000000;1.794405
9793.000000;1.794437
9792.000000;1.794840
9791.000000;1.795115
9790.000000;1.795223
9789.000000;1.795489
9788.000000;1.796288
9787.000000;1.797975
9786.000000;1.800418
9785.000000;1.802512
9784.000000;1.802491
9783.000000;1.799397
9782.000000;1.794313
9781.000000;1.789728
9780.000000;1.788284
9779.000000;1.791555
9778.000000;1.798333
9777.000000;1.804063
9776.000000;1.803872
9775.000000;1.797375
9774.000000;1.789114
9773.000000;1.783950
9772.000000;1.783526
9771.000000;1.786430
9770.000000;1.790219
9769.000000;1.793271
9768.000000;1.795169
9767.000000;1.796001
9766.000000;1.795651
9765.000000;1.793774
9764.000000;1.790607
9763.000000;1.787480
9762.000000;1.785890
9761.000000;1.786248
9760.000000;1.788231
9759.000000;1.791816
9758.000000;1.796704
9757.000000;1.801041
9756.000000;1.802043
9755.000000;1.798724
9754.000000;1.793411
9753.000000;1.789390
9752.000000;1.787437
9751.000000;1.785697
9750.000000;1.782707
9749.000000;1.779357
9748.000000;1.777495
9747.000000;1.777747
9746.000000;1.779562
9745.000000;1.782537
9744.000000;1.786425
9743.000000;1.790213
9742.000000;1.792535
9741.000000;1.793386
9740.000000;1.794332
9739.000000;1.796054
9738.000000;1.796913
9737.000000;1.795392
9736.000000;1.792637
9735.000000;1.790829
9734.000000;1.790005
9733.000000;1.788437
9732.000000;1.785832
9731.000000;1.784017
9730.000000;1.784080
9729.000000;1.784966
9728.000000;1.785823
9727.000000;1.788011
9726.000000;1.793002
9725.000000;1.799185
9724.000000;1.802264
9723.000000;1.799109
9722.000000;1.790691
9721.000000;1.780914
9720.000000;1.773576
9719.000000;1.770775
9718.000000;1.772839
9717.000000;1.778871
9716.000000;1.787071
9715.000000;1.794467
9714.000000;1.797513
9713.000000;1.794941
9712.000000;1.790005
9711.000000;1.787918
9710.000000;1.790388
9709.000000;1.793461
9708.000000;1.791552
9707.000000;1.783267
9706.000000;1.772289
9705.000000;1.763656
9704.000000;1.760527
9703.000000;1.763235
9702.000000;1.769493
9701.000000;1.775601
9700.000000;1.778769
9699.000000;1.778801
9698.000000;1.777466
9697.000000;1.776622
9696.000000;1.776993
9695.000000;1.777907
9694.000000;1.777731
9693.000000;1.775450
9692.000000;1.772212
9691.000000;1.770297
9690.000000;1.770503
9689.000000;1.771857
9688.000000;1.774177
9687.000000;1.779041
9686.000000;1.786499
9685.000000;1.792175
9684.000000;1.790454
9683.000000;1.780725
9682.000000;1.767878
9681.000000;1.757004
9680.000000;1.750221
9679.000000;1.747663
9678.000000;1.748672
9677.000000;1.751400
9676.000000;1.753126
9675.000000;1.752621
9674.000000;1.751637
9673.000000;1.753135
9672.000000;1.758328
9671.000000;1.765610
9670.000000;1.772101
9669.000000;1.775822
9668.000000;1.776382
9667.000000;1.774475
9666.000000;1.771384
9665.000000;1.768637
9664.000000;1.767146
9663.000000;1.766121
9662.000000;1.763767
9661.000000;1.760083
9660.000000;1.758071
9659.000000;1.760692
9658.000000;1.767032
9657.000000;1.772973
9656.000000;1.776034
9655.000000;1.777588
9654.000000;1.779024
9653.000000;1.778282
9652.000000;1.772710
9651.000000;1.763909
9650.000000;1.756506
9649.000000;1.752799
9648.000000;1.751448
9647.000000;1.751050
9646.000000;1.752405
9645.000000;1.756381
9644.000000;1.761367
9643.000000;1.764243
9642.000000;1.763324
9641.000000;1.759558
9640.000000;1.755331
9639.000000;1.752756
9638.000000;1.752476
9637.000000;1.753579
9636.000000;1.755024
9635.000000;1.756868
9634.000000;1.759476
9633.000000;1.761823
9632.000000;1.761348
9631.000000;1.756351
9630.000000;1.748614
9629.000000;1.743036
9628.000000;1.744062
9627.000000;1.751801
9626.000000;1.761173
9625.000000;1.765431
9624.000000;1.762412
9623.000000;1.756421
9622.000000;1.752068
9621.000000;1.749012
9620.000000;1.744800
9619.000000;1.740505
9618.000000;1.740119
9617.000000;1.744563
9616.000000;1.749598
9615.000000;1.750964
9614.000000;1.749524
9613.000000;1.749137
9612.000000;1.751244
9611.000000;1.753869
9610.000000;1.754853
9609.000000;1.754025
9608.000000;1.752369
9607.000000;1.750757
9606.000000;1.749581
9605.000000;1.748491
9604.000000;1.746644
9603.000000;1.744011
9602.000000;1.742021
9601.000000;1.742101
9600.000000;1.744009
9599.000000;1.746358
9598.000000;1.748214
9597.000000;1.749256
9596.000000;1.749102
9595.000000;1.747884
9594.000000;1.747073
9593.000000;1.747983
9592.000000;1.749114
9591.000000;1.746905
9590.000000;1.740530
9589.000000;1.734298
9588.000000;1.733604
9587.000000;1.739217
9586.000000;1.746145
9585.000000;1.748563
9584.000000;1.745601
9583.000000;1.740911
9582.000000;1.737552
9581.000000;1.735414
9580.000000;1.733679
9579.000000;1.733896
9578.000000;1.738525
9577.000000;1.746465
9576.000000;1.751906
9575.000000;1.749705
9574.000000;1.741688
9573.000000;1.735088
9572.000000;1.735053
9571.000000;1.740271
9570.000000;1.744877
9569.000000;1.743722
9568.000000;1.736338
9567.000000;1.726653
9566.000000;1.719541
9565.000000;1.717440
9564.000000;1.719336
9563.000000;1.722598
9562.000000;1.725877
9561.000000;1.729837
9560.000000;1.734881
9559.000000;1.739487
9558.000000;1.741909
9557.000000;1.742496
9556.000000;1.742635
9555.000000;1.742115
9554.000000;1.739569
9553.000000;1.735453
9552.000000;1.732654
9551.000000;1.733179
9550.000000;1.735338
9549.000000;1.735451
9548.000000;1.731916
9547.000000;1.726532
9546.000000;1.722168
9545.000000;1.720178
9544.000000;1.720069
9543.000000;1.720649
9542.000000;1.721037
9541.000000;1.720908
9540.000000;1.720009
9539.000000;1.717771
9538.000000;1.714091
9537.000000;1.710475
9536.000000;1.709372
9535.000000;1.711684
9534.000000;1.715497
9533.000000;1.718098
9532.000000;1.719015
9531.000000;1.720042
9530.000000;1.722437
9529.000000;1.725272
9528.000000;1.726629
9527.000000;1.725689
9526.000000;1.723275
9525.000000;1.720768
9524.000000;1.718890
9523.000000;1.717383
9522.000000;1.715915
9521.000000;1.715378
9520.000000;1.717558
9519.000000;1.722621
9518.000000;1.727211
9517.000000;1.726697
9516.000000;1.720183
9515.000000;1.711835
9514.000000;1.706850
9513.000000;1.707720
9512.000000;1.713810
9511.000000;1.722502
9510.000000;1.730404
9509.000000;1.734511
9508.000000;1.733650
9507.000000;1.729310
9506.000000;1.724287
9505.000000;1.720478
9504.000000;1.718119
9503.000000;1.716138
9502.000000;1.712970
9501.000000;1.708267
9500.000000;1.704183
9499.000000;1.704029
9498.000000;1.709030
9497.000000;1.716342
9496.000000;1.720921
9495.000000;1.720137
9494.000000;1.716069
9493.000000;1.712922
9492.000000;1.713057
9491.000000;1.715706
9490.000000;1.718637
9489.000000;1.720364
9488.000000;1.720497
9487.000000;1.718303
9486.000000;1.712480
9485.000000;1.703810
9484.000000;1.696911
9483.000000;1.697014
9482.000000;1.704725
9481.000000;1.714921
9480.000000;1.721359
9479.000000;1.722044
9478.000000;1.719099
9477.000000;1.714763
9476.000000;1.710037
9475.000000;1.706329
9474.000000;1.705489
9473.000000;1.707722
9472.000000;1.710867
9471.000000;1.712443
9470.000000;1.712050
9469.000000;1.711233
9468.000000;1.711202
9467.000000;1.711261
9466.000000;1.709783
9465.000000;1.706799
9464.000000;1.704832
9463.000000;1.706178
9462.000000;1.709692
9461.000000;1.711569
9460.000000;1.709698
9459.000000;1.706177
9458.000000;1.704576
9457.000000;1.705744
9456.000000;1.707479
9455.000000;1.707495
9454.000000;1.705421
9453.000000;1.702481
9452.000000;1.700540
9451.000000;1.701190
9450.000000;1.704486
9449.000000;1.708405
9448.000000;1.710382
9447.000000;1.709531
9446.000000;1.706802
9445.000000;1.703298
9444.000000;1.699373
9443.000000;1.695100
9442.000000;1.690875
9441.000000;1.687781
9440.000000;1.687387
9439.000000;1.690603
9438.000000;1.696346
9437.000000;1.701810
9436.000000;1.704853
9435.000000;1.705683
9434.000000;1.705210
9433.000000;1.702951
9432.000000;1.698322
9431.000000;1.692937
9430.000000;1.689702
9429.000000;1.689837
9428.000000;1.691990
9427.000000;1.694229
9426.000000;1.695965
9425.000000;1.697588
9424.000000;1.699479
9423.000000;1.701759
9422.000000;1.703516
9421.000000;1.703045
9420.000000;1.700145
9419.000000;1.697090
9418.000000;1.696457
9417.000000;1.697939
9416.000000;1.698230
9415.000000;1.694801
9414.000000;1.688590
9413.000000;1.682569
9412.000000;1.679375
9411.000000;1.680603
9410.000000;1.686385
9409.000000;1.694195
9408.000000;1.699175
9407.000000;1.697639
9406.000000;1.690401
9405.000000;1.681955
9404.000000;1.676987
9403.000000;1.677581
9402.000000;1.681955
9401.000000;1.685340
9400.000000;1.684103
9399.000000;1.680030
9398.000000;1.678729
9397.000000;1.683350
9396.000000;1.691347
9395.000000;1.697609
9394.000000;1.699490
9393.000000;1.697693
9392.000000;1.693872
9391.000000;1.689606
9390.000000;1.686502
9389.000000;1.685296
9388.000000;1.685428
9387.000000;1.686562
9386.000000;1.689526
9385.000000;1.694413
9384.000000;1.698727
9383.000000;1.699428
9382.000000;1.696714
9381.000000;1.693543
9380.000000;1.691625
9379.000000;1.690190
9378.000000;1.688411
9377.000000;1.687048
9376.000000;1.687089
9375.000000;1.688313
9374.000000;1.690115
9373.000000;1.692636
9372.000000;1.696201
9371.000000;1.700156
9370.000000;1.702864
9369.000000;1.702712
9368.000000;1.699028
9367.000000;1.692653
9366.000000;1.685981
9365.000000;1.681596
9364.000000;1.680266
9363.000000;1.680582
9362.000000;1.680783
9361.000000;1.680505
9360.000000;1.680400
9359.000000;1.680696
9358.000000;1.680932
9357.000000;1.680941
9356.000000;1.681295
9355.000000;1.682427
9354.000000;1.683525
9353.000000;1.682724
9352.000000;1.678965
9351.000000;1.673820
9350.000000;1.671042
9349.000000;1.673446
9348.000000;1.679542
9347.000000;1.683784
9346.000000;1.681630
9345.000000;1.674604
9344.000000;1.668660
9343.000000;1.667493
9342.000000;1.669221
9341.000000;1.669785
9340.000000;1.668376
9339.000000;1.667925
9338.000000;1.670595
9337.000000;1.674993
9336.000000;1.678352
9335.000000;1.679844
9334.000000;1.680405
9333.000000;1.680592
9332.000000;1.680293
9331.000000;1.679667
9330.000000;1.678944
9329.000000;1.677730
9328.000000;1.675756
9327.000000;1.673901
9326.000000;1.672975
9325.000000;1.671990
9324.000000;1.669466
9323.000000;1.666274
9322.000000;1.665042
9321.000000;1.666565
9320.000000;1.668907
9319.000000;1.670427
9318.000000;1.671628
9317.000000;1.673175
9316.000000;1.673882
9315.000000;1.672182
9314.000000;1.668506
9313.000000;1.664707
9312.000000;1.662313
9311.000000;1.662493
9310.000000;1.666200
9309.000000;1.672731
9308.000000;1.678767
9307.000000;1.680843
9306.000000;1.678857
9305.000000;1.675487
9304.000000;1.672633
9303.000000;1.670369
9302.000000;1.669074
9301.000000;1.670445
9300.000000;1.675516
9299.000000;1.682675
9298.000000;1.688479
9297.000000;1.690317
9296.000000;1.688117
9295.000000;1.683874
9294.000000;1.679929
9293.000000;1.677404
9292.000000;1.675857
9291.000000;1.674427
9290.000000;1.672982
9289.000000;1.671808
9288.000000;1.670849
9287.000000;1.670044
9286.000000;1.669708
9285.000000;1.669649
9284.000000;1.668457
9283.000000;1.664957
9282.000000;1.660336
9281.000000;1.657392
9280.000000;1.657535
9279.000000;1.659664
9278.000000;1.661941
9277.000000;1.663857
9276.000000;1.666339
9275.000000;1.670128
9274.000000;1.674120
9273.000000;1.675427
9272.000000;1.671901
9271.000000;1.664948
9270.000000;1.658815
9269.000000;1.656722
9268.000000;1.658341
9267.000000;1.661087
9266.000000;1.663097
9265.000000;1.664137
9264.000000;1.664284
9263.000000;1.663379
9262.000000;1.661965
9261.000000;1.661274
9260.000000;1.661703
9259.000000;1.662537
9258.000000;1.663207
9257.000000;1.663685
9256.000000;1.663804
9255.000000;1.663113
9254.000000;1.661778
9253.000000;1.660382
9252.000000;1.658560
9251.000000;1.655672
9250.000000;1.653062
9249.000000;1.653661
9248.000000;1.658385
9247.000000;1.664248
9246.000000;1.667171
9245.000000;1.665883
9244.000000;1.662029
9243.000000;1.657485
9242.000000;1.653451
9241.000000;1.651305
9240.000000;1.652062
9239.000000;1.654693
9238.000000;1.656460
9237.000000;1.655682
9236.000000;1.653416
9235.000000;1.651962
9234.000000;1.652457
9233.000000;1.654090
9232.000000;1.655054
9231.000000;1.654310
9230.000000;1.652868
9229.000000;1.653083
9228.000000;1.656285
9227.000000;1.661428
9226.000000;1.666430
9225.000000;1.670259
9224.000000;1.672731
9223.000000;1.672898
9222.000000;1.669594
9221.000000;1.663856
9220.000000;1.658881
9219.000000;1.656680
9218.000000;1.655983
9217.000000;1.654221
9216.000000;1.650975
9215.000000;1.648368
9214.000000;1.648414
9213.000000;1.651257
9212.000000;1.655522
9211.000000;1.659259
9210.000000;1.660778
9209.000000;1.659406
9208.000000;1.656002
9207.000000;1.652485
9206.000000;1.650429
9205.000000;1.650230
9204.000000;1.651398
9203.000000;1.653053
9202.000000;1.654074
9201.000000;1.653394
9200.000000;1.650933
9199.000000;1.647997
9198.000000;1.646082
9197.000000;1.645411
9196.000000;1.645078
9195.000000;1.644246
9194.000000;1.642706
9193.000000;1.640584
9192.000000;1.638154
9191.000000;1.636203
9190.000000;1.636152
9189.000000;1.639155
9188.000000;1.644829
9187.000000;1.651173
9186.000000;1.655863
9185.000000;1.657600
9184.000000;1.656578
9183.000000;1.654279
9182.000000;1.652612
9181.000000;1.652408
9180.000000;1.652665
9179.000000;1.651692
9178.000000;1.649066
9177.000000;1.646087
9176.000000;1.644139
9175.000000;1.643136
9174.000000;1.642008
9173.000000;1.640323
9172.000000;1.638915
9171.000000;1.638960
9170.000000;1.640706
9169.000000;1.643066
9168.000000;1.644384
9167.000000;1.643861
9166.000000;1.642206
9165.000000;1.640700
9164.000000;1.640032
9163.000000;1.640339
9162.000000;1.641552
9161.000000;1.642885
9160.000000;1.642657
9159.000000;1.640020
9158.000000;1.636754
9157.000000;1.635884
9156.000000;1.638209
9155.000000;1.641357
9154.000000;1.642715
9153.000000;1.642136
9152.000000;1.640833
9151.000000;1.638996
9150.000000;1.636139
9149.000000;1.633183
9148.000000;1.632438
9147.000000;1.635192
9146.000000;1.640423
9145.000000;1.646124
9144.000000;1.650973
9143.000000;1.654160
9142.000000;1.654300
9141.000000;1.649880
9140.000000;1.641351
9139.000000;1.632012
9138.000000;1.626000
9137.000000;1.625203
9136.000000;1.628014
9135.000000;1.630966
9134.000000;1.631661
9133.000000;1.630149
9132.000000;1.627705
9131.000000;1.625274
9130.000000;1.623567
9129.000000;1.623601
9128.000000;1.626073
9127.000000;1.630348
9126.000000;1.634759
9125.000000;1.637973
9124.000000;1.639728
9123.000000;1.640357
9122.000000;1.640123
9121.000000;1.639102
9120.000000;1.637338
9119.000000;1.635065
9118.000000;1.632913
9117.000000;1.631548
9116.000000;1.630797
9115.000000;1.629716
9114.000000;1.628202
9113.000000;1.627883
9112.000000;1.630304
9111.000000;1.634615
9110.000000;1.638150
9109.000000;1.639419
9108.000000;1.639502
9107.000000;1.640110
9106.000000;1.641290
9105.000000;1.641642
9104.000000;1.640085
9103.000000;1.636853
9102.000000;1.633188
9101.000000;1.630531
9100.000000;1.629704
9099.000000;1.630369
9098.000000;1.631310
9097.000000;1.631487
9096.000000;1.630862
9095.000000;1.630338
9094.000000;1.631193
9093.000000;1.634308
9092.000000;1.639256
9091.000000;1.643918
9090.000000;1.645550
9089.000000;1.642935
9088.000000;1.637568
9087.000000;1.632535
9086.000000;1.630366
9085.000000;1.631653
9084.000000;1.634916
9083.000000;1.637693
9082.000000;1.638399
9081.000000;1.637384
9080.000000;1.636022
9079.000000;1.635145
9078.000000;1.634858
9077.000000;1.635379
9076.000000;1.636831
9075.000000;1.638099
9074.000000;1.637242
9073.000000;1.633794
9072.000000;1.629707
9071.000000;1.627275
9070.000000;1.626980
9069.000000;1.627846
9068.000000;1.629037
9067.000000;1.630280
9066.000000;1.631213
9065.000000;1.631265
9064.000000;1.630156
9063.000000;1.628086
9062.000000;1.625636
9061.000000;1.623659
9060.000000;1.622760
9059.000000;1.622518
9058.000000;1.621935
9057.000000;1.621127
9056.000000;1.621538
9055.000000;1.623487
9054.000000;1.624546
9053.000000;1.622027
