Criado como novo conjunto de dados;"e0108.spp","-4256083.3 Secs"
cm-1;Abs
10000.000000;1.046055
9999.000000;1.045820
9998.000000;1.045585
9997.000000;1.045350
9996.000000;1.045116
9995.000000;1.044879
9994.000000;1.044649
9993.000000;1.044407
9992.000000;1.044195
9991.000000;1.043318
9990.000000;1.042874
9989.000000;1.043461
9988.000000;1.044299
9987.000000;1.044379
9986.000000;1.043755
9985.000000;1.043198
9984.000000;1.042926
9983.000000;1.042505
9982.000000;1.041827
9981.000000;1.041381
9980.000000;1.041467
9979.000000;1.041793
9978.000000;1.041999
9977.000000;1.042049
9976.000000;1.041933
9975.000000;1.041511
9974.000000;1.040844
9973.000000;1.040302
9972.000000;1.040076
9971.000000;1.039850
9970.000000;1.039151
9969.000000;1.037889
9968.000000;1.036452
9967.000000;1.035386
9966.000000;1.034973
9965.000000;1.034944
9964.000000;1.034658
9963.000000;1.033819
9962.000000;1.032908
9961.000000;1.032609
9960.000000;1.032908
9959.000000;1.033138
9958.000000;1.032746
9957.000000;1.031675
9956.000000;1.030208
9955.000000;1.028922
9954.000000;1.028559
9953.000000;1.029279
9952.000000;1.030078
9951.000000;1.029663
9950.000000;1.028041
9949.000000;1.026533
9948.000000;1.026117
9947.000000;1.026482
9946.000000;1.026842
9945.000000;1.026886
9944.000000;1.026575
9943.000000;1.025777
9942.000000;1.024633
9941.000000;1.023734
9940.000000;1.023396
9939.000000;1.023291
9938.000000;1.023302
9937.000000;1.024045
9936.000000;1.025767
9935.000000;1.027289
9934.000000;1.027028
9933.000000;1.024866
9932.000000;1.022203
9931.000000;1.020342
9930.000000;1.019564
9929.000000;1.019620
9928.000000;1.020240
9927.000000;1.020967
9926.000000;1.021209
9925.000000;1.020818
9924.000000;1.020260
9923.000000;1.020024
9922.000000;1.020141
9921.000000;1.020313
9920.000000;1.020116
9919.000000;1.019081
9918.000000;1.017052
9917.000000;1.014616
9916.000000;1.012850
9915.000000;1.012501
9914.000000;1.013508
9913.000000;1.015163
9912.000000;1.016445
9911.000000;1.016450
9910.000000;1.015148
9909.000000;1.013784
9908.000000;1.013883
9907.000000;1.015574
9906.000000;1.017327
9905.000000;1.017637
9904.000000;1.016618
9903.000000;1.015504
9902.000000;1.014918
9901.000000;1.014325
9900.000000;1.013113
9899.000000;1.011605
9898.000000;1.010708
9897.000000;1.010849
9896.000000;1.011598
9895.000000;1.012282
9894.000000;1.012640
9893.000000;1.012709
9892.000000;1.012313
9891.000000;1.011166
9890.000000;1.009562
9889.000000;1.008476
9888.000000;1.008601
9887.000000;1.009529
9886.000000;1.010283
9885.000000;1.010467
9884.000000;1.010396
9883.000000;1.010191
9882.000000;1.009435
9881.000000;1.007946
9880.000000;1.006358
9879.000000;1.005507
9878.000000;1.005529
9877.000000;1.005844
9876.000000;1.005791
9875.000000;1.005056
9874.000000;1.003722
9873.000000;1.002264
9872.000000;1.001438
9871.000000;1.001823
9870.000000;1.003294
9869.000000;1.004972
9868.000000;1.005763
9867.000000;1.005122
9866.000000;1.003512
9865.000000;1.002071
9864.000000;1.001585
9863.000000;1.001752
9862.000000;1.001610
9861.000000;1.000632
9860.000000;0.999062
9859.000000;0.997259
9858.000000;0.995347
9857.000000;0.993764
9856.000000;0.993486
9855.000000;0.995026
9854.000000;0.997456
9853.000000;0.999068
9852.000000;0.999080
9851.000000;0.998170
9850.000000;0.997308
9849.000000;0.996649
9848.000000;0.995796
9847.000000;0.994648
9846.000000;0.993580
9845.000000;0.992952
9844.000000;0.992802
9843.000000;0.992980
9842.000000;0.993356
9841.000000;0.993817
9840.000000;0.994183
9839.000000;0.994223
9838.000000;0.993803
9837.000000;0.993000
9836.000000;0.992041
9835.000000;0.991077
9834.000000;0.990093
9833.000000;0.989099
9832.000000;0.988315
9831.000000;0.988046
9830.000000;0.988386
9829.000000;0.989116
9828.000000;0.989913
9827.000000;0.990552
9826.000000;0.990918
9825.000000;0.990915
9824.000000;0.990378
9823.000000;0.989068
9822.000000;0.986933
9821.000000;0.984499
9820.000000;0.982759
9819.000000;0.982326
9818.000000;0.982745
9817.000000;0.983006
9816.000000;0.982752
9815.000000;0.982530
9814.000000;0.982771
9813.000000;0.983072
9812.000000;0.982892
9811.000000;0.982538
9810.000000;0.982891
9809.000000;0.984238
9808.000000;0.985801
9807.000000;0.986496
9806.000000;0.985886
9805.000000;0.984344
9804.000000;0.982582
9803.000000;0.981245
9802.000000;0.980669
9801.000000;0.980705
9800.000000;0.980814
9799.000000;0.980543
9798.000000;0.979850
9797.000000;0.978929
9796.000000;0.977934
9795.000000;0.977064
9794.000000;0.976691
9793.000000;0.977070
9792.000000;0.977947
9791.000000;0.978718
9790.000000;0.979014
9789.000000;0.978965
9788.000000;0.978806
9787.000000;0.978490
9786.000000;0.977884
9785.000000;0.977100
9784.000000;0.976347
9783.000000;0.975581
9782.000000;0.974615
9781.000000;0.973468
9780.000000;0.972295
9779.000000;0.971002
9778.000000;0.969326
9777.000000;0.967459
9776.000000;0.966241
9775.000000;0.966431
9774.000000;0.967899
9773.000000;0.969754
9772.000000;0.971151
9771.000000;0.971713
9770.000000;0.971313
9769.000000;0.969966
9768.000000;0.968123
9767.000000;0.966700
9766.000000;0.966383
9765.000000;0.966932
9764.000000;0.967436
9763.000000;0.967319
9762.000000;0.966914
9761.000000;0.966915
9760.000000;0.967460
9759.000000;0.967968
9758.000000;0.967837
9757.000000;0.967030
9756.000000;0.965903
9755.000000;0.964720
9754.000000;0.963564
9753.000000;0.962591
9752.000000;0.962065
9751.000000;0.962100
9750.000000;0.962535
9749.000000;0.963110
9748.000000;0.963557
9747.000000;0.963561
9746.000000;0.962940
9745.000000;0.961982
9744.000000;0.961291
9743.000000;0.961136
9742.000000;0.961223
9741.000000;0.961294
9740.000000;0.961553
9739.000000;0.962105
9738.000000;0.962359
9737.000000;0.961606
9736.000000;0.960058
9735.000000;0.958682
9734.000000;0.957998
9733.000000;0.957725
9732.000000;0.957634
9731.000000;0.957992
9730.000000;0.958796
9729.000000;0.959246
9728.000000;0.958604
9727.000000;0.957237
9726.000000;0.956235
9725.000000;0.956210
9724.000000;0.956897
9723.000000;0.957627
9722.000000;0.957720
9721.000000;0.956698
9720.000000;0.954697
9719.000000;0.952648
9718.000000;0.951528
9717.000000;0.951438
9716.000000;0.951795
9715.000000;0.952225
9714.000000;0.952713
9713.000000;0.953023
9712.000000;0.952781
9711.000000;0.952246
9710.000000;0.952202
9709.000000;0.952772
9708.000000;0.953045
9707.000000;0.952363
9706.000000;0.951355
9705.000000;0.951104
9704.000000;0.951710
9703.000000;0.952333
9702.000000;0.952389
9701.000000;0.951985
9700.000000;0.951292
9699.000000;0.950275
9698.000000;0.949132
9697.000000;0.948368
9696.000000;0.948183
9695.000000;0.948220
9694.000000;0.948102
9693.000000;0.947865
9692.000000;0.947660
9691.000000;0.947356
9690.000000;0.946705
9689.000000;0.945684
9688.000000;0.944509
9687.000000;0.943522
9686.000000;0.943199
9685.000000;0.943961
9684.000000;0.945639
9683.000000;0.947315
9682.000000;0.948036
9681.000000;0.947651
9680.000000;0.946728
9679.000000;0.945814
9678.000000;0.945106
9677.000000;0.944705
9676.000000;0.944718
9675.000000;0.944969
9674.000000;0.944996
9673.000000;0.944611
9672.000000;0.944223
9671.000000;0.944302
9670.000000;0.944647
9669.000000;0.944536
9668.000000;0.943588
9667.000000;0.942223
9666.000000;0.941169
9665.000000;0.940754
9664.000000;0.940733
9663.000000;0.940600
9662.000000;0.939946
9661.000000;0.938757
9660.000000;0.937537
9659.000000;0.936956
9658.000000;0.937162
9657.000000;0.937591
9656.000000;0.937678
9655.000000;0.937602
9654.000000;0.937990
9653.000000;0.938994
9652.000000;0.940040
9651.000000;0.940504
9650.000000;0.940225
9649.000000;0.939318
9648.000000;0.937953
9647.000000;0.936520
9646.000000;0.935573
9645.000000;0.935277
9644.000000;0.935179
9643.000000;0.934804
9642.000000;0.934190
9641.000000;0.933522
9640.000000;0.932601
9639.000000;0.931216
9638.000000;0.929904
9637.000000;0.929662
9636.000000;0.930780
9635.000000;0.932368
9634.000000;0.933226
9633.000000;0.932902
9632.000000;0.931804
9631.000000;0.930609
9630.000000;0.929847
9629.000000;0.929773
9628.000000;0.930295
9627.000000;0.931023
9626.000000;0.931523
9625.000000;0.931489
9624.000000;0.930756
9623.000000;0.929418
9622.000000;0.928032
9621.000000;0.927348
9620.000000;0.927603
9619.000000;0.928212
9618.000000;0.928410
9617.000000;0.928043
9616.000000;0.927515
9615.000000;0.927096
9614.000000;0.926592
9613.000000;0.925696
9612.000000;0.924451
9611.000000;0.923278
9610.000000;0.922685
9609.000000;0.922910
9608.000000;0.923708
9607.000000;0.924469
9606.000000;0.924689
9605.000000;0.924382
9604.000000;0.923975
9603.000000;0.923796
9602.000000;0.923755
9601.000000;0.923491
9600.000000;0.922824
9599.000000;0.922042
9598.000000;0.921758
9597.000000;0.922362
9596.000000;0.923588
9595.000000;0.924683
9594.000000;0.925051
9593.000000;0.924677
9592.000000;0.923915
9591.000000;0.923041
9590.000000;0.922172
9589.000000;0.921479
9588.000000;0.921177
9587.000000;0.921247
9586.000000;0.921368
9585.000000;0.921213
9584.000000;0.920716
9583.000000;0.919963
9582.000000;0.918935
9581.000000;0.917568
9580.000000;0.916079
9579.000000;0.915054
9578.000000;0.914994
9577.000000;0.915709
9576.000000;0.916355
9575.000000;0.916266
9574.000000;0.915751
9573.000000;0.915794
9572.000000;0.916906
9571.000000;0.918443
9570.000000;0.919202
9569.000000;0.918573
9568.000000;0.916936
9567.000000;0.915024
9566.000000;0.913214
9565.000000;0.911553
9564.000000;0.910263
9563.000000;0.909855
9562.000000;0.910567
9561.000000;0.911789
9560.000000;0.912357
9559.000000;0.911647
9558.000000;0.910296
9557.000000;0.909590
9556.000000;0.910144
9555.000000;0.911414
9554.000000;0.912450
9553.000000;0.912822
9552.000000;0.912714
9551.000000;0.912482
9550.000000;0.912421
9549.000000;0.912717
9548.000000;0.913227
9547.000000;0.913396
9546.000000;0.912730
9545.000000;0.911312
9544.000000;0.909609
9543.000000;0.907891
9542.000000;0.906178
9541.000000;0.904691
9540.000000;0.903885
9539.000000;0.903908
9538.000000;0.904333
9537.000000;0.904618
9536.000000;0.904638
9535.000000;0.904619
9534.000000;0.904746
9533.000000;0.905020
9532.000000;0.905319
9531.000000;0.905420
9530.000000;0.905050
9529.000000;0.904126
9528.000000;0.902927
9527.000000;0.901937
9526.000000;0.901540
9525.000000;0.901858
9524.000000;0.902705
9523.000000;0.903555
9522.000000;0.903737
9521.000000;0.902913
9520.000000;0.901432
9519.000000;0.900150
9518.000000;0.899800
9517.000000;0.900477
9516.000000;0.901603
9515.000000;0.902382
9514.000000;0.902407
9513.000000;0.901941
9512.000000;0.901548
9511.000000;0.901483
9510.000000;0.901580
9509.000000;0.901654
9508.000000;0.901725
9507.000000;0.901689
9506.000000;0.901120
9505.000000;0.899759
9504.000000;0.898097
9503.000000;0.897032
9502.000000;0.896936
9501.000000;0.897345
9500.000000;0.897612
9499.000000;0.897553
9498.000000;0.897295
9497.000000;0.896824
9496.000000;0.896028
9495.000000;0.895101
9494.000000;0.894504
9493.000000;0.894421
9492.000000;0.894485
9491.000000;0.894251
9490.000000;0.893802
9489.000000;0.893650
9488.000000;0.894027
9487.000000;0.894493
9486.000000;0.894389
9485.000000;0.893582
9484.000000;0.892632
9483.000000;0.892220
9482.000000;0.892520
9481.000000;0.893105
9480.000000;0.893378
9479.000000;0.893098
9478.000000;0.892592
9477.000000;0.892461
9476.000000;0.892974
9475.000000;0.893712
9474.000000;0.893909
9473.000000;0.893199
9472.000000;0.891931
9471.000000;0.890728
9470.000000;0.889890
9469.000000;0.889321
9468.000000;0.888884
9467.000000;0.888643
9466.000000;0.888751
9465.000000;0.889156
9464.000000;0.889460
9463.000000;0.889178
9462.000000;0.888251
9461.000000;0.887251
9460.000000;0.886882
9459.000000;0.887238
9458.000000;0.887684
9457.000000;0.887551
9456.000000;0.886801
9455.000000;0.885927
9454.000000;0.885425
9453.000000;0.885475
9452.000000;0.885929
9451.000000;0.886389
9450.000000;0.886420
9449.000000;0.885954
9448.000000;0.885414
9447.000000;0.885239
9446.000000;0.885328
9445.000000;0.885194
9444.000000;0.884640
9443.000000;0.883976
9442.000000;0.883535
9441.000000;0.883283
9440.000000;0.883065
9439.000000;0.882994
9438.000000;0.883360
9437.000000;0.884228
9436.000000;0.885281
9435.000000;0.886039
9434.000000;0.886174
9433.000000;0.885658
9432.000000;0.884714
9431.000000;0.883597
9430.000000;0.882406
9429.000000;0.881139
9428.000000;0.879943
9427.000000;0.879215
9426.000000;0.879344
9425.000000;0.880336
9424.000000;0.881672
9423.000000;0.882559
9422.000000;0.882475
9421.000000;0.881608
9420.000000;0.880733
9419.000000;0.880518
9418.000000;0.880958
9417.000000;0.881576
9416.000000;0.882059
9415.000000;0.882400
9414.000000;0.882476
9413.000000;0.881903
9412.000000;0.880522
9411.000000;0.878734
9410.000000;0.877102
9409.000000;0.875813
9408.000000;0.874803
9407.000000;0.874166
9406.000000;0.874076
9405.000000;0.874349
9404.000000;0.874484
9403.000000;0.874236
9402.000000;0.873881
9401.000000;0.873808
9400.000000;0.874069
9399.000000;0.874452
9398.000000;0.874779
9397.000000;0.874927
9396.000000;0.874699
9395.000000;0.873926
9394.000000;0.872764
9393.000000;0.871780
9392.000000;0.871601
9391.000000;0.872430
9390.000000;0.873867
9389.000000;0.875212
9388.000000;0.875987
9387.000000;0.876167
9386.000000;0.875995
9385.000000;0.875690
9384.000000;0.875357
9383.000000;0.874988
9382.000000;0.874408
9381.000000;0.873371
9380.000000;0.871920
9379.000000;0.870594
9378.000000;0.870061
9377.000000;0.870526
9376.000000;0.871651
9375.000000;0.872939
9374.000000;0.873962
9373.000000;0.874272
9372.000000;0.873561
9371.000000;0.872078
9370.000000;0.870615
9369.000000;0.869832
9368.000000;0.869723
9367.000000;0.869864
9366.000000;0.869981
9365.000000;0.870084
9364.000000;0.870206
9363.000000;0.870310
9362.000000;0.870369
9361.000000;0.870329
9360.000000;0.870052
9359.000000;0.869550
9358.000000;0.869157
9357.000000;0.869202
9356.000000;0.869541
9355.000000;0.869721
9354.000000;0.869595
9353.000000;0.869446
9352.000000;0.869431
9351.000000;0.869255
9350.000000;0.868580
9349.000000;0.867464
9348.000000;0.866180
9347.000000;0.864854
9346.000000;0.863613
9345.000000;0.862837
9344.000000;0.862800
9343.000000;0.863147
9342.000000;0.863180
9341.000000;0.862773
9340.000000;0.862612
9339.000000;0.863321
9338.000000;0.864660
9337.000000;0.865848
9336.000000;0.866443
9335.000000;0.866532
9334.000000;0.866252
9333.000000;0.865626
9332.000000;0.864877
9331.000000;0.864402
9330.000000;0.864252
9329.000000;0.863981
9328.000000;0.863244
9327.000000;0.862270
9326.000000;0.861457
9325.000000;0.860767
9324.000000;0.859967
9323.000000;0.859301
9322.000000;0.859397
9321.000000;0.860410
9320.000000;0.861721
9319.000000;0.862634
9318.000000;0.863014
9317.000000;0.863000
9316.000000;0.862490
9315.000000;0.861349
9314.000000;0.859957
9313.000000;0.859023
9312.000000;0.858809
9311.000000;0.858859
9310.000000;0.858622
9309.000000;0.858078
9308.000000;0.857616
9307.000000;0.857529
9306.000000;0.857771
9305.000000;0.858092
9304.000000;0.858279
9303.000000;0.858326
9302.000000;0.858456
9301.000000;0.858881
9300.000000;0.859482
9299.000000;0.859823
9298.000000;0.859593
9297.000000;0.858898
9296.000000;0.858051
9295.000000;0.857213
9294.000000;0.856408
9293.000000;0.855747
9292.000000;0.855403
9291.000000;0.855345
9290.000000;0.855307
9289.000000;0.855131
9288.000000;0.855023
9287.000000;0.855322
9286.000000;0.856052
9285.000000;0.856799
9284.000000;0.857098
9283.000000;0.856882
9282.000000;0.856534
9281.000000;0.856466
9280.000000;0.856696
9279.000000;0.856807
9278.000000;0.856341
9277.000000;0.855277
9276.000000;0.854147
9275.000000;0.853642
9274.000000;0.853960
9273.000000;0.854506
9272.000000;0.854349
9271.000000;0.853155
9270.000000;0.851629
9269.000000;0.850873
9268.000000;0.851313
9267.000000;0.852351
9266.000000;0.853019
9265.000000;0.852839
9264.000000;0.852034
9263.000000;0.851154
9262.000000;0.850683
9261.000000;0.850818
9260.000000;0.851320
9259.000000;0.851598
9258.000000;0.851162
9257.000000;0.850071
9256.000000;0.848876
9255.000000;0.848124
9254.000000;0.847979
9253.000000;0.848257
9252.000000;0.848691
9251.000000;0.849083
9250.000000;0.849377
9249.000000;0.849692
9248.000000;0.850152
9247.000000;0.850550
9246.000000;0.850303
9245.000000;0.849000
9244.000000;0.847072
9243.000000;0.845681
9242.000000;0.845764
9241.000000;0.847208
9240.000000;0.849026
9239.000000;0.850271
9238.000000;0.850672
9237.000000;0.850417
9236.000000;0.849651
9235.000000;0.848438
9234.000000;0.847086
9233.000000;0.846112
9232.000000;0.845787
9231.000000;0.845899
9230.000000;0.846086
9229.000000;0.846213
9228.000000;0.846318
9227.000000;0.846377
9226.000000;0.846354
9225.000000;0.846359
9224.000000;0.846509
9223.000000;0.846676
9222.000000;0.846596
9221.000000;0.846202
9220.000000;0.845619
9219.000000;0.844851
9218.000000;0.843811
9217.000000;0.842735
9216.000000;0.842220
9215.000000;0.842589
9214.000000;0.843456
9213.000000;0.844171
9212.000000;0.844564
9211.000000;0.844895
9210.000000;0.845167
9209.000000;0.844916
9208.000000;0.843859
9207.000000;0.842471
9206.000000;0.841651
9205.000000;0.841862
9204.000000;0.842734
9203.000000;0.843483
9202.000000;0.843625
9201.000000;0.843282
9200.000000;0.842883
9199.000000;0.842632
9198.000000;0.842362
9197.000000;0.841893
9196.000000;0.841352
9195.000000;0.841013
9194.000000;0.840933
9193.000000;0.841008
9192.000000;0.841266
9191.000000;0.841793
9190.000000;0.842294
9189.000000;0.842138
9188.000000;0.841123
9187.000000;0.839946
9186.000000;0.839533
9185.000000;0.840035
9184.000000;0.840798
9183.000000;0.841245
9182.000000;0.841362
9181.000000;0.841300
9180.000000;0.840978
9179.000000;0.840364
9178.000000;0.839780
9177.000000;0.839518
9176.000000;0.839332
9175.000000;0.838757
9174.000000;0.837899
9173.000000;0.837469
9172.000000;0.837890
9171.000000;0.838670
9170.000000;0.838900
9169.000000;0.838210
9168.000000;0.837019
9167.000000;0.835978
9166.000000;0.835419
9165.000000;0.835335
9164.000000;0.835608
9163.000000;0.836102
9162.000000;0.836641
9161.000000;0.837029
9160.000000;0.837136
9159.000000;0.836951
9158.000000;0.836609
9157.000000;0.836379
9156.000000;0.836521
9155.000000;0.837035
9154.000000;0.837590
9153.000000;0.837785
9152.000000;0.837499
9151.000000;0.836931
9150.000000;0.836356
9149.000000;0.835958
9148.000000;0.835866
9147.000000;0.836101
9146.000000;0.836406
9145.000000;0.836323
9144.000000;0.835632
9143.000000;0.834623
9142.000000;0.833774
9141.000000;0.833277
9140.000000;0.833046
9139.000000;0.833062
9138.000000;0.833391
9137.000000;0.833890
9136.000000;0.834220
9135.000000;0.834255
9134.000000;0.834241
9133.000000;0.834380
9132.000000;0.834475
9131.000000;0.834189
9130.000000;0.833501
9129.000000;0.832711
9128.000000;0.832089
9127.000000;0.831736
9126.000000;0.831703
9125.000000;0.832016
9124.000000;0.832613
9123.000000;0.833375
9122.000000;0.834196
9121.000000;0.834851
9120.000000;0.834927
9119.000000;0.834168
9118.000000;0.832917
9117.000000;0.831937
9116.000000;0.831706
9115.000000;0.832009
9114.000000;0.832279
9113.000000;0.832166
9112.000000;0.831739
9111.000000;0.831281
9110.000000;0.831022
9109.000000;0.830976
9108.000000;0.830944
9107.000000;0.830718
9106.000000;0.830267
9105.000000;0.829688
9104.000000;0.829062
9103.000000;0.828509
9102.000000;0.828276
9101.000000;0.828488
9100.000000;0.828847
9099.000000;0.828897
9098.000000;0.828648
9097.000000;0.828613
9096.000000;0.829104
9095.000000;0.829803
9094.000000;0.830237
9093.000000;0.830359
9092.000000;0.830339
9091.000000;0.830059
9090.000000;0.829262
9089.000000;0.828113
9088.000000;0.827220
9087.000000;0.827052
9086.000000;0.827559
9085.000000;0.828347
9084.000000;0.828958
9083.000000;0.829056
9082.000000;0.828637
9081.000000;0.828067
9080.000000;0.827700
9079.000000;0.827474
9078.000000;0.827150
9077.000000;0.826837
9076.000000;0.826902
9075.000000;0.827343
9074.000000;0.827689
9073.000000;0.827649
9072.000000;0.827455
9071.000000;0.827364
9070.000000;0.827196
9069.000000;0.826680
9068.000000;0.825992
9067.000000;0.825579
9066.000000;0.825605
9065.000000;0.825918
9064.000000;0.826415
9063.000000;0.827082
9062.000000;0.827678
9061.000000;0.827759
9060.000000;0.827163
9059.000000;0.826274
9058.000000;0.825678
9057.000000;0.825621
9056.000000;0.825804
9055.000000;0.825641
9054.000000;0.824772
9053.000000;0.823461
