Criado como novo conjunto de dados;"e0108.spp","-4221881.2 Secs"
cm-1;Abs
10000.000000;2.054421
9999.000000;2.055712
9998.000000;2.056767
9997.000000;2.058341
9996.000000;2.057263
9995.000000;2.052383
9994.000000;2.045414
9993.000000;2.037712
9992.000000;2.032852
9991.000000;2.033308
9990.000000;2.037626
9989.000000;2.040242
9988.000000;2.036825
9987.000000;2.030138
9986.000000;2.027373
9985.000000;2.030964
9984.000000;2.034488
9983.000000;2.030846
9982.000000;2.022965
9981.000000;2.020337
9980.000000;2.027414
9979.000000;2.040201
9978.000000;2.052577
9977.000000;2.062718
9976.000000;2.071719
9975.000000;2.077344
9974.000000;2.074444
9973.000000;2.063215
9972.000000;2.050437
9971.000000;2.041502
9970.000000;2.036786
9969.000000;2.034193
9968.000000;2.032189
9967.000000;2.031092
9966.000000;2.031204
9965.000000;2.031650
9964.000000;2.032270
9963.000000;2.034254
9962.000000;2.037959
9961.000000;2.041955
9960.000000;2.044890
9959.000000;2.046689
9958.000000;2.047383
9957.000000;2.046280
9956.000000;2.043764
9955.000000;2.042038
9954.000000;2.042002
9953.000000;2.040630
9952.000000;2.033584
9951.000000;2.021283
9950.000000;2.010475
9949.000000;2.008454
9948.000000;2.016838
9947.000000;2.030309
9946.000000;2.039895
9945.000000;2.038614
9944.000000;2.026139
9943.000000;2.008967
9942.000000;1.996254
9941.000000;1.994291
9940.000000;2.003097
9939.000000;2.017468
9938.000000;2.031182
9937.000000;2.040136
9936.000000;2.042494
9935.000000;2.037797
9934.000000;2.027459
9933.000000;2.016071
9932.000000;2.009919
9931.000000;2.012406
9930.000000;2.021315
9929.000000;2.030965
9928.000000;2.036679
9927.000000;2.036676
9926.000000;2.030383
9925.000000;2.018037
9924.000000;2.003131
9923.000000;1.991843
9922.000000;1.988165
9921.000000;1.990605
9920.000000;1.994441
9919.000000;1.997076
9918.000000;1.999716
9917.000000;2.003582
9916.000000;2.006705
9915.000000;2.005633
9914.000000;1.999556
9913.000000;1.991803
9912.000000;1.987518
9911.000000;1.989886
9910.000000;1.997790
9909.000000;2.006615
9908.000000;2.011589
9907.000000;2.011578
9906.000000;2.008789
9905.000000;2.005073
9904.000000;2.001726
9903.000000;2.001414
9902.000000;2.005830
9901.000000;2.011558
9900.000000;2.012426
9899.000000;2.007264
9898.000000;2.000983
9897.000000;1.997669
9896.000000;1.996597
9895.000000;1.994821
9894.000000;1.991492
9893.000000;1.987940
9892.000000;1.984055
9891.000000;1.978069
9890.000000;1.971115
9889.000000;1.968484
9888.000000;1.974098
9887.000000;1.985630
9886.000000;1.996906
9885.000000;2.004462
9884.000000;2.009146
9883.000000;2.011577
9882.000000;2.009951
9881.000000;2.003211
9880.000000;1.993484
9879.000000;1.984383
9878.000000;1.979093
9877.000000;1.980248
9876.000000;1.988586
9875.000000;1.999921
9874.000000;2.005638
9873.000000;2.000228
9872.000000;1.987663
9871.000000;1.976810
9870.000000;1.973149
9869.000000;1.976224
9868.000000;1.982606
9867.000000;1.990369
9866.000000;1.999659
9865.000000;2.009897
9864.000000;2.018788
9863.000000;2.023346
9862.000000;2.021470
9861.000000;2.013695
9860.000000;2.003182
9859.000000;1.993189
9858.000000;1.984779
9857.000000;1.977409
9856.000000;1.971440
9855.000000;1.969231
9854.000000;1.973012
9853.000000;1.981918
9852.000000;1.991669
9851.000000;1.997174
9850.000000;1.995709
9849.000000;1.988419
9848.000000;1.978959
9847.000000;1.970771
9846.000000;1.965635
9845.000000;1.963207
9844.000000;1.960969
9843.000000;1.955857
9842.000000;1.947488
9841.000000;1.939670
9840.000000;1.937452
9839.000000;1.942499
9838.000000;1.951615
9837.000000;1.959415
9836.000000;1.962223
9835.000000;1.959739
9834.000000;1.954688
9833.000000;1.952000
9832.000000;1.956646
9831.000000;1.969744
9830.000000;1.986232
9829.000000;1.998119
9828.000000;2.001320
9827.000000;1.998303
9826.000000;1.993681
9825.000000;1.989018
9824.000000;1.983184
9823.000000;1.975973
9822.000000;1.967978
9821.000000;1.959715
9820.000000;1.953384
9819.000000;1.951575
9818.000000;1.954253
9817.000000;1.959107
9816.000000;1.964131
9815.000000;1.968941
9814.000000;1.973799
9813.000000;1.978250
9812.000000;1.980872
9811.000000;1.980189
9810.000000;1.976282
9809.000000;1.972027
9808.000000;1.971629
9807.000000;1.976329
9806.000000;1.981980
9805.000000;1.982982
9804.000000;1.978868
9803.000000;1.974108
9802.000000;1.971666
9801.000000;1.969949
9800.000000;1.966301
9799.000000;1.961095
9798.000000;1.956831
9797.000000;1.954707
9796.000000;1.953901
9795.000000;1.953618
9794.000000;1.954287
9793.000000;1.956768
9792.000000;1.961146
9791.000000;1.966050
9790.000000;1.969150
9789.000000;1.968955
9788.000000;1.966344
9787.000000;1.963682
9786.000000;1.962095
9785.000000;1.960851
9784.000000;1.959777
9783.000000;1.960473
9782.000000;1.964236
9781.000000;1.969990
9780.000000;1.974318
9779.000000;1.973116
9778.000000;1.964626
9777.000000;1.951848
9776.000000;1.941611
9775.000000;1.939914
9774.000000;1.947431
9773.000000;1.959374
9772.000000;1.969360
9771.000000;1.973030
9770.000000;1.968546
9769.000000;1.957361
9768.000000;1.945853
9767.000000;1.942174
9766.000000;1.949837
9765.000000;1.964754
9764.000000;1.978181
9763.000000;1.982854
9762.000000;1.976296
9761.000000;1.960894
9760.000000;1.943940
9759.000000;1.934310
9758.000000;1.936184
9757.000000;1.946164
9756.000000;1.956753
9755.000000;1.963216
9754.000000;1.965784
9753.000000;1.965842
9752.000000;1.963176
9751.000000;1.957454
9750.000000;1.951495
9749.000000;1.950180
9748.000000;1.955253
9747.000000;1.962557
9746.000000;1.964567
9745.000000;1.957909
9744.000000;1.947831
9743.000000;1.942221
9742.000000;1.942758
9741.000000;1.943605
9740.000000;1.939054
9739.000000;1.930879
9738.000000;1.925530
9737.000000;1.926259
9736.000000;1.930794
9735.000000;1.935348
9734.000000;1.938732
9733.000000;1.942274
9732.000000;1.947037
9731.000000;1.951893
9730.000000;1.954361
9729.000000;1.953002
9728.000000;1.948926
9727.000000;1.945151
9726.000000;1.944076
9725.000000;1.945836
9724.000000;1.948862
9723.000000;1.950711
9722.000000;1.948436
9721.000000;1.940616
9720.000000;1.930556
9719.000000;1.925113
9718.000000;1.928004
9717.000000;1.935157
9716.000000;1.938789
9715.000000;1.936829
9714.000000;1.934936
9713.000000;1.938210
9712.000000;1.945527
9711.000000;1.952666
9710.000000;1.957415
9709.000000;1.960038
9708.000000;1.959676
9707.000000;1.953045
9706.000000;1.938743
9705.000000;1.921537
9704.000000;1.909889
9703.000000;1.909289
9702.000000;1.918644
9701.000000;1.931664
9700.000000;1.941191
9699.000000;1.943656
9698.000000;1.940856
9697.000000;1.938034
9696.000000;1.939615
9695.000000;1.945473
9694.000000;1.950878
9693.000000;1.951601
9692.000000;1.948961
9691.000000;1.947130
9690.000000;1.946411
9689.000000;1.943279
9688.000000;1.937713
9687.000000;1.935648
9686.000000;1.940995
9685.000000;1.948610
9684.000000;1.948991
9683.000000;1.939740
9682.000000;1.927396
9681.000000;1.918325
9680.000000;1.913940
9679.000000;1.913494
9678.000000;1.916227
9677.000000;1.920576
9676.000000;1.924747
9675.000000;1.928757
9674.000000;1.933499
9673.000000;1.937553
9672.000000;1.937891
9671.000000;1.933670
9670.000000;1.927369
9669.000000;1.922556
9668.000000;1.921293
9667.000000;1.923572
9666.000000;1.927275
9665.000000;1.928022
9664.000000;1.922783
9663.000000;1.915001
9662.000000;1.912192
9661.000000;1.917403
9660.000000;1.925318
9659.000000;1.927637
9658.000000;1.921649
9657.000000;1.911740
9656.000000;1.903689
9655.000000;1.900074
9654.000000;1.899879
9653.000000;1.900674
9652.000000;1.901638
9651.000000;1.904731
9650.000000;1.911777
9649.000000;1.920005
9648.000000;1.923047
9647.000000;1.919017
9646.000000;1.914074
9645.000000;1.914723
9644.000000;1.920313
9643.000000;1.925511
9642.000000;1.927896
9641.000000;1.929331
9640.000000;1.930424
9639.000000;1.928397
9638.000000;1.921841
9637.000000;1.914006
9636.000000;1.909205
9635.000000;1.908303
9634.000000;1.909029
9633.000000;1.909134
9632.000000;1.907945
9631.000000;1.905798
9630.000000;1.903467
9629.000000;1.901939
9628.000000;1.901866
9627.000000;1.903476
9626.000000;1.907259
9625.000000;1.913658
9624.000000;1.921103
9623.000000;1.925243
9622.000000;1.922469
9621.000000;1.914786
9620.000000;1.908545
9619.000000;1.908113
9618.000000;1.912492
9617.000000;1.917040
9616.000000;1.918048
9615.000000;1.915649
9614.000000;1.911809
9613.000000;1.907622
9612.000000;1.903669
9611.000000;1.900705
9610.000000;1.898890
9609.000000;1.897570
9608.000000;1.896807
9607.000000;1.898250
9606.000000;1.902945
9605.000000;1.908715
9604.000000;1.911488
9603.000000;1.909572
9602.000000;1.904879
9601.000000;1.899827
9600.000000;1.895187
9599.000000;1.891437
9598.000000;1.890475
9597.000000;1.894182
9596.000000;1.901782
9595.000000;1.909801
9594.000000;1.914475
9593.000000;1.914227
9592.000000;1.910412
9591.000000;1.906039
9590.000000;1.903538
9589.000000;1.903342
9588.000000;1.904330
9587.000000;1.905731
9586.000000;1.908348
9585.000000;1.912981
9584.000000;1.917798
9583.000000;1.918755
9582.000000;1.913653
9581.000000;1.905058
9580.000000;1.897822
9579.000000;1.893946
9578.000000;1.891086
9577.000000;1.886153
9576.000000;1.879553
9575.000000;1.875109
9574.000000;1.875841
9573.000000;1.880414
9572.000000;1.884068
9571.000000;1.883140
9570.000000;1.878365
9569.000000;1.873689
9568.000000;1.872785
9567.000000;1.876452
9566.000000;1.881986
9565.000000;1.884877
9564.000000;1.882724
9563.000000;1.877559
9562.000000;1.872696
9561.000000;1.868950
9560.000000;1.865589
9559.000000;1.863288
9558.000000;1.864178
9557.000000;1.868735
9556.000000;1.874411
9555.000000;1.878452
9554.000000;1.881151
9553.000000;1.884791
9552.000000;1.889487
9551.000000;1.892388
9550.000000;1.891117
9549.000000;1.886467
9548.000000;1.881583
9547.000000;1.879315
9546.000000;1.880785
9545.000000;1.885185
9544.000000;1.889727
9543.000000;1.890727
9542.000000;1.886554
9541.000000;1.879887
9540.000000;1.875876
9539.000000;1.877366
9538.000000;1.881867
9537.000000;1.883461
9536.000000;1.878345
9535.000000;1.868928
9534.000000;1.861809
9533.000000;1.861715
9532.000000;1.868258
9531.000000;1.877527
9530.000000;1.885353
9529.000000;1.889423
9528.000000;1.889534
9527.000000;1.887176
9526.000000;1.885304
9525.000000;1.887184
9524.000000;1.893638
9523.000000;1.901061
9522.000000;1.903660
9521.000000;1.899686
9520.000000;1.894112
9519.000000;1.892120
9518.000000;1.892387
9517.000000;1.889675
9516.000000;1.882875
9515.000000;1.877532
9514.000000;1.879093
9513.000000;1.885756
9512.000000;1.889903
9511.000000;1.886602
9510.000000;1.877955
9509.000000;1.868093
9508.000000;1.858499
9507.000000;1.849584
9506.000000;1.843512
9505.000000;1.844113
9504.000000;1.854014
9503.000000;1.870906
9502.000000;1.886476
9501.000000;1.891336
9500.000000;1.883741
9499.000000;1.871695
9498.000000;1.864600
9497.000000;1.865103
9496.000000;1.869211
9495.000000;1.872408
9494.000000;1.873886
9493.000000;1.874752
9492.000000;1.875299
9491.000000;1.875725
9490.000000;1.876870
9489.000000;1.878452
9488.000000;1.878451
9487.000000;1.875713
9486.000000;1.871947
9485.000000;1.869651
9484.000000;1.869043
9483.000000;1.868472
9482.000000;1.867012
9481.000000;1.864951
9480.000000;1.862137
9479.000000;1.857995
9478.000000;1.853825
9477.000000;1.853235
9476.000000;1.858801
9475.000000;1.868737
9474.000000;1.877096
9473.000000;1.877979
9472.000000;1.870911
9471.000000;1.861096
9470.000000;1.853976
9469.000000;1.851276
9468.000000;1.852203
9467.000000;1.856263
9466.000000;1.862885
9465.000000;1.868970
9464.000000;1.869968
9463.000000;1.864941
9462.000000;1.858065
9461.000000;1.853570
9460.000000;1.851765
9459.000000;1.851378
9458.000000;1.852993
9457.000000;1.857507
9456.000000;1.862975
9455.000000;1.866129
9454.000000;1.866808
9453.000000;1.868004
9452.000000;1.870940
9451.000000;1.872528
9450.000000;1.869254
9449.000000;1.862451
9448.000000;1.857405
9447.000000;1.857519
9446.000000;1.860785
9445.000000;1.862359
9444.000000;1.860582
9443.000000;1.858683
9442.000000;1.859628
9441.000000;1.861998
9440.000000;1.862252
9439.000000;1.859392
9438.000000;1.855510
9437.000000;1.852299
9436.000000;1.849783
9435.000000;1.848318
9434.000000;1.848771
9433.000000;1.850188
9432.000000;1.850219
9431.000000;1.849113
9430.000000;1.850316
9429.000000;1.855773
9428.000000;1.863292
9427.000000;1.869575
9426.000000;1.873741
9425.000000;1.875726
9424.000000;1.874022
9423.000000;1.868375
9422.000000;1.861913
9421.000000;1.857658
9420.000000;1.854308
9419.000000;1.848618
9418.000000;1.841768
9417.000000;1.838743
9416.000000;1.841353
9415.000000;1.845698
9414.000000;1.847032
9413.000000;1.844920
9412.000000;1.842398
9411.000000;1.842126
9410.000000;1.844417
9409.000000;1.847201
9408.000000;1.847364
9407.000000;1.843901
9406.000000;1.840206
9405.000000;1.841004
9404.000000;1.846359
9403.000000;1.850971
9402.000000;1.850571
9401.000000;1.846809
9400.000000;1.844225
9399.000000;1.844681
9398.000000;1.846511
9397.000000;1.847422
9396.000000;1.846284
9395.000000;1.842759
9394.000000;1.837184
9393.000000;1.831118
9392.000000;1.826893
9391.000000;1.826205
9390.000000;1.829103
9389.000000;1.834493
9388.000000;1.841542
9387.000000;1.849696
9386.000000;1.857235
9385.000000;1.860550
9384.000000;1.856059
9383.000000;1.844744
9382.000000;1.833576
9381.000000;1.829650
9380.000000;1.833515
9379.000000;1.839581
9378.000000;1.843043
9377.000000;1.844550
9376.000000;1.846761
9375.000000;1.849403
9374.000000;1.850466
9373.000000;1.849679
9372.000000;1.847738
9371.000000;1.843984
9370.000000;1.837980
9369.000000;1.832478
9368.000000;1.831482
9367.000000;1.835304
9366.000000;1.839815
9365.000000;1.841352
9364.000000;1.840657
9363.000000;1.840511
9362.000000;1.841313
9361.000000;1.840836
9360.000000;1.837521
9359.000000;1.832578
9358.000000;1.828832
9357.000000;1.828434
9356.000000;1.831479
9355.000000;1.835872
9354.000000;1.838750
9353.000000;1.839070
9352.000000;1.838836
9351.000000;1.840938
9350.000000;1.845508
9349.000000;1.848811
9348.000000;1.846762
9347.000000;1.840430
9346.000000;1.836009
9345.000000;1.837726
9344.000000;1.842691
9343.000000;1.844117
9342.000000;1.839285
9341.000000;1.832266
9340.000000;1.828309
9339.000000;1.828517
9338.000000;1.830876
9337.000000;1.833751
9336.000000;1.836267
9335.000000;1.836945
9334.000000;1.834836
9333.000000;1.831651
9332.000000;1.830440
9331.000000;1.832028
9330.000000;1.834386
9329.000000;1.835596
9328.000000;1.835953
9327.000000;1.836473
9326.000000;1.836856
9325.000000;1.836493
9324.000000;1.835897
9323.000000;1.835689
9322.000000;1.835305
9321.000000;1.833871
9320.000000;1.832201
9319.000000;1.832750
9318.000000;1.837224
9317.000000;1.844305
9316.000000;1.849927
9315.000000;1.850053
9314.000000;1.843634
9313.000000;1.833000
9312.000000;1.821191
9311.000000;1.810439
9310.000000;1.803258
9309.000000;1.802606
9308.000000;1.809434
9307.000000;1.820357
9306.000000;1.829312
9305.000000;1.832626
9304.000000;1.831565
9303.000000;1.829424
9302.000000;1.828205
9301.000000;1.828683
9300.000000;1.831210
9299.000000;1.834699
9298.000000;1.836030
9297.000000;1.832586
9296.000000;1.825708
9295.000000;1.820135
9294.000000;1.819693
9293.000000;1.824127
9292.000000;1.829712
9291.000000;1.832531
9290.000000;1.831408
9289.000000;1.827644
9288.000000;1.822430
9287.000000;1.815905
9286.000000;1.809167
9285.000000;1.805716
9284.000000;1.808879
9283.000000;1.817368
9282.000000;1.824764
9281.000000;1.825395
9280.000000;1.820510
9279.000000;1.816391
9278.000000;1.816989
9277.000000;1.820218
9276.000000;1.821235
9275.000000;1.818504
9274.000000;1.815491
9273.000000;1.816222
9272.000000;1.820564
9271.000000;1.824552
9270.000000;1.825265
9269.000000;1.824314
9268.000000;1.825224
9267.000000;1.828117
9266.000000;1.828819
9265.000000;1.824312
9264.000000;1.817235
9263.000000;1.812742
9262.000000;1.812920
9261.000000;1.815897
9260.000000;1.818886
9259.000000;1.820472
9258.000000;1.820437
9257.000000;1.819169
9256.000000;1.817685
9255.000000;1.816896
9254.000000;1.816533
9253.000000;1.815892
9252.000000;1.815283
9251.000000;1.815480
9250.000000;1.815941
9249.000000;1.815136
9248.000000;1.813094
9247.000000;1.812057
9246.000000;1.813480
9245.000000;1.815421
9244.000000;1.814553
9243.000000;1.810790
9242.000000;1.807889
9241.000000;1.808522
9240.000000;1.810476
9239.000000;1.809232
9238.000000;1.803906
9237.000000;1.799115
9236.000000;1.800176
9235.000000;1.807077
9234.000000;1.813894
9233.000000;1.814917
9232.000000;1.810856
9231.000000;1.807257
9230.000000;1.807999
9229.000000;1.812016
9228.000000;1.815052
9227.000000;1.813765
9226.000000;1.808900
9225.000000;1.804999
9224.000000;1.806681
9223.000000;1.814398
9222.000000;1.823399
9221.000000;1.827673
9220.000000;1.825591
9219.000000;1.820560
9218.000000;1.816277
9217.000000;1.814164
9216.000000;1.815026
9215.000000;1.819332
9214.000000;1.824967
9213.000000;1.827274
9212.000000;1.823386
9211.000000;1.815372
9210.000000;1.807545
9209.000000;1.802462
9208.000000;1.800836
9207.000000;1.803067
9206.000000;1.808196
9205.000000;1.812638
9204.000000;1.813485
9203.000000;1.812499
9202.000000;1.813517
9201.000000;1.816665
9200.000000;1.818085
9199.000000;1.815900
9198.000000;1.813212
9197.000000;1.813419
9196.000000;1.815862
9195.000000;1.817927
9194.000000;1.818938
9193.000000;1.819677
9192.000000;1.819592
9191.000000;1.817290
9190.000000;1.813639
9189.000000;1.811562
9188.000000;1.812329
9187.000000;1.814151
9186.000000;1.814517
9185.000000;1.812549
9184.000000;1.808748
9183.000000;1.803865
9182.000000;1.799013
9181.000000;1.795795
9180.000000;1.795138
9179.000000;1.796373
9178.000000;1.797966
9177.000000;1.799136
9176.000000;1.800651
9175.000000;1.803664
9174.000000;1.807969
9173.000000;1.812308
9172.000000;1.815892
9171.000000;1.818554
9170.000000;1.819966
9169.000000;1.819272
9168.000000;1.815646
9167.000000;1.809575
9166.000000;1.802746
9165.000000;1.796738
9164.000000;1.793135
9163.000000;1.793752
9162.000000;1.798927
9161.000000;1.805999
9160.000000;1.810720
9159.000000;1.810932
9158.000000;1.808314
9157.000000;1.805814
9156.000000;1.804133
9155.000000;1.801525
9154.000000;1.796670
9153.000000;1.790820
9152.000000;1.786842
9151.000000;1.786681
9150.000000;1.789738
9149.000000;1.793148
9148.000000;1.794041
9147.000000;1.792204
9146.000000;1.790174
9145.000000;1.790602
9144.000000;1.793923
9143.000000;1.798407
9142.000000;1.802036
9141.000000;1.803946
9140.000000;1.804353
9139.000000;1.804193
9138.000000;1.804709
9137.000000;1.806071
9136.000000;1.806482
9135.000000;1.804072
9134.000000;1.799688
9133.000000;1.796455
9132.000000;1.796360
9131.000000;1.798376
9130.000000;1.800388
9129.000000;1.801861
9128.000000;1.803365
9127.000000;1.804360
9126.000000;1.803212
9125.000000;1.799560
9124.000000;1.795275
9123.000000;1.792338
9122.000000;1.790889
9121.000000;1.790146
9120.000000;1.790225
9119.000000;1.791953
9118.000000;1.795493
9117.000000;1.799866
9116.000000;1.803779
9115.000000;1.806695
9114.000000;1.808740
9113.000000;1.809828
9112.000000;1.809723
9111.000000;1.808828
9110.000000;1.807997
9109.000000;1.807286
9108.000000;1.805478
9107.000000;1.801571
9106.000000;1.796668
9105.000000;1.793789
9104.000000;1.795521
9103.000000;1.801566
9102.000000;1.808380
9101.000000;1.811886
9100.000000;1.810979
9099.000000;1.807776
9098.000000;1.804976
9097.000000;1.803710
9096.000000;1.803366
9095.000000;1.802982
9094.000000;1.802230
9093.000000;1.800971
9092.000000;1.799117
9091.000000;1.797385
9090.000000;1.797088
9089.000000;1.798625
9088.000000;1.800448
9087.000000;1.799736
9086.000000;1.794932
9085.000000;1.788184
9084.000000;1.784404
9083.000000;1.786857
9082.000000;1.793556
9081.000000;1.798763
9080.000000;1.798858
9079.000000;1.795893
9078.000000;1.794279
9077.000000;1.795323
9076.000000;1.796404
9075.000000;1.794705
9074.000000;1.790151
9073.000000;1.784629
9072.000000;1.779799
9071.000000;1.776454
9070.000000;1.775025
9069.000000;1.776105
9068.000000;1.780524
9067.000000;1.788283
9066.000000;1.796839
9065.000000;1.801257
9064.000000;1.798186
9063.000000;1.790031
9062.000000;1.783095
9061.000000;1.781375
9060.000000;1.783525
9059.000000;1.785501
9058.000000;1.785013
9057.000000;1.782862
9056.000000;1.780986
9055.000000;1.780878
9054.000000;1.783021
9053.000000;1.786243
