Criado como novo conjunto de dados;"e0108.spp","-4255543.4 Secs"
cm-1;Abs
10000.000000;1.053778
9999.000000;1.052279
9998.000000;1.050785
9997.000000;1.049296
9996.000000;1.047811
9995.000000;1.046335
9994.000000;1.044856
9993.000000;1.043397
9992.000000;1.041916
9991.000000;1.040489
9990.000000;1.038966
9989.000000;1.037902
9988.000000;1.037501
9987.000000;1.037219
9986.000000;1.037086
9985.000000;1.037287
9984.000000;1.037579
9983.000000;1.037312
9982.000000;1.036456
9981.000000;1.035838
9980.000000;1.036095
9979.000000;1.036891
9978.000000;1.037432
9977.000000;1.037365
9976.000000;1.036923
9975.000000;1.036522
9974.000000;1.036443
9973.000000;1.036591
9972.000000;1.036286
9971.000000;1.034679
9970.000000;1.031799
9969.000000;1.029041
9968.000000;1.028152
9967.000000;1.029660
9966.000000;1.032425
9965.000000;1.034625
9964.000000;1.035142
9963.000000;1.034217
9962.000000;1.033020
9961.000000;1.032546
9960.000000;1.032763
9959.000000;1.032807
9958.000000;1.032016
9957.000000;1.030630
9956.000000;1.029451
9955.000000;1.029055
9954.000000;1.029423
9953.000000;1.030036
9952.000000;1.030161
9951.000000;1.029273
9950.000000;1.027462
9949.000000;1.025376
9948.000000;1.023684
9947.000000;1.022741
9946.000000;1.022655
9945.000000;1.023275
9944.000000;1.024048
9943.000000;1.024461
9942.000000;1.024712
9941.000000;1.025347
9940.000000;1.026092
9939.000000;1.025874
9938.000000;1.024423
9937.000000;1.022998
9936.000000;1.022734
9935.000000;1.022951
9934.000000;1.022116
9933.000000;1.020084
9932.000000;1.018286
9931.000000;1.017845
9930.000000;1.018489
9929.000000;1.019380
9928.000000;1.020151
9927.000000;1.020790
9926.000000;1.021141
9925.000000;1.020942
9924.000000;1.020077
9923.000000;1.018679
9922.000000;1.017302
9921.000000;1.016882
9920.000000;1.017906
9919.000000;1.019590
9918.000000;1.020596
9917.000000;1.020658
9916.000000;1.020693
9915.000000;1.021220
9914.000000;1.021495
9913.000000;1.020629
9912.000000;1.018816
9911.000000;1.016895
9910.000000;1.015274
9909.000000;1.013961
9908.000000;1.013173
9907.000000;1.013165
9906.000000;1.013617
9905.000000;1.013839
9904.000000;1.013569
9903.000000;1.013077
9902.000000;1.012503
9901.000000;1.011623
9900.000000;1.010400
9899.000000;1.009306
9898.000000;1.008814
9897.000000;1.008799
9896.000000;1.008694
9895.000000;1.008203
9894.000000;1.007648
9893.000000;1.007587
9892.000000;1.008205
9891.000000;1.009118
9890.000000;1.009755
9889.000000;1.009788
9888.000000;1.009196
9887.000000;1.008152
9886.000000;1.007035
9885.000000;1.006290
9884.000000;1.005989
9883.000000;1.005695
9882.000000;1.005075
9881.000000;1.004455
9880.000000;1.004400
9879.000000;1.004933
9878.000000;1.005646
9877.000000;1.006334
9876.000000;1.006837
9875.000000;1.006416
9874.000000;1.004247
9873.000000;1.000830
9872.000000;0.997984
9871.000000;0.996973
9870.000000;0.997322
9869.000000;0.997886
9868.000000;0.998356
9867.000000;0.998974
9866.000000;0.999396
9865.000000;0.998970
9864.000000;0.998013
9863.000000;0.997796
9862.000000;0.998954
9861.000000;1.000549
9860.000000;1.001058
9859.000000;1.000029
9858.000000;0.998506
9857.000000;0.997994
9856.000000;0.999062
9855.000000;1.000708
9854.000000;1.001077
9853.000000;0.999151
9852.000000;0.995753
9851.000000;0.992713
9850.000000;0.991163
9849.000000;0.990864
9848.000000;0.990960
9847.000000;0.990962
9846.000000;0.990923
9845.000000;0.990998
9844.000000;0.991083
9843.000000;0.990831
9842.000000;0.989986
9841.000000;0.988717
9840.000000;0.987621
9839.000000;0.987305
9838.000000;0.987995
9837.000000;0.989450
9836.000000;0.991004
9835.000000;0.991687
9834.000000;0.990772
9833.000000;0.988570
9832.000000;0.986371
9831.000000;0.985303
9830.000000;0.985416
9829.000000;0.986145
9828.000000;0.987269
9827.000000;0.988845
9826.000000;0.990430
9825.000000;0.991115
9824.000000;0.990453
9823.000000;0.988878
9822.000000;0.987098
9821.000000;0.985554
9820.000000;0.984506
9819.000000;0.984048
9818.000000;0.983853
9817.000000;0.983351
9816.000000;0.982432
9815.000000;0.981591
9814.000000;0.981200
9813.000000;0.980981
9812.000000;0.980447
9811.000000;0.979540
9810.000000;0.978648
9809.000000;0.978269
9808.000000;0.978783
9807.000000;0.980164
9806.000000;0.981685
9805.000000;0.982257
9804.000000;0.981430
9803.000000;0.979810
9802.000000;0.978306
9801.000000;0.977254
9800.000000;0.976472
9799.000000;0.975794
9798.000000;0.975200
9797.000000;0.974720
9796.000000;0.974538
9795.000000;0.974950
9794.000000;0.975872
9793.000000;0.976616
9792.000000;0.976586
9791.000000;0.976000
9790.000000;0.975543
9789.000000;0.975424
9788.000000;0.975199
9787.000000;0.974484
9786.000000;0.973475
9785.000000;0.972741
9784.000000;0.972753
9783.000000;0.973589
9782.000000;0.974810
9781.000000;0.975669
9780.000000;0.975711
9779.000000;0.975094
9778.000000;0.974146
9777.000000;0.972875
9776.000000;0.971296
9775.000000;0.970012
9774.000000;0.969844
9773.000000;0.970780
9772.000000;0.971800
9771.000000;0.971917
9770.000000;0.971039
9769.000000;0.969663
9768.000000;0.968226
9767.000000;0.967062
9766.000000;0.966562
9765.000000;0.966816
9764.000000;0.967245
9763.000000;0.967033
9762.000000;0.966003
9761.000000;0.964816
9760.000000;0.964291
9759.000000;0.964713
9758.000000;0.965704
9757.000000;0.966474
9756.000000;0.966264
9755.000000;0.964946
9754.000000;0.963309
9753.000000;0.962514
9752.000000;0.963056
9751.000000;0.964273
9750.000000;0.964953
9749.000000;0.964380
9748.000000;0.962824
9747.000000;0.961206
9746.000000;0.960428
9745.000000;0.960773
9744.000000;0.961638
9743.000000;0.961886
9742.000000;0.960849
9741.000000;0.959104
9740.000000;0.957997
9739.000000;0.958339
9738.000000;0.959780
9737.000000;0.961476
9736.000000;0.962958
9735.000000;0.964037
9734.000000;0.964212
9733.000000;0.962926
9732.000000;0.960482
9731.000000;0.958112
9730.000000;0.956865
9729.000000;0.956763
9728.000000;0.957242
9727.000000;0.957931
9726.000000;0.958588
9725.000000;0.958667
9724.000000;0.957603
9723.000000;0.955534
9722.000000;0.953267
9721.000000;0.951456
9720.000000;0.950215
9719.000000;0.949547
9718.000000;0.949666
9717.000000;0.950608
9716.000000;0.951820
9715.000000;0.952492
9714.000000;0.952235
9713.000000;0.951364
9712.000000;0.950658
9711.000000;0.950872
9710.000000;0.952224
9709.000000;0.954127
9708.000000;0.955538
9707.000000;0.955737
9706.000000;0.954777
9705.000000;0.953193
9704.000000;0.951487
9703.000000;0.949926
9702.000000;0.948627
9701.000000;0.947662
9700.000000;0.947143
9699.000000;0.947215
9698.000000;0.947822
9697.000000;0.948485
9696.000000;0.948641
9695.000000;0.948299
9694.000000;0.948082
9693.000000;0.948440
9692.000000;0.949086
9691.000000;0.949371
9690.000000;0.948904
9689.000000;0.947621
9688.000000;0.945678
9687.000000;0.943711
9686.000000;0.942805
9685.000000;0.943543
9684.000000;0.945116
9683.000000;0.945982
9682.000000;0.945573
9681.000000;0.944770
9680.000000;0.944509
9679.000000;0.944586
9678.000000;0.944210
9677.000000;0.943222
9676.000000;0.942201
9675.000000;0.941580
9674.000000;0.941186
9673.000000;0.940670
9672.000000;0.939960
9671.000000;0.939200
9670.000000;0.938559
9669.000000;0.938229
9668.000000;0.938376
9667.000000;0.938960
9666.000000;0.939775
9665.000000;0.940742
9664.000000;0.941945
9663.000000;0.943203
9662.000000;0.943836
9661.000000;0.943181
9660.000000;0.941340
9659.000000;0.939207
9658.000000;0.937688
9657.000000;0.937096
9656.000000;0.937246
9655.000000;0.937773
9654.000000;0.938193
9653.000000;0.937940
9652.000000;0.936757
9651.000000;0.935009
9650.000000;0.933363
9649.000000;0.932178
9648.000000;0.931449
9647.000000;0.931231
9646.000000;0.931651
9645.000000;0.932392
9644.000000;0.932646
9643.000000;0.931919
9642.000000;0.930649
9641.000000;0.929667
9640.000000;0.929277
9639.000000;0.929273
9638.000000;0.929584
9637.000000;0.930365
9636.000000;0.931506
9635.000000;0.932556
9634.000000;0.933202
9633.000000;0.933405
9632.000000;0.933000
9631.000000;0.931707
9630.000000;0.929813
9629.000000;0.928403
9628.000000;0.928363
9627.000000;0.929381
9626.000000;0.930293
9625.000000;0.930256
9624.000000;0.929266
9623.000000;0.927731
9622.000000;0.926089
9621.000000;0.924934
9620.000000;0.924933
9619.000000;0.926192
9618.000000;0.927860
9617.000000;0.928680
9616.000000;0.928037
9615.000000;0.926424
9614.000000;0.924908
9613.000000;0.924258
9612.000000;0.924501
9611.000000;0.925120
9610.000000;0.925505
9609.000000;0.925261
9608.000000;0.924295
9607.000000;0.922861
9606.000000;0.921541
9605.000000;0.920908
9604.000000;0.921017
9603.000000;0.921306
9602.000000;0.921178
9601.000000;0.920624
9600.000000;0.920153
9599.000000;0.920163
9598.000000;0.920521
9597.000000;0.920802
9596.000000;0.920753
9595.000000;0.920415
9594.000000;0.919955
9593.000000;0.919537
9592.000000;0.919313
9591.000000;0.919430
9590.000000;0.919916
9589.000000;0.920501
9588.000000;0.920611
9587.000000;0.919766
9586.000000;0.918149
9585.000000;0.916617
9584.000000;0.915953
9583.000000;0.916154
9582.000000;0.916602
9581.000000;0.916862
9580.000000;0.917028
9579.000000;0.917334
9578.000000;0.917731
9577.000000;0.917943
9576.000000;0.917743
9575.000000;0.917036
9574.000000;0.915883
9573.000000;0.914623
9572.000000;0.913801
9571.000000;0.913705
9570.000000;0.914017
9569.000000;0.914080
9568.000000;0.913551
9567.000000;0.912702
9566.000000;0.912080
9565.000000;0.911989
9564.000000;0.912268
9563.000000;0.912464
9562.000000;0.912249
9561.000000;0.911748
9560.000000;0.911422
9559.000000;0.911524
9558.000000;0.911738
9557.000000;0.911528
9556.000000;0.910818
9555.000000;0.910066
9554.000000;0.909586
9553.000000;0.909039
9552.000000;0.907865
9551.000000;0.906093
9550.000000;0.904457
9549.000000;0.903728
9548.000000;0.904078
9547.000000;0.905086
9546.000000;0.906100
9545.000000;0.906505
9544.000000;0.905974
9543.000000;0.904813
9542.000000;0.903920
9541.000000;0.904034
9540.000000;0.904946
9539.000000;0.905704
9538.000000;0.905695
9537.000000;0.905250
9536.000000;0.905046
9535.000000;0.905187
9534.000000;0.905174
9533.000000;0.904641
9532.000000;0.903792
9531.000000;0.903100
9530.000000;0.902841
9529.000000;0.902955
9528.000000;0.903128
9527.000000;0.902990
9526.000000;0.902496
9525.000000;0.902130
9524.000000;0.902416
9523.000000;0.903149
9522.000000;0.903404
9521.000000;0.902578
9520.000000;0.901240
9519.000000;0.900621
9518.000000;0.901253
9517.000000;0.902377
9516.000000;0.902772
9515.000000;0.901976
9514.000000;0.900558
9513.000000;0.899327
9512.000000;0.898555
9511.000000;0.898041
9510.000000;0.897702
9509.000000;0.897770
9508.000000;0.898304
9507.000000;0.898807
9506.000000;0.898670
9505.000000;0.897903
9504.000000;0.897095
9503.000000;0.896628
9502.000000;0.896299
9501.000000;0.895826
9500.000000;0.895394
9499.000000;0.895400
9498.000000;0.895816
9497.000000;0.896101
9496.000000;0.895754
9495.000000;0.894825
9494.000000;0.893861
9493.000000;0.893445
9492.000000;0.893654
9491.000000;0.893882
9490.000000;0.893402
9489.000000;0.892293
9488.000000;0.891559
9487.000000;0.892034
9486.000000;0.893305
9485.000000;0.894092
9484.000000;0.893682
9483.000000;0.892610
9482.000000;0.891871
9481.000000;0.891871
9480.000000;0.892330
9479.000000;0.892845
9478.000000;0.893203
9477.000000;0.893310
9476.000000;0.893131
9475.000000;0.892694
9474.000000;0.891999
9473.000000;0.890978
9472.000000;0.889679
9471.000000;0.888438
9470.000000;0.887697
9469.000000;0.887637
9468.000000;0.888016
9467.000000;0.888397
9466.000000;0.888530
9465.000000;0.888464
9464.000000;0.888329
9463.000000;0.888091
9462.000000;0.887610
9461.000000;0.886900
9460.000000;0.886198
9459.000000;0.885713
9458.000000;0.885450
9457.000000;0.885384
9456.000000;0.885628
9455.000000;0.886200
9454.000000;0.886792
9453.000000;0.887050
9452.000000;0.887021
9451.000000;0.887012
9450.000000;0.887036
9449.000000;0.886784
9448.000000;0.886196
9447.000000;0.885655
9446.000000;0.885443
9445.000000;0.885363
9444.000000;0.885116
9443.000000;0.884696
9442.000000;0.884132
9441.000000;0.883204
9440.000000;0.881850
9439.000000;0.880630
9438.000000;0.880281
9437.000000;0.880863
9436.000000;0.881766
9435.000000;0.882530
9434.000000;0.883206
9433.000000;0.883833
9432.000000;0.884055
9431.000000;0.883535
9430.000000;0.882438
9429.000000;0.881218
9428.000000;0.880129
9427.000000;0.879213
9426.000000;0.878613
9425.000000;0.878534
9424.000000;0.878838
9423.000000;0.878975
9422.000000;0.878500
9421.000000;0.877549
9420.000000;0.876652
9419.000000;0.876122
9418.000000;0.875826
9417.000000;0.875610
9416.000000;0.875709
9415.000000;0.876424
9414.000000;0.877431
9413.000000;0.877834
9412.000000;0.877151
9411.000000;0.875990
9410.000000;0.875391
9409.000000;0.875591
9408.000000;0.875855
9407.000000;0.875552
9406.000000;0.875015
9405.000000;0.875079
9404.000000;0.876001
9403.000000;0.877171
9402.000000;0.877852
9401.000000;0.877939
9400.000000;0.877892
9399.000000;0.878051
9398.000000;0.878192
9397.000000;0.877780
9396.000000;0.876611
9395.000000;0.875101
9394.000000;0.873964
9393.000000;0.873627
9392.000000;0.873909
9391.000000;0.874152
9390.000000;0.873706
9389.000000;0.872466
9388.000000;0.871003
9387.000000;0.870070
9386.000000;0.869906
9385.000000;0.870141
9384.000000;0.870380
9383.000000;0.870642
9382.000000;0.871072
9381.000000;0.871484
9380.000000;0.871467
9379.000000;0.870849
9378.000000;0.869861
9377.000000;0.868941
9376.000000;0.868558
9375.000000;0.868998
9374.000000;0.870006
9373.000000;0.870812
9372.000000;0.870883
9371.000000;0.870537
9370.000000;0.870441
9369.000000;0.870625
9368.000000;0.870519
9367.000000;0.869909
9366.000000;0.869265
9365.000000;0.868956
9364.000000;0.868700
9363.000000;0.868083
9362.000000;0.867210
9361.000000;0.866525
9360.000000;0.866294
9359.000000;0.866522
9358.000000;0.867032
9357.000000;0.867318
9356.000000;0.866744
9355.000000;0.865332
9354.000000;0.864061
9353.000000;0.863916
9352.000000;0.864790
9351.000000;0.865705
9350.000000;0.865888
9349.000000;0.865198
9348.000000;0.863784
9347.000000;0.862000
9346.000000;0.860640
9345.000000;0.860512
9344.000000;0.861484
9343.000000;0.862432
9342.000000;0.862439
9341.000000;0.861777
9340.000000;0.861431
9339.000000;0.861952
9338.000000;0.863064
9337.000000;0.864149
9336.000000;0.864759
9335.000000;0.864736
9334.000000;0.864204
9333.000000;0.863555
9332.000000;0.863209
9331.000000;0.863225
9330.000000;0.863193
9329.000000;0.862640
9328.000000;0.861586
9327.000000;0.860614
9326.000000;0.860283
9325.000000;0.860518
9324.000000;0.860745
9323.000000;0.860617
9322.000000;0.860417
9321.000000;0.860627
9320.000000;0.861300
9319.000000;0.862031
9318.000000;0.862377
9317.000000;0.862097
9316.000000;0.861167
9315.000000;0.859874
9314.000000;0.858787
9313.000000;0.858266
9312.000000;0.858010
9311.000000;0.857430
9310.000000;0.856477
9309.000000;0.855752
9308.000000;0.855692
9307.000000;0.856030
9306.000000;0.856241
9305.000000;0.856230
9304.000000;0.856313
9303.000000;0.856693
9302.000000;0.857223
9301.000000;0.857552
9300.000000;0.857352
9299.000000;0.856517
9298.000000;0.855320
9297.000000;0.854293
9296.000000;0.853801
9295.000000;0.853809
9294.000000;0.854090
9293.000000;0.854451
9292.000000;0.854633
9291.000000;0.854306
9290.000000;0.853472
9289.000000;0.852670
9288.000000;0.852399
9287.000000;0.852448
9286.000000;0.852194
9285.000000;0.851547
9284.000000;0.851179
9283.000000;0.851695
9282.000000;0.852901
9281.000000;0.854059
9280.000000;0.854604
9279.000000;0.854415
9278.000000;0.853643
9277.000000;0.852606
9276.000000;0.851767
9275.000000;0.851515
9274.000000;0.851882
9273.000000;0.852589
9272.000000;0.853326
9271.000000;0.853834
9270.000000;0.853825
9269.000000;0.853114
9268.000000;0.851897
9267.000000;0.850657
9266.000000;0.849666
9265.000000;0.848777
9264.000000;0.847864
9263.000000;0.847260
9262.000000;0.847496
9261.000000;0.848640
9260.000000;0.850125
9259.000000;0.851200
9258.000000;0.851351
9257.000000;0.850392
9256.000000;0.848554
9255.000000;0.846631
9254.000000;0.845679
9253.000000;0.846188
9252.000000;0.847581
9251.000000;0.848698
9250.000000;0.848748
9249.000000;0.847723
9248.000000;0.846114
9247.000000;0.844524
9246.000000;0.843485
9245.000000;0.843287
9244.000000;0.843807
9243.000000;0.844644
9242.000000;0.845460
9241.000000;0.846099
9240.000000;0.846477
9239.000000;0.846588
9238.000000;0.846618
9237.000000;0.846807
9236.000000;0.847063
9235.000000;0.846968
9234.000000;0.846321
9233.000000;0.845490
9232.000000;0.845009
9231.000000;0.844919
9230.000000;0.844748
9229.000000;0.844134
9228.000000;0.843269
9227.000000;0.842676
9226.000000;0.842637
9225.000000;0.842938
9224.000000;0.843127
9223.000000;0.842970
9222.000000;0.842637
9221.000000;0.842433
9220.000000;0.842434
9219.000000;0.842452
9218.000000;0.842342
9217.000000;0.842203
9216.000000;0.842244
9215.000000;0.842567
9214.000000;0.843148
9213.000000;0.843906
9212.000000;0.844666
9211.000000;0.845122
9210.000000;0.845009
9209.000000;0.844350
9208.000000;0.843460
9207.000000;0.842673
9206.000000;0.842124
9205.000000;0.841802
9204.000000;0.841706
9203.000000;0.841831
9202.000000;0.842023
9201.000000;0.841968
9200.000000;0.841465
9199.000000;0.840724
9198.000000;0.840257
9197.000000;0.840388
9196.000000;0.840909
9195.000000;0.841296
9194.000000;0.841237
9193.000000;0.840904
9192.000000;0.840710
9191.000000;0.840895
9190.000000;0.841300
9189.000000;0.841481
9188.000000;0.841049
9187.000000;0.839990
9186.000000;0.838710
9185.000000;0.837733
9184.000000;0.837304
9183.000000;0.837258
9182.000000;0.837210
9181.000000;0.836859
9180.000000;0.836225
9179.000000;0.835671
9178.000000;0.835628
9177.000000;0.836173
9176.000000;0.836901
9175.000000;0.837323
9174.000000;0.837381
9173.000000;0.837436
9172.000000;0.837808
9171.000000;0.838427
9170.000000;0.838938
9169.000000;0.839000
9168.000000;0.838522
9167.000000;0.837758
9166.000000;0.837226
9165.000000;0.837316
9164.000000;0.837877
9163.000000;0.838304
9162.000000;0.838109
9161.000000;0.837310
9160.000000;0.836291
9159.000000;0.835464
9158.000000;0.835092
9157.000000;0.835201
9156.000000;0.835461
9155.000000;0.835330
9154.000000;0.834576
9153.000000;0.833627
9152.000000;0.833196
9151.000000;0.833532
9150.000000;0.834179
9149.000000;0.834500
9148.000000;0.834314
9147.000000;0.833947
9146.000000;0.833764
9145.000000;0.833796
9144.000000;0.833810
9143.000000;0.833621
9142.000000;0.833219
9141.000000;0.832665
9140.000000;0.832065
9139.000000;0.831703
9138.000000;0.831936
9137.000000;0.832740
9136.000000;0.833490
9135.000000;0.833527
9134.000000;0.832935
9133.000000;0.832427
9132.000000;0.832417
9131.000000;0.832531
9130.000000;0.832219
9129.000000;0.831535
9128.000000;0.831008
9127.000000;0.830906
9126.000000;0.830992
9125.000000;0.830961
9124.000000;0.830821
9123.000000;0.830755
9122.000000;0.830848
9121.000000;0.831094
9120.000000;0.831532
9119.000000;0.832177
9118.000000;0.832817
9117.000000;0.833023
9116.000000;0.832504
9115.000000;0.831469
9114.000000;0.830515
9113.000000;0.830054
9112.000000;0.829901
9111.000000;0.829578
9110.000000;0.828987
9109.000000;0.828563
9108.000000;0.828680
9107.000000;0.829162
9106.000000;0.829552
9105.000000;0.829666
9104.000000;0.829666
9103.000000;0.829710
9102.000000;0.829779
9101.000000;0.829810
9100.000000;0.829795
9099.000000;0.829725
9098.000000;0.829601
9097.000000;0.829474
9096.000000;0.829315
9095.000000;0.828909
9094.000000;0.828128
9093.000000;0.827300
9092.000000;0.827018
9091.000000;0.827473
9090.000000;0.828176
9089.000000;0.828494
9088.000000;0.828326
9087.000000;0.828100
9086.000000;0.828207
9085.000000;0.828619
9084.000000;0.828971
9083.000000;0.828860
9082.000000;0.828132
9081.000000;0.827030
9080.000000;0.826094
9079.000000;0.825785
9078.000000;0.826138
9077.000000;0.826760
9076.000000;0.827159
9075.000000;0.827046
9074.000000;0.826447
9073.000000;0.825645
9072.000000;0.825023
9071.000000;0.824851
9070.000000;0.825155
9069.000000;0.825787
9068.000000;0.826562
9067.000000;0.827260
9066.000000;0.827577
9065.000000;0.827274
9064.000000;0.826467
9063.000000;0.825623
9062.000000;0.825170
9061.000000;0.825154
9060.000000;0.825358
9059.000000;0.825647
9058.000000;0.826002
9057.000000;0.826294
9056.000000;0.826271
9055.000000;0.825845
9054.000000;0.825201
9053.000000;0.824529
