Criado como novo conjunto de dados;"e0108.spp","-4293705.2 Secs"
cm-1;Abs
10000.000000;-0.038068
9999.000000;-0.038132
9998.000000;-0.038185
9997.000000;-0.038382
9996.000000;-0.038852
9995.000000;-0.039448
9994.000000;-0.039890
9993.000000;-0.040110
9992.000000;-0.040334
9991.000000;-0.040745
9990.000000;-0.041273
9989.000000;-0.041764
9988.000000;-0.042223
9987.000000;-0.042765
9986.000000;-0.043400
9985.000000;-0.043992
9984.000000;-0.044411
9983.000000;-0.044661
9982.000000;-0.044865
9981.000000;-0.045159
9980.000000;-0.045596
9979.000000;-0.046111
9978.000000;-0.046561
9977.000000;-0.046819
9976.000000;-0.046810
9975.000000;-0.046533
9974.000000;-0.046121
9973.000000;-0.045874
9972.000000;-0.046123
9971.000000;-0.046947
9970.000000;-0.048047
9969.000000;-0.048957
9968.000000;-0.049382
9967.000000;-0.049348
9966.000000;-0.049120
9965.000000;-0.049019
9964.000000;-0.049258
9963.000000;-0.049802
9962.000000;-0.050361
9961.000000;-0.050614
9960.000000;-0.050525
9959.000000;-0.050428
9958.000000;-0.050758
9957.000000;-0.051660
9956.000000;-0.052822
9955.000000;-0.053712
9954.000000;-0.054031
9953.000000;-0.053963
9952.000000;-0.053969
9951.000000;-0.054360
9950.000000;-0.055075
9949.000000;-0.055853
9948.000000;-0.056503
9947.000000;-0.056975
9946.000000;-0.057299
9945.000000;-0.057553
9944.000000;-0.057818
9943.000000;-0.058061
9942.000000;-0.058150
9941.000000;-0.058090
9940.000000;-0.058157
9939.000000;-0.058593
9938.000000;-0.059203
9937.000000;-0.059475
9936.000000;-0.059167
9935.000000;-0.058613
9934.000000;-0.058392
9933.000000;-0.058823
9932.000000;-0.059835
9931.000000;-0.061094
9930.000000;-0.062143
9929.000000;-0.062588
9928.000000;-0.062382
9927.000000;-0.061918
9926.000000;-0.061699
9925.000000;-0.061932
9924.000000;-0.062492
9923.000000;-0.063160
9922.000000;-0.063787
9921.000000;-0.064300
9920.000000;-0.064717
9919.000000;-0.065113
9918.000000;-0.065451
9917.000000;-0.065524
9916.000000;-0.065217
9915.000000;-0.064779
9914.000000;-0.064642
9913.000000;-0.065001
9912.000000;-0.065724
9911.000000;-0.066610
9910.000000;-0.067525
9909.000000;-0.068289
9908.000000;-0.068710
9907.000000;-0.068850
9906.000000;-0.069043
9905.000000;-0.069495
9904.000000;-0.070012
9903.000000;-0.070276
9902.000000;-0.070301
9901.000000;-0.070424
9900.000000;-0.070881
9899.000000;-0.071529
9898.000000;-0.072015
9897.000000;-0.072145
9896.000000;-0.072059
9895.000000;-0.072073
9894.000000;-0.072351
9893.000000;-0.072759
9892.000000;-0.073063
9891.000000;-0.073217
9890.000000;-0.073381
9889.000000;-0.073664
9888.000000;-0.073991
9887.000000;-0.074230
9886.000000;-0.074378
9885.000000;-0.074556
9884.000000;-0.074896
9883.000000;-0.075455
9882.000000;-0.076149
9881.000000;-0.076766
9880.000000;-0.077154
9879.000000;-0.077413
9878.000000;-0.077785
9877.000000;-0.078354
9876.000000;-0.078962
9875.000000;-0.079458
9874.000000;-0.079853
9873.000000;-0.080171
9872.000000;-0.080318
9871.000000;-0.080251
9870.000000;-0.080154
9869.000000;-0.080287
9868.000000;-0.080720
9867.000000;-0.081320
9866.000000;-0.081913
9865.000000;-0.082373
9864.000000;-0.082642
9863.000000;-0.082792
9862.000000;-0.082985
9861.000000;-0.083264
9860.000000;-0.083477
9859.000000;-0.083515
9858.000000;-0.083522
9857.000000;-0.083690
9856.000000;-0.083973
9855.000000;-0.084185
9854.000000;-0.084346
9853.000000;-0.084672
9852.000000;-0.085184
9851.000000;-0.085566
9850.000000;-0.085523
9849.000000;-0.085180
9848.000000;-0.085024
9847.000000;-0.085473
9846.000000;-0.086521
9845.000000;-0.087733
9844.000000;-0.088574
9843.000000;-0.088810
9842.000000;-0.088682
9841.000000;-0.088653
9840.000000;-0.089000
9839.000000;-0.089629
9838.000000;-0.090237
9837.000000;-0.090550
9836.000000;-0.090485
9835.000000;-0.090208
9834.000000;-0.090089
9833.000000;-0.090474
9832.000000;-0.091406
9831.000000;-0.092537
9830.000000;-0.093353
9829.000000;-0.093537
9828.000000;-0.093197
9827.000000;-0.092769
9826.000000;-0.092650
9825.000000;-0.092889
9824.000000;-0.093271
9823.000000;-0.093672
9822.000000;-0.094217
9821.000000;-0.094993
9820.000000;-0.095810
9819.000000;-0.096374
9818.000000;-0.096631
9817.000000;-0.096743
9816.000000;-0.096820
9815.000000;-0.096849
9814.000000;-0.096878
9813.000000;-0.097049
9812.000000;-0.097412
9811.000000;-0.097868
9810.000000;-0.098325
9809.000000;-0.098770
9808.000000;-0.099157
9807.000000;-0.099375
9806.000000;-0.099393
9805.000000;-0.099324
9804.000000;-0.099313
9803.000000;-0.099460
9802.000000;-0.099836
9801.000000;-0.100429
9800.000000;-0.101060
9799.000000;-0.101542
9798.000000;-0.101958
9797.000000;-0.102578
9796.000000;-0.103401
9795.000000;-0.104012
9794.000000;-0.104053
9793.000000;-0.103694
9792.000000;-0.103433
9791.000000;-0.103535
9790.000000;-0.103843
9789.000000;-0.104069
9788.000000;-0.104094
9787.000000;-0.103996
9786.000000;-0.103959
9785.000000;-0.104169
9784.000000;-0.104678
9783.000000;-0.105338
9782.000000;-0.105917
9781.000000;-0.106309
9780.000000;-0.106598
9779.000000;-0.106947
9778.000000;-0.107456
9777.000000;-0.108071
9776.000000;-0.108578
9775.000000;-0.108774
9774.000000;-0.108708
9773.000000;-0.108666
9772.000000;-0.108816
9771.000000;-0.108982
9770.000000;-0.108947
9769.000000;-0.108876
9768.000000;-0.109203
9767.000000;-0.110069
9766.000000;-0.111104
9765.000000;-0.111844
9764.000000;-0.112196
9763.000000;-0.112378
9762.000000;-0.112553
9761.000000;-0.112698
9760.000000;-0.112765
9759.000000;-0.112793
9758.000000;-0.112859
9757.000000;-0.113020
9756.000000;-0.113300
9755.000000;-0.113675
9754.000000;-0.114039
9753.000000;-0.114286
9752.000000;-0.114437
9751.000000;-0.114622
9750.000000;-0.114933
9749.000000;-0.115329
9748.000000;-0.115729
9747.000000;-0.116109
9746.000000;-0.116477
9745.000000;-0.116795
9744.000000;-0.117024
9743.000000;-0.117203
9742.000000;-0.117402
9741.000000;-0.117603
9740.000000;-0.117727
9739.000000;-0.117822
9738.000000;-0.118108
9737.000000;-0.118727
9736.000000;-0.119510
9735.000000;-0.120104
9734.000000;-0.120312
9733.000000;-0.120251
9732.000000;-0.120162
9731.000000;-0.120189
9730.000000;-0.120336
9729.000000;-0.120539
9728.000000;-0.120745
9727.000000;-0.121006
9726.000000;-0.121477
9725.000000;-0.122223
9724.000000;-0.123003
9723.000000;-0.123434
9722.000000;-0.123468
9721.000000;-0.123539
9720.000000;-0.124063
9719.000000;-0.124898
9718.000000;-0.125495
9717.000000;-0.125533
9716.000000;-0.125212
9715.000000;-0.124961
9714.000000;-0.125043
9713.000000;-0.125443
9712.000000;-0.125907
9711.000000;-0.126027
9710.000000;-0.125559
9709.000000;-0.124781
9708.000000;-0.124373
9707.000000;-0.124757
9706.000000;-0.125667
9705.000000;-0.126511
9704.000000;-0.127054
9703.000000;-0.127546
9702.000000;-0.128260
9701.000000;-0.129130
9700.000000;-0.129865
9699.000000;-0.130256
9698.000000;-0.130299
9697.000000;-0.130142
9696.000000;-0.129965
9695.000000;-0.129842
9694.000000;-0.129713
9693.000000;-0.129541
9692.000000;-0.129494
9691.000000;-0.129824
9690.000000;-0.130553
9689.000000;-0.131415
9688.000000;-0.132138
9687.000000;-0.132683
9686.000000;-0.133128
9685.000000;-0.133475
9684.000000;-0.133705
9683.000000;-0.133921
9682.000000;-0.134259
9681.000000;-0.134682
9680.000000;-0.135013
9679.000000;-0.135170
9678.000000;-0.135220
9677.000000;-0.135195
9676.000000;-0.135018
9675.000000;-0.134700
9674.000000;-0.134500
9673.000000;-0.134726
9672.000000;-0.135411
9671.000000;-0.136268
9670.000000;-0.136972
9669.000000;-0.137421
9668.000000;-0.137721
9667.000000;-0.137991
9666.000000;-0.138249
9665.000000;-0.138467
9664.000000;-0.138686
9663.000000;-0.139000
9662.000000;-0.139435
9661.000000;-0.139861
9660.000000;-0.140087
9659.000000;-0.140088
9658.000000;-0.140080
9657.000000;-0.140317
9656.000000;-0.140820
9655.000000;-0.141363
9654.000000;-0.141731
9653.000000;-0.141897
9652.000000;-0.141960
9651.000000;-0.141997
9650.000000;-0.142095
9649.000000;-0.142384
9648.000000;-0.142910
9647.000000;-0.143488
9646.000000;-0.143852
9645.000000;-0.143975
9644.000000;-0.144088
9643.000000;-0.144328
9642.000000;-0.144547
9641.000000;-0.144577
9640.000000;-0.144540
9639.000000;-0.144702
9638.000000;-0.145100
9637.000000;-0.145508
9636.000000;-0.145762
9635.000000;-0.145927
9634.000000;-0.146128
9633.000000;-0.146400
9632.000000;-0.146750
9631.000000;-0.147193
9630.000000;-0.147642
9629.000000;-0.147907
9628.000000;-0.147919
9627.000000;-0.147857
9626.000000;-0.147942
9625.000000;-0.148211
9624.000000;-0.148576
9623.000000;-0.149013
9622.000000;-0.149521
9621.000000;-0.149971
9620.000000;-0.150158
9619.000000;-0.150042
9618.000000;-0.149813
9617.000000;-0.149703
9616.000000;-0.149826
9615.000000;-0.150185
9614.000000;-0.150739
9613.000000;-0.151411
9612.000000;-0.152104
9611.000000;-0.152724
9610.000000;-0.153193
9609.000000;-0.153456
9608.000000;-0.153518
9607.000000;-0.153451
9606.000000;-0.153304
9605.000000;-0.153072
9604.000000;-0.152824
9603.000000;-0.152805
9602.000000;-0.153261
9601.000000;-0.154156
9600.000000;-0.155151
9599.000000;-0.155871
9598.000000;-0.156155
9597.000000;-0.156087
9596.000000;-0.155920
9595.000000;-0.155953
9594.000000;-0.156334
9593.000000;-0.156918
9592.000000;-0.157411
9591.000000;-0.157658
9590.000000;-0.157744
9589.000000;-0.157803
9588.000000;-0.157889
9587.000000;-0.158048
9586.000000;-0.158365
9585.000000;-0.158832
9584.000000;-0.159261
9583.000000;-0.159447
9582.000000;-0.159375
9581.000000;-0.159215
9580.000000;-0.159173
9579.000000;-0.159382
9578.000000;-0.159860
9577.000000;-0.160485
9576.000000;-0.161065
9575.000000;-0.161521
9574.000000;-0.161934
9573.000000;-0.162358
9572.000000;-0.162677
9571.000000;-0.162772
9570.000000;-0.162762
9569.000000;-0.162942
9568.000000;-0.163462
9567.000000;-0.164171
9566.000000;-0.164798
9565.000000;-0.165171
9564.000000;-0.165252
9563.000000;-0.165071
9562.000000;-0.164721
9561.000000;-0.164389
9560.000000;-0.164295
9559.000000;-0.164576
9558.000000;-0.165204
9557.000000;-0.165984
9556.000000;-0.166613
9555.000000;-0.166833
9554.000000;-0.166659
9553.000000;-0.166442
9552.000000;-0.166615
9551.000000;-0.167273
9550.000000;-0.168046
9549.000000;-0.168450
9548.000000;-0.168358
9547.000000;-0.168099
9546.000000;-0.168098
9545.000000;-0.168508
9544.000000;-0.169197
9543.000000;-0.169925
9542.000000;-0.170460
9541.000000;-0.170646
9540.000000;-0.170506
9539.000000;-0.170243
9538.000000;-0.170023
9537.000000;-0.169785
9536.000000;-0.169404
9535.000000;-0.168996
9534.000000;-0.168878
9533.000000;-0.169197
9532.000000;-0.169776
9531.000000;-0.170398
9530.000000;-0.171058
9529.000000;-0.171808
9528.000000;-0.172503
9527.000000;-0.172887
9526.000000;-0.172875
9525.000000;-0.172614
9524.000000;-0.172293
9523.000000;-0.172081
9522.000000;-0.172197
9521.000000;-0.172829
9520.000000;-0.173862
9519.000000;-0.174820
9518.000000;-0.175237
9517.000000;-0.175069
9516.000000;-0.174670
9515.000000;-0.174396
9514.000000;-0.174344
9513.000000;-0.174457
9512.000000;-0.174743
9511.000000;-0.175241
9510.000000;-0.175829
9509.000000;-0.176209
9508.000000;-0.176212
9507.000000;-0.176037
9506.000000;-0.176075
9505.000000;-0.176474
9504.000000;-0.176966
9503.000000;-0.177183
9502.000000;-0.177080
9501.000000;-0.176977
9500.000000;-0.177177
9499.000000;-0.177638
9498.000000;-0.178054
9497.000000;-0.178243
9496.000000;-0.178349
9495.000000;-0.178617
9494.000000;-0.179047
9493.000000;-0.179414
9492.000000;-0.179610
9491.000000;-0.179780
9490.000000;-0.180051
9489.000000;-0.180310
9488.000000;-0.180426
9487.000000;-0.180548
9486.000000;-0.180944
9485.000000;-0.181564
9484.000000;-0.182028
9483.000000;-0.182083
9482.000000;-0.181868
9481.000000;-0.181662
9480.000000;-0.181613
9479.000000;-0.181798
9478.000000;-0.182337
9477.000000;-0.183218
9476.000000;-0.184111
9475.000000;-0.184574
9474.000000;-0.184470
9473.000000;-0.184109
9472.000000;-0.184000
9471.000000;-0.184482
9470.000000;-0.185459
9469.000000;-0.186411
9468.000000;-0.186766
9467.000000;-0.186376
9466.000000;-0.185620
9465.000000;-0.184999
9464.000000;-0.184753
9463.000000;-0.184892
9462.000000;-0.185371
9461.000000;-0.186036
9460.000000;-0.186569
9459.000000;-0.186737
9458.000000;-0.186656
9457.000000;-0.186611
9456.000000;-0.186689
9455.000000;-0.186768
9454.000000;-0.186819
9453.000000;-0.186952
9452.000000;-0.187181
9451.000000;-0.187366
9450.000000;-0.187456
9449.000000;-0.187596
9448.000000;-0.187912
9447.000000;-0.188321
9446.000000;-0.188650
9445.000000;-0.188798
9444.000000;-0.188740
9443.000000;-0.188513
9442.000000;-0.188305
9441.000000;-0.188444
9440.000000;-0.189128
9439.000000;-0.190162
9438.000000;-0.191035
9437.000000;-0.191325
9436.000000;-0.191051
9435.000000;-0.190668
9434.000000;-0.190674
9433.000000;-0.191188
9432.000000;-0.191886
9431.000000;-0.192392
9430.000000;-0.192638
9429.000000;-0.192792
9428.000000;-0.192938
9427.000000;-0.192995
9426.000000;-0.192904
9425.000000;-0.192722
9424.000000;-0.192533
9423.000000;-0.192423
9422.000000;-0.192563
9421.000000;-0.193103
9420.000000;-0.193929
9419.000000;-0.194671
9418.000000;-0.195035
9417.000000;-0.195029
9416.000000;-0.194820
9415.000000;-0.194547
9414.000000;-0.194363
9413.000000;-0.194456
9412.000000;-0.194863
9411.000000;-0.195369
9410.000000;-0.195760
9409.000000;-0.196111
9408.000000;-0.196638
9407.000000;-0.197312
9406.000000;-0.197788
9405.000000;-0.197784
9404.000000;-0.197416
9403.000000;-0.197087
9402.000000;-0.197096
9401.000000;-0.197399
9400.000000;-0.197753
9399.000000;-0.198011
9398.000000;-0.198242
9397.000000;-0.198552
9396.000000;-0.198888
9395.000000;-0.199093
9394.000000;-0.199106
9393.000000;-0.198986
9392.000000;-0.198790
9391.000000;-0.198553
9390.000000;-0.198408
9389.000000;-0.198551
9388.000000;-0.199020
9387.000000;-0.199602
9386.000000;-0.200051
9385.000000;-0.200294
9384.000000;-0.200415
9383.000000;-0.200533
9382.000000;-0.200759
9381.000000;-0.201129
9380.000000;-0.201519
9379.000000;-0.201747
9378.000000;-0.201827
9377.000000;-0.201977
9376.000000;-0.202262
9375.000000;-0.202438
9374.000000;-0.202298
9373.000000;-0.202017
9372.000000;-0.201919
9371.000000;-0.202027
9370.000000;-0.202075
9369.000000;-0.201930
9368.000000;-0.201747
9367.000000;-0.201728
9366.000000;-0.201961
9365.000000;-0.202493
9364.000000;-0.203323
9363.000000;-0.204247
9362.000000;-0.204907
9361.000000;-0.205101
9360.000000;-0.204921
9359.000000;-0.204557
9358.000000;-0.204166
9357.000000;-0.203973
9356.000000;-0.204238
9355.000000;-0.204929
9354.000000;-0.205600
9353.000000;-0.205815
9352.000000;-0.205618
9351.000000;-0.205440
9350.000000;-0.205605
9349.000000;-0.206118
9348.000000;-0.206829
9347.000000;-0.207584
9346.000000;-0.208174
9345.000000;-0.208373
9344.000000;-0.208170
9343.000000;-0.207852
9342.000000;-0.207743
9341.000000;-0.207889
9340.000000;-0.208067
9339.000000;-0.208070
9338.000000;-0.207907
9337.000000;-0.207745
9336.000000;-0.207727
9335.000000;-0.207872
9334.000000;-0.208096
9333.000000;-0.208306
9332.000000;-0.208480
9331.000000;-0.208684
9330.000000;-0.209004
9329.000000;-0.209435
9328.000000;-0.209837
9327.000000;-0.210035
9326.000000;-0.210011
9325.000000;-0.209960
9324.000000;-0.210094
9323.000000;-0.210413
9322.000000;-0.210714
9321.000000;-0.210832
9320.000000;-0.210799
9319.000000;-0.210742
9318.000000;-0.210732
9317.000000;-0.210788
9316.000000;-0.210955
9315.000000;-0.211262
9314.000000;-0.211644
9313.000000;-0.211993
9312.000000;-0.212306
9311.000000;-0.212685
9310.000000;-0.213183
9309.000000;-0.213712
9308.000000;-0.214145
9307.000000;-0.214413
9306.000000;-0.214489
9305.000000;-0.214354
9304.000000;-0.214053
9303.000000;-0.213724
9302.000000;-0.213494
9301.000000;-0.213380
9300.000000;-0.213350
9299.000000;-0.213431
9298.000000;-0.213670
9297.000000;-0.214011
9296.000000;-0.214290
9295.000000;-0.214390
9294.000000;-0.214364
9293.000000;-0.214391
9292.000000;-0.214632
9291.000000;-0.215094
9290.000000;-0.215588
9289.000000;-0.215851
9288.000000;-0.215815
9287.000000;-0.215723
9286.000000;-0.215873
9285.000000;-0.216246
9284.000000;-0.216505
9283.000000;-0.216420
9282.000000;-0.216156
9281.000000;-0.216057
9280.000000;-0.216261
9279.000000;-0.216661
9278.000000;-0.217109
9277.000000;-0.217502
9276.000000;-0.217707
9275.000000;-0.217619
9274.000000;-0.217345
9273.000000;-0.217184
9272.000000;-0.217357
9271.000000;-0.217848
9270.000000;-0.218494
9269.000000;-0.219102
9268.000000;-0.219443
9267.000000;-0.219344
9266.000000;-0.218914
9265.000000;-0.218567
9264.000000;-0.218660
9263.000000;-0.219118
9262.000000;-0.219528
9261.000000;-0.219558
9260.000000;-0.219230
9259.000000;-0.218842
9258.000000;-0.218745
9257.000000;-0.219124
9256.000000;-0.219865
9255.000000;-0.220596
9254.000000;-0.220991
9253.000000;-0.221036
9252.000000;-0.220957
9251.000000;-0.220931
9250.000000;-0.220987
9249.000000;-0.221149
9248.000000;-0.221516
9247.000000;-0.222112
9246.000000;-0.222756
9245.000000;-0.223161
9244.000000;-0.223143
9243.000000;-0.222731
9242.000000;-0.222143
9241.000000;-0.221673
9240.000000;-0.221494
9239.000000;-0.221527
9238.000000;-0.221560
9237.000000;-0.221528
9236.000000;-0.221600
9235.000000;-0.221925
9234.000000;-0.222401
9233.000000;-0.222787
9232.000000;-0.222992
9231.000000;-0.223130
9230.000000;-0.223313
9229.000000;-0.223525
9228.000000;-0.223720
9227.000000;-0.223931
9226.000000;-0.224224
9225.000000;-0.224562
9224.000000;-0.224788
9223.000000;-0.224766
9222.000000;-0.224533
9221.000000;-0.224307
9220.000000;-0.224323
9219.000000;-0.224645
9218.000000;-0.225110
9217.000000;-0.225467
9216.000000;-0.225569
9215.000000;-0.225440
9214.000000;-0.225206
9213.000000;-0.224980
9212.000000;-0.224830
9211.000000;-0.224816
9210.000000;-0.225029
9209.000000;-0.225517
9208.000000;-0.226144
9207.000000;-0.226573
9206.000000;-0.226519
9205.000000;-0.226069
9204.000000;-0.225662
9203.000000;-0.225680
9202.000000;-0.226094
9201.000000;-0.226577
9200.000000;-0.226905
9199.000000;-0.227125
9198.000000;-0.227349
9197.000000;-0.227554
9196.000000;-0.227657
9195.000000;-0.227673
9194.000000;-0.227674
9193.000000;-0.227648
9192.000000;-0.227535
9191.000000;-0.227396
9190.000000;-0.227398
9189.000000;-0.227575
9188.000000;-0.227733
9187.000000;-0.227710
9186.000000;-0.227659
9185.000000;-0.227916
9184.000000;-0.228585
9183.000000;-0.229376
9182.000000;-0.229930
9181.000000;-0.230194
9180.000000;-0.230382
9179.000000;-0.230630
9178.000000;-0.230854
9177.000000;-0.230949
9176.000000;-0.230971
9175.000000;-0.231049
9174.000000;-0.231157
9173.000000;-0.231116
9172.000000;-0.230816
9171.000000;-0.230396
9170.000000;-0.230166
9169.000000;-0.230358
9168.000000;-0.230932
9167.000000;-0.231592
9166.000000;-0.232008
9165.000000;-0.232045
9164.000000;-0.231814
9163.000000;-0.231532
9162.000000;-0.231334
9161.000000;-0.231225
9160.000000;-0.231168
9159.000000;-0.231169
9158.000000;-0.231265
9157.000000;-0.231454
9156.000000;-0.231672
9155.000000;-0.231875
9154.000000;-0.232071
9153.000000;-0.232243
9152.000000;-0.232269
9151.000000;-0.232039
9150.000000;-0.231665
9149.000000;-0.231481
9148.000000;-0.231714
9147.000000;-0.232231
9146.000000;-0.232697
9145.000000;-0.232936
9144.000000;-0.233017
9143.000000;-0.233056
9142.000000;-0.233096
9141.000000;-0.233204
9140.000000;-0.233496
9139.000000;-0.233940
9138.000000;-0.234303
9137.000000;-0.234410
9136.000000;-0.234370
9135.000000;-0.234400
9134.000000;-0.234495
9133.000000;-0.234455
9132.000000;-0.234202
9131.000000;-0.233926
9130.000000;-0.233858
9129.000000;-0.234030
9128.000000;-0.234309
9127.000000;-0.234564
9126.000000;-0.234729
9125.000000;-0.234768
9124.000000;-0.234679
9123.000000;-0.234530
9122.000000;-0.234451
9121.000000;-0.234557
9120.000000;-0.234862
9119.000000;-0.235254
9118.000000;-0.235585
9117.000000;-0.235789
9116.000000;-0.235904
9115.000000;-0.235981
9114.000000;-0.236017
9113.000000;-0.236028
9112.000000;-0.236116
9111.000000;-0.236357
9110.000000;-0.236662
9109.000000;-0.236863
9108.000000;-0.236936
9107.000000;-0.237022
9106.000000;-0.237208
9105.000000;-0.237399
9104.000000;-0.237456
9103.000000;-0.237368
9102.000000;-0.237203
9101.000000;-0.236993
9100.000000;-0.236779
9099.000000;-0.236689
9098.000000;-0.236846
9097.000000;-0.237203
9096.000000;-0.237569
