Criado como novo conjunto de dados;"e0108.spp","-4217381.4 Secs"
cm-1;Abs
10000.000000;1.988852
9999.000000;1.996804
9998.000000;1.992402
9997.000000;1.981894
9996.000000;1.974352
9995.000000;1.973995
9994.000000;1.978642
9993.000000;1.982600
9992.000000;1.981448
9991.000000;1.975340
9990.000000;1.968221
9989.000000;1.964408
9988.000000;1.965336
9987.000000;1.968370
9986.000000;1.968648
9985.000000;1.962770
9984.000000;1.952337
9983.000000;1.943386
9982.000000;1.940945
9981.000000;1.945323
9980.000000;1.952887
9979.000000;1.959914
9978.000000;1.965505
9977.000000;1.969972
9976.000000;1.972412
9975.000000;1.971519
9974.000000;1.967332
9973.000000;1.960656
9972.000000;1.952031
9971.000000;1.942799
9970.000000;1.936400
9969.000000;1.936337
9968.000000;1.942316
9967.000000;1.950224
9966.000000;1.956950
9965.000000;1.963800
9964.000000;1.973334
9963.000000;1.984079
9962.000000;1.990565
9961.000000;1.988815
9960.000000;1.980242
9959.000000;1.969638
9958.000000;1.961559
9957.000000;1.958697
9956.000000;1.961079
9955.000000;1.965786
9954.000000;1.968272
9953.000000;1.964935
9952.000000;1.955906
9951.000000;1.946082
9950.000000;1.941817
9949.000000;1.945687
9948.000000;1.954471
9947.000000;1.962047
9946.000000;1.964743
9945.000000;1.963785
9944.000000;1.962707
9943.000000;1.963839
9942.000000;1.967189
9941.000000;1.970786
9940.000000;1.971945
9939.000000;1.969342
9938.000000;1.963667
9937.000000;1.956740
9936.000000;1.950329
9935.000000;1.945150
9934.000000;1.941158
9933.000000;1.938090
9932.000000;1.935489
9931.000000;1.933389
9930.000000;1.932944
9929.000000;1.935193
9928.000000;1.938977
9927.000000;1.941380
9926.000000;1.941339
9925.000000;1.941778
9924.000000;1.946271
9923.000000;1.953762
9922.000000;1.958250
9921.000000;1.955256
9920.000000;1.947571
9919.000000;1.941831
9918.000000;1.940539
9917.000000;1.939801
9916.000000;1.935393
9915.000000;1.929346
9914.000000;1.927547
9913.000000;1.931861
9912.000000;1.937564
9911.000000;1.939233
9910.000000;1.937445
9909.000000;1.936811
9908.000000;1.938935
9907.000000;1.941054
9906.000000;1.941192
9905.000000;1.940920
9904.000000;1.941683
9903.000000;1.941416
9902.000000;1.937380
9901.000000;1.930902
9900.000000;1.926366
9899.000000;1.926209
9898.000000;1.928864
9897.000000;1.930680
9896.000000;1.928984
9895.000000;1.924473
9894.000000;1.921222
9893.000000;1.923019
9892.000000;1.928604
9891.000000;1.931389
9890.000000;1.926249
9889.000000;1.915851
9888.000000;1.907718
9887.000000;1.907215
9886.000000;1.915223
9885.000000;1.929124
9884.000000;1.942649
9883.000000;1.947035
9882.000000;1.938209
9881.000000;1.923096
9880.000000;1.913570
9879.000000;1.914976
9878.000000;1.923171
9877.000000;1.931177
9876.000000;1.936157
9875.000000;1.938381
9874.000000;1.936977
9873.000000;1.931225
9872.000000;1.923568
9871.000000;1.917190
9870.000000;1.912121
9869.000000;1.906757
9868.000000;1.902518
9867.000000;1.903480
9866.000000;1.910628
9865.000000;1.919101
9864.000000;1.922489
9863.000000;1.919308
9862.000000;1.914345
9861.000000;1.913063
9860.000000;1.915797
9859.000000;1.918256
9858.000000;1.917196
9857.000000;1.914748
9856.000000;1.916144
9855.000000;1.923941
9854.000000;1.935690
9853.000000;1.946778
9852.000000;1.953542
9851.000000;1.953224
9850.000000;1.943333
9849.000000;1.924523
9848.000000;1.903445
9847.000000;1.888763
9846.000000;1.884957
9845.000000;1.890724
9844.000000;1.901814
9843.000000;1.913611
9842.000000;1.920826
9841.000000;1.918889
9840.000000;1.909137
9839.000000;1.899097
9838.000000;1.895381
9837.000000;1.898619
9836.000000;1.904791
9835.000000;1.910128
9834.000000;1.913964
9833.000000;1.917046
9832.000000;1.919951
9831.000000;1.923401
9830.000000;1.927719
9829.000000;1.931473
9828.000000;1.931536
9827.000000;1.925845
9826.000000;1.916521
9825.000000;1.908761
9824.000000;1.905767
9823.000000;1.905625
9822.000000;1.904286
9821.000000;1.901393
9820.000000;1.900873
9819.000000;1.905317
9818.000000;1.911781
9817.000000;1.914149
9816.000000;1.909368
9815.000000;1.899851
9814.000000;1.890348
9813.000000;1.884810
9812.000000;1.885326
9811.000000;1.891049
9810.000000;1.896707
9809.000000;1.895136
9808.000000;1.885294
9807.000000;1.875965
9806.000000;1.877602
9805.000000;1.891415
9804.000000;1.908040
9803.000000;1.917652
9802.000000;1.919853
9801.000000;1.920925
9800.000000;1.923516
9799.000000;1.922991
9798.000000;1.916027
9797.000000;1.907635
9796.000000;1.904450
9795.000000;1.906010
9794.000000;1.906513
9793.000000;1.903064
9792.000000;1.898195
9791.000000;1.894424
9790.000000;1.891125
9789.000000;1.887821
9788.000000;1.886893
9787.000000;1.890459
9786.000000;1.896575
9785.000000;1.900845
9784.000000;1.900617
9783.000000;1.896159
9782.000000;1.889523
9781.000000;1.884144
9780.000000;1.883860
9779.000000;1.889733
9778.000000;1.898075
9777.000000;1.903557
9776.000000;1.904693
9775.000000;1.904600
9774.000000;1.905653
9773.000000;1.906125
9772.000000;1.903509
9771.000000;1.898550
9770.000000;1.894855
9769.000000;1.895371
9768.000000;1.899192
9767.000000;1.901749
9766.000000;1.899169
9765.000000;1.892738
9764.000000;1.887395
9763.000000;1.885498
9762.000000;1.884262
9761.000000;1.880466
9760.000000;1.875606
9759.000000;1.874130
9758.000000;1.878131
9757.000000;1.885597
9756.000000;1.892518
9755.000000;1.895131
9754.000000;1.891314
9753.000000;1.882139
9752.000000;1.871816
9751.000000;1.864439
9750.000000;1.861015
9749.000000;1.860637
9748.000000;1.862981
9747.000000;1.867266
9746.000000;1.870235
9745.000000;1.869000
9744.000000;1.865556
9743.000000;1.864493
9742.000000;1.866495
9741.000000;1.867663
9740.000000;1.865857
9739.000000;1.864477
9738.000000;1.867514
9737.000000;1.873596
9736.000000;1.878051
9735.000000;1.879594
9734.000000;1.881360
9733.000000;1.885581
9732.000000;1.890550
9731.000000;1.892543
9730.000000;1.888603
9729.000000;1.878297
9728.000000;1.864994
9727.000000;1.854737
9726.000000;1.851757
9725.000000;1.854924
9724.000000;1.859095
9723.000000;1.860013
9722.000000;1.857540
9721.000000;1.854397
9720.000000;1.853297
9719.000000;1.855313
9718.000000;1.859064
9717.000000;1.861363
9716.000000;1.860453
9715.000000;1.858602
9714.000000;1.859372
9713.000000;1.862743
9712.000000;1.865514
9711.000000;1.866657
9710.000000;1.869168
9709.000000;1.874874
9708.000000;1.879948
9707.000000;1.878610
9706.000000;1.871173
9705.000000;1.864863
9704.000000;1.865720
9703.000000;1.871861
9702.000000;1.875761
9701.000000;1.873248
9700.000000;1.867406
9699.000000;1.863018
9698.000000;1.860637
9697.000000;1.857047
9696.000000;1.850858
9695.000000;1.845354
9694.000000;1.844186
9693.000000;1.846736
9692.000000;1.849617
9691.000000;1.851362
9690.000000;1.853334
9689.000000;1.856402
9688.000000;1.859483
9687.000000;1.861992
9686.000000;1.865016
9685.000000;1.868302
9684.000000;1.868442
9683.000000;1.862814
9682.000000;1.854066
9681.000000;1.848036
9680.000000;1.847423
9679.000000;1.849130
9678.000000;1.848646
9677.000000;1.845796
9676.000000;1.844467
9675.000000;1.847587
9674.000000;1.853845
9673.000000;1.859185
9672.000000;1.861069
9671.000000;1.861117
9670.000000;1.863352
9669.000000;1.869713
9668.000000;1.877247
9667.000000;1.880425
9666.000000;1.876655
9665.000000;1.868733
9664.000000;1.862295
9663.000000;1.861239
9662.000000;1.864664
9661.000000;1.868242
9660.000000;1.868297
9659.000000;1.863941
9658.000000;1.856202
9657.000000;1.846984
9656.000000;1.839025
9655.000000;1.835002
9654.000000;1.835293
9653.000000;1.837284
9652.000000;1.837967
9651.000000;1.837012
9650.000000;1.836425
9649.000000;1.837434
9648.000000;1.838844
9647.000000;1.838803
9646.000000;1.837330
9645.000000;1.836319
9644.000000;1.837561
9643.000000;1.841370
9642.000000;1.846550
9641.000000;1.850972
9640.000000;1.852368
9639.000000;1.849441
9638.000000;1.843202
9637.000000;1.837182
9636.000000;1.835036
9635.000000;1.837703
9634.000000;1.843727
9633.000000;1.851304
9632.000000;1.858628
9631.000000;1.863258
9630.000000;1.862857
9629.000000;1.857664
9628.000000;1.851404
9627.000000;1.848141
9626.000000;1.848231
9625.000000;1.848277
9624.000000;1.845357
9623.000000;1.840206
9622.000000;1.835606
9621.000000;1.833022
9620.000000;1.832015
9619.000000;1.831907
9618.000000;1.832659
9617.000000;1.834467
9616.000000;1.837459
9615.000000;1.841623
9614.000000;1.846415
9613.000000;1.850579
9612.000000;1.852882
9611.000000;1.852781
9610.000000;1.849879
9609.000000;1.843785
9608.000000;1.835884
9607.000000;1.830175
9606.000000;1.830119
9605.000000;1.834395
9604.000000;1.837244
9603.000000;1.834368
9602.000000;1.827577
9601.000000;1.821843
9600.000000;1.819450
9599.000000;1.818827
9598.000000;1.818032
9597.000000;1.817614
9596.000000;1.819476
9595.000000;1.823978
9594.000000;1.829300
9593.000000;1.833234
9592.000000;1.834457
9591.000000;1.832192
9590.000000;1.826449
9589.000000;1.819135
9588.000000;1.814090
9587.000000;1.814864
9586.000000;1.821212
9585.000000;1.828176
9584.000000;1.830185
9583.000000;1.826551
9582.000000;1.821578
9581.000000;1.819387
9580.000000;1.820645
9579.000000;1.824130
9578.000000;1.829041
9577.000000;1.834403
9576.000000;1.837517
9575.000000;1.835454
9574.000000;1.828883
9573.000000;1.822340
9572.000000;1.819546
9571.000000;1.819790
9570.000000;1.819524
9569.000000;1.816845
9568.000000;1.813443
9567.000000;1.812090
9566.000000;1.813486
9565.000000;1.815626
9564.000000;1.815721
9563.000000;1.813148
9562.000000;1.810244
9561.000000;1.810224
9560.000000;1.814396
9559.000000;1.821007
9558.000000;1.826691
9557.000000;1.829202
9556.000000;1.828785
9555.000000;1.827043
9554.000000;1.825332
9553.000000;1.824384
9552.000000;1.824506
9551.000000;1.825514
9550.000000;1.826814
9549.000000;1.827865
9548.000000;1.828112
9547.000000;1.826891
9546.000000;1.824286
9545.000000;1.821894
9544.000000;1.822217
9543.000000;1.826292
9542.000000;1.831711
9541.000000;1.833773
9540.000000;1.829533
9539.000000;1.820534
9538.000000;1.810781
9537.000000;1.803425
9536.000000;1.799665
9535.000000;1.798931
9534.000000;1.799497
9533.000000;1.799747
9532.000000;1.799256
9531.000000;1.798503
9530.000000;1.797749
9529.000000;1.796765
9528.000000;1.795901
9527.000000;1.796497
9526.000000;1.799352
9525.000000;1.803281
9524.000000;1.806145
9523.000000;1.807165
9522.000000;1.807517
9521.000000;1.808914
9520.000000;1.811962
9519.000000;1.815533
9518.000000;1.817500
9517.000000;1.816357
9516.000000;1.812356
9515.000000;1.806961
9514.000000;1.801910
9513.000000;1.799035
9512.000000;1.799617
9511.000000;1.803280
9510.000000;1.807523
9509.000000;1.808905
9508.000000;1.805884
9507.000000;1.800579
9506.000000;1.797224
9505.000000;1.799152
9504.000000;1.806815
9503.000000;1.816990
9502.000000;1.823419
9501.000000;1.820455
9500.000000;1.808435
9499.000000;1.794491
9498.000000;1.786803
9497.000000;1.788570
9496.000000;1.796474
9495.000000;1.803695
9494.000000;1.805434
9493.000000;1.802595
9492.000000;1.799808
9491.000000;1.800051
9490.000000;1.802038
9489.000000;1.802725
9488.000000;1.801283
9487.000000;1.799865
9486.000000;1.800250
9485.000000;1.801088
9484.000000;1.800417
9483.000000;1.799551
9482.000000;1.801752
9481.000000;1.807948
9480.000000;1.815545
9479.000000;1.820760
9478.000000;1.821093
9477.000000;1.816394
9476.000000;1.809115
9475.000000;1.803123
9474.000000;1.800581
9473.000000;1.799771
9472.000000;1.797165
9471.000000;1.791866
9470.000000;1.786636
9469.000000;1.784549
9468.000000;1.786301
9467.000000;1.790775
9466.000000;1.796353
9465.000000;1.800917
9464.000000;1.802299
9463.000000;1.800316
9462.000000;1.797465
9461.000000;1.796576
9460.000000;1.798071
9459.000000;1.799989
9458.000000;1.800554
9457.000000;1.800101
9456.000000;1.800405
9455.000000;1.802625
9454.000000;1.805744
9453.000000;1.806754
9452.000000;1.803114
9451.000000;1.795692
9450.000000;1.788699
9449.000000;1.786294
9448.000000;1.789503
9447.000000;1.795926
9446.000000;1.801723
9445.000000;1.804418
9444.000000;1.804541
9443.000000;1.804563
9442.000000;1.806180
9441.000000;1.808706
9440.000000;1.810068
9439.000000;1.808825
9438.000000;1.804931
9437.000000;1.799294
9436.000000;1.793485
9435.000000;1.789613
9434.000000;1.789121
9433.000000;1.791446
9432.000000;1.794786
9431.000000;1.797978
9430.000000;1.800751
9429.000000;1.802487
9428.000000;1.802300
9427.000000;1.800536
9426.000000;1.798675
9425.000000;1.797191
9424.000000;1.794663
9423.000000;1.789908
9422.000000;1.784396
9421.000000;1.781667
9420.000000;1.784411
9419.000000;1.791692
9418.000000;1.798523
9417.000000;1.799368
9416.000000;1.793314
9415.000000;1.784957
9414.000000;1.779411
9413.000000;1.777533
9412.000000;1.776788
9411.000000;1.775674
9410.000000;1.775518
9409.000000;1.777889
9408.000000;1.782190
9407.000000;1.786498
9406.000000;1.789368
9405.000000;1.790072
9404.000000;1.788466
9403.000000;1.785691
9402.000000;1.783734
9401.000000;1.783527
9400.000000;1.784316
9399.000000;1.784645
9398.000000;1.783144
9397.000000;1.778966
9396.000000;1.772901
9395.000000;1.767885
9394.000000;1.766456
9393.000000;1.767887
9392.000000;1.769733
9391.000000;1.772069
9390.000000;1.777648
9389.000000;1.786978
9388.000000;1.795621
9387.000000;1.798219
9386.000000;1.794093
9385.000000;1.787032
9384.000000;1.781180
9383.000000;1.778746
9382.000000;1.779694
9381.000000;1.781543
9380.000000;1.780656
9379.000000;1.776102
9378.000000;1.771426
9377.000000;1.770806
9376.000000;1.774551
9375.000000;1.779108
9374.000000;1.780280
9373.000000;1.776052
9372.000000;1.768124
9371.000000;1.761786
9370.000000;1.762348
9369.000000;1.769887
9368.000000;1.777884
9367.000000;1.779314
9366.000000;1.774483
9365.000000;1.769560
9364.000000;1.768463
9363.000000;1.769898
9362.000000;1.770990
9361.000000;1.770728
9360.000000;1.769623
9359.000000;1.768533
9358.000000;1.768717
9357.000000;1.770916
9356.000000;1.773753
9355.000000;1.775084
9354.000000;1.775121
9353.000000;1.776051
9352.000000;1.778467
9351.000000;1.780438
9350.000000;1.780266
9349.000000;1.778076
9348.000000;1.774439
9347.000000;1.769625
9346.000000;1.764505
9345.000000;1.760031
9344.000000;1.755703
9343.000000;1.750856
9342.000000;1.747406
9341.000000;1.748578
9340.000000;1.754479
9339.000000;1.761200
9338.000000;1.765277
9337.000000;1.767006
9336.000000;1.768077
9335.000000;1.768658
9334.000000;1.768645
9333.000000;1.769171
9332.000000;1.770616
9331.000000;1.770998
9330.000000;1.768661
9329.000000;1.765395
9328.000000;1.764568
9327.000000;1.766923
9326.000000;1.770102
9325.000000;1.771415
9324.000000;1.769480
9323.000000;1.764408
9322.000000;1.758106
9321.000000;1.753360
9320.000000;1.751581
9319.000000;1.752112
9318.000000;1.754007
9317.000000;1.757316
9316.000000;1.761848
9315.000000;1.765743
9314.000000;1.766521
9313.000000;1.763628
9312.000000;1.759109
9311.000000;1.755349
9310.000000;1.753250
9309.000000;1.752109
9308.000000;1.750240
9307.000000;1.746654
9306.000000;1.742951
9305.000000;1.742638
9304.000000;1.747198
9303.000000;1.753624
9302.000000;1.757656
9301.000000;1.758926
9300.000000;1.760613
9299.000000;1.764510
9298.000000;1.769030
9297.000000;1.772129
9296.000000;1.773732
9295.000000;1.774304
9294.000000;1.773233
9293.000000;1.770331
9292.000000;1.767542
9291.000000;1.767237
9290.000000;1.768887
9289.000000;1.768785
9288.000000;1.764008
9287.000000;1.756104
9286.000000;1.749628
9285.000000;1.747354
9284.000000;1.747913
9283.000000;1.748201
9282.000000;1.747217
9281.000000;1.746355
9280.000000;1.746546
9279.000000;1.747237
9278.000000;1.748392
9277.000000;1.751310
9276.000000;1.756415
9275.000000;1.761929
9274.000000;1.765868
9273.000000;1.768146
9272.000000;1.769288
9271.000000;1.768093
9270.000000;1.762893
9269.000000;1.754745
9268.000000;1.746958
9267.000000;1.741575
9266.000000;1.738308
9265.000000;1.736730
9264.000000;1.737645
9263.000000;1.741822
9262.000000;1.748605
9261.000000;1.756186
9260.000000;1.762448
9259.000000;1.765517
9258.000000;1.764846
9257.000000;1.762022
9256.000000;1.759318
9255.000000;1.757242
9254.000000;1.754669
9253.000000;1.751371
9252.000000;1.748732
9251.000000;1.747710
9250.000000;1.747439
9249.000000;1.746853
9248.000000;1.746855
9247.000000;1.749100
9246.000000;1.753550
9245.000000;1.758491
9244.000000;1.762133
9243.000000;1.763412
9242.000000;1.762010
9241.000000;1.758819
9240.000000;1.755830
9239.000000;1.754106
9238.000000;1.752233
9237.000000;1.748373
9236.000000;1.743601
9235.000000;1.741332
9234.000000;1.743224
9233.000000;1.747022
9232.000000;1.749134
9231.000000;1.748344
9230.000000;1.746090
9229.000000;1.744083
9228.000000;1.742803
9227.000000;1.742177
9226.000000;1.742438
9225.000000;1.743564
9224.000000;1.744653
9223.000000;1.744692
9222.000000;1.743654
9221.000000;1.742135
9220.000000;1.740141
9219.000000;1.737055
9218.000000;1.733013
9217.000000;1.729610
9216.000000;1.728646
9215.000000;1.730382
9214.000000;1.733357
9213.000000;1.735734
9212.000000;1.736542
9211.000000;1.735986
9210.000000;1.735294
9209.000000;1.736222
9208.000000;1.739738
9207.000000;1.744535
9206.000000;1.747173
9205.000000;1.744788
9204.000000;1.738111
9203.000000;1.731188
9202.000000;1.728056
9201.000000;1.729989
9200.000000;1.735239
9199.000000;1.740584
9198.000000;1.743235
9197.000000;1.742292
9196.000000;1.739262
9195.000000;1.736888
9194.000000;1.736653
9193.000000;1.737382
9192.000000;1.736820
9191.000000;1.734526
9190.000000;1.732304
9189.000000;1.731694
9188.000000;1.732201
9187.000000;1.732714
9186.000000;1.733400
9185.000000;1.734871
9184.000000;1.736451
9183.000000;1.736703
9182.000000;1.735382
9181.000000;1.733571
9180.000000;1.731840
9179.000000;1.729698
9178.000000;1.727050
9177.000000;1.724924
9176.000000;1.724358
9175.000000;1.725363
9174.000000;1.727488
9173.000000;1.730787
9172.000000;1.735494
9171.000000;1.740926
9170.000000;1.745145
9169.000000;1.745760
9168.000000;1.741427
9167.000000;1.733598
9166.000000;1.726701
9165.000000;1.724802
9164.000000;1.727769
9163.000000;1.731517
9162.000000;1.732115
9161.000000;1.729158
9160.000000;1.724943
9159.000000;1.721631
9158.000000;1.720352
9157.000000;1.721917
9156.000000;1.726322
9155.000000;1.731556
9154.000000;1.734875
9153.000000;1.735723
9152.000000;1.735704
9151.000000;1.735922
9150.000000;1.736016
9149.000000;1.735307
9148.000000;1.733756
9147.000000;1.731795
9146.000000;1.729777
9145.000000;1.727896
9144.000000;1.726601
9143.000000;1.726736
9142.000000;1.728899
9141.000000;1.732417
9140.000000;1.735020
9139.000000;1.734540
9138.000000;1.731543
9137.000000;1.729085
9136.000000;1.729194
9135.000000;1.730734
9134.000000;1.731415
9133.000000;1.730816
9132.000000;1.730035
9131.000000;1.729125
9130.000000;1.726799
9129.000000;1.722654
9128.000000;1.718058
9127.000000;1.714688
9126.000000;1.713373
9125.000000;1.714261
9124.000000;1.716824
9123.000000;1.719428
9122.000000;1.720344
9121.000000;1.719982
9120.000000;1.720803
9119.000000;1.723917
9118.000000;1.726705
9117.000000;1.725256
9116.000000;1.719093
9115.000000;1.712221
9114.000000;1.709733
9113.000000;1.713742
9112.000000;1.721590
9111.000000;1.727794
9110.000000;1.728737
9109.000000;1.725754
9108.000000;1.722919
9107.000000;1.722319
9106.000000;1.722592
9105.000000;1.721729
9104.000000;1.719890
9103.000000;1.718763
9102.000000;1.719228
9101.000000;1.720717
9100.000000;1.722366
9099.000000;1.723834
9098.000000;1.724909
9097.000000;1.724894
9096.000000;1.722828
9095.000000;1.718486
9094.000000;1.713215
9093.000000;1.709544
9092.000000;1.709466
9091.000000;1.712757
9090.000000;1.717178
9089.000000;1.720584
9088.000000;1.722618
9087.000000;1.724095
9086.000000;1.725181
9085.000000;1.724799
9084.000000;1.721782
9083.000000;1.716375
9082.000000;1.710680
9081.000000;1.707594
9080.000000;1.708848
9079.000000;1.713796
9078.000000;1.720256
9077.000000;1.726450
9076.000000;1.731269
9075.000000;1.732999
9074.000000;1.729960
9073.000000;1.723068
9072.000000;1.716103
9071.000000;1.712631
9070.000000;1.713395
9069.000000;1.716784
9068.000000;1.720660
9067.000000;1.723174
9066.000000;1.722949
9065.000000;1.719804
9064.000000;1.715221
9063.000000;1.711163
9062.000000;1.708493
9061.000000;1.707174
9060.000000;1.707413
9059.000000;1.709597
9058.000000;1.713385
9057.000000;1.717724
9056.000000;1.721627
9055.000000;1.724252
9054.000000;1.724653
9053.000000;1.722655
