Criado como novo conjunto de dados;"e0108.spp","-4239882.1 Secs"
cm-1;Abs
10000.000000;1.003800
9999.000000;1.002495
9998.000000;1.001193
9997.000000;0.999896
9996.000000;0.998600
9995.000000;0.997313
9994.000000;0.996022
9993.000000;0.994751
9992.000000;0.993455
9991.000000;0.992212
9990.000000;0.990866
9989.000000;0.990065
9988.000000;0.990375
9987.000000;0.991080
9986.000000;0.991012
9985.000000;0.989500
9984.000000;0.987338
9983.000000;0.985988
9982.000000;0.986071
9981.000000;0.986875
9980.000000;0.987343
9979.000000;0.987123
9978.000000;0.986507
9977.000000;0.985833
9976.000000;0.985317
9975.000000;0.985169
9974.000000;0.985398
9973.000000;0.985569
9972.000000;0.985107
9971.000000;0.983936
9970.000000;0.982638
9969.000000;0.981907
9968.000000;0.981999
9967.000000;0.982687
9966.000000;0.983516
9965.000000;0.983957
9964.000000;0.983580
9963.000000;0.982419
9962.000000;0.981221
9961.000000;0.981024
9960.000000;0.982229
9959.000000;0.984075
9958.000000;0.985199
9957.000000;0.984842
9956.000000;0.983431
9955.000000;0.981924
9954.000000;0.980724
9953.000000;0.979474
9952.000000;0.977828
9951.000000;0.976088
9950.000000;0.974851
9949.000000;0.974247
9948.000000;0.973863
9947.000000;0.973381
9946.000000;0.972922
9945.000000;0.972649
9944.000000;0.972363
9943.000000;0.971857
9942.000000;0.971464
9941.000000;0.971824
9940.000000;0.973006
9939.000000;0.974240
9938.000000;0.974701
9937.000000;0.974367
9936.000000;0.973851
9935.000000;0.973619
9934.000000;0.973673
9933.000000;0.973832
9932.000000;0.973915
9931.000000;0.973666
9930.000000;0.972909
9929.000000;0.971889
9928.000000;0.971156
9927.000000;0.970935
9926.000000;0.970793
9925.000000;0.970135
9924.000000;0.968967
9923.000000;0.967928
9922.000000;0.967575
9921.000000;0.967877
9920.000000;0.968384
9919.000000;0.968751
9918.000000;0.968996
9917.000000;0.969314
9916.000000;0.969727
9915.000000;0.969959
9914.000000;0.969680
9913.000000;0.968811
9912.000000;0.967586
9911.000000;0.966324
9910.000000;0.965191
9909.000000;0.964156
9908.000000;0.963127
9907.000000;0.962076
9906.000000;0.961110
9905.000000;0.960502
9904.000000;0.960581
9903.000000;0.961465
9902.000000;0.962842
9901.000000;0.964036
9900.000000;0.964372
9899.000000;0.963593
9898.000000;0.962024
9897.000000;0.960322
9896.000000;0.958986
9895.000000;0.958069
9894.000000;0.957335
9893.000000;0.956631
9892.000000;0.956052
9891.000000;0.955829
9890.000000;0.956128
9889.000000;0.956886
9888.000000;0.957741
9887.000000;0.958214
9886.000000;0.958095
9885.000000;0.957629
9884.000000;0.957204
9883.000000;0.956913
9882.000000;0.956581
9881.000000;0.956113
9880.000000;0.955549
9879.000000;0.954828
9878.000000;0.953860
9877.000000;0.952901
9876.000000;0.952490
9875.000000;0.952816
9874.000000;0.953383
9873.000000;0.953509
9872.000000;0.953010
9871.000000;0.952230
9870.000000;0.951583
9869.000000;0.951306
9868.000000;0.951498
9867.000000;0.952093
9866.000000;0.952784
9865.000000;0.953160
9864.000000;0.952936
9863.000000;0.952013
9862.000000;0.950502
9861.000000;0.948838
9860.000000;0.947617
9859.000000;0.947035
9858.000000;0.946615
9857.000000;0.945799
9856.000000;0.944747
9855.000000;0.944247
9854.000000;0.944805
9853.000000;0.946138
9852.000000;0.947588
9851.000000;0.948726
9850.000000;0.949383
9849.000000;0.949338
9848.000000;0.948289
9847.000000;0.946201
9846.000000;0.943538
9845.000000;0.941133
9844.000000;0.939785
9843.000000;0.939829
9842.000000;0.940870
9841.000000;0.941919
9840.000000;0.941968
9839.000000;0.940723
9838.000000;0.938914
9837.000000;0.937786
9836.000000;0.938015
9835.000000;0.939029
9834.000000;0.939565
9833.000000;0.938960
9832.000000;0.937777
9831.000000;0.937081
9830.000000;0.937332
9829.000000;0.938102
9828.000000;0.938673
9827.000000;0.938620
9826.000000;0.937928
9825.000000;0.936924
9824.000000;0.936125
9823.000000;0.935821
9822.000000;0.935666
9821.000000;0.934969
9820.000000;0.933545
9819.000000;0.932055
9818.000000;0.931254
9817.000000;0.931058
9816.000000;0.930656
9815.000000;0.929538
9814.000000;0.928180
9813.000000;0.927543
9812.000000;0.928036
9811.000000;0.929108
9810.000000;0.929827
9809.000000;0.929729
9808.000000;0.929068
9807.000000;0.928404
9806.000000;0.928126
9805.000000;0.928348
9804.000000;0.929022
9803.000000;0.929981
9802.000000;0.930893
9801.000000;0.931328
9800.000000;0.930993
9799.000000;0.929958
9798.000000;0.928654
9797.000000;0.927575
9796.000000;0.926903
9795.000000;0.926429
9794.000000;0.925910
9793.000000;0.925444
9792.000000;0.925296
9791.000000;0.925418
9790.000000;0.925416
9789.000000;0.925123
9788.000000;0.924957
9787.000000;0.925389
9786.000000;0.926180
9785.000000;0.926464
9784.000000;0.925694
9783.000000;0.924323
9782.000000;0.923391
9781.000000;0.923504
9780.000000;0.924211
9779.000000;0.924364
9778.000000;0.923128
9777.000000;0.920695
9776.000000;0.918048
9775.000000;0.916112
9774.000000;0.915299
9773.000000;0.915709
9772.000000;0.917326
9771.000000;0.919727
9770.000000;0.921883
9769.000000;0.922739
9768.000000;0.922072
9767.000000;0.920540
9766.000000;0.918919
9765.000000;0.917556
9764.000000;0.916473
9763.000000;0.915637
9762.000000;0.914991
9761.000000;0.914496
9760.000000;0.914308
9759.000000;0.914749
9758.000000;0.915947
9757.000000;0.917582
9756.000000;0.919027
9755.000000;0.919693
9754.000000;0.919287
9753.000000;0.917951
9752.000000;0.916236
9751.000000;0.914768
9750.000000;0.913804
9749.000000;0.913150
9748.000000;0.912502
9747.000000;0.911739
9746.000000;0.910909
9745.000000;0.910132
9744.000000;0.909650
9743.000000;0.909778
9742.000000;0.910589
9741.000000;0.911596
9740.000000;0.911907
9739.000000;0.910855
9738.000000;0.908616
9737.000000;0.906222
9736.000000;0.904900
9735.000000;0.905208
9734.000000;0.906744
9733.000000;0.908646
9732.000000;0.910232
9731.000000;0.911072
9730.000000;0.910837
9729.000000;0.909654
9728.000000;0.908471
9727.000000;0.908413
9726.000000;0.909536
9725.000000;0.910694
9724.000000;0.910893
9723.000000;0.910375
9722.000000;0.909970
9721.000000;0.909801
9720.000000;0.909234
9719.000000;0.907891
9718.000000;0.906143
9717.000000;0.904590
9716.000000;0.903507
9715.000000;0.902854
9714.000000;0.902458
9713.000000;0.902053
9712.000000;0.901451
9711.000000;0.900845
9710.000000;0.900679
9709.000000;0.901094
9708.000000;0.901734
9707.000000;0.902196
9706.000000;0.902381
9705.000000;0.902290
9704.000000;0.901772
9703.000000;0.900778
9702.000000;0.899663
9701.000000;0.898924
9700.000000;0.898685
9699.000000;0.898653
9698.000000;0.898523
9697.000000;0.898296
9696.000000;0.898239
9695.000000;0.898643
9694.000000;0.899532
9693.000000;0.900448
9692.000000;0.900662
9691.000000;0.899796
9690.000000;0.898174
9689.000000;0.896405
9688.000000;0.894791
9687.000000;0.893422
9686.000000;0.892673
9685.000000;0.893064
9684.000000;0.894461
9683.000000;0.895851
9682.000000;0.896284
9681.000000;0.895803
9680.000000;0.895092
9679.000000;0.894422
9678.000000;0.893453
9677.000000;0.892069
9676.000000;0.890919
9675.000000;0.890837
9674.000000;0.891915
9673.000000;0.893363
9672.000000;0.894211
9671.000000;0.894022
9670.000000;0.893013
9669.000000;0.891742
9668.000000;0.890752
9667.000000;0.890382
9666.000000;0.890680
9665.000000;0.891379
9664.000000;0.891987
9663.000000;0.892077
9662.000000;0.891590
9661.000000;0.890776
9660.000000;0.889844
9659.000000;0.888771
9658.000000;0.887501
9657.000000;0.886206
9656.000000;0.885182
9655.000000;0.884559
9654.000000;0.884267
9653.000000;0.884220
9652.000000;0.884369
9651.000000;0.884548
9650.000000;0.884481
9649.000000;0.884015
9648.000000;0.883277
9647.000000;0.882575
9646.000000;0.882228
9645.000000;0.882416
9644.000000;0.882945
9643.000000;0.883209
9642.000000;0.882685
9641.000000;0.881584
9640.000000;0.880704
9639.000000;0.880488
9638.000000;0.880535
9637.000000;0.880282
9636.000000;0.879854
9635.000000;0.879831
9634.000000;0.880298
9633.000000;0.880662
9632.000000;0.880443
9631.000000;0.879846
9630.000000;0.879350
9629.000000;0.879075
9628.000000;0.878803
9627.000000;0.878431
9626.000000;0.878071
9625.000000;0.877746
9624.000000;0.877281
9623.000000;0.876604
9622.000000;0.876033
9621.000000;0.876091
9620.000000;0.876984
9619.000000;0.878245
9618.000000;0.878972
9617.000000;0.878503
9616.000000;0.876927
9615.000000;0.874971
9614.000000;0.873410
9613.000000;0.872555
9612.000000;0.872237
9611.000000;0.872169
9610.000000;0.872271
9609.000000;0.872605
9608.000000;0.873041
9607.000000;0.873168
9606.000000;0.872734
9605.000000;0.872100
9604.000000;0.872003
9603.000000;0.872730
9602.000000;0.873700
9601.000000;0.873982
9600.000000;0.873153
9599.000000;0.871569
9598.000000;0.870000
9597.000000;0.869177
9596.000000;0.869408
9595.000000;0.870295
9594.000000;0.870883
9593.000000;0.870473
9592.000000;0.869350
9591.000000;0.868443
9590.000000;0.868253
9589.000000;0.868457
9588.000000;0.868572
9587.000000;0.868580
9586.000000;0.868665
9585.000000;0.868690
9584.000000;0.868318
9583.000000;0.867527
9582.000000;0.866677
9581.000000;0.866098
9580.000000;0.865856
9579.000000;0.865859
9578.000000;0.865925
9577.000000;0.865720
9576.000000;0.864888
9575.000000;0.863408
9574.000000;0.861749
9573.000000;0.860561
9572.000000;0.860217
9571.000000;0.860613
9570.000000;0.861306
9569.000000;0.861859
9568.000000;0.862101
9567.000000;0.862114
9566.000000;0.861997
9565.000000;0.861747
9564.000000;0.861394
9563.000000;0.861151
9562.000000;0.861289
9561.000000;0.861863
9560.000000;0.862552
9559.000000;0.862739
9558.000000;0.861848
9557.000000;0.859920
9556.000000;0.857937
9555.000000;0.857213
9554.000000;0.858143
9553.000000;0.859683
9552.000000;0.860391
9551.000000;0.859947
9550.000000;0.859286
9549.000000;0.859301
9548.000000;0.859871
9547.000000;0.860202
9546.000000;0.859665
9545.000000;0.858107
9544.000000;0.855830
9543.000000;0.853674
9542.000000;0.852721
9541.000000;0.853365
9540.000000;0.854771
9539.000000;0.855723
9538.000000;0.855935
9537.000000;0.856050
9536.000000;0.856458
9535.000000;0.856752
9534.000000;0.856517
9533.000000;0.856033
9532.000000;0.855776
9531.000000;0.855612
9530.000000;0.855036
9529.000000;0.854019
9528.000000;0.853112
9527.000000;0.852685
9526.000000;0.852484
9525.000000;0.852071
9524.000000;0.851413
9523.000000;0.850854
9522.000000;0.850685
9521.000000;0.850918
9520.000000;0.851410
9519.000000;0.852049
9518.000000;0.852753
9517.000000;0.853344
9516.000000;0.853529
9515.000000;0.853123
9514.000000;0.852315
9513.000000;0.851540
9512.000000;0.851036
9511.000000;0.850683
9510.000000;0.850361
9509.000000;0.850214
9508.000000;0.850288
9507.000000;0.850142
9506.000000;0.849234
9505.000000;0.847691
9504.000000;0.846329
9503.000000;0.845803
9502.000000;0.845985
9501.000000;0.846290
9500.000000;0.846344
9499.000000;0.846168
9498.000000;0.845925
9497.000000;0.845725
9496.000000;0.845630
9495.000000;0.845687
9494.000000;0.845940
9493.000000;0.846365
9492.000000;0.846756
9491.000000;0.846754
9490.000000;0.846179
9489.000000;0.845309
9488.000000;0.844612
9487.000000;0.844219
9486.000000;0.843884
9485.000000;0.843464
9484.000000;0.843113
9483.000000;0.842935
9482.000000;0.842781
9481.000000;0.842529
9480.000000;0.842268
9479.000000;0.842011
9478.000000;0.841529
9477.000000;0.840737
9476.000000;0.839971
9475.000000;0.839552
9474.000000;0.839315
9473.000000;0.838895
9472.000000;0.838320
9471.000000;0.837927
9470.000000;0.837801
9469.000000;0.837688
9468.000000;0.837435
9467.000000;0.837210
9466.000000;0.837240
9465.000000;0.837586
9464.000000;0.838163
9463.000000;0.838722
9462.000000;0.838872
9461.000000;0.838415
9460.000000;0.837702
9459.000000;0.837350
9458.000000;0.837529
9457.000000;0.837782
9456.000000;0.837584
9455.000000;0.836875
9454.000000;0.836015
9453.000000;0.835460
9452.000000;0.835518
9451.000000;0.836106
9450.000000;0.836655
9449.000000;0.836523
9448.000000;0.835686
9447.000000;0.834791
9446.000000;0.834393
9445.000000;0.834376
9444.000000;0.834275
9443.000000;0.833929
9442.000000;0.833523
9441.000000;0.833176
9440.000000;0.832798
9439.000000;0.832331
9438.000000;0.831874
9437.000000;0.831496
9436.000000;0.831110
9435.000000;0.830639
9434.000000;0.830199
9433.000000;0.830005
9432.000000;0.830108
9431.000000;0.830326
9430.000000;0.830448
9429.000000;0.830424
9428.000000;0.830305
9427.000000;0.830091
9426.000000;0.829818
9425.000000;0.829787
9424.000000;0.830399
9423.000000;0.831571
9422.000000;0.832503
9421.000000;0.832346
9420.000000;0.831106
9419.000000;0.829650
9418.000000;0.828791
9417.000000;0.828631
9416.000000;0.828811
9415.000000;0.829037
9414.000000;0.829165
9413.000000;0.829032
9412.000000;0.828523
9411.000000;0.827749
9410.000000;0.826940
9409.000000;0.826211
9408.000000;0.825590
9407.000000;0.825228
9406.000000;0.825343
9405.000000;0.825891
9404.000000;0.826466
9403.000000;0.826667
9402.000000;0.826498
9401.000000;0.826287
9400.000000;0.826219
9399.000000;0.826078
9398.000000;0.825543
9397.000000;0.824626
9396.000000;0.823685
9395.000000;0.823040
9394.000000;0.822771
9393.000000;0.822895
9392.000000;0.823489
9391.000000;0.824419
9390.000000;0.825113
9389.000000;0.824921
9388.000000;0.823782
9387.000000;0.822344
9386.000000;0.821381
9385.000000;0.821169
9384.000000;0.821380
9383.000000;0.821450
9382.000000;0.821057
9381.000000;0.820386
9380.000000;0.819956
9379.000000;0.820092
9378.000000;0.820546
9377.000000;0.820742
9376.000000;0.820381
9375.000000;0.819664
9374.000000;0.818972
9373.000000;0.818546
9372.000000;0.818473
9371.000000;0.818747
9370.000000;0.819202
9369.000000;0.819569
9368.000000;0.819709
9367.000000;0.819701
9366.000000;0.819608
9365.000000;0.819325
9364.000000;0.818753
9363.000000;0.818010
9362.000000;0.817379
9361.000000;0.817099
9360.000000;0.817250
9359.000000;0.817672
9358.000000;0.817916
9357.000000;0.817455
9356.000000;0.816147
9355.000000;0.814471
9354.000000;0.813191
9353.000000;0.812789
9352.000000;0.813198
9351.000000;0.813972
9350.000000;0.814647
9349.000000;0.815011
9348.000000;0.815116
9347.000000;0.815013
9346.000000;0.814588
9345.000000;0.813777
9344.000000;0.812862
9343.000000;0.812265
9342.000000;0.812044
9341.000000;0.811901
9340.000000;0.811757
9339.000000;0.811974
9338.000000;0.812799
9337.000000;0.813867
9336.000000;0.814553
9335.000000;0.814639
9334.000000;0.814389
9333.000000;0.814080
9332.000000;0.813742
9331.000000;0.813237
9330.000000;0.812404
9329.000000;0.811257
9328.000000;0.810222
9327.000000;0.809943
9326.000000;0.810540
9325.000000;0.811221
9324.000000;0.811099
9323.000000;0.810316
9322.000000;0.809889
9321.000000;0.810415
9320.000000;0.811427
9319.000000;0.812106
9318.000000;0.812169
9317.000000;0.811818
9316.000000;0.811240
9315.000000;0.810543
9314.000000;0.809927
9313.000000;0.809518
9312.000000;0.809171
9311.000000;0.808732
9310.000000;0.808363
9309.000000;0.808307
9308.000000;0.808396
9307.000000;0.808162
9306.000000;0.807436
9305.000000;0.806586
9304.000000;0.806116
9303.000000;0.806252
9302.000000;0.806902
9301.000000;0.807760
9300.000000;0.808343
9299.000000;0.808197
9298.000000;0.807271
9297.000000;0.806041
9296.000000;0.805149
9295.000000;0.804944
9294.000000;0.805332
9293.000000;0.805908
9292.000000;0.806206
9291.000000;0.805993
9290.000000;0.805441
9289.000000;0.804897
9288.000000;0.804442
9287.000000;0.803862
9286.000000;0.803146
9285.000000;0.802724
9284.000000;0.802945
9283.000000;0.803495
9282.000000;0.803706
9281.000000;0.803409
9280.000000;0.803080
9279.000000;0.803094
9278.000000;0.803227
9277.000000;0.803139
9276.000000;0.803011
9275.000000;0.803264
9274.000000;0.803763
9273.000000;0.803726
9272.000000;0.802563
9271.000000;0.800604
9270.000000;0.798869
9269.000000;0.798217
9268.000000;0.798789
9267.000000;0.800049
9266.000000;0.801209
9265.000000;0.801677
9264.000000;0.801310
9263.000000;0.800378
9262.000000;0.799352
9261.000000;0.798651
9260.000000;0.798473
9259.000000;0.798735
9258.000000;0.799159
9257.000000;0.799483
9256.000000;0.799612
9255.000000;0.799559
9254.000000;0.799320
9253.000000;0.798882
9252.000000;0.798306
9251.000000;0.797688
9250.000000;0.797053
9249.000000;0.796401
9248.000000;0.795810
9247.000000;0.795358
9246.000000;0.795005
9245.000000;0.794707
9244.000000;0.794663
9243.000000;0.795234
9242.000000;0.796479
9241.000000;0.797924
9240.000000;0.798915
9239.000000;0.799161
9238.000000;0.798813
9237.000000;0.798121
9236.000000;0.797208
9235.000000;0.796207
9234.000000;0.795411
9233.000000;0.795099
9232.000000;0.795220
9231.000000;0.795387
9230.000000;0.795273
9229.000000;0.794951
9228.000000;0.794713
9227.000000;0.794576
9226.000000;0.794170
9225.000000;0.793301
9224.000000;0.792438
9223.000000;0.792329
9222.000000;0.793104
9221.000000;0.794036
9220.000000;0.794285
9219.000000;0.793753
9218.000000;0.793045
9217.000000;0.792767
9216.000000;0.793002
9215.000000;0.793410
9214.000000;0.793639
9213.000000;0.793585
9212.000000;0.793361
9211.000000;0.793079
9210.000000;0.792692
9209.000000;0.792079
9208.000000;0.791285
9207.000000;0.790598
9206.000000;0.790317
9205.000000;0.790528
9204.000000;0.791110
9203.000000;0.791872
9202.000000;0.792601
9201.000000;0.793057
9200.000000;0.793024
9199.000000;0.792408
9198.000000;0.791288
9197.000000;0.789968
9196.000000;0.788904
9195.000000;0.788423
9194.000000;0.788443
9193.000000;0.788617
9192.000000;0.788773
9191.000000;0.789037
9190.000000;0.789466
9189.000000;0.789802
9188.000000;0.789814
9187.000000;0.789662
9186.000000;0.789633
9185.000000;0.789647
9184.000000;0.789337
9183.000000;0.788624
9182.000000;0.787892
9181.000000;0.787504
9180.000000;0.787395
9179.000000;0.787253
9178.000000;0.786911
9177.000000;0.786417
9176.000000;0.785885
9175.000000;0.785466
9174.000000;0.785385
9173.000000;0.785781
9172.000000;0.786466
9171.000000;0.786942
9170.000000;0.786770
9169.000000;0.785972
9168.000000;0.785076
9167.000000;0.784711
9166.000000;0.785077
9165.000000;0.785764
9164.000000;0.786142
9163.000000;0.785928
9162.000000;0.785378
9161.000000;0.784972
9160.000000;0.785025
9159.000000;0.785542
9158.000000;0.786285
9157.000000;0.786877
9156.000000;0.786964
9155.000000;0.786417
9154.000000;0.785477
9153.000000;0.784670
9152.000000;0.784488
9151.000000;0.785017
9150.000000;0.785834
9149.000000;0.786346
9148.000000;0.786284
9147.000000;0.785833
9146.000000;0.785296
9145.000000;0.784783
9144.000000;0.784351
9143.000000;0.784236
9142.000000;0.784649
9141.000000;0.785363
9140.000000;0.785790
9139.000000;0.785595
9138.000000;0.785028
9137.000000;0.784520
9136.000000;0.784134
9135.000000;0.783633
9134.000000;0.782978
9133.000000;0.782475
9132.000000;0.782370
9131.000000;0.782527
9130.000000;0.782657
9129.000000;0.782749
9128.000000;0.783043
9127.000000;0.783579
9126.000000;0.783979
9125.000000;0.783827
9124.000000;0.783140
9123.000000;0.782292
9122.000000;0.781532
9121.000000;0.780829
9120.000000;0.780161
9119.000000;0.779688
9118.000000;0.779498
9117.000000;0.779438
9116.000000;0.779393
9115.000000;0.779553
9114.000000;0.780116
9113.000000;0.780847
9112.000000;0.781259
9111.000000;0.781195
9110.000000;0.780869
9109.000000;0.780339
9108.000000;0.779384
9107.000000;0.778097
9106.000000;0.777193
9105.000000;0.777328
9104.000000;0.778297
9103.000000;0.779239
9102.000000;0.779600
9101.000000;0.779557
9100.000000;0.779518
9099.000000;0.779560
9098.000000;0.779515
9097.000000;0.779347
9096.000000;0.779204
9095.000000;0.779204
9094.000000;0.779335
9093.000000;0.779500
9092.000000;0.779529
9091.000000;0.779211
9090.000000;0.778485
9089.000000;0.777616
9088.000000;0.777075
9087.000000;0.777192
9086.000000;0.777923
9085.000000;0.778919
9084.000000;0.779733
9083.000000;0.779999
9082.000000;0.779612
9081.000000;0.778851
9080.000000;0.778240
9079.000000;0.778109
9078.000000;0.778256
9077.000000;0.778146
9076.000000;0.777487
9075.000000;0.776524
9074.000000;0.775761
9073.000000;0.775484
9072.000000;0.775613
9071.000000;0.775892
9070.000000;0.776089
9069.000000;0.776076
9068.000000;0.775848
9067.000000;0.775488
9066.000000;0.775063
9065.000000;0.774579
9064.000000;0.774096
9063.000000;0.773819
9062.000000;0.773933
9061.000000;0.774336
9060.000000;0.774658
9059.000000;0.774593
9058.000000;0.774183
9057.000000;0.773772
9056.000000;0.773731
9055.000000;0.774173
9054.000000;0.774807
9053.000000;0.775105
