Criado como novo conjunto de dados;"e0108.spp","-4270304.0 Secs"
cm-1;Abs
10000.000000;1.047477
9999.000000;1.045394
9998.000000;1.042588
9997.000000;1.040227
9996.000000;1.039420
9995.000000;1.039915
9994.000000;1.040536
9993.000000;1.040208
9992.000000;1.039211
9991.000000;1.038682
9990.000000;1.039216
9989.000000;1.040108
9988.000000;1.040241
9987.000000;1.039280
9986.000000;1.037771
9985.000000;1.036433
9984.000000;1.035735
9983.000000;1.035829
9982.000000;1.036438
9981.000000;1.036895
9980.000000;1.036793
9979.000000;1.036500
9978.000000;1.036646
9977.000000;1.037225
9976.000000;1.037717
9975.000000;1.037904
9974.000000;1.037928
9973.000000;1.037587
9972.000000;1.036322
9971.000000;1.034182
9970.000000;1.032177
9969.000000;1.031271
9968.000000;1.031412
9967.000000;1.031869
9966.000000;1.032177
9965.000000;1.032342
9964.000000;1.032412
9963.000000;1.032370
9962.000000;1.032330
9961.000000;1.032360
9960.000000;1.032200
9959.000000;1.031580
9958.000000;1.030746
9957.000000;1.030263
9956.000000;1.030309
9955.000000;1.030553
9954.000000;1.030810
9953.000000;1.031391
9952.000000;1.032532
9951.000000;1.033750
9950.000000;1.034130
9949.000000;1.033233
9948.000000;1.031486
9947.000000;1.029667
9946.000000;1.028227
9945.000000;1.027162
9944.000000;1.026384
9943.000000;1.025979
9942.000000;1.026022
9941.000000;1.026206
9940.000000;1.025940
9939.000000;1.024975
9938.000000;1.023838
9937.000000;1.023352
9936.000000;1.023675
9935.000000;1.024073
9934.000000;1.023793
9933.000000;1.022989
9932.000000;1.022526
9931.000000;1.022904
9930.000000;1.023592
9929.000000;1.023551
9928.000000;1.022339
9927.000000;1.020547
9926.000000;1.019197
9925.000000;1.018830
9924.000000;1.019143
9923.000000;1.019320
9922.000000;1.018687
9921.000000;1.017160
9920.000000;1.015243
9919.000000;1.013736
9918.000000;1.013355
9917.000000;1.014369
9916.000000;1.016382
9915.000000;1.018435
9914.000000;1.019540
9913.000000;1.019349
9912.000000;1.018298
9911.000000;1.017046
9910.000000;1.015831
9909.000000;1.014512
9908.000000;1.013172
9907.000000;1.012351
9906.000000;1.012458
9905.000000;1.013178
9904.000000;1.013767
9903.000000;1.013876
9902.000000;1.013781
9901.000000;1.013764
9900.000000;1.013669
9899.000000;1.013249
9898.000000;1.012588
9897.000000;1.011849
9896.000000;1.010815
9895.000000;1.009133
9894.000000;1.007028
9893.000000;1.005425
9892.000000;1.005258
9891.000000;1.006748
9890.000000;1.009250
9889.000000;1.011528
9888.000000;1.012308
9887.000000;1.011059
9886.000000;1.008435
9885.000000;1.005706
9884.000000;1.003703
9883.000000;1.002509
9882.000000;1.001982
9881.000000;1.002012
9880.000000;1.002142
9879.000000;1.001634
9878.000000;1.000415
9877.000000;0.999474
9876.000000;0.999670
9875.000000;1.000450
9874.000000;1.000547
9873.000000;0.999851
9872.000000;0.999663
9871.000000;1.000814
9870.000000;1.002273
9869.000000;1.002166
9868.000000;0.999883
9867.000000;0.996700
9866.000000;0.994537
9865.000000;0.994528
9864.000000;0.996463
9863.000000;0.999018
9862.000000;1.000638
9861.000000;1.000678
9860.000000;0.999821
9859.000000;0.999244
9858.000000;0.999470
9857.000000;1.000124
9856.000000;1.000532
9855.000000;1.000253
9854.000000;0.999235
9853.000000;0.997871
9852.000000;0.996922
9851.000000;0.996976
9850.000000;0.997863
9849.000000;0.998756
9848.000000;0.998908
9847.000000;0.998095
9846.000000;0.996466
9845.000000;0.994353
9844.000000;0.992295
9843.000000;0.990862
9842.000000;0.990214
9841.000000;0.989999
9840.000000;0.989828
9839.000000;0.989672
9838.000000;0.989730
9837.000000;0.990116
9836.000000;0.990768
9835.000000;0.991476
9834.000000;0.991851
9833.000000;0.991481
9832.000000;0.990289
9831.000000;0.988650
9830.000000;0.987084
9829.000000;0.985942
9828.000000;0.985391
9827.000000;0.985400
9826.000000;0.985618
9825.000000;0.985523
9824.000000;0.984926
9823.000000;0.984173
9822.000000;0.983694
9821.000000;0.983540
9820.000000;0.983559
9819.000000;0.983785
9818.000000;0.984307
9817.000000;0.984850
9816.000000;0.984802
9815.000000;0.983726
9814.000000;0.981808
9813.000000;0.979839
9812.000000;0.978816
9811.000000;0.979338
9810.000000;0.981041
9809.000000;0.982696
9808.000000;0.983142
9807.000000;0.982162
9806.000000;0.980360
9805.000000;0.978438
9804.000000;0.976907
9803.000000;0.976235
9802.000000;0.976629
9801.000000;0.977572
9800.000000;0.978022
9799.000000;0.977355
9798.000000;0.975886
9797.000000;0.974337
9796.000000;0.973110
9795.000000;0.972308
9794.000000;0.972100
9793.000000;0.972660
9792.000000;0.973814
9791.000000;0.975023
9790.000000;0.975727
9789.000000;0.975622
9788.000000;0.974778
9787.000000;0.973698
9786.000000;0.973128
9785.000000;0.973429
9784.000000;0.974056
9783.000000;0.973946
9782.000000;0.972710
9781.000000;0.971250
9780.000000;0.970879
9779.000000;0.971859
9778.000000;0.973080
9777.000000;0.973269
9776.000000;0.972279
9775.000000;0.970993
9774.000000;0.970210
9773.000000;0.970025
9772.000000;0.970180
9771.000000;0.970528
9770.000000;0.970894
9769.000000;0.970844
9768.000000;0.970012
9767.000000;0.968575
9766.000000;0.967153
9765.000000;0.966238
9764.000000;0.965893
9763.000000;0.965919
9762.000000;0.966088
9761.000000;0.966259
9760.000000;0.966470
9759.000000;0.966872
9758.000000;0.967375
9757.000000;0.967464
9756.000000;0.966690
9755.000000;0.965344
9754.000000;0.964290
9753.000000;0.964047
9752.000000;0.964274
9751.000000;0.964219
9750.000000;0.963435
9749.000000;0.962019
9748.000000;0.960436
9747.000000;0.959278
9746.000000;0.958868
9745.000000;0.958929
9744.000000;0.958891
9743.000000;0.958696
9742.000000;0.958979
9741.000000;0.960167
9740.000000;0.961658
9739.000000;0.962351
9738.000000;0.961906
9737.000000;0.961004
9736.000000;0.960351
9735.000000;0.959872
9734.000000;0.959109
9733.000000;0.958048
9732.000000;0.957219
9731.000000;0.957089
9730.000000;0.957644
9729.000000;0.958548
9728.000000;0.959429
9727.000000;0.959941
9726.000000;0.959724
9725.000000;0.958583
9724.000000;0.956782
9723.000000;0.954952
9722.000000;0.953555
9721.000000;0.952598
9720.000000;0.951989
9719.000000;0.951895
9718.000000;0.952406
9717.000000;0.953021
9716.000000;0.953016
9715.000000;0.952437
9714.000000;0.952225
9713.000000;0.953098
9712.000000;0.954651
9711.000000;0.955872
9710.000000;0.956256
9709.000000;0.956018
9708.000000;0.955437
9707.000000;0.954519
9706.000000;0.953268
9705.000000;0.951854
9704.000000;0.950442
9703.000000;0.949151
9702.000000;0.948149
9701.000000;0.947495
9700.000000;0.946897
9699.000000;0.946016
9698.000000;0.945069
9697.000000;0.944732
9696.000000;0.945375
9695.000000;0.946695
9694.000000;0.948145
9693.000000;0.949274
9692.000000;0.949567
9691.000000;0.948508
9690.000000;0.946242
9689.000000;0.943845
9688.000000;0.942497
9687.000000;0.942516
9686.000000;0.943395
9685.000000;0.944430
9684.000000;0.944944
9683.000000;0.944339
9682.000000;0.942635
9681.000000;0.940872
9680.000000;0.940279
9679.000000;0.940907
9678.000000;0.941587
9677.000000;0.941436
9676.000000;0.940876
9675.000000;0.940822
9674.000000;0.941367
9673.000000;0.941837
9672.000000;0.941876
9671.000000;0.941830
9670.000000;0.942031
9669.000000;0.942205
9668.000000;0.941832
9667.000000;0.940831
9666.000000;0.939658
9665.000000;0.938834
9664.000000;0.938526
9663.000000;0.938515
9662.000000;0.938446
9661.000000;0.938099
9660.000000;0.937437
9659.000000;0.936443
9658.000000;0.935080
9657.000000;0.933584
9656.000000;0.932669
9655.000000;0.933109
9654.000000;0.934950
9653.000000;0.937312
9652.000000;0.939079
9651.000000;0.939711
9650.000000;0.939329
9649.000000;0.938309
9648.000000;0.937065
9647.000000;0.936045
9646.000000;0.935567
9645.000000;0.935587
9644.000000;0.935804
9643.000000;0.936005
9642.000000;0.936122
9641.000000;0.936002
9640.000000;0.935408
9639.000000;0.934315
9638.000000;0.932955
9637.000000;0.931503
9636.000000;0.929915
9635.000000;0.928199
9634.000000;0.926645
9633.000000;0.925642
9632.000000;0.925409
9631.000000;0.925969
9630.000000;0.927170
9629.000000;0.928571
9628.000000;0.929537
9627.000000;0.929735
9626.000000;0.929451
9625.000000;0.929178
9624.000000;0.929012
9623.000000;0.928667
9622.000000;0.928021
9621.000000;0.927335
9620.000000;0.926933
9619.000000;0.926866
9618.000000;0.926954
9617.000000;0.926962
9616.000000;0.926705
9615.000000;0.926184
9614.000000;0.925664
9613.000000;0.925431
9612.000000;0.925411
9611.000000;0.925217
9610.000000;0.924650
9609.000000;0.923972
9608.000000;0.923548
9607.000000;0.923433
9606.000000;0.923452
9605.000000;0.923505
9604.000000;0.923544
9603.000000;0.923392
9602.000000;0.922861
9601.000000;0.922041
9600.000000;0.921285
9599.000000;0.920835
9598.000000;0.920615
9597.000000;0.920424
9596.000000;0.920184
9595.000000;0.919913
9594.000000;0.919599
9593.000000;0.919242
9592.000000;0.918986
9591.000000;0.919040
9590.000000;0.919399
9589.000000;0.919730
9588.000000;0.919666
9587.000000;0.919207
9586.000000;0.918719
9585.000000;0.918467
9584.000000;0.918290
9583.000000;0.917823
9582.000000;0.916937
9581.000000;0.915814
9580.000000;0.914702
9579.000000;0.913807
9578.000000;0.913386
9577.000000;0.913675
9576.000000;0.914581
9575.000000;0.915559
9574.000000;0.915958
9573.000000;0.915507
9572.000000;0.914492
9571.000000;0.913512
9570.000000;0.912995
9569.000000;0.912768
9568.000000;0.912136
9567.000000;0.910630
9566.000000;0.908745
9565.000000;0.907679
9564.000000;0.908255
9563.000000;0.910217
9562.000000;0.912576
9561.000000;0.914376
9560.000000;0.915052
9559.000000;0.914395
9558.000000;0.912632
9557.000000;0.910486
9556.000000;0.908817
9555.000000;0.908061
9554.000000;0.908067
9553.000000;0.908388
9552.000000;0.908590
9551.000000;0.908401
9550.000000;0.907819
9549.000000;0.907081
9548.000000;0.906376
9547.000000;0.905622
9546.000000;0.904702
9545.000000;0.903816
9544.000000;0.903356
9543.000000;0.903454
9542.000000;0.903920
9541.000000;0.904593
9540.000000;0.905458
9539.000000;0.906351
9538.000000;0.906861
9537.000000;0.906734
9536.000000;0.906180
9535.000000;0.905590
9534.000000;0.905101
9533.000000;0.904585
9532.000000;0.903929
9531.000000;0.903125
9530.000000;0.902208
9529.000000;0.901315
9528.000000;0.900748
9527.000000;0.900755
9526.000000;0.901218
9525.000000;0.901706
9524.000000;0.901893
9523.000000;0.901856
9522.000000;0.901944
9521.000000;0.902409
9520.000000;0.903155
9519.000000;0.903757
9518.000000;0.903747
9517.000000;0.902987
9516.000000;0.901881
9515.000000;0.901189
9514.000000;0.901451
9513.000000;0.902401
9512.000000;0.903029
9511.000000;0.902457
9510.000000;0.900798
9509.000000;0.899029
9508.000000;0.897961
9507.000000;0.897533
9506.000000;0.897197
9505.000000;0.896760
9504.000000;0.896516
9503.000000;0.896629
9502.000000;0.896785
9501.000000;0.896570
9500.000000;0.895918
9499.000000;0.895069
9498.000000;0.894327
9497.000000;0.893975
9496.000000;0.894157
9495.000000;0.894625
9494.000000;0.894848
9493.000000;0.894619
9492.000000;0.894349
9491.000000;0.894460
9490.000000;0.894715
9489.000000;0.894538
9488.000000;0.893909
9487.000000;0.893425
9486.000000;0.893387
9485.000000;0.893296
9484.000000;0.892531
9483.000000;0.891228
9482.000000;0.890131
9481.000000;0.889741
9480.000000;0.889940
9479.000000;0.890333
9478.000000;0.890614
9477.000000;0.890605
9476.000000;0.890289
9475.000000;0.889935
9474.000000;0.889976
9473.000000;0.890517
9472.000000;0.891057
9471.000000;0.890915
9470.000000;0.889967
9469.000000;0.888863
9468.000000;0.888424
9467.000000;0.888894
9466.000000;0.889775
9465.000000;0.890293
9464.000000;0.889951
9463.000000;0.888779
9462.000000;0.887229
9461.000000;0.885895
9460.000000;0.885241
9459.000000;0.885447
9458.000000;0.886410
9457.000000;0.887808
9456.000000;0.889113
9455.000000;0.889680
9454.000000;0.889125
9453.000000;0.887718
9452.000000;0.886266
9451.000000;0.885451
9450.000000;0.885312
9449.000000;0.885442
9448.000000;0.885548
9447.000000;0.885635
9446.000000;0.885718
9445.000000;0.885663
9444.000000;0.885425
9443.000000;0.885230
9442.000000;0.885261
9441.000000;0.885292
9440.000000;0.884871
9439.000000;0.883885
9438.000000;0.882732
9437.000000;0.881866
9436.000000;0.881362
9435.000000;0.881034
9434.000000;0.880764
9433.000000;0.880523
9432.000000;0.880210
9431.000000;0.879792
9430.000000;0.879523
9429.000000;0.879664
9428.000000;0.879936
9427.000000;0.879704
9426.000000;0.878962
9425.000000;0.878702
9424.000000;0.879765
9423.000000;0.881510
9422.000000;0.882258
9421.000000;0.881132
9420.000000;0.878970
9419.000000;0.877192
9418.000000;0.876383
9417.000000;0.876334
9416.000000;0.876878
9415.000000;0.877964
9414.000000;0.879091
9413.000000;0.879425
9412.000000;0.878701
9411.000000;0.877528
9410.000000;0.876568
9409.000000;0.875776
9408.000000;0.874729
9407.000000;0.873480
9406.000000;0.872722
9405.000000;0.873083
9404.000000;0.874450
9403.000000;0.876024
9402.000000;0.876941
9401.000000;0.876902
9400.000000;0.876276
9399.000000;0.875611
9398.000000;0.875110
9397.000000;0.874618
9396.000000;0.874027
9395.000000;0.873483
9394.000000;0.873203
9393.000000;0.873276
9392.000000;0.873655
9391.000000;0.874117
9390.000000;0.874196
9389.000000;0.873369
9388.000000;0.871552
9387.000000;0.869353
9386.000000;0.867701
9385.000000;0.867250
9384.000000;0.868065
9383.000000;0.869596
9382.000000;0.870937
9381.000000;0.871428
9380.000000;0.871191
9379.000000;0.870917
9378.000000;0.871003
9377.000000;0.871139
9376.000000;0.870889
9375.000000;0.870364
9374.000000;0.870027
9373.000000;0.869993
9372.000000;0.869952
9371.000000;0.869741
9370.000000;0.869613
9369.000000;0.869824
9368.000000;0.870251
9367.000000;0.870551
9366.000000;0.870497
9365.000000;0.870070
9364.000000;0.869400
9363.000000;0.868730
9362.000000;0.868343
9361.000000;0.868363
9360.000000;0.868637
9359.000000;0.868830
9358.000000;0.868631
9357.000000;0.867944
9356.000000;0.867013
9355.000000;0.866279
9354.000000;0.865973
9353.000000;0.865911
9352.000000;0.865856
9351.000000;0.865965
9350.000000;0.866565
9349.000000;0.867471
9348.000000;0.867917
9347.000000;0.867367
9346.000000;0.866143
9345.000000;0.865029
9344.000000;0.864466
9343.000000;0.864364
9342.000000;0.864505
9341.000000;0.864797
9340.000000;0.865170
9339.000000;0.865460
9338.000000;0.865482
9337.000000;0.865112
9336.000000;0.864303
9335.000000;0.863143
9334.000000;0.861911
9333.000000;0.860999
9332.000000;0.860713
9331.000000;0.861112
9330.000000;0.861903
9329.000000;0.862526
9328.000000;0.862522
9327.000000;0.861958
9326.000000;0.861354
9325.000000;0.861076
9324.000000;0.860961
9323.000000;0.860680
9322.000000;0.860273
9321.000000;0.860063
9320.000000;0.860115
9319.000000;0.860114
9318.000000;0.859821
9317.000000;0.859397
9316.000000;0.859169
9315.000000;0.859238
9314.000000;0.859388
9313.000000;0.859254
9312.000000;0.858534
9311.000000;0.857229
9310.000000;0.855776
9309.000000;0.854784
9308.000000;0.854523
9307.000000;0.854737
9306.000000;0.855034
9305.000000;0.855309
9304.000000;0.855646
9303.000000;0.855956
9302.000000;0.856003
9301.000000;0.855786
9300.000000;0.855651
9299.000000;0.855895
9298.000000;0.856383
9297.000000;0.856700
9296.000000;0.856627
9295.000000;0.856345
9294.000000;0.856147
9293.000000;0.856057
9292.000000;0.855825
9291.000000;0.855262
9290.000000;0.854507
9289.000000;0.853937
9288.000000;0.853849
9287.000000;0.854233
9286.000000;0.854825
9285.000000;0.855311
9284.000000;0.855523
9283.000000;0.855480
9282.000000;0.855313
9281.000000;0.855126
9280.000000;0.854915
9279.000000;0.854628
9278.000000;0.854295
9277.000000;0.854031
9276.000000;0.853898
9275.000000;0.853828
9274.000000;0.853763
9273.000000;0.853796
9272.000000;0.854029
9271.000000;0.854274
9270.000000;0.854089
9269.000000;0.853274
9268.000000;0.852230
9267.000000;0.851616
9266.000000;0.851630
9265.000000;0.851832
9264.000000;0.851723
9263.000000;0.851301
9262.000000;0.850898
9261.000000;0.850651
9260.000000;0.850374
9259.000000;0.849868
9258.000000;0.849114
9257.000000;0.848182
9256.000000;0.847198
9255.000000;0.846449
9254.000000;0.846256
9253.000000;0.846581
9252.000000;0.846924
9251.000000;0.846796
9250.000000;0.846236
9249.000000;0.845717
9248.000000;0.845620
9247.000000;0.845896
9246.000000;0.846175
9245.000000;0.846082
9244.000000;0.845526
9243.000000;0.844834
9242.000000;0.844572
9241.000000;0.845105
9240.000000;0.846288
9239.000000;0.847618
9238.000000;0.848656
9237.000000;0.849257
9236.000000;0.849457
9235.000000;0.849275
9234.000000;0.848727
9233.000000;0.847990
9232.000000;0.847446
9231.000000;0.847461
9230.000000;0.848019
9229.000000;0.848602
9228.000000;0.848566
9227.000000;0.847757
9226.000000;0.846645
9225.000000;0.845822
9224.000000;0.845461
9223.000000;0.845340
9222.000000;0.845216
9221.000000;0.845018
9220.000000;0.844775
9219.000000;0.844578
9218.000000;0.844566
9217.000000;0.844783
9216.000000;0.845044
9215.000000;0.845098
9214.000000;0.844906
9213.000000;0.844633
9212.000000;0.844387
9211.000000;0.844138
9210.000000;0.843919
9209.000000;0.843907
9208.000000;0.844238
9207.000000;0.844851
9206.000000;0.845521
9205.000000;0.845891
9204.000000;0.845481
9203.000000;0.844007
9202.000000;0.841882
9201.000000;0.840173
9200.000000;0.839743
9199.000000;0.840443
9198.000000;0.841340
9197.000000;0.841715
9196.000000;0.841656
9195.000000;0.841670
9194.000000;0.842021
9193.000000;0.842586
9192.000000;0.843145
9191.000000;0.843543
9190.000000;0.843637
9189.000000;0.843330
9188.000000;0.842715
9187.000000;0.842004
9186.000000;0.841251
9185.000000;0.840321
9184.000000;0.839223
9183.000000;0.838303
9182.000000;0.837884
9181.000000;0.837866
9180.000000;0.837912
9179.000000;0.837947
9178.000000;0.838181
9177.000000;0.838640
9176.000000;0.838951
9175.000000;0.838759
9174.000000;0.838162
9173.000000;0.837591
9172.000000;0.837401
9171.000000;0.837666
9170.000000;0.838162
9169.000000;0.838404
9168.000000;0.837957
9167.000000;0.836953
9166.000000;0.836123
9165.000000;0.836031
9164.000000;0.836402
9163.000000;0.836520
9162.000000;0.836180
9161.000000;0.835875
9160.000000;0.836046
9159.000000;0.836532
9158.000000;0.836904
9157.000000;0.837005
9156.000000;0.836952
9155.000000;0.836806
9154.000000;0.836534
9153.000000;0.836209
9152.000000;0.836013
9151.000000;0.836018
9150.000000;0.836073
9149.000000;0.835924
9148.000000;0.835424
9147.000000;0.834668
9146.000000;0.833979
9145.000000;0.833729
9144.000000;0.834121
9143.000000;0.835050
9142.000000;0.836092
9141.000000;0.836597
9140.000000;0.836062
9139.000000;0.834636
9138.000000;0.833226
9137.000000;0.832781
9136.000000;0.833438
9135.000000;0.834503
9134.000000;0.835268
9133.000000;0.835645
9132.000000;0.835924
9131.000000;0.836161
9130.000000;0.836046
9129.000000;0.835282
9128.000000;0.833930
9127.000000;0.832414
9126.000000;0.831271
9125.000000;0.830860
9124.000000;0.831194
9123.000000;0.831984
9122.000000;0.832829
9121.000000;0.833324
9120.000000;0.833134
9119.000000;0.832207
9118.000000;0.830986
9117.000000;0.830186
9116.000000;0.830225
9115.000000;0.830923
9114.000000;0.831761
9113.000000;0.832270
9112.000000;0.832187
9111.000000;0.831519
9110.000000;0.830636
9109.000000;0.830085
9108.000000;0.830100
9107.000000;0.830387
9106.000000;0.830502
9105.000000;0.830334
9104.000000;0.830104
9103.000000;0.830041
9102.000000;0.830226
9101.000000;0.830621
9100.000000;0.831061
9099.000000;0.831321
9098.000000;0.831360
9097.000000;0.831365
9096.000000;0.831445
9095.000000;0.831429
9094.000000;0.831170
9093.000000;0.830817
9092.000000;0.830523
9091.000000;0.830048
9090.000000;0.829070
9089.000000;0.827847
9088.000000;0.827177
9087.000000;0.827555
9086.000000;0.828629
9085.000000;0.829576
9084.000000;0.829816
9083.000000;0.829264
9082.000000;0.828193
9081.000000;0.827076
9080.000000;0.826434
9079.000000;0.826541
9078.000000;0.827171
9077.000000;0.827717
9076.000000;0.827600
9075.000000;0.826661
9074.000000;0.825300
9073.000000;0.824277
9072.000000;0.824261
9071.000000;0.825349
9070.000000;0.826954
9069.000000;0.828184
9068.000000;0.828442
9067.000000;0.827789
9066.000000;0.826790
9065.000000;0.826016
9064.000000;0.825656
9063.000000;0.825544
9062.000000;0.825512
9061.000000;0.825576
9060.000000;0.825759
9059.000000;0.825951
9058.000000;0.826117
9057.000000;0.826473
9056.000000;0.827178
9055.000000;0.827885
9054.000000;0.827913
9053.000000;0.826994
