Criado como novo conjunto de dados;"e0108.spp","-4275884.6 Secs"
cm-1;Abs
10000.000000;1.031805
9999.000000;1.033209
9998.000000;1.034617
9997.000000;1.036030
9996.000000;1.037448
9995.000000;1.038872
9994.000000;1.040296
9993.000000;1.041733
9992.000000;1.043159
9991.000000;1.044619
9990.000000;1.046030
9989.000000;1.047538
9988.000000;1.048267
9987.000000;1.047418
9986.000000;1.045710
9985.000000;1.044064
9984.000000;1.042835
9983.000000;1.041816
9982.000000;1.041097
9981.000000;1.041245
9980.000000;1.042601
9979.000000;1.044593
9978.000000;1.045994
9977.000000;1.045819
9976.000000;1.044021
9975.000000;1.041579
9974.000000;1.039926
9973.000000;1.039926
9972.000000;1.041149
9971.000000;1.042212
9970.000000;1.042070
9969.000000;1.040980
9968.000000;1.039972
9967.000000;1.039527
9966.000000;1.039167
9965.000000;1.038315
9964.000000;1.037128
9963.000000;1.036300
9962.000000;1.036269
9961.000000;1.036729
9960.000000;1.036834
9959.000000;1.035901
9958.000000;1.034044
9957.000000;1.032084
9956.000000;1.030831
9955.000000;1.030534
9954.000000;1.031003
9953.000000;1.031944
9952.000000;1.032880
9951.000000;1.033102
9950.000000;1.032323
9949.000000;1.031375
9948.000000;1.031551
9947.000000;1.032981
9946.000000;1.034195
9945.000000;1.033757
9944.000000;1.031930
9943.000000;1.030072
9942.000000;1.028749
9941.000000;1.027339
9940.000000;1.025511
9939.000000;1.024138
9938.000000;1.024276
9937.000000;1.025753
9936.000000;1.027350
9935.000000;1.028134
9934.000000;1.028076
9933.000000;1.027514
9932.000000;1.026695
9931.000000;1.025949
9930.000000;1.025740
9929.000000;1.026213
9928.000000;1.026913
9927.000000;1.027180
9926.000000;1.026703
9925.000000;1.025582
9924.000000;1.024117
9923.000000;1.022715
9922.000000;1.021773
9921.000000;1.021369
9920.000000;1.021143
9919.000000;1.020720
9918.000000;1.020210
9917.000000;1.020074
9916.000000;1.020498
9915.000000;1.021108
9914.000000;1.021350
9913.000000;1.021029
9912.000000;1.020415
9911.000000;1.019926
9910.000000;1.019803
9909.000000;1.019985
9908.000000;1.020233
9907.000000;1.020336
9906.000000;1.020187
9905.000000;1.019709
9904.000000;1.018859
9903.000000;1.017779
9902.000000;1.016830
9901.000000;1.016294
9900.000000;1.016087
9899.000000;1.015893
9898.000000;1.015504
9897.000000;1.014896
9896.000000;1.014057
9895.000000;1.013002
9894.000000;1.011989
9893.000000;1.011495
9892.000000;1.011829
9891.000000;1.012854
9890.000000;1.014154
9889.000000;1.015323
9888.000000;1.016034
9887.000000;1.016010
9886.000000;1.015166
9885.000000;1.013762
9884.000000;1.012267
9883.000000;1.011037
9882.000000;1.010165
9881.000000;1.009557
9880.000000;1.009062
9879.000000;1.008564
9878.000000;1.008071
9877.000000;1.007743
9876.000000;1.007750
9875.000000;1.008043
9874.000000;1.008243
9873.000000;1.007856
9872.000000;1.006724
9871.000000;1.005256
9870.000000;1.004145
9869.000000;1.003755
9868.000000;1.003803
9867.000000;1.003679
9866.000000;1.003096
9865.000000;1.002359
9864.000000;1.001993
9863.000000;1.002189
9862.000000;1.002675
9861.000000;1.003072
9860.000000;1.003261
9859.000000;1.003319
9858.000000;1.003162
9857.000000;1.002471
9856.000000;1.001117
9855.000000;0.999519
9854.000000;0.998306
9853.000000;0.997646
9852.000000;0.997235
9851.000000;0.997073
9850.000000;0.997810
9849.000000;0.999851
9848.000000;1.002283
9847.000000;1.003317
9846.000000;1.002025
9845.000000;0.999315
9844.000000;0.997018
9843.000000;0.996319
9842.000000;0.997135
9841.000000;0.998482
9840.000000;0.999152
9839.000000;0.998438
9838.000000;0.996716
9837.000000;0.995193
9836.000000;0.994692
9835.000000;0.994779
9834.000000;0.994381
9833.000000;0.993174
9832.000000;0.991946
9831.000000;0.991617
9830.000000;0.992298
9829.000000;0.993394
9828.000000;0.994263
9827.000000;0.994599
9826.000000;0.994399
9825.000000;0.993823
9824.000000;0.993064
9823.000000;0.992266
9822.000000;0.991548
9821.000000;0.991041
9820.000000;0.990776
9819.000000;0.990576
9818.000000;0.990223
9817.000000;0.989741
9816.000000;0.989311
9815.000000;0.988952
9814.000000;0.988564
9813.000000;0.988274
9812.000000;0.988346
9811.000000;0.988622
9810.000000;0.988435
9809.000000;0.987359
9808.000000;0.985795
9807.000000;0.984533
9806.000000;0.983989
9805.000000;0.984088
9804.000000;0.984586
9803.000000;0.985149
9802.000000;0.985307
9801.000000;0.984832
9800.000000;0.984140
9799.000000;0.983857
9798.000000;0.983974
9797.000000;0.983830
9796.000000;0.983042
9795.000000;0.982037
9794.000000;0.981422
9793.000000;0.981204
9792.000000;0.980977
9791.000000;0.980645
9790.000000;0.980576
9789.000000;0.981020
9788.000000;0.981680
9787.000000;0.981969
9786.000000;0.981593
9785.000000;0.980786
9784.000000;0.980017
9783.000000;0.979537
9782.000000;0.979223
9781.000000;0.978814
9780.000000;0.978161
9779.000000;0.977279
9778.000000;0.976304
9777.000000;0.975534
9776.000000;0.975331
9775.000000;0.975729
9774.000000;0.976213
9773.000000;0.976161
9772.000000;0.975562
9771.000000;0.975024
9770.000000;0.974990
9769.000000;0.975175
9768.000000;0.974952
9767.000000;0.974133
9766.000000;0.973215
9765.000000;0.972906
9764.000000;0.973500
9763.000000;0.974556
9762.000000;0.975143
9761.000000;0.974614
9760.000000;0.973253
9759.000000;0.971980
9758.000000;0.971399
9757.000000;0.971286
9756.000000;0.971056
9755.000000;0.970402
9754.000000;0.969339
9753.000000;0.967992
9752.000000;0.966632
9751.000000;0.965654
9750.000000;0.965162
9749.000000;0.964735
9748.000000;0.964010
9747.000000;0.963361
9746.000000;0.963536
9745.000000;0.964643
9744.000000;0.965935
9743.000000;0.966694
9742.000000;0.966916
9741.000000;0.966892
9740.000000;0.966494
9739.000000;0.965341
9738.000000;0.963523
9737.000000;0.961814
9736.000000;0.961088
9735.000000;0.961641
9734.000000;0.963080
9733.000000;0.964737
9732.000000;0.966124
9731.000000;0.967035
9730.000000;0.967368
9729.000000;0.967045
9728.000000;0.966168
9727.000000;0.965031
9726.000000;0.963753
9725.000000;0.962082
9724.000000;0.959869
9723.000000;0.957663
9722.000000;0.956417
9721.000000;0.956506
9720.000000;0.957363
9719.000000;0.958192
9718.000000;0.958708
9717.000000;0.959003
9716.000000;0.959053
9715.000000;0.958768
9714.000000;0.958322
9713.000000;0.958020
9712.000000;0.957889
9711.000000;0.957789
9710.000000;0.957837
9709.000000;0.958336
9708.000000;0.959201
9707.000000;0.959859
9706.000000;0.959849
9705.000000;0.959279
9704.000000;0.958467
9703.000000;0.957387
9702.000000;0.955765
9701.000000;0.953716
9700.000000;0.951974
9699.000000;0.951312
9698.000000;0.951800
9697.000000;0.952697
9696.000000;0.953135
9695.000000;0.952951
9694.000000;0.952762
9693.000000;0.953126
9692.000000;0.953759
9691.000000;0.953786
9690.000000;0.952746
9689.000000;0.951086
9688.000000;0.949569
9687.000000;0.948484
9686.000000;0.947747
9685.000000;0.947470
9684.000000;0.947898
9683.000000;0.948771
9682.000000;0.949294
9681.000000;0.948975
9680.000000;0.948164
9679.000000;0.947488
9678.000000;0.947079
9677.000000;0.946669
9676.000000;0.946133
9675.000000;0.945515
9674.000000;0.944771
9673.000000;0.944013
9672.000000;0.943874
9671.000000;0.944936
9670.000000;0.946694
9669.000000;0.947727
9668.000000;0.947249
9667.000000;0.945981
9666.000000;0.945084
9665.000000;0.944747
9664.000000;0.944350
9663.000000;0.943605
9662.000000;0.942873
9661.000000;0.942434
9660.000000;0.942081
9659.000000;0.941530
9658.000000;0.940826
9657.000000;0.940272
9656.000000;0.940204
9655.000000;0.940786
9654.000000;0.941711
9653.000000;0.942255
9652.000000;0.942001
9651.000000;0.941387
9650.000000;0.941030
9649.000000;0.940670
9648.000000;0.939508
9647.000000;0.937640
9646.000000;0.936348
9645.000000;0.936593
9644.000000;0.937854
9643.000000;0.938906
9642.000000;0.939241
9641.000000;0.939191
9640.000000;0.938997
9639.000000;0.938467
9638.000000;0.937470
9637.000000;0.936233
9636.000000;0.935133
9635.000000;0.934532
9634.000000;0.934702
9633.000000;0.935528
9632.000000;0.936390
9631.000000;0.936715
9630.000000;0.936539
9629.000000;0.936203
9628.000000;0.935659
9627.000000;0.934550
9626.000000;0.932934
9625.000000;0.931367
9624.000000;0.930217
9623.000000;0.929381
9622.000000;0.928808
9621.000000;0.928806
9620.000000;0.929563
9619.000000;0.930713
9618.000000;0.931656
9617.000000;0.932108
9616.000000;0.932094
9615.000000;0.931619
9614.000000;0.930668
9613.000000;0.929435
9612.000000;0.928277
9611.000000;0.927412
9610.000000;0.926805
9609.000000;0.926323
9608.000000;0.925966
9607.000000;0.925936
9606.000000;0.926457
9605.000000;0.927399
9604.000000;0.928139
9603.000000;0.928031
9602.000000;0.927050
9601.000000;0.925776
9600.000000;0.924724
9599.000000;0.923985
9598.000000;0.923594
9597.000000;0.923858
9596.000000;0.924934
9595.000000;0.926309
9594.000000;0.927049
9593.000000;0.926585
9592.000000;0.925102
9591.000000;0.923313
9590.000000;0.922083
9589.000000;0.922112
9588.000000;0.923508
9587.000000;0.925495
9586.000000;0.926803
9585.000000;0.926613
9584.000000;0.925091
9583.000000;0.923041
9582.000000;0.921255
9581.000000;0.920221
9580.000000;0.920075
9579.000000;0.920548
9578.000000;0.921076
9577.000000;0.921214
9576.000000;0.920953
9575.000000;0.920582
9574.000000;0.920327
9573.000000;0.920251
9572.000000;0.920367
9571.000000;0.920607
9570.000000;0.920724
9569.000000;0.920468
9568.000000;0.919899
9567.000000;0.919336
9566.000000;0.918910
9565.000000;0.918353
9564.000000;0.917424
9563.000000;0.916415
9562.000000;0.915951
9561.000000;0.916242
9560.000000;0.916703
9559.000000;0.916476
9558.000000;0.915342
9557.000000;0.914002
9556.000000;0.913437
9555.000000;0.913984
9554.000000;0.915034
9553.000000;0.915622
9552.000000;0.915278
9551.000000;0.914289
9550.000000;0.913219
9549.000000;0.912421
9548.000000;0.912042
9547.000000;0.912199
9546.000000;0.912793
9545.000000;0.913221
9544.000000;0.912717
9543.000000;0.911224
9542.000000;0.909704
9541.000000;0.909286
9540.000000;0.910186
9539.000000;0.911650
9538.000000;0.912834
9537.000000;0.913431
9536.000000;0.913480
9535.000000;0.912988
9534.000000;0.911996
9533.000000;0.910823
9532.000000;0.909949
9531.000000;0.909610
9530.000000;0.909639
9529.000000;0.909650
9528.000000;0.909312
9527.000000;0.908540
9526.000000;0.907616
9525.000000;0.907046
9524.000000;0.907083
9523.000000;0.907316
9522.000000;0.906998
9521.000000;0.905910
9520.000000;0.904716
9519.000000;0.904230
9518.000000;0.904476
9517.000000;0.904748
9516.000000;0.904561
9515.000000;0.904176
9514.000000;0.904073
9513.000000;0.904221
9512.000000;0.904119
9511.000000;0.903463
9510.000000;0.902511
9509.000000;0.901828
9508.000000;0.901788
9507.000000;0.902267
9506.000000;0.902653
9505.000000;0.902287
9504.000000;0.901090
9503.000000;0.899772
9502.000000;0.899208
9501.000000;0.899599
9500.000000;0.900380
9499.000000;0.900906
9498.000000;0.901039
9497.000000;0.901037
9496.000000;0.901134
9495.000000;0.901342
9494.000000;0.901508
9493.000000;0.901424
9492.000000;0.900970
9491.000000;0.900266
9490.000000;0.899616
9489.000000;0.899222
9488.000000;0.898981
9487.000000;0.898636
9486.000000;0.898053
9485.000000;0.897329
9484.000000;0.896729
9483.000000;0.896553
9482.000000;0.896949
9481.000000;0.897733
9480.000000;0.898486
9479.000000;0.898908
9478.000000;0.899007
9477.000000;0.898864
9476.000000;0.898352
9475.000000;0.897284
9474.000000;0.895799
9473.000000;0.894474
9472.000000;0.893950
9471.000000;0.894415
9470.000000;0.895406
9469.000000;0.896094
9468.000000;0.895915
9467.000000;0.895016
9466.000000;0.894044
9465.000000;0.893441
9464.000000;0.893093
9463.000000;0.892651
9462.000000;0.891999
9461.000000;0.891355
9460.000000;0.891038
9459.000000;0.891244
9458.000000;0.891881
9457.000000;0.892538
9456.000000;0.892749
9455.000000;0.892426
9454.000000;0.891943
9453.000000;0.891724
9452.000000;0.891879
9451.000000;0.892242
9450.000000;0.892535
9449.000000;0.892415
9448.000000;0.891700
9447.000000;0.890765
9446.000000;0.890448
9445.000000;0.891196
9444.000000;0.892476
9443.000000;0.893274
9442.000000;0.893053
9441.000000;0.891956
9440.000000;0.890379
9439.000000;0.888832
9438.000000;0.887992
9437.000000;0.888179
9436.000000;0.888698
9435.000000;0.888316
9434.000000;0.886684
9433.000000;0.884805
9432.000000;0.883838
9431.000000;0.883854
9430.000000;0.884090
9429.000000;0.884075
9428.000000;0.884043
9427.000000;0.884376
9426.000000;0.885087
9425.000000;0.885842
9424.000000;0.886227
9423.000000;0.885984
9422.000000;0.885226
9421.000000;0.884442
9420.000000;0.884098
9419.000000;0.884202
9418.000000;0.884381
9417.000000;0.884364
9416.000000;0.884214
9415.000000;0.884120
9414.000000;0.884161
9413.000000;0.884311
9412.000000;0.884482
9411.000000;0.884452
9410.000000;0.883912
9409.000000;0.882776
9408.000000;0.881440
9407.000000;0.880572
9406.000000;0.880540
9405.000000;0.881051
9404.000000;0.881446
9403.000000;0.881359
9402.000000;0.880978
9401.000000;0.880635
9400.000000;0.880318
9399.000000;0.879819
9398.000000;0.879238
9397.000000;0.878994
9396.000000;0.879212
9395.000000;0.879423
9394.000000;0.879135
9393.000000;0.878555
9392.000000;0.878407
9391.000000;0.878992
9390.000000;0.879684
9389.000000;0.879518
9388.000000;0.878199
9387.000000;0.876429
9386.000000;0.875241
9385.000000;0.875092
9384.000000;0.875607
9383.000000;0.876087
9382.000000;0.876160
9381.000000;0.875938
9380.000000;0.875669
9379.000000;0.875412
9378.000000;0.875086
9377.000000;0.874735
9376.000000;0.874631
9375.000000;0.875024
9374.000000;0.875796
9373.000000;0.876411
9372.000000;0.876377
9371.000000;0.875775
9370.000000;0.875196
9369.000000;0.875089
9368.000000;0.875309
9367.000000;0.875402
9366.000000;0.875103
9365.000000;0.874377
9364.000000;0.873216
9363.000000;0.871809
9362.000000;0.870785
9361.000000;0.870784
9360.000000;0.871627
9359.000000;0.872299
9358.000000;0.872020
9357.000000;0.871098
9356.000000;0.870480
9355.000000;0.870729
9354.000000;0.871620
9353.000000;0.872456
9352.000000;0.872517
9351.000000;0.871446
9350.000000;0.869601
9349.000000;0.867927
9348.000000;0.867174
9347.000000;0.867221
9346.000000;0.867397
9345.000000;0.867364
9344.000000;0.867361
9343.000000;0.867559
9342.000000;0.867633
9341.000000;0.867143
9340.000000;0.866127
9339.000000;0.865073
9338.000000;0.864465
9337.000000;0.864479
9336.000000;0.865019
9335.000000;0.865801
9334.000000;0.866451
9333.000000;0.866701
9332.000000;0.866587
9331.000000;0.866400
9330.000000;0.866407
9329.000000;0.866613
9328.000000;0.866819
9327.000000;0.866904
9326.000000;0.866970
9325.000000;0.867160
9324.000000;0.867386
9323.000000;0.867396
9322.000000;0.867077
9321.000000;0.866536
9320.000000;0.865859
9319.000000;0.865022
9318.000000;0.864158
9317.000000;0.863641
9316.000000;0.863677
9315.000000;0.863925
9314.000000;0.863812
9313.000000;0.863169
9312.000000;0.862321
9311.000000;0.861609
9310.000000;0.861100
9309.000000;0.860737
9308.000000;0.860475
9307.000000;0.860247
9306.000000;0.860024
9305.000000;0.859972
9304.000000;0.860267
9303.000000;0.860740
9302.000000;0.860986
9301.000000;0.860935
9300.000000;0.860980
9299.000000;0.861395
9298.000000;0.861921
9297.000000;0.862169
9296.000000;0.862181
9295.000000;0.862269
9294.000000;0.862469
9293.000000;0.862519
9292.000000;0.862264
9291.000000;0.861736
9290.000000;0.860907
9289.000000;0.859718
9288.000000;0.858402
9287.000000;0.857458
9286.000000;0.857178
9285.000000;0.857445
9284.000000;0.858036
9283.000000;0.858848
9282.000000;0.859698
9281.000000;0.860152
9280.000000;0.859843
9279.000000;0.858863
9278.000000;0.857659
9277.000000;0.856632
9276.000000;0.855980
9275.000000;0.855801
9274.000000;0.856124
9273.000000;0.856801
9272.000000;0.857560
9271.000000;0.858181
9270.000000;0.858572
9269.000000;0.858692
9268.000000;0.858537
9267.000000;0.858198
9266.000000;0.857815
9265.000000;0.857395
9264.000000;0.856813
9263.000000;0.856063
9262.000000;0.855446
9261.000000;0.855376
9260.000000;0.855969
9259.000000;0.856832
9258.000000;0.857315
9257.000000;0.857013
9256.000000;0.856042
9255.000000;0.854836
9254.000000;0.853720
9253.000000;0.852778
9252.000000;0.852119
9251.000000;0.851987
9250.000000;0.852426
9249.000000;0.852975
9248.000000;0.852974
9247.000000;0.852209
9246.000000;0.851101
9245.000000;0.850264
9244.000000;0.850052
9243.000000;0.850526
9242.000000;0.851559
9241.000000;0.852822
9240.000000;0.853864
9239.000000;0.854420
9238.000000;0.854549
9237.000000;0.854379
9236.000000;0.853885
9235.000000;0.853050
9234.000000;0.852116
9233.000000;0.851420
9232.000000;0.851033
9231.000000;0.850758
9230.000000;0.850443
9229.000000;0.850140
9228.000000;0.849942
9227.000000;0.849821
9226.000000;0.849652
9225.000000;0.849282
9224.000000;0.848668
9223.000000;0.848064
9222.000000;0.847931
9221.000000;0.848397
9220.000000;0.848869
9219.000000;0.848542
9218.000000;0.847381
9217.000000;0.846299
9216.000000;0.846201
9215.000000;0.847086
9214.000000;0.848232
9213.000000;0.849025
9212.000000;0.849328
9211.000000;0.849234
9210.000000;0.848823
9209.000000;0.848220
9208.000000;0.847633
9207.000000;0.847189
9206.000000;0.846825
9205.000000;0.846426
9204.000000;0.846041
9203.000000;0.845920
9202.000000;0.846290
9201.000000;0.847041
9200.000000;0.847643
9199.000000;0.847527
9198.000000;0.846654
9197.000000;0.845632
9196.000000;0.845155
9195.000000;0.845408
9194.000000;0.846060
9193.000000;0.846699
9192.000000;0.847085
9191.000000;0.847083
9190.000000;0.846615
9189.000000;0.845788
9188.000000;0.844931
9187.000000;0.844379
9186.000000;0.844225
9185.000000;0.844308
9184.000000;0.844384
9183.000000;0.844314
9182.000000;0.844143
9181.000000;0.844026
9180.000000;0.844033
9179.000000;0.844043
9178.000000;0.843883
9177.000000;0.843534
9176.000000;0.843115
9175.000000;0.842683
9174.000000;0.842210
9173.000000;0.841770
9172.000000;0.841603
9171.000000;0.841863
9170.000000;0.842330
9169.000000;0.842511
9168.000000;0.842045
9167.000000;0.841057
9166.000000;0.840100
9165.000000;0.839735
9164.000000;0.840081
9163.000000;0.840751
9162.000000;0.841237
9161.000000;0.841389
9160.000000;0.841451
9159.000000;0.841655
9158.000000;0.841890
9157.000000;0.841822
9156.000000;0.841277
9155.000000;0.840441
9154.000000;0.839744
9153.000000;0.839621
9152.000000;0.840246
9151.000000;0.841328
9150.000000;0.842150
9149.000000;0.842089
9148.000000;0.841217
9147.000000;0.840314
9146.000000;0.840130
9145.000000;0.840645
9144.000000;0.841140
9143.000000;0.840985
9142.000000;0.840206
9141.000000;0.839259
9140.000000;0.838423
9139.000000;0.837614
9138.000000;0.836746
9137.000000;0.836052
9136.000000;0.835908
9135.000000;0.836407
9134.000000;0.837199
9133.000000;0.837770
9132.000000;0.837849
9131.000000;0.837569
9130.000000;0.837302
9129.000000;0.837358
9128.000000;0.837768
9127.000000;0.838279
9126.000000;0.838550
9125.000000;0.838433
9124.000000;0.838073
9123.000000;0.837699
9122.000000;0.837321
9121.000000;0.836759
9120.000000;0.836038
9119.000000;0.835614
9118.000000;0.835999
9117.000000;0.837134
9116.000000;0.838310
9115.000000;0.838799
9114.000000;0.838441
9113.000000;0.837606
9112.000000;0.836758
9111.000000;0.836191
9110.000000;0.835957
9109.000000;0.835790
9108.000000;0.835232
9107.000000;0.834164
9106.000000;0.833189
9105.000000;0.833151
9104.000000;0.834172
9103.000000;0.835446
9102.000000;0.836153
9101.000000;0.836307
9100.000000;0.836443
9099.000000;0.836692
9098.000000;0.836570
9097.000000;0.835695
9096.000000;0.834380
9095.000000;0.833360
9094.000000;0.833108
9093.000000;0.833489
9092.000000;0.833963
9091.000000;0.834017
9090.000000;0.833525
9089.000000;0.832823
9088.000000;0.832426
9087.000000;0.832593
9086.000000;0.833109
9085.000000;0.833476
9084.000000;0.833316
9083.000000;0.832641
9082.000000;0.831840
9081.000000;0.831430
9080.000000;0.831705
9079.000000;0.832508
9078.000000;0.833377
9077.000000;0.833915
9076.000000;0.833980
9075.000000;0.833582
9074.000000;0.832795
9073.000000;0.831877
9072.000000;0.831311
9071.000000;0.831450
9070.000000;0.832099
9069.000000;0.832620
9068.000000;0.832579
9067.000000;0.832171
9066.000000;0.831866
9065.000000;0.831762
9064.000000;0.831490
9063.000000;0.830776
9062.000000;0.829859
9061.000000;0.829227
9060.000000;0.829067
9059.000000;0.829155
9058.000000;0.829220
9057.000000;0.829203
9056.000000;0.829107
9055.000000;0.828802
9054.000000;0.828168
9053.000000;0.827404
