Criado como novo conjunto de dados;"e0108.spp","-4223321.6 Secs"
cm-1;Abs
10000.000000;2.022893
9999.000000;2.013405
9998.000000;2.002223
9997.000000;1.995559
9996.000000;1.995273
9995.000000;1.998462
9994.000000;2.000621
9993.000000;2.000205
9992.000000;1.999824
9991.000000;2.002250
9990.000000;2.007674
9989.000000;2.014401
9988.000000;2.019941
9987.000000;2.022415
9986.000000;2.022301
9985.000000;2.021406
9984.000000;2.021040
9983.000000;2.022550
9982.000000;2.027321
9981.000000;2.034093
9980.000000;2.037071
9979.000000;2.030942
9978.000000;2.017832
9977.000000;2.005313
9976.000000;1.999480
9975.000000;2.000687
9974.000000;2.003993
9973.000000;2.004085
9972.000000;2.000241
9971.000000;1.995942
9970.000000;1.994356
9969.000000;1.995685
9968.000000;1.998510
9967.000000;2.001969
9966.000000;2.005622
9965.000000;2.008695
9964.000000;2.011001
9963.000000;2.013279
9962.000000;2.015872
9961.000000;2.018082
9960.000000;2.019694
9959.000000;2.022306
9958.000000;2.026571
9957.000000;2.028890
9956.000000;2.024961
9955.000000;2.017010
9954.000000;2.012159
9953.000000;2.012598
9952.000000;2.012249
9951.000000;2.005556
9950.000000;1.995957
9949.000000;1.990410
9948.000000;1.989278
9947.000000;1.987297
9946.000000;1.983057
9945.000000;1.982041
9944.000000;1.989313
9943.000000;2.003092
9942.000000;2.016730
9941.000000;2.025255
9940.000000;2.027838
9939.000000;2.024803
9938.000000;2.016499
9937.000000;2.006321
9936.000000;1.999485
9935.000000;1.997172
9934.000000;1.995374
9933.000000;1.989580
9932.000000;1.979622
9931.000000;1.970286
9930.000000;1.967364
9929.000000;1.973022
9928.000000;1.984964
9927.000000;1.999520
9926.000000;2.014104
9925.000000;2.025375
9924.000000;2.027382
9923.000000;2.016768
9922.000000;1.999019
9921.000000;1.983941
9920.000000;1.976887
9919.000000;1.977039
9918.000000;1.980960
9917.000000;1.985224
9916.000000;1.986844
9915.000000;1.984480
9914.000000;1.980692
9913.000000;1.980903
9912.000000;1.988310
9911.000000;2.000752
9910.000000;2.012765
9909.000000;2.019106
9908.000000;2.016256
9907.000000;2.004018
9906.000000;1.988061
9905.000000;1.978045
9904.000000;1.980505
9903.000000;1.993063
9902.000000;2.005105
9901.000000;2.005707
9900.000000;1.993131
9899.000000;1.976158
9898.000000;1.966218
9897.000000;1.968973
9896.000000;1.980579
9895.000000;1.990278
9894.000000;1.990525
9893.000000;1.985307
9892.000000;1.984241
9891.000000;1.991031
9890.000000;2.000094
9889.000000;2.002433
9888.000000;1.993564
9887.000000;1.977047
9886.000000;1.961470
9885.000000;1.953814
9884.000000;1.955372
9883.000000;1.961272
9882.000000;1.964255
9881.000000;1.961656
9880.000000;1.957530
9879.000000;1.956418
9878.000000;1.957713
9877.000000;1.957887
9876.000000;1.956072
9875.000000;1.955321
9874.000000;1.959070
9873.000000;1.967029
9872.000000;1.974412
9871.000000;1.975930
9870.000000;1.971038
9869.000000;1.964329
9868.000000;1.960573
9867.000000;1.960871
9866.000000;1.963761
9865.000000;1.968327
9864.000000;1.974882
9863.000000;1.982029
9862.000000;1.985072
9861.000000;1.980563
9860.000000;1.971557
9859.000000;1.965533
9858.000000;1.967828
9857.000000;1.978435
9856.000000;1.993554
9855.000000;2.007778
9854.000000;2.014953
9853.000000;2.010850
9852.000000;1.997211
9851.000000;1.981050
9850.000000;1.968977
9849.000000;1.963346
9848.000000;1.963621
9847.000000;1.969510
9846.000000;1.980854
9845.000000;1.994515
9844.000000;2.003643
9843.000000;2.002904
9842.000000;1.994485
9841.000000;1.985619
9840.000000;1.980162
9839.000000;1.975702
9838.000000;1.969276
9837.000000;1.963288
9836.000000;1.962645
9835.000000;1.967197
9834.000000;1.970731
9833.000000;1.968472
9832.000000;1.962794
9831.000000;1.958794
9830.000000;1.957238
9829.000000;1.955256
9828.000000;1.952337
9827.000000;1.951588
9826.000000;1.954596
9825.000000;1.958521
9824.000000;1.960529
9823.000000;1.962467
9822.000000;1.967030
9821.000000;1.971604
9820.000000;1.970631
9819.000000;1.963153
9818.000000;1.953945
9817.000000;1.947785
9816.000000;1.945413
9815.000000;1.945296
9814.000000;1.947514
9813.000000;1.953689
9812.000000;1.963023
9811.000000;1.970539
9810.000000;1.970927
9809.000000;1.963549
9808.000000;1.952928
9807.000000;1.945528
9806.000000;1.946220
9805.000000;1.955425
9804.000000;1.967542
9803.000000;1.973687
9802.000000;1.969309
9801.000000;1.958929
9800.000000;1.951170
9799.000000;1.950442
9798.000000;1.954846
9797.000000;1.959593
9796.000000;1.961083
9795.000000;1.959202
9794.000000;1.956634
9793.000000;1.956453
9792.000000;1.959714
9791.000000;1.963822
9790.000000;1.963868
9789.000000;1.957683
9788.000000;1.948871
9787.000000;1.942565
9786.000000;1.939143
9785.000000;1.934948
9784.000000;1.929387
9783.000000;1.927277
9782.000000;1.931960
9781.000000;1.939271
9780.000000;1.942015
9779.000000;1.939054
9778.000000;1.935126
9777.000000;1.933128
9776.000000;1.931405
9775.000000;1.928300
9774.000000;1.925522
9773.000000;1.925055
9772.000000;1.925379
9771.000000;1.924772
9770.000000;1.925887
9769.000000;1.931468
9768.000000;1.938546
9767.000000;1.941631
9766.000000;1.939439
9765.000000;1.935217
9764.000000;1.932350
9763.000000;1.931509
9762.000000;1.930762
9761.000000;1.927381
9760.000000;1.920759
9759.000000;1.914446
9758.000000;1.913234
9757.000000;1.917056
9756.000000;1.919689
9755.000000;1.916285
9754.000000;1.910988
9753.000000;1.912492
9752.000000;1.923181
9751.000000;1.936177
9750.000000;1.943428
9749.000000;1.944136
9748.000000;1.942328
9747.000000;1.940128
9746.000000;1.937705
9745.000000;1.936267
9744.000000;1.937309
9743.000000;1.940188
9742.000000;1.942772
9741.000000;1.943949
9740.000000;1.943232
9739.000000;1.939185
9738.000000;1.931736
9737.000000;1.925106
9736.000000;1.924942
9735.000000;1.932403
9734.000000;1.942855
9733.000000;1.950268
9732.000000;1.951298
9731.000000;1.945301
9730.000000;1.933410
9729.000000;1.919051
9728.000000;1.907397
9727.000000;1.902791
9726.000000;1.905935
9725.000000;1.913012
9724.000000;1.918084
9723.000000;1.916935
9722.000000;1.910279
9721.000000;1.903885
9720.000000;1.903638
9719.000000;1.909968
9718.000000;1.917986
9717.000000;1.923339
9716.000000;1.926310
9715.000000;1.928955
9714.000000;1.930776
9713.000000;1.929745
9712.000000;1.926276
9711.000000;1.923534
9710.000000;1.923681
9709.000000;1.925185
9708.000000;1.924436
9707.000000;1.919757
9706.000000;1.913293
9705.000000;1.909324
9704.000000;1.910575
9703.000000;1.914982
9702.000000;1.916597
9701.000000;1.910916
9700.000000;1.898919
9699.000000;1.886042
9698.000000;1.877738
9697.000000;1.876290
9696.000000;1.881091
9695.000000;1.890446
9694.000000;1.902378
9693.000000;1.913810
9692.000000;1.921065
9691.000000;1.923067
9690.000000;1.922505
9689.000000;1.922329
9688.000000;1.921765
9687.000000;1.916932
9686.000000;1.906688
9685.000000;1.896515
9684.000000;1.894022
9683.000000;1.901618
9682.000000;1.914716
9681.000000;1.926243
9680.000000;1.931979
9679.000000;1.931453
9678.000000;1.926143
9677.000000;1.919280
9676.000000;1.914786
9675.000000;1.913580
9674.000000;1.912698
9673.000000;1.909357
9672.000000;1.904660
9671.000000;1.901954
9670.000000;1.902389
9669.000000;1.904198
9668.000000;1.905916
9667.000000;1.907909
9666.000000;1.910526
9665.000000;1.912756
9664.000000;1.913497
9663.000000;1.912650
9662.000000;1.910013
9661.000000;1.904582
9660.000000;1.896214
9659.000000;1.887200
9658.000000;1.881286
9657.000000;1.881336
9656.000000;1.887725
9655.000000;1.897794
9654.000000;1.906676
9653.000000;1.910460
9652.000000;1.909460
9651.000000;1.907010
9650.000000;1.905177
9649.000000;1.903343
9648.000000;1.900747
9647.000000;1.898206
9646.000000;1.896747
9645.000000;1.896552
9644.000000;1.897522
9643.000000;1.899937
9642.000000;1.903608
9641.000000;1.906090
9640.000000;1.904735
9639.000000;1.901545
9638.000000;1.902125
9637.000000;1.908404
9636.000000;1.914653
9635.000000;1.912802
9634.000000;1.901693
9633.000000;1.888325
9632.000000;1.879999
9631.000000;1.878027
9630.000000;1.878795
9629.000000;1.879028
9628.000000;1.879052
9627.000000;1.880705
9626.000000;1.883689
9625.000000;1.885647
9624.000000;1.885309
9623.000000;1.884049
9622.000000;1.883662
9621.000000;1.883546
9620.000000;1.881144
9619.000000;1.875309
9618.000000;1.868788
9617.000000;1.866736
9616.000000;1.872536
9615.000000;1.884720
9614.000000;1.897644
9613.000000;1.905685
9612.000000;1.907102
9611.000000;1.903438
9610.000000;1.896416
9609.000000;1.887836
9608.000000;1.881298
9607.000000;1.880539
9606.000000;1.885978
9605.000000;1.894376
9604.000000;1.901614
9603.000000;1.904680
9602.000000;1.901449
9601.000000;1.891377
9600.000000;1.878235
9599.000000;1.869547
9598.000000;1.870825
9597.000000;1.881089
9596.000000;1.893873
9595.000000;1.901888
9594.000000;1.901323
9593.000000;1.893115
9592.000000;1.881705
9591.000000;1.872207
9590.000000;1.867111
9589.000000;1.865317
9588.000000;1.864729
9587.000000;1.865031
9586.000000;1.866906
9585.000000;1.869662
9584.000000;1.871709
9583.000000;1.873100
9582.000000;1.875394
9581.000000;1.878826
9580.000000;1.881621
9579.000000;1.882486
9578.000000;1.881776
9577.000000;1.879515
9576.000000;1.874520
9575.000000;1.867023
9574.000000;1.860401
9573.000000;1.858619
9572.000000;1.862612
9571.000000;1.869400
9570.000000;1.874055
9569.000000;1.872950
9568.000000;1.866446
9567.000000;1.858884
9566.000000;1.855412
9565.000000;1.858358
9564.000000;1.866382
9563.000000;1.876480
9562.000000;1.885505
9561.000000;1.890052
9560.000000;1.887693
9559.000000;1.879700
9558.000000;1.870507
9557.000000;1.863440
9556.000000;1.858806
9555.000000;1.856545
9554.000000;1.858057
9553.000000;1.863455
9552.000000;1.868973
9551.000000;1.870053
9550.000000;1.866733
9549.000000;1.862834
9548.000000;1.860012
9547.000000;1.856140
9546.000000;1.849965
9545.000000;1.844148
9544.000000;1.842184
9543.000000;1.844262
9542.000000;1.847473
9541.000000;1.849213
9540.000000;1.849323
9539.000000;1.849453
9538.000000;1.851447
9537.000000;1.856015
9536.000000;1.862109
9535.000000;1.867195
9534.000000;1.868618
9533.000000;1.865356
9532.000000;1.858553
9531.000000;1.851253
9530.000000;1.847638
9529.000000;1.850763
9528.000000;1.860268
9527.000000;1.872471
9526.000000;1.882758
9525.000000;1.887670
9524.000000;1.885325
9523.000000;1.876153
9522.000000;1.864085
9521.000000;1.854787
9520.000000;1.851409
9519.000000;1.852589
9518.000000;1.854709
9517.000000;1.855376
9516.000000;1.854420
9515.000000;1.852813
9514.000000;1.851722
9513.000000;1.852052
9512.000000;1.853854
9511.000000;1.856108
9510.000000;1.858098
9509.000000;1.860507
9508.000000;1.863661
9507.000000;1.865547
9506.000000;1.863882
9505.000000;1.859831
9504.000000;1.857592
9503.000000;1.860328
9502.000000;1.867211
9501.000000;1.873881
9500.000000;1.875019
9499.000000;1.867220
9498.000000;1.851570
9497.000000;1.834168
9496.000000;1.822832
9495.000000;1.822226
9494.000000;1.831245
9493.000000;1.844230
9492.000000;1.855130
9491.000000;1.861444
9490.000000;1.864336
9489.000000;1.865231
9488.000000;1.863324
9487.000000;1.857197
9486.000000;1.848154
9485.000000;1.840477
9484.000000;1.838070
9483.000000;1.840969
9482.000000;1.845408
9481.000000;1.847373
9480.000000;1.845618
9479.000000;1.841619
9478.000000;1.837564
9477.000000;1.834828
9476.000000;1.833817
9475.000000;1.834166
9474.000000;1.835138
9473.000000;1.836357
9472.000000;1.837947
9471.000000;1.839925
9470.000000;1.841755
9469.000000;1.842663
9468.000000;1.842636
9467.000000;1.842750
9466.000000;1.844158
9465.000000;1.846824
9464.000000;1.849117
9463.000000;1.848528
9462.000000;1.843586
9461.000000;1.835576
9460.000000;1.828138
9459.000000;1.825114
9458.000000;1.828074
9457.000000;1.835268
9456.000000;1.843139
9455.000000;1.848963
9454.000000;1.852089
9453.000000;1.853024
9452.000000;1.852007
9451.000000;1.849092
9450.000000;1.845422
9449.000000;1.842977
9448.000000;1.842388
9447.000000;1.841701
9446.000000;1.837999
9445.000000;1.830457
9444.000000;1.821577
9443.000000;1.815605
9442.000000;1.815931
9441.000000;1.823153
9440.000000;1.834432
9439.000000;1.844562
9438.000000;1.848917
9437.000000;1.846458
9436.000000;1.840040
9435.000000;1.834313
9434.000000;1.833473
9433.000000;1.839089
9432.000000;1.848040
9431.000000;1.853566
9430.000000;1.851409
9429.000000;1.844587
9428.000000;1.839365
9427.000000;1.838017
9426.000000;1.838030
9425.000000;1.837237
9424.000000;1.836853
9423.000000;1.838518
9422.000000;1.840604
9421.000000;1.839743
9420.000000;1.835515
9419.000000;1.831260
9418.000000;1.829837
9417.000000;1.830646
9416.000000;1.831695
9415.000000;1.833046
9414.000000;1.836529
9413.000000;1.842905
9412.000000;1.850863
9411.000000;1.858247
9410.000000;1.862947
9409.000000;1.862692
9408.000000;1.855701
9407.000000;1.842845
9406.000000;1.828709
9405.000000;1.819278
9404.000000;1.818073
9403.000000;1.823955
9402.000000;1.831800
9401.000000;1.835655
9400.000000;1.832736
9399.000000;1.825757
9398.000000;1.821036
9397.000000;1.823106
9396.000000;1.831019
9395.000000;1.839687
9394.000000;1.845096
9393.000000;1.847794
9392.000000;1.850178
9391.000000;1.851918
9390.000000;1.850147
9389.000000;1.843937
9388.000000;1.836437
9387.000000;1.831794
9386.000000;1.831608
9385.000000;1.834860
9384.000000;1.839269
9383.000000;1.841768
9382.000000;1.839944
9381.000000;1.834071
9380.000000;1.826717
9379.000000;1.820450
9378.000000;1.816384
9377.000000;1.814569
9376.000000;1.814812
9375.000000;1.816437
9374.000000;1.817911
9373.000000;1.817828
9372.000000;1.816482
9371.000000;1.815827
9370.000000;1.817926
9369.000000;1.823680
9368.000000;1.832068
9367.000000;1.839801
9366.000000;1.842797
9365.000000;1.839604
9364.000000;1.833105
9363.000000;1.827704
9362.000000;1.824974
9361.000000;1.822581
9360.000000;1.817730
9359.000000;1.811068
9358.000000;1.806119
9357.000000;1.805402
9356.000000;1.807937
9355.000000;1.810277
9354.000000;1.809594
9353.000000;1.805971
9352.000000;1.801562
9351.000000;1.797962
9350.000000;1.795554
9349.000000;1.794636
9348.000000;1.795721
9347.000000;1.798725
9346.000000;1.802566
9345.000000;1.806049
9344.000000;1.808657
9343.000000;1.810066
9342.000000;1.809944
9341.000000;1.809106
9340.000000;1.809709
9339.000000;1.812950
9338.000000;1.816678
9337.000000;1.816530
9336.000000;1.810624
9335.000000;1.802160
9334.000000;1.796370
9333.000000;1.796024
9332.000000;1.800226
9331.000000;1.806526
9330.000000;1.813291
9329.000000;1.819500
9328.000000;1.822933
9327.000000;1.820542
9326.000000;1.812025
9325.000000;1.802079
9324.000000;1.797116
9323.000000;1.799629
9322.000000;1.806457
9321.000000;1.812177
9320.000000;1.813702
9319.000000;1.811318
9318.000000;1.806552
9317.000000;1.800964
9316.000000;1.796314
9315.000000;1.793796
9314.000000;1.793060
9313.000000;1.793317
9312.000000;1.795272
9311.000000;1.800318
9310.000000;1.807592
9309.000000;1.813497
9308.000000;1.815401
9307.000000;1.814855
9306.000000;1.815370
9305.000000;1.817603
9304.000000;1.818318
9303.000000;1.814184
9302.000000;1.805780
9301.000000;1.797364
9300.000000;1.793206
9299.000000;1.794554
9298.000000;1.799726
9297.000000;1.806613
9296.000000;1.814500
9295.000000;1.822939
9294.000000;1.829630
9293.000000;1.831393
9292.000000;1.827886
9291.000000;1.822560
9290.000000;1.818973
9289.000000;1.817498
9288.000000;1.816315
9287.000000;1.814688
9286.000000;1.813743
9285.000000;1.814079
9284.000000;1.814290
9283.000000;1.812268
9282.000000;1.807321
9281.000000;1.800986
9280.000000;1.795911
9279.000000;1.793811
9278.000000;1.794303
9277.000000;1.795508
9276.000000;1.795882
9275.000000;1.795638
9274.000000;1.796139
9273.000000;1.798069
9272.000000;1.800841
9271.000000;1.803593
9270.000000;1.806056
9269.000000;1.808477
9268.000000;1.811130
9267.000000;1.814104
9266.000000;1.817039
9265.000000;1.818588
9264.000000;1.817316
9263.000000;1.814202
9262.000000;1.812911
9261.000000;1.815994
9260.000000;1.821312
9259.000000;1.823510
9258.000000;1.819497
9257.000000;1.811318
9256.000000;1.803183
9255.000000;1.797655
9254.000000;1.795248
9253.000000;1.795443
9252.000000;1.796686
9251.000000;1.796795
9250.000000;1.795167
9249.000000;1.793825
9248.000000;1.794638
9247.000000;1.796310
9246.000000;1.796132
9245.000000;1.794459
9244.000000;1.794727
9243.000000;1.798271
9242.000000;1.801397
9241.000000;1.799268
9240.000000;1.791754
9239.000000;1.783444
9238.000000;1.778701
9237.000000;1.778600
9236.000000;1.781901
9235.000000;1.787326
9234.000000;1.794345
9233.000000;1.802010
9232.000000;1.807620
9231.000000;1.807648
9230.000000;1.801307
9229.000000;1.792863
9228.000000;1.788431
9227.000000;1.790265
9226.000000;1.795333
9225.000000;1.799358
9224.000000;1.800963
9223.000000;1.801087
9222.000000;1.800293
9221.000000;1.798844
9220.000000;1.798119
9219.000000;1.799176
9218.000000;1.800148
9217.000000;1.797618
9216.000000;1.791256
9215.000000;1.784879
9214.000000;1.782214
9213.000000;1.783720
9212.000000;1.787842
9211.000000;1.793004
9210.000000;1.797134
9209.000000;1.797187
9208.000000;1.791658
9207.000000;1.783216
9206.000000;1.777062
9205.000000;1.776640
9204.000000;1.781411
9203.000000;1.788024
9202.000000;1.792875
9201.000000;1.794060
9200.000000;1.791854
9199.000000;1.787637
9198.000000;1.782662
9197.000000;1.777981
9196.000000;1.774535
9195.000000;1.772506
9194.000000;1.770939
9193.000000;1.768874
9192.000000;1.767073
9191.000000;1.767680
9190.000000;1.771942
9189.000000;1.778854
9188.000000;1.785939
9187.000000;1.790771
9186.000000;1.791856
9185.000000;1.789062
9184.000000;1.783878
9183.000000;1.778688
9182.000000;1.775242
9181.000000;1.773891
9180.000000;1.774183
9179.000000;1.775485
9178.000000;1.776985
9177.000000;1.777982
9176.000000;1.778664
9175.000000;1.780118
9174.000000;1.783044
9173.000000;1.786602
9172.000000;1.788829
9171.000000;1.788229
9170.000000;1.784843
9169.000000;1.780059
9168.000000;1.775657
9167.000000;1.772644
9166.000000;1.770794
9165.000000;1.769588
9164.000000;1.769337
9163.000000;1.770650
9162.000000;1.773135
9161.000000;1.775691
9160.000000;1.777861
9159.000000;1.779859
9158.000000;1.781434
9157.000000;1.782034
9156.000000;1.781985
9155.000000;1.781816
9154.000000;1.780245
9153.000000;1.775241
9152.000000;1.768309
9151.000000;1.764860
9150.000000;1.768350
9149.000000;1.775935
9148.000000;1.781256
9147.000000;1.780924
9146.000000;1.776727
9145.000000;1.772081
9144.000000;1.768972
9143.000000;1.767976
9142.000000;1.768505
9141.000000;1.768897
9140.000000;1.768461
9139.000000;1.768989
9138.000000;1.772048
9137.000000;1.775502
9136.000000;1.775262
9135.000000;1.770779
9134.000000;1.766218
9133.000000;1.765440
9132.000000;1.768239
9131.000000;1.772163
9130.000000;1.775770
9129.000000;1.778667
9128.000000;1.779922
9127.000000;1.778694
9126.000000;1.775997
9125.000000;1.773936
9124.000000;1.773036
9123.000000;1.771921
9122.000000;1.770029
9121.000000;1.769057
9120.000000;1.770724
9119.000000;1.774085
9118.000000;1.776546
9117.000000;1.776946
9116.000000;1.776338
9115.000000;1.776562
9114.000000;1.778311
9113.000000;1.780069
9112.000000;1.779818
9111.000000;1.777910
9110.000000;1.777008
9109.000000;1.778707
9108.000000;1.781124
9107.000000;1.780629
9106.000000;1.775806
9105.000000;1.768759
9104.000000;1.762453
9103.000000;1.758137
9102.000000;1.755593
9101.000000;1.754498
9100.000000;1.754889
9099.000000;1.756820
9098.000000;1.760112
9097.000000;1.764278
9096.000000;1.768440
9095.000000;1.771532
9094.000000;1.773020
9093.000000;1.773619
9092.000000;1.774838
9091.000000;1.777323
9090.000000;1.779826
9089.000000;1.780158
9088.000000;1.777186
9087.000000;1.771902
9086.000000;1.766791
9085.000000;1.764056
9084.000000;1.764104
9083.000000;1.765557
9082.000000;1.766555
9081.000000;1.766435
9080.000000;1.766510
9079.000000;1.768734
9078.000000;1.773319
9077.000000;1.777961
9076.000000;1.779854
9075.000000;1.778429
9074.000000;1.775490
9073.000000;1.772794
9072.000000;1.770082
9071.000000;1.765674
9070.000000;1.759053
9069.000000;1.752502
9068.000000;1.749626
9067.000000;1.751996
9066.000000;1.757245
9065.000000;1.761012
9064.000000;1.761214
9063.000000;1.759618
9062.000000;1.758670
9061.000000;1.758076
9060.000000;1.755566
9059.000000;1.750434
9058.000000;1.745023
9057.000000;1.742721
9056.000000;1.745500
9055.000000;1.752988
9054.000000;1.762645
9053.000000;1.770845
