Criado como novo conjunto de dados;"e0108.spp","-4283085.0 Secs"
cm-1;Abs
10000.000000;0.867934
9999.000000;0.869062
9998.000000;0.870576
9997.000000;0.871540
9996.000000;0.871128
9995.000000;0.869805
9994.000000;0.868606
9993.000000;0.868100
9992.000000;0.867857
9991.000000;0.867273
9990.000000;0.866179
9989.000000;0.864762
9988.000000;0.863173
9987.000000;0.861527
9986.000000;0.860106
9985.000000;0.859304
9984.000000;0.859311
9983.000000;0.859897
9982.000000;0.860545
9981.000000;0.860867
9980.000000;0.860922
9979.000000;0.861034
9978.000000;0.861280
9977.000000;0.861348
9976.000000;0.861080
9975.000000;0.860927
9974.000000;0.861477
9973.000000;0.862572
9972.000000;0.863241
9971.000000;0.862639
9970.000000;0.860815
9969.000000;0.858479
9968.000000;0.856341
9967.000000;0.854840
9966.000000;0.854209
9965.000000;0.854408
9964.000000;0.855018
9963.000000;0.855466
9962.000000;0.855413
9961.000000;0.854912
9960.000000;0.854249
9959.000000;0.853758
9958.000000;0.853670
9957.000000;0.853967
9956.000000;0.854315
9955.000000;0.854221
9954.000000;0.853370
9953.000000;0.851926
9952.000000;0.850570
9951.000000;0.850159
9950.000000;0.851044
9949.000000;0.852625
9948.000000;0.853686
9947.000000;0.853353
9946.000000;0.851688
9945.000000;0.849433
9944.000000;0.847433
9943.000000;0.846311
9942.000000;0.846264
9941.000000;0.846849
9940.000000;0.847206
9939.000000;0.846830
9938.000000;0.846113
9937.000000;0.845931
9936.000000;0.846735
9935.000000;0.848152
9934.000000;0.849328
9933.000000;0.849470
9932.000000;0.848291
9931.000000;0.846204
9930.000000;0.844068
9929.000000;0.842551
9928.000000;0.841744
9927.000000;0.841397
9926.000000;0.841319
9925.000000;0.841386
9924.000000;0.841396
9923.000000;0.841230
9922.000000;0.841043
9921.000000;0.841007
9920.000000;0.840976
9919.000000;0.840706
9918.000000;0.840313
9917.000000;0.840144
9916.000000;0.840247
9915.000000;0.840324
9914.000000;0.840221
9913.000000;0.840089
9912.000000;0.840009
9911.000000;0.839764
9910.000000;0.839142
9909.000000;0.838223
9908.000000;0.837261
9907.000000;0.836441
9906.000000;0.835792
9905.000000;0.835178
9904.000000;0.834340
9903.000000;0.833205
9902.000000;0.832202
9901.000000;0.831938
9900.000000;0.832404
9899.000000;0.832766
9898.000000;0.832180
9897.000000;0.830698
9896.000000;0.829181
9895.000000;0.828500
9894.000000;0.829005
9893.000000;0.830555
9892.000000;0.832648
9891.000000;0.834515
9890.000000;0.835392
9889.000000;0.834993
9888.000000;0.833760
9887.000000;0.832538
9886.000000;0.831864
9885.000000;0.831517
9884.000000;0.830833
9883.000000;0.829541
9882.000000;0.828149
9881.000000;0.827299
9880.000000;0.826874
9879.000000;0.826127
9878.000000;0.824758
9877.000000;0.823485
9876.000000;0.823254
9875.000000;0.824128
9874.000000;0.825248
9873.000000;0.825823
9872.000000;0.825863
9871.000000;0.825842
9870.000000;0.825890
9869.000000;0.825548
9868.000000;0.824327
9867.000000;0.822383
9866.000000;0.820506
9865.000000;0.819443
9864.000000;0.819303
9863.000000;0.819689
9862.000000;0.820243
9861.000000;0.820862
9860.000000;0.821410
9859.000000;0.821573
9858.000000;0.821166
9857.000000;0.820453
9856.000000;0.819946
9855.000000;0.819920
9854.000000;0.820198
9853.000000;0.820400
9852.000000;0.820308
9851.000000;0.820002
9850.000000;0.819699
9849.000000;0.819486
9848.000000;0.819205
9847.000000;0.818618
9846.000000;0.817684
9845.000000;0.816667
9844.000000;0.815962
9843.000000;0.815779
9842.000000;0.815894
9841.000000;0.815725
9840.000000;0.814857
9839.000000;0.813600
9838.000000;0.812773
9837.000000;0.812819
9836.000000;0.813336
9835.000000;0.813679
9834.000000;0.813706
9833.000000;0.813564
9832.000000;0.813069
9831.000000;0.811954
9830.000000;0.810669
9829.000000;0.810170
9828.000000;0.810686
9827.000000;0.811261
9826.000000;0.810923
9825.000000;0.809883
9824.000000;0.809143
9823.000000;0.809184
9822.000000;0.809493
9821.000000;0.809275
9820.000000;0.808268
9819.000000;0.806911
9818.000000;0.805949
9817.000000;0.805868
9816.000000;0.806508
9815.000000;0.807278
9814.000000;0.807818
9813.000000;0.808252
9812.000000;0.808657
9811.000000;0.808671
9810.000000;0.807987
9809.000000;0.806951
9808.000000;0.806173
9807.000000;0.805715
9806.000000;0.805187
9805.000000;0.804541
9804.000000;0.804219
9803.000000;0.804380
9802.000000;0.804545
9801.000000;0.804305
9800.000000;0.803978
9799.000000;0.804108
9798.000000;0.804509
9797.000000;0.804305
9796.000000;0.803024
9795.000000;0.801318
9794.000000;0.800338
9793.000000;0.800508
9792.000000;0.801159
9791.000000;0.801348
9790.000000;0.800824
9789.000000;0.800033
9788.000000;0.799385
9787.000000;0.798844
9786.000000;0.798279
9785.000000;0.797837
9784.000000;0.797692
9783.000000;0.797609
9782.000000;0.797108
9781.000000;0.796060
9780.000000;0.794870
9779.000000;0.794047
9778.000000;0.793783
9777.000000;0.794012
9776.000000;0.794623
9775.000000;0.795480
9774.000000;0.796344
9773.000000;0.796973
9772.000000;0.797298
9771.000000;0.797435
9770.000000;0.797492
9769.000000;0.797335
9768.000000;0.796599
9767.000000;0.795051
9766.000000;0.793010
9765.000000;0.791298
9764.000000;0.790618
9763.000000;0.790940
9762.000000;0.791557
9761.000000;0.791714
9760.000000;0.791189
9759.000000;0.790393
9758.000000;0.789984
9757.000000;0.790310
9756.000000;0.791063
9755.000000;0.791582
9754.000000;0.791553
9753.000000;0.791257
9752.000000;0.790981
9751.000000;0.790479
9750.000000;0.789351
9749.000000;0.787810
9748.000000;0.786620
9747.000000;0.786208
9746.000000;0.786231
9745.000000;0.786152
9744.000000;0.785913
9743.000000;0.785818
9742.000000;0.786017
9741.000000;0.786340
9740.000000;0.786517
9739.000000;0.786325
9738.000000;0.785639
9737.000000;0.784542
9736.000000;0.783328
9735.000000;0.782273
9734.000000;0.781492
9733.000000;0.781130
9732.000000;0.781504
9731.000000;0.782764
9730.000000;0.784473
9729.000000;0.785795
9728.000000;0.786182
9727.000000;0.785687
9726.000000;0.784634
9725.000000;0.783253
9724.000000;0.781743
9723.000000;0.780454
9722.000000;0.779763
9721.000000;0.779782
9720.000000;0.780303
9719.000000;0.780981
9718.000000;0.781469
9717.000000;0.781472
9716.000000;0.780843
9715.000000;0.779690
9714.000000;0.778336
9713.000000;0.777175
9712.000000;0.776514
9711.000000;0.776485
9710.000000;0.776961
9709.000000;0.777592
9708.000000;0.777991
9707.000000;0.777951
9706.000000;0.777474
9705.000000;0.776648
9704.000000;0.775629
9703.000000;0.774694
9702.000000;0.774140
9701.000000;0.774007
9700.000000;0.773990
9699.000000;0.773776
9698.000000;0.773405
9697.000000;0.773171
9696.000000;0.773181
9695.000000;0.773177
9694.000000;0.772860
9693.000000;0.772273
9692.000000;0.771725
9691.000000;0.771360
9690.000000;0.770961
9689.000000;0.770222
9688.000000;0.769157
9687.000000;0.768177
9686.000000;0.767763
9685.000000;0.768072
9684.000000;0.768847
9683.000000;0.769637
9682.000000;0.770108
9681.000000;0.770180
9680.000000;0.769956
9679.000000;0.769576
9678.000000;0.769154
9677.000000;0.768803
9676.000000;0.768617
9675.000000;0.768547
9674.000000;0.768320
9673.000000;0.767668
9672.000000;0.766662
9671.000000;0.765756
9670.000000;0.765411
9669.000000;0.765703
9668.000000;0.766325
9667.000000;0.766863
9666.000000;0.767009
9665.000000;0.766659
9664.000000;0.765996
9663.000000;0.765385
9662.000000;0.764989
9661.000000;0.764597
9660.000000;0.764024
9659.000000;0.763552
9658.000000;0.763600
9657.000000;0.763991
9656.000000;0.763993
9655.000000;0.763232
9654.000000;0.762159
9653.000000;0.761387
9652.000000;0.760936
9651.000000;0.760471
9650.000000;0.759926
9649.000000;0.759509
9648.000000;0.759278
9647.000000;0.759161
9646.000000;0.759243
9645.000000;0.759624
9644.000000;0.760065
9643.000000;0.760166
9642.000000;0.759886
9641.000000;0.759555
9640.000000;0.759382
9639.000000;0.759271
9638.000000;0.759097
9637.000000;0.758763
9636.000000;0.758036
9635.000000;0.756815
9634.000000;0.755573
9633.000000;0.755058
9632.000000;0.755410
9631.000000;0.756002
9630.000000;0.756302
9629.000000;0.756426
9628.000000;0.756606
9627.000000;0.756606
9626.000000;0.756076
9625.000000;0.755115
9624.000000;0.754097
9623.000000;0.753177
9622.000000;0.752379
9621.000000;0.751931
9620.000000;0.752045
9619.000000;0.752444
9618.000000;0.752545
9617.000000;0.752148
9616.000000;0.751609
9615.000000;0.751336
9614.000000;0.751362
9613.000000;0.751448
9612.000000;0.751310
9611.000000;0.750761
9610.000000;0.749860
9609.000000;0.749023
9608.000000;0.748799
9607.000000;0.749417
9606.000000;0.750563
9605.000000;0.751556
9604.000000;0.751745
9603.000000;0.750901
9602.000000;0.749405
9601.000000;0.747963
9600.000000;0.747019
9599.000000;0.746457
9598.000000;0.745953
9597.000000;0.745454
9596.000000;0.745154
9595.000000;0.745116
9594.000000;0.745188
9593.000000;0.745210
9592.000000;0.745133
9591.000000;0.744961
9590.000000;0.744753
9589.000000;0.744619
9588.000000;0.744576
9587.000000;0.744437
9586.000000;0.744011
9585.000000;0.743355
9584.000000;0.742719
9583.000000;0.742323
9582.000000;0.742311
9581.000000;0.742739
9580.000000;0.743396
9579.000000;0.743788
9578.000000;0.743578
9577.000000;0.743003
9576.000000;0.742577
9575.000000;0.742410
9574.000000;0.742076
9573.000000;0.741158
9572.000000;0.739725
9571.000000;0.738259
9570.000000;0.737285
9569.000000;0.737025
9568.000000;0.737226
9567.000000;0.737372
9566.000000;0.737275
9565.000000;0.737341
9564.000000;0.737985
9563.000000;0.738893
9562.000000;0.739250
9561.000000;0.738733
9560.000000;0.737862
9559.000000;0.737271
9558.000000;0.737037
9557.000000;0.736896
9556.000000;0.736763
9555.000000;0.736734
9554.000000;0.736752
9553.000000;0.736587
9552.000000;0.736122
9551.000000;0.735484
9550.000000;0.734931
9549.000000;0.734697
9548.000000;0.734834
9547.000000;0.735088
9546.000000;0.734992
9545.000000;0.734238
9544.000000;0.732985
9543.000000;0.731741
9542.000000;0.730963
9541.000000;0.730747
9540.000000;0.730828
9539.000000;0.730856
9538.000000;0.730716
9537.000000;0.730587
9536.000000;0.730657
9535.000000;0.730851
9534.000000;0.730930
9533.000000;0.730756
9532.000000;0.730284
9531.000000;0.729414
9530.000000;0.728127
9529.000000;0.726772
9528.000000;0.725934
9527.000000;0.725931
9526.000000;0.726615
9525.000000;0.727696
9524.000000;0.728976
9523.000000;0.730159
9522.000000;0.730748
9521.000000;0.730416
9520.000000;0.729379
9519.000000;0.728251
9518.000000;0.727547
9517.000000;0.727408
9516.000000;0.727605
9515.000000;0.727693
9514.000000;0.727288
9513.000000;0.726371
9512.000000;0.725291
9511.000000;0.724424
9510.000000;0.723973
9509.000000;0.724090
9508.000000;0.724863
9507.000000;0.725954
9506.000000;0.726562
9505.000000;0.726133
9504.000000;0.725021
9503.000000;0.724105
9502.000000;0.723777
9501.000000;0.723661
9500.000000;0.723310
9499.000000;0.722814
9498.000000;0.722549
9497.000000;0.722628
9496.000000;0.722854
9495.000000;0.723055
9494.000000;0.723218
9493.000000;0.723321
9492.000000;0.723235
9491.000000;0.722856
9490.000000;0.722254
9489.000000;0.721637
9488.000000;0.721176
9487.000000;0.720866
9486.000000;0.720578
9485.000000;0.720230
9484.000000;0.719857
9483.000000;0.719486
9482.000000;0.719010
9481.000000;0.718325
9480.000000;0.717549
9479.000000;0.716965
9478.000000;0.716695
9477.000000;0.716587
9476.000000;0.716492
9475.000000;0.716517
9474.000000;0.716834
9473.000000;0.717290
9472.000000;0.717420
9471.000000;0.716913
9470.000000;0.716009
9469.000000;0.715329
9468.000000;0.715334
9467.000000;0.715928
9466.000000;0.716537
9465.000000;0.716542
9464.000000;0.715701
9463.000000;0.714285
9462.000000;0.712875
9461.000000;0.712022
9460.000000;0.711948
9459.000000;0.712461
9458.000000;0.713071
9457.000000;0.713278
9456.000000;0.712874
9455.000000;0.712087
9454.000000;0.711407
9453.000000;0.711213
9452.000000;0.711539
9451.000000;0.712110
9450.000000;0.712582
9449.000000;0.712728
9448.000000;0.712518
9447.000000;0.712116
9446.000000;0.711782
9445.000000;0.711680
9444.000000;0.711747
9443.000000;0.711761
9442.000000;0.711521
9441.000000;0.710953
9440.000000;0.710141
9439.000000;0.709391
9438.000000;0.709165
9437.000000;0.709738
9436.000000;0.710810
9435.000000;0.711642
9434.000000;0.711664
9433.000000;0.710897
9432.000000;0.709719
9431.000000;0.708440
9430.000000;0.707236
9429.000000;0.706317
9428.000000;0.705840
9427.000000;0.705657
9426.000000;0.705416
9425.000000;0.705006
9424.000000;0.704700
9423.000000;0.704745
9422.000000;0.704963
9421.000000;0.704927
9420.000000;0.704441
9419.000000;0.703770
9418.000000;0.703422
9417.000000;0.703785
9416.000000;0.704871
9415.000000;0.706216
9414.000000;0.707036
9413.000000;0.706731
9412.000000;0.705412
9411.000000;0.703851
9410.000000;0.702788
9409.000000;0.702352
9408.000000;0.702199
9407.000000;0.702094
9406.000000;0.702150
9405.000000;0.702480
9404.000000;0.702887
9403.000000;0.703071
9402.000000;0.702959
9401.000000;0.702654
9400.000000;0.702182
9399.000000;0.701548
9398.000000;0.700996
9397.000000;0.700872
9396.000000;0.701155
9395.000000;0.701369
9394.000000;0.701141
9393.000000;0.700639
9392.000000;0.700266
9391.000000;0.700071
9390.000000;0.699711
9389.000000;0.698954
9388.000000;0.697992
9387.000000;0.697265
9386.000000;0.697113
9385.000000;0.697556
9384.000000;0.698242
9383.000000;0.698620
9382.000000;0.698389
9381.000000;0.697800
9380.000000;0.697390
9379.000000;0.697381
9378.000000;0.697512
9377.000000;0.697458
9376.000000;0.697196
9375.000000;0.696862
9374.000000;0.696474
9373.000000;0.696033
9372.000000;0.695754
9371.000000;0.695907
9370.000000;0.696403
9369.000000;0.696734
9368.000000;0.696470
9367.000000;0.695731
9366.000000;0.695047
9365.000000;0.694793
9364.000000;0.694853
9363.000000;0.694844
9362.000000;0.694591
9361.000000;0.694306
9360.000000;0.694333
9359.000000;0.694786
9358.000000;0.695435
9357.000000;0.695899
9356.000000;0.695892
9355.000000;0.695342
9354.000000;0.694394
9353.000000;0.693386
9352.000000;0.692740
9351.000000;0.692684
9350.000000;0.692926
9349.000000;0.692720
9348.000000;0.691547
9347.000000;0.689855
9346.000000;0.688861
9345.000000;0.689355
9344.000000;0.690768
9343.000000;0.691716
9342.000000;0.691488
9341.000000;0.690662
9340.000000;0.690153
9339.000000;0.690085
9338.000000;0.689941
9337.000000;0.689539
9336.000000;0.689333
9335.000000;0.689721
9334.000000;0.690445
9333.000000;0.690878
9332.000000;0.690670
9331.000000;0.689917
9330.000000;0.688882
9329.000000;0.687827
9328.000000;0.687094
9327.000000;0.687056
9326.000000;0.687777
9325.000000;0.688792
9324.000000;0.689369
9323.000000;0.689074
9322.000000;0.688074
9321.000000;0.686905
9320.000000;0.686017
9319.000000;0.685596
9318.000000;0.685636
9317.000000;0.685981
9316.000000;0.686308
9315.000000;0.686323
9314.000000;0.686052
9313.000000;0.685821
9312.000000;0.685848
9311.000000;0.686004
9310.000000;0.686060
9309.000000;0.686025
9308.000000;0.686072
9307.000000;0.686279
9306.000000;0.686569
9305.000000;0.686806
9304.000000;0.686834
9303.000000;0.686542
9302.000000;0.686023
9301.000000;0.685520
9300.000000;0.685050
9299.000000;0.684286
9298.000000;0.683079
9297.000000;0.681939
9296.000000;0.681607
9295.000000;0.682155
9294.000000;0.682873
9293.000000;0.683105
9292.000000;0.682889
9291.000000;0.682666
9290.000000;0.682692
9289.000000;0.682909
9288.000000;0.683145
9287.000000;0.683215
9286.000000;0.682968
9285.000000;0.682447
9284.000000;0.681933
9283.000000;0.681705
9282.000000;0.681809
9281.000000;0.682115
9280.000000;0.682425
9279.000000;0.682478
9278.000000;0.682056
9277.000000;0.681265
9276.000000;0.680541
9275.000000;0.680195
9274.000000;0.680068
9273.000000;0.679822
9272.000000;0.679407
9271.000000;0.679039
9270.000000;0.678842
9269.000000;0.678754
9268.000000;0.678764
9267.000000;0.678924
9266.000000;0.679111
9265.000000;0.679011
9264.000000;0.678503
9263.000000;0.677888
9262.000000;0.677630
9261.000000;0.677936
9260.000000;0.678636
9259.000000;0.679357
9258.000000;0.679732
9257.000000;0.679559
9256.000000;0.678929
9255.000000;0.678216
9254.000000;0.677796
9253.000000;0.677714
9252.000000;0.677651
9251.000000;0.677286
9250.000000;0.676685
9249.000000;0.676229
9248.000000;0.676155
9247.000000;0.676260
9246.000000;0.676142
9245.000000;0.675694
9244.000000;0.675234
9243.000000;0.675145
9242.000000;0.675496
9241.000000;0.676066
9240.000000;0.676579
9239.000000;0.676822
9238.000000;0.676651
9237.000000;0.676076
9236.000000;0.675324
9235.000000;0.674714
9234.000000;0.674395
9233.000000;0.674239
9232.000000;0.674031
9231.000000;0.673722
9230.000000;0.673486
9229.000000;0.673491
9228.000000;0.673671
9227.000000;0.673743
9226.000000;0.673499
9225.000000;0.673014
9224.000000;0.672550
9223.000000;0.672303
9222.000000;0.672320
9221.000000;0.672548
9220.000000;0.672823
9219.000000;0.672876
9218.000000;0.672542
9217.000000;0.672012
9216.000000;0.671699
9215.000000;0.671799
9214.000000;0.672145
9213.000000;0.672545
9212.000000;0.673001
9211.000000;0.673433
9210.000000;0.673407
9209.000000;0.672483
9208.000000;0.670861
9207.000000;0.669408
9206.000000;0.668942
9205.000000;0.669553
9204.000000;0.670631
9203.000000;0.671404
9202.000000;0.671432
9201.000000;0.670738
9200.000000;0.669667
9199.000000;0.668684
9198.000000;0.668205
9197.000000;0.668416
9196.000000;0.669111
9195.000000;0.669757
9194.000000;0.669911
9193.000000;0.669603
9192.000000;0.669183
9191.000000;0.668834
9190.000000;0.668453
9189.000000;0.668034
9188.000000;0.667869
9187.000000;0.668148
9186.000000;0.668563
9185.000000;0.668617
9184.000000;0.668219
9183.000000;0.667724
9182.000000;0.667428
9181.000000;0.667297
9180.000000;0.667149
9179.000000;0.666833
9178.000000;0.666228
9177.000000;0.665379
9176.000000;0.664681
9175.000000;0.664626
9174.000000;0.665212
9173.000000;0.665834
9172.000000;0.665953
9171.000000;0.665666
9170.000000;0.665422
9169.000000;0.665374
9168.000000;0.665303
9167.000000;0.665098
9166.000000;0.664950
9165.000000;0.665015
9164.000000;0.665137
9163.000000;0.665075
9162.000000;0.664882
9161.000000;0.664871
9160.000000;0.665199
9159.000000;0.665630
9158.000000;0.665776
9157.000000;0.665532
9156.000000;0.665137
9155.000000;0.664818
9154.000000;0.664532
9153.000000;0.664176
9152.000000;0.663895
9151.000000;0.663938
9150.000000;0.664225
9149.000000;0.664357
9148.000000;0.664117
9147.000000;0.663736
9146.000000;0.663518
9145.000000;0.663421
9144.000000;0.663214
9143.000000;0.662891
9142.000000;0.662642
9141.000000;0.662486
9140.000000;0.662217
9139.000000;0.661734
9138.000000;0.661202
9137.000000;0.660815
9136.000000;0.660613
9135.000000;0.660613
9134.000000;0.660912
9133.000000;0.661502
9132.000000;0.662095
9131.000000;0.662311
9130.000000;0.662045
9129.000000;0.661547
9128.000000;0.661171
9127.000000;0.661089
9126.000000;0.661219
9125.000000;0.661355
9124.000000;0.661368
9123.000000;0.661292
9122.000000;0.661208
9121.000000;0.661103
9120.000000;0.660886
9119.000000;0.660538
9118.000000;0.660131
9117.000000;0.659740
9116.000000;0.659426
9115.000000;0.659324
9114.000000;0.659549
9113.000000;0.659954
9112.000000;0.660148
9111.000000;0.659897
9110.000000;0.659391
9109.000000;0.658972
9108.000000;0.658717
9107.000000;0.658465
9106.000000;0.658178
9105.000000;0.658020
9104.000000;0.658079
9103.000000;0.658242
9102.000000;0.658409
9101.000000;0.658629
9100.000000;0.658922
9099.000000;0.659135
9098.000000;0.659106
9097.000000;0.658865
9096.000000;0.658526
9095.000000;0.658096
9094.000000;0.657571
9093.000000;0.657145
9092.000000;0.657048
9091.000000;0.657195
9090.000000;0.657194
9089.000000;0.656829
9088.000000;0.656372
9087.000000;0.656281
9086.000000;0.656670
9085.000000;0.657206
9084.000000;0.657444
9083.000000;0.657159
9082.000000;0.656405
9081.000000;0.655456
9080.000000;0.654735
9079.000000;0.654613
9078.000000;0.655143
9077.000000;0.655996
9076.000000;0.656748
9075.000000;0.657193
9074.000000;0.657386
9073.000000;0.657422
9072.000000;0.657297
9071.000000;0.657011
9070.000000;0.656714
9069.000000;0.656632
9068.000000;0.656826
9067.000000;0.657091
9066.000000;0.657169
9065.000000;0.657033
9064.000000;0.656853
9063.000000;0.656688
9062.000000;0.656363
9061.000000;0.655731
9060.000000;0.654944
9059.000000;0.654291
9058.000000;0.653889
9057.000000;0.653675
9056.000000;0.653652
9055.000000;0.653859
9054.000000;0.654104
9053.000000;0.654038
