Criado como novo conjunto de dados;"e0108.spp","-4253563.1 Secs"
cm-1;Abs
10000.000000;1.039012
9999.000000;1.037372
9998.000000;1.035740
9997.000000;1.034863
9996.000000;1.034610
9995.000000;1.034475
9994.000000;1.034334
9993.000000;1.033989
9992.000000;1.033307
9991.000000;1.032643
9990.000000;1.032762
9989.000000;1.033793
9988.000000;1.034910
9987.000000;1.035297
9986.000000;1.034968
9985.000000;1.034328
9984.000000;1.033496
9983.000000;1.032539
9982.000000;1.031898
9981.000000;1.031937
9980.000000;1.032307
9979.000000;1.032301
9978.000000;1.031745
9977.000000;1.031013
9976.000000;1.030196
9975.000000;1.028860
9974.000000;1.026802
9973.000000;1.024599
9972.000000;1.023119
9971.000000;1.022762
9970.000000;1.023387
9969.000000;1.024675
9968.000000;1.026268
9967.000000;1.027649
9966.000000;1.028268
9965.000000;1.027946
9964.000000;1.027021
9963.000000;1.026003
9962.000000;1.025173
9961.000000;1.024564
9960.000000;1.024205
9959.000000;1.024211
9958.000000;1.024608
9957.000000;1.025204
9956.000000;1.025727
9955.000000;1.025953
9954.000000;1.025618
9953.000000;1.024388
9952.000000;1.022201
9951.000000;1.019575
9950.000000;1.017315
9949.000000;1.015884
9948.000000;1.015230
9947.000000;1.015218
9946.000000;1.015933
9945.000000;1.017386
9944.000000;1.019131
9943.000000;1.020397
9942.000000;1.020566
9941.000000;1.019479
9940.000000;1.017558
9939.000000;1.015777
9938.000000;1.015204
9937.000000;1.016154
9936.000000;1.017789
9935.000000;1.018839
9934.000000;1.018688
9933.000000;1.017558
9932.000000;1.015869
9931.000000;1.013912
9930.000000;1.012088
9929.000000;1.010890
9928.000000;1.010432
9927.000000;1.010376
9926.000000;1.010552
9925.000000;1.011242
9924.000000;1.012576
9923.000000;1.013983
9922.000000;1.014731
9921.000000;1.014752
9920.000000;1.014420
9919.000000;1.013665
9918.000000;1.012010
9917.000000;1.009619
9916.000000;1.007688
9915.000000;1.007280
9914.000000;1.008049
9913.000000;1.008509
9912.000000;1.007574
9911.000000;1.005620
9910.000000;1.003992
9909.000000;1.003644
9908.000000;1.004357
9907.000000;1.005127
9906.000000;1.005214
9905.000000;1.004779
9904.000000;1.004490
9903.000000;1.004633
9902.000000;1.004732
9901.000000;1.004062
9900.000000;1.002408
9899.000000;1.000335
9898.000000;0.998815
9897.000000;0.998514
9896.000000;0.999229
9895.000000;0.999988
9894.000000;0.999919
9893.000000;0.999083
9892.000000;0.998295
9891.000000;0.998158
9890.000000;0.998575
9889.000000;0.999200
9888.000000;0.999898
9887.000000;1.000506
9886.000000;1.000589
9885.000000;0.999924
9884.000000;0.999028
9883.000000;0.998727
9882.000000;0.999214
9881.000000;0.999907
9880.000000;1.000216
9879.000000;1.000042
9878.000000;0.999484
9877.000000;0.998540
9876.000000;0.997284
9875.000000;0.995981
9874.000000;0.994830
9873.000000;0.993921
9872.000000;0.993576
9871.000000;0.994317
9870.000000;0.996118
9869.000000;0.997994
9868.000000;0.998743
9867.000000;0.998068
9866.000000;0.996633
9865.000000;0.995141
9864.000000;0.993775
9863.000000;0.992526
9862.000000;0.991600
9861.000000;0.991231
9860.000000;0.991331
9859.000000;0.991577
9858.000000;0.991823
9857.000000;0.992196
9856.000000;0.992719
9855.000000;0.992963
9854.000000;0.992313
9853.000000;0.990702
9852.000000;0.988917
9851.000000;0.987919
9850.000000;0.987894
9849.000000;0.988138
9848.000000;0.987952
9847.000000;0.987418
9846.000000;0.987086
9845.000000;0.987125
9844.000000;0.987158
9843.000000;0.986873
9842.000000;0.986454
9841.000000;0.986298
9840.000000;0.986455
9839.000000;0.986453
9838.000000;0.985671
9837.000000;0.983960
9836.000000;0.981991
9835.000000;0.980869
9834.000000;0.981149
9833.000000;0.982233
9832.000000;0.982975
9831.000000;0.982883
9830.000000;0.982420
9829.000000;0.982091
9828.000000;0.981671
9827.000000;0.980679
9826.000000;0.979306
9825.000000;0.978341
9824.000000;0.978217
9823.000000;0.978541
9822.000000;0.978664
9821.000000;0.978385
9820.000000;0.977910
9819.000000;0.977447
9818.000000;0.977072
9817.000000;0.976811
9816.000000;0.976595
9815.000000;0.976225
9814.000000;0.975609
9813.000000;0.974980
9812.000000;0.974670
9811.000000;0.974717
9810.000000;0.974922
9809.000000;0.975217
9808.000000;0.975691
9807.000000;0.976241
9806.000000;0.976509
9805.000000;0.976271
9804.000000;0.975627
9803.000000;0.974694
9802.000000;0.973407
9801.000000;0.971863
9800.000000;0.970551
9799.000000;0.969886
9798.000000;0.969616
9797.000000;0.969080
9796.000000;0.968107
9795.000000;0.967374
9794.000000;0.967706
9793.000000;0.969163
9792.000000;0.970929
9791.000000;0.972036
9790.000000;0.972178
9789.000000;0.971857
9788.000000;0.971723
9787.000000;0.971773
9786.000000;0.971377
9785.000000;0.970171
9784.000000;0.968706
9783.000000;0.967945
9782.000000;0.968270
9781.000000;0.969230
9780.000000;0.970118
9779.000000;0.970394
9778.000000;0.969660
9777.000000;0.967785
9776.000000;0.965287
9775.000000;0.963154
9774.000000;0.962034
9773.000000;0.961813
9772.000000;0.962095
9771.000000;0.962713
9770.000000;0.963555
9769.000000;0.964248
9768.000000;0.964366
9767.000000;0.963735
9766.000000;0.962347
9765.000000;0.960310
9764.000000;0.958222
9763.000000;0.957172
9762.000000;0.957728
9761.000000;0.959034
9760.000000;0.959515
9759.000000;0.958641
9758.000000;0.957482
9757.000000;0.957341
9756.000000;0.958308
9755.000000;0.959417
9754.000000;0.959868
9753.000000;0.959680
9752.000000;0.959288
9751.000000;0.958938
9750.000000;0.958549
9749.000000;0.957935
9748.000000;0.957007
9747.000000;0.955867
9746.000000;0.954768
9745.000000;0.953998
9744.000000;0.953742
9743.000000;0.954016
9742.000000;0.954623
9741.000000;0.955172
9740.000000;0.955249
9739.000000;0.954708
9738.000000;0.953805
9737.000000;0.953005
9736.000000;0.952639
9735.000000;0.952686
9734.000000;0.952835
9733.000000;0.952776
9732.000000;0.952491
9731.000000;0.952263
9730.000000;0.952362
9729.000000;0.952704
9728.000000;0.952845
9727.000000;0.952382
9726.000000;0.951371
9725.000000;0.950327
9724.000000;0.949752
9723.000000;0.949586
9722.000000;0.949231
9721.000000;0.948221
9720.000000;0.946778
9719.000000;0.945577
9718.000000;0.945056
9717.000000;0.945125
9716.000000;0.945506
9715.000000;0.946034
9714.000000;0.946483
9713.000000;0.946486
9712.000000;0.946010
9711.000000;0.945663
9710.000000;0.946101
9709.000000;0.947130
9708.000000;0.947764
9707.000000;0.947246
9706.000000;0.945781
9705.000000;0.944199
9704.000000;0.943156
9703.000000;0.942730
9702.000000;0.942543
9701.000000;0.942165
9700.000000;0.941510
9699.000000;0.940861
9698.000000;0.940413
9697.000000;0.939893
9696.000000;0.938925
9695.000000;0.937744
9694.000000;0.937171
9693.000000;0.937708
9692.000000;0.938926
9691.000000;0.939903
9690.000000;0.940086
9689.000000;0.939601
9688.000000;0.938899
9687.000000;0.938328
9686.000000;0.937947
9685.000000;0.937594
9684.000000;0.937113
9683.000000;0.936601
9682.000000;0.936301
9681.000000;0.936248
9680.000000;0.936180
9679.000000;0.935900
9678.000000;0.935547
9677.000000;0.935364
9676.000000;0.935401
9675.000000;0.935540
9674.000000;0.935650
9673.000000;0.935590
9672.000000;0.935266
9671.000000;0.934863
9670.000000;0.934830
9669.000000;0.935381
9668.000000;0.936109
9667.000000;0.936321
9666.000000;0.935708
9665.000000;0.934537
9664.000000;0.933326
9663.000000;0.932537
9662.000000;0.932415
9661.000000;0.932820
9660.000000;0.933195
9659.000000;0.932948
9658.000000;0.931915
9657.000000;0.930385
9656.000000;0.928815
9655.000000;0.927679
9654.000000;0.927402
9653.000000;0.928051
9652.000000;0.929092
9651.000000;0.929758
9650.000000;0.929735
9649.000000;0.929318
9648.000000;0.928858
9647.000000;0.928339
9646.000000;0.927602
9645.000000;0.926778
9644.000000;0.926287
9643.000000;0.926462
9642.000000;0.927206
9641.000000;0.927983
9640.000000;0.928181
9639.000000;0.927599
9638.000000;0.926552
9637.000000;0.925471
9636.000000;0.924548
9635.000000;0.923873
9634.000000;0.923638
9633.000000;0.923853
9632.000000;0.924007
9631.000000;0.923475
9630.000000;0.922332
9629.000000;0.921373
9628.000000;0.921245
9627.000000;0.921857
9626.000000;0.922714
9625.000000;0.923365
9624.000000;0.923374
9623.000000;0.922329
9622.000000;0.920345
9621.000000;0.918341
9620.000000;0.917416
9619.000000;0.917957
9618.000000;0.919502
9617.000000;0.921223
9616.000000;0.922327
9615.000000;0.922276
9614.000000;0.921110
9613.000000;0.919581
9612.000000;0.918598
9611.000000;0.918450
9610.000000;0.918705
9609.000000;0.918817
9608.000000;0.918588
9607.000000;0.918069
9606.000000;0.917378
9605.000000;0.916759
9604.000000;0.916540
9603.000000;0.916751
9602.000000;0.916900
9601.000000;0.916337
9600.000000;0.914914
9599.000000;0.913273
9598.000000;0.912431
9597.000000;0.912969
9596.000000;0.914456
9595.000000;0.915688
9594.000000;0.915671
9593.000000;0.914453
9592.000000;0.912937
9591.000000;0.911924
9590.000000;0.911482
9589.000000;0.911186
9588.000000;0.910689
9587.000000;0.909948
9586.000000;0.909100
9585.000000;0.908346
9584.000000;0.907889
9583.000000;0.907840
9582.000000;0.908204
9581.000000;0.908983
9580.000000;0.910167
9579.000000;0.911480
9578.000000;0.912267
9577.000000;0.911882
9576.000000;0.910259
9575.000000;0.908009
9574.000000;0.905944
9573.000000;0.904607
9572.000000;0.904145
9571.000000;0.904350
9570.000000;0.904702
9569.000000;0.904623
9568.000000;0.903932
9567.000000;0.903044
9566.000000;0.902536
9565.000000;0.902580
9564.000000;0.902938
9563.000000;0.903399
9562.000000;0.903905
9561.000000;0.904243
9560.000000;0.904009
9559.000000;0.903131
9558.000000;0.902139
9557.000000;0.901612
9556.000000;0.901551
9555.000000;0.901580
9554.000000;0.901597
9553.000000;0.901754
9552.000000;0.901857
9551.000000;0.901304
9550.000000;0.899887
9549.000000;0.898325
9548.000000;0.897643
9547.000000;0.898172
9546.000000;0.899325
9545.000000;0.900182
9544.000000;0.900195
9543.000000;0.899562
9542.000000;0.899120
9541.000000;0.899644
9540.000000;0.901020
9539.000000;0.902260
9538.000000;0.902545
9537.000000;0.902087
9536.000000;0.901734
9535.000000;0.901905
9534.000000;0.902269
9533.000000;0.902311
9532.000000;0.901792
9531.000000;0.900661
9530.000000;0.898963
9529.000000;0.897033
9528.000000;0.895492
9527.000000;0.894800
9526.000000;0.894854
9525.000000;0.895118
9524.000000;0.895082
9523.000000;0.894577
9522.000000;0.893749
9521.000000;0.892835
9520.000000;0.891998
9519.000000;0.891365
9518.000000;0.891129
9517.000000;0.891465
9516.000000;0.892261
9515.000000;0.893087
9514.000000;0.893547
9513.000000;0.893510
9512.000000;0.892927
9511.000000;0.891702
9510.000000;0.890066
9509.000000;0.888842
9508.000000;0.888840
9507.000000;0.889936
9506.000000;0.891117
9505.000000;0.891551
9504.000000;0.891320
9503.000000;0.891021
9502.000000;0.891006
9501.000000;0.891215
9500.000000;0.891478
9499.000000;0.891662
9498.000000;0.891606
9497.000000;0.891187
9496.000000;0.890482
9495.000000;0.889771
9494.000000;0.889326
9493.000000;0.889180
9492.000000;0.889059
9491.000000;0.888612
9490.000000;0.887807
9489.000000;0.887021
9488.000000;0.886597
9487.000000;0.886435
9486.000000;0.886222
9485.000000;0.885927
9484.000000;0.885762
9483.000000;0.885729
9482.000000;0.885611
9481.000000;0.885419
9480.000000;0.885405
9479.000000;0.885534
9478.000000;0.885350
9477.000000;0.884602
9476.000000;0.883632
9475.000000;0.882955
9474.000000;0.882740
9473.000000;0.882899
9472.000000;0.883283
9471.000000;0.883521
9470.000000;0.883084
9469.000000;0.881956
9468.000000;0.880992
9467.000000;0.881071
9466.000000;0.882049
9465.000000;0.882945
9464.000000;0.883025
9463.000000;0.882253
9462.000000;0.880849
9461.000000;0.879066
9460.000000;0.877514
9459.000000;0.877042
9458.000000;0.877867
9457.000000;0.879103
9456.000000;0.879583
9455.000000;0.879061
9454.000000;0.878314
9453.000000;0.878108
9452.000000;0.878364
9451.000000;0.878444
9450.000000;0.878017
9449.000000;0.877423
9448.000000;0.877188
9447.000000;0.877409
9446.000000;0.877755
9445.000000;0.877959
9444.000000;0.878072
9443.000000;0.878158
9442.000000;0.877975
9441.000000;0.877171
9440.000000;0.875769
9439.000000;0.874294
9438.000000;0.873372
9437.000000;0.873233
9436.000000;0.873593
9435.000000;0.873994
9434.000000;0.874218
9433.000000;0.874310
9432.000000;0.874199
9431.000000;0.873571
9430.000000;0.872378
9429.000000;0.871273
9428.000000;0.871084
9427.000000;0.871824
9426.000000;0.872635
9425.000000;0.872849
9424.000000;0.872696
9423.000000;0.872712
9422.000000;0.872929
9421.000000;0.873067
9420.000000;0.873194
9419.000000;0.873629
9418.000000;0.874299
9417.000000;0.874725
9416.000000;0.874653
9415.000000;0.874298
9414.000000;0.873921
9413.000000;0.873510
9412.000000;0.872906
9411.000000;0.871952
9410.000000;0.870537
9409.000000;0.868808
9408.000000;0.867374
9407.000000;0.866914
9406.000000;0.867470
9405.000000;0.868379
9404.000000;0.869003
9403.000000;0.869271
9402.000000;0.869428
9401.000000;0.869564
9400.000000;0.869557
9399.000000;0.869241
9398.000000;0.868482
9397.000000;0.867301
9396.000000;0.866076
9395.000000;0.865421
9394.000000;0.865672
9393.000000;0.866566
9392.000000;0.867493
9391.000000;0.867976
9390.000000;0.867850
9389.000000;0.867198
9388.000000;0.866253
9387.000000;0.865287
9386.000000;0.864520
9385.000000;0.864141
9384.000000;0.864328
9383.000000;0.865019
9382.000000;0.865725
9381.000000;0.865880
9380.000000;0.865432
9379.000000;0.864808
9378.000000;0.864258
9377.000000;0.863604
9376.000000;0.862769
9375.000000;0.862122
9374.000000;0.862018
9373.000000;0.862291
9372.000000;0.862548
9371.000000;0.862726
9370.000000;0.863058
9369.000000;0.863638
9368.000000;0.864358
9367.000000;0.865089
9366.000000;0.865560
9365.000000;0.865215
9364.000000;0.863673
9363.000000;0.861423
9362.000000;0.859632
9361.000000;0.859110
9360.000000;0.859655
9359.000000;0.860495
9358.000000;0.861077
9357.000000;0.861293
9356.000000;0.861174
9355.000000;0.860710
9354.000000;0.859967
9353.000000;0.859204
9352.000000;0.858776
9351.000000;0.858871
9350.000000;0.859320
9349.000000;0.859689
9348.000000;0.859704
9347.000000;0.859564
9346.000000;0.859670
9345.000000;0.860010
9344.000000;0.860025
9343.000000;0.859241
9342.000000;0.857917
9341.000000;0.856847
9340.000000;0.856548
9339.000000;0.856778
9338.000000;0.856863
9337.000000;0.856367
9336.000000;0.855419
9335.000000;0.854506
9334.000000;0.854077
9333.000000;0.854255
9332.000000;0.854774
9331.000000;0.855162
9330.000000;0.855088
9329.000000;0.854642
9328.000000;0.854218
9327.000000;0.854082
9326.000000;0.854114
9325.000000;0.854038
9324.000000;0.853827
9323.000000;0.853749
9322.000000;0.853991
9321.000000;0.854366
9320.000000;0.854509
9319.000000;0.854319
9318.000000;0.854104
9317.000000;0.854229
9316.000000;0.854637
9315.000000;0.854809
9314.000000;0.854262
9313.000000;0.853082
9312.000000;0.851850
9311.000000;0.851044
9310.000000;0.850602
9309.000000;0.850173
9308.000000;0.849638
9307.000000;0.849193
9306.000000;0.848972
9305.000000;0.848832
9304.000000;0.848598
9303.000000;0.848359
9302.000000;0.848364
9301.000000;0.848736
9300.000000;0.849377
9299.000000;0.850060
9298.000000;0.850504
9297.000000;0.850451
9296.000000;0.849843
9295.000000;0.848899
9294.000000;0.847942
9293.000000;0.847189
9292.000000;0.846797
9291.000000;0.846987
9290.000000;0.847867
9289.000000;0.849116
9288.000000;0.850022
9287.000000;0.850047
9286.000000;0.849315
9285.000000;0.848468
9284.000000;0.848025
9283.000000;0.847957
9282.000000;0.847872
9281.000000;0.847536
9280.000000;0.847087
9279.000000;0.846774
9278.000000;0.846658
9277.000000;0.846656
9276.000000;0.846767
9275.000000;0.847039
9274.000000;0.847318
9273.000000;0.847256
9272.000000;0.846659
9271.000000;0.845701
9270.000000;0.844685
9269.000000;0.843747
9268.000000;0.842941
9267.000000;0.842452
9266.000000;0.842454
9265.000000;0.842785
9264.000000;0.843010
9263.000000;0.842900
9262.000000;0.842682
9261.000000;0.842749
9260.000000;0.843200
9259.000000;0.843754
9258.000000;0.844003
9257.000000;0.843665
9256.000000;0.842748
9255.000000;0.841579
9254.000000;0.840606
9253.000000;0.840049
9252.000000;0.839815
9251.000000;0.839810
9250.000000;0.840169
9249.000000;0.840990
9248.000000;0.841954
9247.000000;0.842519
9246.000000;0.842513
9245.000000;0.842275
9244.000000;0.842133
9243.000000;0.841983
9242.000000;0.841572
9241.000000;0.840971
9240.000000;0.840524
9239.000000;0.840426
9238.000000;0.840575
9237.000000;0.840782
9236.000000;0.840928
9235.000000;0.840912
9234.000000;0.840671
9233.000000;0.840296
9232.000000;0.839959
9231.000000;0.839666
9230.000000;0.839229
9229.000000;0.838505
9228.000000;0.837546
9227.000000;0.836527
9226.000000;0.835673
9225.000000;0.835270
9224.000000;0.835490
9223.000000;0.836104
9222.000000;0.836581
9221.000000;0.836589
9220.000000;0.836241
9219.000000;0.835749
9218.000000;0.835118
9217.000000;0.834387
9216.000000;0.833961
9215.000000;0.834320
9214.000000;0.835410
9213.000000;0.836576
9212.000000;0.837159
9211.000000;0.836989
9210.000000;0.836350
9209.000000;0.835683
9208.000000;0.835365
9207.000000;0.835551
9206.000000;0.836063
9205.000000;0.836494
9204.000000;0.836527
9203.000000;0.836123
9202.000000;0.835448
9201.000000;0.834740
9200.000000;0.834231
9199.000000;0.834034
9198.000000;0.834062
9197.000000;0.834135
9196.000000;0.834167
9195.000000;0.834179
9194.000000;0.834193
9193.000000;0.834247
9192.000000;0.834449
9191.000000;0.834842
9190.000000;0.835220
9189.000000;0.835253
9188.000000;0.834845
9187.000000;0.834194
9186.000000;0.833514
9185.000000;0.832914
9184.000000;0.832572
9183.000000;0.832740
9182.000000;0.833382
9181.000000;0.833978
9180.000000;0.833928
9179.000000;0.833099
9178.000000;0.831859
9177.000000;0.830659
9176.000000;0.829756
9175.000000;0.829269
9174.000000;0.829298
9173.000000;0.829896
9172.000000;0.830962
9171.000000;0.832179
9170.000000;0.833074
9169.000000;0.833255
9168.000000;0.832674
9167.000000;0.831632
9166.000000;0.830472
9165.000000;0.829329
9164.000000;0.828235
9163.000000;0.827357
9162.000000;0.826968
9161.000000;0.827187
9160.000000;0.827859
9159.000000;0.828684
9158.000000;0.829376
9157.000000;0.829690
9156.000000;0.829450
9155.000000;0.828670
9154.000000;0.827658
9153.000000;0.826914
9152.000000;0.826815
9151.000000;0.827336
9150.000000;0.828068
9149.000000;0.828550
9148.000000;0.828600
9147.000000;0.828333
9146.000000;0.827957
9145.000000;0.827641
9144.000000;0.827523
9143.000000;0.827633
9142.000000;0.827743
9141.000000;0.827452
9140.000000;0.826609
9139.000000;0.825601
9138.000000;0.825067
9137.000000;0.825299
9136.000000;0.825998
9135.000000;0.826616
9134.000000;0.826858
9133.000000;0.826831
9132.000000;0.826803
9131.000000;0.826898
9130.000000;0.827006
9129.000000;0.826904
9128.000000;0.826461
9127.000000;0.825758
9126.000000;0.825060
9125.000000;0.824651
9124.000000;0.824633
9123.000000;0.824811
9122.000000;0.824838
9121.000000;0.824555
9120.000000;0.824191
9119.000000;0.824155
9118.000000;0.824597
9117.000000;0.825212
9116.000000;0.825514
9115.000000;0.825271
9114.000000;0.824649
9113.000000;0.823983
9112.000000;0.823504
9111.000000;0.823281
9110.000000;0.823294
9109.000000;0.823441
9108.000000;0.823502
9107.000000;0.823261
9106.000000;0.822767
9105.000000;0.822356
9104.000000;0.822284
9103.000000;0.822420
9102.000000;0.822452
9101.000000;0.822333
9100.000000;0.822271
9099.000000;0.822280
9098.000000;0.822069
9097.000000;0.821501
9096.000000;0.820895
9095.000000;0.820655
9094.000000;0.820768
9093.000000;0.820893
9092.000000;0.820778
9091.000000;0.820349
9090.000000;0.819569
9089.000000;0.818537
9088.000000;0.817685
9087.000000;0.817539
9086.000000;0.818228
9085.000000;0.819387
9084.000000;0.820457
9083.000000;0.820926
9082.000000;0.820490
9081.000000;0.819367
9080.000000;0.818375
9079.000000;0.818259
9078.000000;0.818870
9077.000000;0.819375
9076.000000;0.819318
9075.000000;0.819096
9074.000000;0.819244
9073.000000;0.819692
9072.000000;0.819946
9071.000000;0.819704
9070.000000;0.819023
9069.000000;0.818107
9068.000000;0.817230
9067.000000;0.816683
9066.000000;0.816571
9065.000000;0.816721
9064.000000;0.816908
9063.000000;0.817019
9062.000000;0.816975
9061.000000;0.816775
9060.000000;0.816691
9059.000000;0.817113
9058.000000;0.817977
9057.000000;0.818671
9056.000000;0.818757
9055.000000;0.818470
9054.000000;0.818206
9053.000000;0.817907
