Criado como novo conjunto de dados;"e0108.spp","-4208200.7 Secs"
cm-1;Abs
10000.000000;1.038420
9999.000000;1.037033
9998.000000;1.035650
9997.000000;1.034271
9996.000000;1.032897
9995.000000;1.031527
9994.000000;1.030161
9993.000000;1.028799
9992.000000;1.027443
9991.000000;1.026087
9990.000000;1.024744
9989.000000;1.023391
9988.000000;1.022080
9987.000000;1.020720
9986.000000;1.019460
9985.000000;1.018914
9984.000000;1.019217
9983.000000;1.019527
9982.000000;1.018718
9981.000000;1.016671
9980.000000;1.014578
9979.000000;1.013860
9978.000000;1.014818
9977.000000;1.016397
9976.000000;1.017276
9975.000000;1.017082
9974.000000;1.016348
9973.000000;1.015472
9972.000000;1.014261
9971.000000;1.012650
9970.000000;1.011308
9969.000000;1.011015
9968.000000;1.011695
9967.000000;1.012555
9966.000000;1.012971
9965.000000;1.012701
9964.000000;1.011494
9963.000000;1.009368
9962.000000;1.007346
9961.000000;1.006978
9960.000000;1.008640
9959.000000;1.010846
9958.000000;1.011739
9957.000000;1.010940
9956.000000;1.009503
9955.000000;1.008452
9954.000000;1.007977
9953.000000;1.007764
9952.000000;1.007442
9951.000000;1.006665
9950.000000;1.005275
9949.000000;1.003515
9948.000000;1.001843
9947.000000;1.000492
9946.000000;0.999438
9945.000000;0.998752
9944.000000;0.998610
9943.000000;0.998909
9942.000000;0.999122
9941.000000;0.998710
9940.000000;0.997684
9939.000000;0.996717
9938.000000;0.996648
9937.000000;0.997737
9936.000000;0.999325
9935.000000;1.000391
9934.000000;1.000502
9933.000000;0.999998
9932.000000;0.999353
9931.000000;0.998691
9930.000000;0.997931
9929.000000;0.997101
9928.000000;0.996218
9927.000000;0.995109
9926.000000;0.993731
9925.000000;0.992514
9924.000000;0.991985
9923.000000;0.992073
9922.000000;0.992056
9921.000000;0.991270
9920.000000;0.989722
9919.000000;0.988057
9918.000000;0.987104
9917.000000;0.987314
9916.000000;0.988425
9915.000000;0.989609
9914.000000;0.990084
9913.000000;0.989632
9912.000000;0.988594
9911.000000;0.987567
9910.000000;0.987160
9909.000000;0.987733
9908.000000;0.989078
9907.000000;0.990425
9906.000000;0.990993
9905.000000;0.990504
9904.000000;0.989125
9903.000000;0.987142
9902.000000;0.984902
9901.000000;0.982889
9900.000000;0.981562
9899.000000;0.981072
9898.000000;0.981238
9897.000000;0.981755
9896.000000;0.982381
9895.000000;0.983018
9894.000000;0.983697
9893.000000;0.984388
9892.000000;0.984792
9891.000000;0.984500
9890.000000;0.983479
9889.000000;0.982191
9888.000000;0.981078
9887.000000;0.980168
9886.000000;0.979410
9885.000000;0.979111
9884.000000;0.979682
9883.000000;0.980994
9882.000000;0.982278
9881.000000;0.982704
9880.000000;0.981995
9879.000000;0.980531
9878.000000;0.978948
9877.000000;0.977611
9876.000000;0.976367
9875.000000;0.974853
9874.000000;0.973107
9873.000000;0.971760
9872.000000;0.971506
9871.000000;0.972439
9870.000000;0.973903
9869.000000;0.974872
9868.000000;0.974531
9867.000000;0.972860
9866.000000;0.970808
9865.000000;0.969662
9864.000000;0.969974
9863.000000;0.971159
9862.000000;0.972165
9861.000000;0.972370
9860.000000;0.971843
9859.000000;0.971087
9858.000000;0.970744
9857.000000;0.971228
9856.000000;0.972338
9855.000000;0.973368
9854.000000;0.973759
9853.000000;0.973435
9852.000000;0.972417
9851.000000;0.970594
9850.000000;0.968190
9849.000000;0.966009
9848.000000;0.964679
9847.000000;0.963921
9846.000000;0.963057
9845.000000;0.962009
9844.000000;0.961340
9843.000000;0.961445
9842.000000;0.962138
9841.000000;0.962932
9840.000000;0.963293
9839.000000;0.962799
9838.000000;0.961549
9837.000000;0.960403
9836.000000;0.960261
9835.000000;0.961053
9834.000000;0.961831
9833.000000;0.961846
9832.000000;0.961154
9831.000000;0.960250
9830.000000;0.959623
9829.000000;0.959745
9828.000000;0.960844
9827.000000;0.962368
9826.000000;0.963154
9825.000000;0.962554
9824.000000;0.961021
9823.000000;0.959273
9822.000000;0.957374
9821.000000;0.955081
9820.000000;0.952768
9819.000000;0.951344
9818.000000;0.951221
9817.000000;0.951823
9816.000000;0.952274
9815.000000;0.952254
9814.000000;0.951988
9813.000000;0.951613
9812.000000;0.950861
9811.000000;0.949433
9810.000000;0.947585
9809.000000;0.946215
9808.000000;0.946240
9807.000000;0.947789
9806.000000;0.949945
9805.000000;0.951392
9804.000000;0.951466
9803.000000;0.950588
9802.000000;0.949639
9801.000000;0.949065
9800.000000;0.948712
9799.000000;0.948321
9798.000000;0.947829
9797.000000;0.947157
9796.000000;0.946185
9795.000000;0.945186
9794.000000;0.944866
9793.000000;0.945467
9792.000000;0.946080
9791.000000;0.945453
9790.000000;0.943518
9789.000000;0.941556
9788.000000;0.940755
9787.000000;0.941133
9786.000000;0.942016
9785.000000;0.942972
9784.000000;0.943847
9783.000000;0.944347
9782.000000;0.944157
9781.000000;0.943359
9780.000000;0.942300
9779.000000;0.941167
9778.000000;0.940051
9777.000000;0.939272
9776.000000;0.939210
9775.000000;0.939799
9774.000000;0.940509
9773.000000;0.940839
9772.000000;0.940592
9771.000000;0.939692
9770.000000;0.938052
9769.000000;0.935769
9768.000000;0.933312
9767.000000;0.931396
9766.000000;0.930647
9765.000000;0.931225
9764.000000;0.932665
9763.000000;0.934148
9762.000000;0.935047
9761.000000;0.935206
9760.000000;0.934734
9759.000000;0.933820
9758.000000;0.932855
9757.000000;0.932332
9756.000000;0.932272
9755.000000;0.932085
9754.000000;0.931332
9753.000000;0.930325
9752.000000;0.929557
9751.000000;0.928801
9750.000000;0.927419
9749.000000;0.925490
9748.000000;0.923998
9747.000000;0.923734
9746.000000;0.924483
9745.000000;0.925466
9744.000000;0.926155
9743.000000;0.926447
9742.000000;0.926421
9741.000000;0.926301
9740.000000;0.926409
9739.000000;0.926802
9738.000000;0.927035
9737.000000;0.926576
9736.000000;0.925477
9735.000000;0.924384
9734.000000;0.923829
9733.000000;0.923780
9732.000000;0.923872
9731.000000;0.923828
9730.000000;0.923519
9729.000000;0.922825
9728.000000;0.921700
9727.000000;0.920357
9726.000000;0.919192
9725.000000;0.918491
9724.000000;0.918345
9723.000000;0.918807
9722.000000;0.919845
9721.000000;0.920988
9720.000000;0.921388
9719.000000;0.920648
9718.000000;0.919453
9717.000000;0.918917
9716.000000;0.919295
9715.000000;0.919741
9714.000000;0.919411
9713.000000;0.918426
9712.000000;0.917557
9711.000000;0.917326
9710.000000;0.917621
9709.000000;0.917861
9708.000000;0.917281
9707.000000;0.915383
9706.000000;0.912525
9705.000000;0.909906
9704.000000;0.908606
9703.000000;0.908635
9702.000000;0.909059
9701.000000;0.909006
9700.000000;0.908394
9699.000000;0.907772
9698.000000;0.907741
9697.000000;0.908496
9696.000000;0.909744
9695.000000;0.910977
9694.000000;0.911854
9693.000000;0.912203
9692.000000;0.911725
9691.000000;0.910101
9690.000000;0.907592
9689.000000;0.905204
9688.000000;0.903863
9687.000000;0.903560
9686.000000;0.903618
9685.000000;0.903626
9684.000000;0.903730
9683.000000;0.904164
9682.000000;0.904904
9681.000000;0.905763
9680.000000;0.906370
9679.000000;0.906096
9678.000000;0.904540
9677.000000;0.902293
9676.000000;0.900761
9675.000000;0.900863
9674.000000;0.902064
9673.000000;0.902973
9672.000000;0.902783
9671.000000;0.901847
9670.000000;0.900902
9669.000000;0.900122
9668.000000;0.899179
9667.000000;0.898000
9666.000000;0.897063
9665.000000;0.896859
9664.000000;0.897280
9663.000000;0.897754
9662.000000;0.897816
9661.000000;0.897344
9660.000000;0.896354
9659.000000;0.894929
9658.000000;0.893422
9657.000000;0.892416
9656.000000;0.892315
9655.000000;0.893082
9654.000000;0.894373
9653.000000;0.895745
9652.000000;0.896686
9651.000000;0.896761
9650.000000;0.895937
9649.000000;0.894643
9648.000000;0.893415
9647.000000;0.892600
9646.000000;0.892347
9645.000000;0.892569
9644.000000;0.892861
9643.000000;0.892827
9642.000000;0.892594
9641.000000;0.892597
9640.000000;0.892744
9639.000000;0.892356
9638.000000;0.891234
9637.000000;0.890261
9636.000000;0.890395
9635.000000;0.891415
9634.000000;0.892228
9633.000000;0.892220
9632.000000;0.891700
9631.000000;0.891030
9630.000000;0.890004
9629.000000;0.888260
9628.000000;0.885927
9627.000000;0.883666
9626.000000;0.882259
9625.000000;0.882180
9624.000000;0.883243
9623.000000;0.884588
9622.000000;0.885291
9621.000000;0.885113
9620.000000;0.884552
9619.000000;0.884188
9618.000000;0.884164
9617.000000;0.884233
9616.000000;0.884062
9615.000000;0.883519
9614.000000;0.882818
9613.000000;0.882321
9612.000000;0.882033
9611.000000;0.881495
9610.000000;0.880433
9609.000000;0.879328
9608.000000;0.878971
9607.000000;0.879554
9606.000000;0.880555
9605.000000;0.881395
9604.000000;0.881810
9603.000000;0.881638
9602.000000;0.880764
9601.000000;0.879411
9600.000000;0.878114
9599.000000;0.877211
9598.000000;0.876621
9597.000000;0.876177
9596.000000;0.875864
9595.000000;0.875625
9594.000000;0.875269
9593.000000;0.874734
9592.000000;0.874217
9591.000000;0.873849
9590.000000;0.873469
9589.000000;0.872880
9588.000000;0.872185
9587.000000;0.871700
9586.000000;0.871602
9585.000000;0.871728
9584.000000;0.871659
9583.000000;0.871046
9582.000000;0.870024
9581.000000;0.869277
9580.000000;0.869433
9579.000000;0.870348
9578.000000;0.871190
9577.000000;0.871272
9576.000000;0.870579
9575.000000;0.869447
9574.000000;0.868109
9573.000000;0.866772
9572.000000;0.865817
9571.000000;0.865499
9570.000000;0.865522
9569.000000;0.865250
9568.000000;0.864395
9567.000000;0.863338
9566.000000;0.862680
9565.000000;0.862638
9564.000000;0.862999
9563.000000;0.863536
9562.000000;0.864276
9561.000000;0.865202
9560.000000;0.865846
9559.000000;0.865490
9558.000000;0.863933
9557.000000;0.861860
9556.000000;0.860264
9555.000000;0.859589
9554.000000;0.859549
9553.000000;0.859656
9552.000000;0.859662
9551.000000;0.859531
9550.000000;0.859245
9549.000000;0.858790
9548.000000;0.858252
9547.000000;0.857833
9546.000000;0.857763
9545.000000;0.858109
9544.000000;0.858628
9543.000000;0.858939
9542.000000;0.858944
9541.000000;0.858906
9540.000000;0.858953
9539.000000;0.858784
9538.000000;0.858168
9537.000000;0.857488
9536.000000;0.857343
9535.000000;0.857684
9534.000000;0.857829
9533.000000;0.857436
9532.000000;0.857030
9531.000000;0.857301
9530.000000;0.858151
9529.000000;0.858661
9528.000000;0.857937
9527.000000;0.855906
9526.000000;0.853395
9525.000000;0.851486
9524.000000;0.850663
9523.000000;0.850427
9522.000000;0.849861
9521.000000;0.848668
9520.000000;0.847558
9519.000000;0.847523
9518.000000;0.848808
9517.000000;0.850599
9516.000000;0.851646
9515.000000;0.851189
9514.000000;0.849494
9513.000000;0.847585
9512.000000;0.846392
9511.000000;0.846075
9510.000000;0.846222
9509.000000;0.846561
9508.000000;0.847206
9507.000000;0.848146
9506.000000;0.848876
9505.000000;0.848845
9504.000000;0.848144
9503.000000;0.847443
9502.000000;0.847222
9501.000000;0.847271
9500.000000;0.847042
9499.000000;0.846327
9498.000000;0.845494
9497.000000;0.845071
9496.000000;0.845181
9495.000000;0.845438
9494.000000;0.845385
9493.000000;0.844988
9492.000000;0.844610
9491.000000;0.844530
9490.000000;0.844622
9489.000000;0.844543
9488.000000;0.844092
9487.000000;0.843290
9486.000000;0.842218
9485.000000;0.840964
9484.000000;0.839737
9483.000000;0.838877
9482.000000;0.838616
9481.000000;0.838866
9480.000000;0.839276
9479.000000;0.839529
9478.000000;0.839530
9477.000000;0.839324
9476.000000;0.838952
9475.000000;0.838493
9474.000000;0.838103
9473.000000;0.837834
9472.000000;0.837442
9471.000000;0.836570
9470.000000;0.835183
9469.000000;0.833719
9468.000000;0.832754
9467.000000;0.832640
9466.000000;0.833410
9465.000000;0.834810
9464.000000;0.836279
9463.000000;0.837102
9462.000000;0.836869
9461.000000;0.835805
9460.000000;0.834546
9459.000000;0.833677
9458.000000;0.833505
9457.000000;0.834015
9456.000000;0.834792
9455.000000;0.835135
9454.000000;0.834638
9453.000000;0.833647
9452.000000;0.832927
9451.000000;0.832833
9450.000000;0.833011
9449.000000;0.832945
9448.000000;0.832523
9447.000000;0.831951
9446.000000;0.831360
9445.000000;0.830728
9444.000000;0.830075
9443.000000;0.829509
9442.000000;0.829043
9441.000000;0.828548
9440.000000;0.827960
9439.000000;0.827505
9438.000000;0.827566
9437.000000;0.828246
9436.000000;0.829076
9435.000000;0.829352
9434.000000;0.828838
9433.000000;0.828031
9432.000000;0.827574
9431.000000;0.827514
9430.000000;0.827308
9429.000000;0.826522
9428.000000;0.825324
9427.000000;0.824286
9426.000000;0.823866
9425.000000;0.824085
9424.000000;0.824555
9423.000000;0.824764
9422.000000;0.824480
9421.000000;0.823961
9420.000000;0.823674
9419.000000;0.823742
9418.000000;0.823768
9417.000000;0.823281
9416.000000;0.822294
9415.000000;0.821312
9414.000000;0.820840
9413.000000;0.820974
9412.000000;0.821454
9411.000000;0.821953
9410.000000;0.822221
9409.000000;0.822033
9408.000000;0.821222
9407.000000;0.819947
9406.000000;0.818803
9405.000000;0.818439
9404.000000;0.818962
9403.000000;0.819831
9402.000000;0.820362
9401.000000;0.820215
9400.000000;0.819415
9399.000000;0.818161
9398.000000;0.816812
9397.000000;0.815826
9396.000000;0.815414
9395.000000;0.815278
9394.000000;0.814974
9393.000000;0.814514
9392.000000;0.814356
9391.000000;0.814707
9390.000000;0.815126
9389.000000;0.815002
9388.000000;0.814315
9387.000000;0.813671
9386.000000;0.813573
9385.000000;0.813810
9384.000000;0.813686
9383.000000;0.812844
9382.000000;0.811749
9381.000000;0.811245
9380.000000;0.811620
9379.000000;0.812192
9378.000000;0.811955
9377.000000;0.810650
9376.000000;0.809074
9375.000000;0.808266
9374.000000;0.808491
9373.000000;0.809122
9372.000000;0.809513
9371.000000;0.809773
9370.000000;0.810511
9369.000000;0.811925
9368.000000;0.813379
9367.000000;0.813961
9366.000000;0.813326
9365.000000;0.811897
9364.000000;0.810364
9363.000000;0.809222
9362.000000;0.808672
9361.000000;0.808656
9360.000000;0.808903
9359.000000;0.809077
9358.000000;0.808948
9357.000000;0.808409
9356.000000;0.807451
9355.000000;0.806318
9354.000000;0.805621
9353.000000;0.805948
9352.000000;0.807210
9351.000000;0.808556
9350.000000;0.809081
9349.000000;0.808523
9348.000000;0.807254
9347.000000;0.805867
9346.000000;0.804860
9345.000000;0.804444
9344.000000;0.804389
9343.000000;0.804201
9342.000000;0.803638
9341.000000;0.802957
9340.000000;0.802511
9339.000000;0.802298
9338.000000;0.802127
9337.000000;0.802034
9336.000000;0.802221
9335.000000;0.802615
9334.000000;0.802776
9333.000000;0.802325
9332.000000;0.801308
9331.000000;0.800119
9330.000000;0.799164
9329.000000;0.798611
9328.000000;0.798369
9327.000000;0.798263
9326.000000;0.798254
9325.000000;0.798421
9324.000000;0.798725
9323.000000;0.798918
9322.000000;0.798837
9321.000000;0.798655
9320.000000;0.798668
9319.000000;0.798911
9318.000000;0.799136
9317.000000;0.799117
9316.000000;0.798829
9315.000000;0.798364
9314.000000;0.797797
9313.000000;0.797158
9312.000000;0.796467
9311.000000;0.795821
9310.000000;0.795412
9309.000000;0.795338
9308.000000;0.795374
9307.000000;0.795120
9306.000000;0.794473
9305.000000;0.793764
9304.000000;0.793354
9303.000000;0.793287
9302.000000;0.793465
9301.000000;0.793888
9300.000000;0.794481
9299.000000;0.794910
9298.000000;0.794853
9297.000000;0.794377
9296.000000;0.793795
9295.000000;0.793275
9294.000000;0.792815
9293.000000;0.792410
9292.000000;0.791934
9291.000000;0.791056
9290.000000;0.789689
9289.000000;0.788439
9288.000000;0.788157
9287.000000;0.788984
9286.000000;0.790173
9285.000000;0.790921
9284.000000;0.791069
9283.000000;0.790952
9282.000000;0.790889
9281.000000;0.790983
9280.000000;0.791126
9279.000000;0.791052
9278.000000;0.790623
9277.000000;0.790146
9276.000000;0.790151
9275.000000;0.790676
9274.000000;0.791029
9273.000000;0.790464
9272.000000;0.788944
9271.000000;0.787067
9270.000000;0.785447
9269.000000;0.784362
9268.000000;0.783795
9267.000000;0.783545
9266.000000;0.783342
9265.000000;0.783040
9264.000000;0.782757
9263.000000;0.782683
9262.000000;0.782818
9261.000000;0.782978
9260.000000;0.783035
9259.000000;0.783014
9258.000000;0.782976
9257.000000;0.782908
9256.000000;0.782761
9255.000000;0.782537
9254.000000;0.782362
9253.000000;0.782441
9252.000000;0.782842
9251.000000;0.783301
9250.000000;0.783375
9249.000000;0.782912
9248.000000;0.782290
9247.000000;0.782027
9246.000000;0.782189
9245.000000;0.782331
9244.000000;0.782053
9243.000000;0.781522
9242.000000;0.781287
9241.000000;0.781604
9240.000000;0.782090
9239.000000;0.782112
9238.000000;0.781490
9237.000000;0.780680
9236.000000;0.780257
9235.000000;0.780374
9234.000000;0.780756
9233.000000;0.781019
9232.000000;0.780865
9231.000000;0.780168
9230.000000;0.779136
9229.000000;0.778314
9228.000000;0.778118
9227.000000;0.778333
9226.000000;0.778306
9225.000000;0.777741
9224.000000;0.777044
9223.000000;0.776746
9222.000000;0.776820
9221.000000;0.776767
9220.000000;0.776219
9219.000000;0.775248
9218.000000;0.774174
9217.000000;0.773328
9216.000000;0.772996
9215.000000;0.773317
9214.000000;0.774083
9213.000000;0.774782
9212.000000;0.774982
9211.000000;0.774684
9210.000000;0.774204
9209.000000;0.773781
9208.000000;0.773448
9207.000000;0.773239
9206.000000;0.773302
9205.000000;0.773661
9204.000000;0.773999
9203.000000;0.773912
9202.000000;0.773395
9201.000000;0.772869
9200.000000;0.772675
9199.000000;0.772691
9198.000000;0.772597
9197.000000;0.772324
9196.000000;0.772066
9195.000000;0.771950
9194.000000;0.771917
9193.000000;0.771894
9192.000000;0.771857
9191.000000;0.771703
9190.000000;0.771265
9189.000000;0.770543
9188.000000;0.769773
9187.000000;0.769206
9186.000000;0.768899
9185.000000;0.768791
9184.000000;0.768823
9183.000000;0.768887
9182.000000;0.768777
9181.000000;0.768345
9180.000000;0.767684
9179.000000;0.767083
9178.000000;0.766792
9177.000000;0.766826
9176.000000;0.766941
9175.000000;0.766798
9174.000000;0.766237
9173.000000;0.765506
9172.000000;0.765117
9171.000000;0.765368
9170.000000;0.765996
9169.000000;0.766385
9168.000000;0.766128
9167.000000;0.765371
9166.000000;0.764648
9165.000000;0.764438
9164.000000;0.764859
9163.000000;0.765636
9162.000000;0.766304
9161.000000;0.766500
9160.000000;0.766183
9159.000000;0.765620
9158.000000;0.765122
9157.000000;0.764781
9156.000000;0.764444
9155.000000;0.763937
9154.000000;0.763290
9153.000000;0.762726
9152.000000;0.762452
9151.000000;0.762492
9150.000000;0.762741
9149.000000;0.763110
9148.000000;0.763522
9147.000000;0.763793
9146.000000;0.763683
9145.000000;0.763163
9144.000000;0.762562
9143.000000;0.762256
9142.000000;0.762187
9141.000000;0.761885
9140.000000;0.761089
9139.000000;0.760193
9138.000000;0.759820
9137.000000;0.760038
9136.000000;0.760286
9135.000000;0.760165
9134.000000;0.759920
9133.000000;0.759927
9132.000000;0.760016
9131.000000;0.759709
9130.000000;0.759020
9129.000000;0.758533
9128.000000;0.758630
9127.000000;0.759045
9126.000000;0.759387
9125.000000;0.759744
9124.000000;0.760427
9123.000000;0.761266
9122.000000;0.761536
9121.000000;0.760667
9120.000000;0.758886
9119.000000;0.757094
9118.000000;0.756149
9117.000000;0.756208
9116.000000;0.756676
9115.000000;0.756791
9114.000000;0.756328
9113.000000;0.755674
9112.000000;0.755273
9111.000000;0.755123
9110.000000;0.754875
9109.000000;0.754266
9108.000000;0.753373
9107.000000;0.752584
9106.000000;0.752366
9105.000000;0.752885
9104.000000;0.753724
9103.000000;0.754187
9102.000000;0.754021
9101.000000;0.753659
9100.000000;0.753591
9099.000000;0.753762
9098.000000;0.753814
9097.000000;0.753662
9096.000000;0.753462
9095.000000;0.753199
9094.000000;0.752767
9093.000000;0.752402
9092.000000;0.752534
9091.000000;0.753095
9090.000000;0.753379
9089.000000;0.752804
9088.000000;0.751571
9087.000000;0.750384
9086.000000;0.749800
9085.000000;0.749985
9084.000000;0.750783
9083.000000;0.751744
9082.000000;0.752282
9081.000000;0.752132
9080.000000;0.751617
9079.000000;0.751249
9078.000000;0.751185
9077.000000;0.751210
9076.000000;0.751112
9075.000000;0.750817
9074.000000;0.750273
9073.000000;0.749479
9072.000000;0.748651
9071.000000;0.748129
9070.000000;0.748085
9069.000000;0.748429
9068.000000;0.748962
9067.000000;0.749465
9066.000000;0.749692
9065.000000;0.749484
9064.000000;0.748911
9063.000000;0.748170
9062.000000;0.747351
9061.000000;0.746514
9060.000000;0.745939
9059.000000;0.746039
9058.000000;0.746913
9057.000000;0.748150
9056.000000;0.749148
9055.000000;0.749500
9054.000000;0.749086
9053.000000;0.748054
