Criado como novo conjunto de dados;"e0108.spp","-4287765.2 Secs"
cm-1;Abs
10000.000000;0.859631
9999.000000;0.859999
9998.000000;0.860366
9997.000000;0.860339
9996.000000;0.859759
9995.000000;0.858990
9994.000000;0.858445
9993.000000;0.858206
9992.000000;0.858153
9991.000000;0.858342
9990.000000;0.858872
9989.000000;0.859507
9988.000000;0.859726
9987.000000;0.859166
9986.000000;0.857834
9985.000000;0.855989
9984.000000;0.854123
9983.000000;0.852894
9982.000000;0.852650
9981.000000;0.852993
9980.000000;0.853151
9979.000000;0.852815
9978.000000;0.852323
9977.000000;0.852109
9976.000000;0.852358
9975.000000;0.853153
9974.000000;0.854375
9973.000000;0.855327
9972.000000;0.855016
9971.000000;0.853210
9970.000000;0.850871
9969.000000;0.849236
9968.000000;0.848741
9967.000000;0.849054
9966.000000;0.849733
9965.000000;0.850404
9964.000000;0.850620
9963.000000;0.850144
9962.000000;0.849377
9961.000000;0.849056
9960.000000;0.849402
9959.000000;0.849861
9958.000000;0.849734
9957.000000;0.848825
9956.000000;0.847460
9955.000000;0.846108
9954.000000;0.845069
9953.000000;0.844340
9952.000000;0.843681
9951.000000;0.842876
9950.000000;0.841946
9949.000000;0.841055
9948.000000;0.840293
9947.000000;0.839727
9946.000000;0.839584
9945.000000;0.840084
9944.000000;0.841027
9943.000000;0.841781
9942.000000;0.841795
9941.000000;0.841065
9940.000000;0.840028
9939.000000;0.839166
9938.000000;0.838781
9937.000000;0.838938
9936.000000;0.839446
9935.000000;0.839937
9934.000000;0.840108
9933.000000;0.839880
9932.000000;0.839324
9931.000000;0.838511
9930.000000;0.837540
9929.000000;0.836621
9928.000000;0.835980
9927.000000;0.835685
9926.000000;0.835624
9925.000000;0.835625
9924.000000;0.835567
9923.000000;0.835377
9922.000000;0.835010
9921.000000;0.834477
9920.000000;0.833885
9919.000000;0.833338
9918.000000;0.832786
9917.000000;0.832037
9916.000000;0.831043
9915.000000;0.830162
9914.000000;0.829933
9913.000000;0.830472
9912.000000;0.831198
9911.000000;0.831353
9910.000000;0.830758
9909.000000;0.829835
9908.000000;0.828942
9907.000000;0.828022
9906.000000;0.827022
9905.000000;0.826279
9904.000000;0.826191
9903.000000;0.826663
9902.000000;0.827182
9901.000000;0.827447
9900.000000;0.827643
9899.000000;0.828061
9898.000000;0.828671
9897.000000;0.829164
9896.000000;0.829206
9895.000000;0.828594
9894.000000;0.827370
9893.000000;0.825949
9892.000000;0.824963
9891.000000;0.824763
9890.000000;0.825080
9889.000000;0.825310
9888.000000;0.825119
9887.000000;0.824656
9886.000000;0.824171
9885.000000;0.823605
9884.000000;0.822690
9883.000000;0.821403
9882.000000;0.820153
9881.000000;0.819427
9880.000000;0.819284
9879.000000;0.819317
9878.000000;0.819155
9877.000000;0.818888
9876.000000;0.818876
9875.000000;0.819201
9874.000000;0.819496
9873.000000;0.819340
9872.000000;0.818702
9871.000000;0.817930
9870.000000;0.817390
9869.000000;0.817159
9868.000000;0.817006
9867.000000;0.816652
9866.000000;0.816120
9865.000000;0.815811
9864.000000;0.816108
9863.000000;0.816867
9862.000000;0.817490
9861.000000;0.817549
9860.000000;0.817182
9859.000000;0.816793
9858.000000;0.816540
9857.000000;0.816260
9856.000000;0.815738
9855.000000;0.814875
9854.000000;0.813714
9853.000000;0.812506
9852.000000;0.811678
9851.000000;0.811491
9850.000000;0.811731
9849.000000;0.811871
9848.000000;0.811539
9847.000000;0.810763
9846.000000;0.809819
9845.000000;0.809049
9844.000000;0.808744
9843.000000;0.808952
9842.000000;0.809342
9841.000000;0.809389
9840.000000;0.808735
9839.000000;0.807345
9838.000000;0.805469
9837.000000;0.803686
9836.000000;0.802842
9835.000000;0.803498
9834.000000;0.805244
9833.000000;0.806777
9832.000000;0.806911
9831.000000;0.805611
9830.000000;0.803978
9829.000000;0.803221
9828.000000;0.803631
9827.000000;0.804469
9826.000000;0.804785
9825.000000;0.804386
9824.000000;0.803895
9823.000000;0.803835
9822.000000;0.803893
9821.000000;0.803391
9820.000000;0.802291
9819.000000;0.801271
9818.000000;0.800821
9817.000000;0.800737
9816.000000;0.800660
9815.000000;0.800657
9814.000000;0.800925
9813.000000;0.801211
9812.000000;0.800953
9811.000000;0.799952
9810.000000;0.798662
9809.000000;0.797792
9808.000000;0.797724
9807.000000;0.798236
9806.000000;0.798708
9805.000000;0.798706
9804.000000;0.798434
9803.000000;0.798424
9802.000000;0.798744
9801.000000;0.798801
9800.000000;0.798103
9799.000000;0.796894
9798.000000;0.795758
9797.000000;0.794910
9796.000000;0.794228
9795.000000;0.793767
9794.000000;0.793719
9793.000000;0.793957
9792.000000;0.794052
9791.000000;0.793810
9790.000000;0.793394
9789.000000;0.792881
9788.000000;0.792082
9787.000000;0.790977
9786.000000;0.789962
9785.000000;0.789438
9784.000000;0.789353
9783.000000;0.789328
9782.000000;0.789133
9781.000000;0.788881
9780.000000;0.788833
9779.000000;0.789105
9778.000000;0.789553
9777.000000;0.789870
9776.000000;0.789888
9775.000000;0.789742
9774.000000;0.789622
9773.000000;0.789442
9772.000000;0.789001
9771.000000;0.788416
9770.000000;0.788033
9769.000000;0.787788
9768.000000;0.787055
9767.000000;0.785415
9766.000000;0.783374
9765.000000;0.781933
9764.000000;0.781556
9763.000000;0.781850
9762.000000;0.782199
9761.000000;0.782362
9760.000000;0.782373
9759.000000;0.782182
9758.000000;0.781666
9757.000000;0.780901
9756.000000;0.780216
9755.000000;0.779898
9754.000000;0.779933
9753.000000;0.780061
9752.000000;0.780064
9751.000000;0.779938
9750.000000;0.779771
9749.000000;0.779526
9748.000000;0.779055
9747.000000;0.778391
9746.000000;0.777903
9745.000000;0.777985
9744.000000;0.778579
9743.000000;0.779144
9742.000000;0.779165
9741.000000;0.778618
9740.000000;0.777842
9739.000000;0.777030
9738.000000;0.776026
9737.000000;0.774687
9736.000000;0.773339
9735.000000;0.772674
9734.000000;0.773132
9733.000000;0.774379
9732.000000;0.775502
9731.000000;0.775775
9730.000000;0.775271
9729.000000;0.774687
9728.000000;0.774597
9727.000000;0.774911
9726.000000;0.775085
9725.000000;0.774801
9724.000000;0.774316
9723.000000;0.774084
9722.000000;0.774121
9721.000000;0.773944
9720.000000;0.773158
9719.000000;0.771993
9718.000000;0.771103
9717.000000;0.770868
9716.000000;0.770983
9715.000000;0.770788
9714.000000;0.769954
9713.000000;0.768836
9712.000000;0.768144
9711.000000;0.768278
9710.000000;0.769008
9709.000000;0.769752
9708.000000;0.770084
9707.000000;0.769928
9706.000000;0.769384
9705.000000;0.768590
9704.000000;0.767734
9703.000000;0.767060
9702.000000;0.766728
9701.000000;0.766744
9700.000000;0.767018
9699.000000;0.767379
9698.000000;0.767507
9697.000000;0.767092
9696.000000;0.766232
9695.000000;0.765519
9694.000000;0.765489
9693.000000;0.766044
9692.000000;0.766580
9691.000000;0.766640
9690.000000;0.766196
9689.000000;0.765365
9688.000000;0.764172
9687.000000;0.762759
9686.000000;0.761574
9685.000000;0.761040
9684.000000;0.761055
9683.000000;0.761037
9682.000000;0.760551
9681.000000;0.759797
9680.000000;0.759360
9679.000000;0.759552
9678.000000;0.760131
9677.000000;0.760654
9676.000000;0.760896
9675.000000;0.760830
9674.000000;0.760443
9673.000000;0.759856
9672.000000;0.759513
9671.000000;0.759786
9670.000000;0.760289
9669.000000;0.759991
9668.000000;0.758382
9667.000000;0.756262
9666.000000;0.754958
9665.000000;0.754947
9664.000000;0.755586
9663.000000;0.756075
9662.000000;0.756232
9661.000000;0.756251
9660.000000;0.756178
9659.000000;0.755868
9658.000000;0.755264
9657.000000;0.754484
9656.000000;0.753725
9655.000000;0.753158
9654.000000;0.752803
9653.000000;0.752474
9652.000000;0.752025
9651.000000;0.751609
9650.000000;0.751432
9649.000000;0.751284
9648.000000;0.750695
9647.000000;0.749672
9646.000000;0.748870
9645.000000;0.748800
9644.000000;0.749221
9643.000000;0.749585
9642.000000;0.749727
9641.000000;0.749751
9640.000000;0.749527
9639.000000;0.748843
9638.000000;0.747947
9637.000000;0.747460
9636.000000;0.747676
9635.000000;0.748276
9634.000000;0.748750
9633.000000;0.748845
9632.000000;0.748593
9631.000000;0.748237
9630.000000;0.748131
9629.000000;0.748412
9628.000000;0.748693
9627.000000;0.748440
9626.000000;0.747680
9625.000000;0.746957
9624.000000;0.746496
9623.000000;0.745848
9622.000000;0.744632
9621.000000;0.743285
9620.000000;0.742705
9619.000000;0.743299
9618.000000;0.744649
9617.000000;0.745952
9616.000000;0.746513
9615.000000;0.745993
9614.000000;0.744562
9613.000000;0.742823
9612.000000;0.741356
9611.000000;0.740268
9610.000000;0.739362
9609.000000;0.738654
9608.000000;0.738478
9607.000000;0.739001
9606.000000;0.739899
9605.000000;0.740655
9604.000000;0.741038
9603.000000;0.741158
9602.000000;0.741126
9601.000000;0.740854
9600.000000;0.740188
9599.000000;0.739201
9598.000000;0.738246
9597.000000;0.737658
9596.000000;0.737396
9595.000000;0.737080
9594.000000;0.736476
9593.000000;0.735877
9592.000000;0.735846
9591.000000;0.736554
9590.000000;0.737488
9589.000000;0.737896
9588.000000;0.737470
9587.000000;0.736549
9586.000000;0.735682
9585.000000;0.735074
9584.000000;0.734515
9583.000000;0.733852
9582.000000;0.733388
9581.000000;0.733630
9580.000000;0.734595
9579.000000;0.735558
9578.000000;0.735692
9577.000000;0.734873
9576.000000;0.733679
9575.000000;0.732698
9574.000000;0.732068
9573.000000;0.731634
9572.000000;0.731249
9571.000000;0.730809
9570.000000;0.730220
9569.000000;0.729509
9568.000000;0.728861
9567.000000;0.728428
9566.000000;0.728199
9565.000000;0.728135
9564.000000;0.728317
9563.000000;0.728832
9562.000000;0.729566
9561.000000;0.730210
9560.000000;0.730458
9559.000000;0.730138
9558.000000;0.729266
9557.000000;0.728106
9556.000000;0.727079
9555.000000;0.726481
9554.000000;0.726270
9553.000000;0.726192
9552.000000;0.726040
9551.000000;0.725740
9550.000000;0.725317
9549.000000;0.724961
9548.000000;0.725038
9547.000000;0.725777
9546.000000;0.726871
9545.000000;0.727559
9544.000000;0.727254
9543.000000;0.726073
9542.000000;0.724718
9541.000000;0.723848
9540.000000;0.723590
9539.000000;0.723584
9538.000000;0.723427
9537.000000;0.723049
9536.000000;0.722704
9535.000000;0.722663
9534.000000;0.722986
9533.000000;0.723522
9532.000000;0.724002
9531.000000;0.724146
9530.000000;0.723854
9529.000000;0.723353
9528.000000;0.723000
9527.000000;0.722843
9526.000000;0.722543
9525.000000;0.721883
9524.000000;0.721132
9523.000000;0.720654
9522.000000;0.720286
9521.000000;0.719481
9520.000000;0.718088
9519.000000;0.716678
9518.000000;0.715955
9517.000000;0.716056
9516.000000;0.716585
9515.000000;0.717126
9514.000000;0.717526
9513.000000;0.717779
9512.000000;0.717851
9511.000000;0.717654
9510.000000;0.717140
9509.000000;0.716441
9508.000000;0.715873
9507.000000;0.715671
9506.000000;0.715708
9505.000000;0.715634
9504.000000;0.715351
9503.000000;0.715160
9502.000000;0.715314
9501.000000;0.715627
9500.000000;0.715734
9499.000000;0.715585
9498.000000;0.715440
9497.000000;0.715440
9496.000000;0.715433
9495.000000;0.715234
9494.000000;0.714832
9493.000000;0.714292
9492.000000;0.713632
9491.000000;0.712924
9490.000000;0.712372
9489.000000;0.712118
9488.000000;0.712024
9487.000000;0.711803
9486.000000;0.711401
9485.000000;0.711145
9484.000000;0.711423
9483.000000;0.712184
9482.000000;0.712847
9481.000000;0.712770
9480.000000;0.711839
9479.000000;0.710522
9478.000000;0.709345
9477.000000;0.708444
9476.000000;0.707705
9475.000000;0.707202
9474.000000;0.707208
9473.000000;0.707710
9472.000000;0.708153
9471.000000;0.707922
9470.000000;0.707027
9469.000000;0.706085
9468.000000;0.705633
9467.000000;0.705654
9466.000000;0.705869
9465.000000;0.706216
9464.000000;0.706771
9463.000000;0.707333
9462.000000;0.707454
9461.000000;0.706999
9460.000000;0.706398
9459.000000;0.706140
9458.000000;0.706189
9457.000000;0.706126
9456.000000;0.705753
9455.000000;0.705346
9454.000000;0.705309
9453.000000;0.705776
9452.000000;0.706527
9451.000000;0.707122
9450.000000;0.707141
9449.000000;0.706496
9448.000000;0.705563
9447.000000;0.704831
9446.000000;0.704411
9445.000000;0.704069
9444.000000;0.703744
9443.000000;0.703729
9442.000000;0.704147
9441.000000;0.704490
9440.000000;0.704023
9439.000000;0.702667
9438.000000;0.701220
9437.000000;0.700569
9436.000000;0.700819
9435.000000;0.701284
9434.000000;0.701269
9433.000000;0.700700
9432.000000;0.699989
9431.000000;0.699457
9430.000000;0.699082
9429.000000;0.698787
9428.000000;0.698704
9427.000000;0.698999
9426.000000;0.699583
9425.000000;0.700173
9424.000000;0.700575
9423.000000;0.700696
9422.000000;0.700377
9421.000000;0.699532
9420.000000;0.698488
9419.000000;0.697877
9418.000000;0.698007
9417.000000;0.698483
9416.000000;0.698609
9415.000000;0.698071
9414.000000;0.697124
9413.000000;0.696260
9412.000000;0.695820
9411.000000;0.695814
9410.000000;0.695958
9409.000000;0.695943
9408.000000;0.695730
9407.000000;0.695515
9406.000000;0.695407
9405.000000;0.695299
9404.000000;0.695110
9403.000000;0.694930
9402.000000;0.694809
9401.000000;0.694609
9400.000000;0.694238
9399.000000;0.693886
9398.000000;0.693816
9397.000000;0.693994
9396.000000;0.694093
9395.000000;0.693810
9394.000000;0.693097
9393.000000;0.692200
9392.000000;0.691565
9391.000000;0.691549
9390.000000;0.692029
9389.000000;0.692422
9388.000000;0.692256
9387.000000;0.691655
9386.000000;0.691138
9385.000000;0.691070
9384.000000;0.691429
9383.000000;0.691919
9382.000000;0.692119
9381.000000;0.691701
9380.000000;0.690737
9379.000000;0.689688
9378.000000;0.688906
9377.000000;0.688322
9376.000000;0.687817
9375.000000;0.687616
9374.000000;0.687936
9373.000000;0.688500
9372.000000;0.688884
9371.000000;0.689208
9370.000000;0.689925
9369.000000;0.690898
9368.000000;0.691265
9367.000000;0.690459
9366.000000;0.688923
9365.000000;0.687555
9364.000000;0.686770
9363.000000;0.686381
9362.000000;0.686094
9361.000000;0.685812
9360.000000;0.685608
9359.000000;0.685627
9358.000000;0.685901
9357.000000;0.686119
9356.000000;0.685811
9355.000000;0.684957
9354.000000;0.684200
9353.000000;0.684181
9352.000000;0.684804
9351.000000;0.685388
9350.000000;0.685406
9349.000000;0.684848
9348.000000;0.683974
9347.000000;0.683062
9346.000000;0.682386
9345.000000;0.682098
9344.000000;0.682020
9343.000000;0.681770
9342.000000;0.681253
9341.000000;0.680881
9340.000000;0.681164
9339.000000;0.682098
9338.000000;0.683105
9337.000000;0.683576
9336.000000;0.683405
9335.000000;0.682938
9334.000000;0.682503
9333.000000;0.682158
9332.000000;0.681848
9331.000000;0.681604
9330.000000;0.681412
9329.000000;0.681074
9328.000000;0.680439
9327.000000;0.679714
9326.000000;0.679289
9325.000000;0.679244
9324.000000;0.679246
9323.000000;0.679004
9322.000000;0.678598
9321.000000;0.678257
9320.000000;0.678013
9319.000000;0.677730
9318.000000;0.677335
9317.000000;0.676898
9316.000000;0.676601
9315.000000;0.676695
9314.000000;0.677307
9313.000000;0.678145
9312.000000;0.678579
9311.000000;0.678242
9310.000000;0.677455
9309.000000;0.676850
9308.000000;0.676661
9307.000000;0.676578
9306.000000;0.676266
9305.000000;0.675804
9304.000000;0.675587
9303.000000;0.675915
9302.000000;0.676726
9301.000000;0.677603
9300.000000;0.678032
9299.000000;0.677772
9298.000000;0.677034
9297.000000;0.676307
9296.000000;0.675985
9295.000000;0.676116
9294.000000;0.676388
9293.000000;0.676322
9292.000000;0.675643
9291.000000;0.674611
9290.000000;0.673904
9289.000000;0.673983
9288.000000;0.674558
9287.000000;0.674847
9286.000000;0.674400
9285.000000;0.673539
9284.000000;0.672934
9283.000000;0.672859
9282.000000;0.673032
9281.000000;0.673099
9280.000000;0.673072
9279.000000;0.673157
9278.000000;0.673301
9277.000000;0.673153
9276.000000;0.672548
9275.000000;0.671807
9274.000000;0.671388
9273.000000;0.671365
9272.000000;0.671451
9271.000000;0.671449
9270.000000;0.671440
9269.000000;0.671539
9268.000000;0.671706
9267.000000;0.671863
9266.000000;0.671961
9265.000000;0.671858
9264.000000;0.671365
9263.000000;0.670572
9262.000000;0.669943
9261.000000;0.669870
9260.000000;0.670225
9259.000000;0.670504
9258.000000;0.670360
9257.000000;0.669868
9256.000000;0.669339
9255.000000;0.669002
9254.000000;0.668835
9253.000000;0.668619
9252.000000;0.668199
9251.000000;0.667696
9250.000000;0.667374
9249.000000;0.667293
9248.000000;0.667232
9247.000000;0.667022
9246.000000;0.666770
9245.000000;0.666649
9244.000000;0.666639
9243.000000;0.666629
9242.000000;0.666653
9241.000000;0.666840
9240.000000;0.667206
9239.000000;0.667639
9238.000000;0.668000
9237.000000;0.668105
9236.000000;0.667734
9235.000000;0.666876
9234.000000;0.665903
9233.000000;0.665325
9232.000000;0.665341
9231.000000;0.665725
9230.000000;0.666092
9229.000000;0.666144
9228.000000;0.665781
9227.000000;0.665164
9226.000000;0.664680
9225.000000;0.664676
9224.000000;0.665166
9223.000000;0.665861
9222.000000;0.666443
9221.000000;0.666739
9220.000000;0.666692
9219.000000;0.666343
9218.000000;0.665841
9217.000000;0.665345
9216.000000;0.664916
9215.000000;0.664557
9214.000000;0.664309
9213.000000;0.664216
9212.000000;0.664222
9211.000000;0.664187
9210.000000;0.663996
9209.000000;0.663631
9208.000000;0.663201
9207.000000;0.662939
9206.000000;0.663031
9205.000000;0.663351
9204.000000;0.663491
9203.000000;0.663180
9202.000000;0.662577
9201.000000;0.662036
9200.000000;0.661696
9199.000000;0.661453
9198.000000;0.661220
9197.000000;0.661041
9196.000000;0.661009
9195.000000;0.661207
9194.000000;0.661662
9193.000000;0.662193
9192.000000;0.662417
9191.000000;0.662080
9190.000000;0.661379
9189.000000;0.660787
9188.000000;0.660588
9187.000000;0.660676
9186.000000;0.660712
9185.000000;0.660373
9184.000000;0.659588
9183.000000;0.658690
9182.000000;0.658214
9181.000000;0.658320
9180.000000;0.658565
9179.000000;0.658424
9178.000000;0.657912
9177.000000;0.657457
9176.000000;0.657296
9175.000000;0.657319
9174.000000;0.657398
9173.000000;0.657520
9172.000000;0.657619
9171.000000;0.657594
9170.000000;0.657506
9169.000000;0.657490
9168.000000;0.657493
9167.000000;0.657413
9166.000000;0.657443
9165.000000;0.657880
9164.000000;0.658556
9163.000000;0.658864
9162.000000;0.658465
9161.000000;0.657657
9160.000000;0.656889
9159.000000;0.656291
9158.000000;0.655824
9157.000000;0.655544
9156.000000;0.655486
9155.000000;0.655540
9154.000000;0.655686
9153.000000;0.656110
9152.000000;0.656838
9151.000000;0.657470
9150.000000;0.657542
9149.000000;0.657024
9148.000000;0.656238
9147.000000;0.655462
9146.000000;0.654849
9145.000000;0.654566
9144.000000;0.654728
9143.000000;0.655203
9142.000000;0.655689
9141.000000;0.655953
9140.000000;0.655896
9139.000000;0.655516
9138.000000;0.654947
9137.000000;0.654388
9136.000000;0.653856
9135.000000;0.653175
9134.000000;0.652373
9133.000000;0.651911
9132.000000;0.652212
9131.000000;0.653105
9130.000000;0.653973
9129.000000;0.654400
9128.000000;0.654411
9127.000000;0.654164
9126.000000;0.653738
9125.000000;0.653278
9124.000000;0.653049
9123.000000;0.653146
9122.000000;0.653293
9121.000000;0.653074
9120.000000;0.652349
9119.000000;0.651404
9118.000000;0.650745
9117.000000;0.650720
9116.000000;0.651266
9115.000000;0.652000
9114.000000;0.652567
9113.000000;0.652860
9112.000000;0.652906
9111.000000;0.652687
9110.000000;0.652201
9109.000000;0.651582
9108.000000;0.650987
9107.000000;0.650442
9106.000000;0.649945
9105.000000;0.649666
9104.000000;0.649835
9103.000000;0.650431
9102.000000;0.651137
9101.000000;0.651615
9100.000000;0.651714
9099.000000;0.651442
9098.000000;0.650903
9097.000000;0.650300
9096.000000;0.649856
9095.000000;0.649674
9094.000000;0.649728
9093.000000;0.649973
9092.000000;0.650348
9091.000000;0.650699
9090.000000;0.650834
9089.000000;0.650694
9088.000000;0.650414
9087.000000;0.650217
9086.000000;0.650277
9085.000000;0.650578
9084.000000;0.650776
9083.000000;0.650345
9082.000000;0.649108
9081.000000;0.647621
9080.000000;0.646767
9079.000000;0.646918
9078.000000;0.647661
9077.000000;0.648348
9076.000000;0.648685
9075.000000;0.648727
9074.000000;0.648572
9073.000000;0.648298
9072.000000;0.648030
9071.000000;0.647852
9070.000000;0.647736
9069.000000;0.647682
9068.000000;0.647830
9067.000000;0.648254
9066.000000;0.648716
9065.000000;0.648841
9064.000000;0.648521
9063.000000;0.648019
9062.000000;0.647682
9061.000000;0.647633
9060.000000;0.647743
9059.000000;0.647752
9058.000000;0.647452
9057.000000;0.646876
9056.000000;0.646318
9055.000000;0.646087
9054.000000;0.646198
9053.000000;0.646403
