Criado como novo conjunto de dados;"e0108.spp","-4210540.8 Secs"
cm-1;Abs
10000.000000;1.056667
9999.000000;1.057526
9998.000000;1.057571
9997.000000;1.056031
9996.000000;1.053100
9995.000000;1.049888
9994.000000;1.047696
9993.000000;1.047088
9992.000000;1.047723
9991.000000;1.048888
9990.000000;1.049982
9989.000000;1.050461
9988.000000;1.049757
9987.000000;1.047746
9986.000000;1.045247
9985.000000;1.043623
9984.000000;1.043716
9983.000000;1.045284
9982.000000;1.047348
9981.000000;1.048807
9980.000000;1.048818
9979.000000;1.047171
9978.000000;1.044648
9977.000000;1.042730
9976.000000;1.042501
9975.000000;1.043799
9974.000000;1.045419
9973.000000;1.045983
9972.000000;1.044693
9971.000000;1.041742
9970.000000;1.038292
9969.000000;1.035823
9968.000000;1.035092
9967.000000;1.035742
9966.000000;1.036942
9965.000000;1.038150
9964.000000;1.039101
9963.000000;1.039551
9962.000000;1.039533
9961.000000;1.039554
9960.000000;1.039970
9959.000000;1.040296
9958.000000;1.039687
9957.000000;1.038036
9956.000000;1.036082
9955.000000;1.034483
9954.000000;1.033325
9953.000000;1.032505
9952.000000;1.031960
9951.000000;1.031476
9950.000000;1.030883
9949.000000;1.030506
9948.000000;1.030843
9947.000000;1.031706
9946.000000;1.032323
9945.000000;1.032484
9944.000000;1.032850
9943.000000;1.033716
9942.000000;1.034168
9941.000000;1.033097
9940.000000;1.030667
9939.000000;1.028126
9938.000000;1.026430
9937.000000;1.025612
9936.000000;1.025257
9935.000000;1.025024
9934.000000;1.024682
9933.000000;1.024134
9932.000000;1.023510
9931.000000;1.023051
9930.000000;1.022983
9929.000000;1.023492
9928.000000;1.024540
9927.000000;1.025643
9926.000000;1.026037
9925.000000;1.025334
9924.000000;1.023915
9923.000000;1.022467
9922.000000;1.021394
9921.000000;1.020800
9920.000000;1.020629
9919.000000;1.020561
9918.000000;1.020195
9917.000000;1.019686
9916.000000;1.019738
9915.000000;1.020560
9914.000000;1.021230
9913.000000;1.020757
9912.000000;1.019495
9911.000000;1.018687
9910.000000;1.018660
9909.000000;1.018317
9908.000000;1.016694
9907.000000;1.014344
9906.000000;1.012702
9905.000000;1.012579
9904.000000;1.013670
9903.000000;1.015125
9902.000000;1.016135
9901.000000;1.016218
9900.000000;1.015442
9899.000000;1.014394
9898.000000;1.013631
9897.000000;1.013103
9896.000000;1.012362
9895.000000;1.011343
9894.000000;1.010596
9893.000000;1.010573
9892.000000;1.010888
9891.000000;1.010623
9890.000000;1.009427
9889.000000;1.008011
9888.000000;1.007291
9887.000000;1.007347
9886.000000;1.007561
9885.000000;1.007560
9884.000000;1.007512
9883.000000;1.007489
9882.000000;1.007117
9881.000000;1.006255
9880.000000;1.005583
9879.000000;1.005942
9878.000000;1.007203
9877.000000;1.008260
9876.000000;1.008261
9875.000000;1.007444
9874.000000;1.006589
9873.000000;1.006000
9872.000000;1.005337
9871.000000;1.004282
9870.000000;1.003075
9869.000000;1.002286
9868.000000;1.002094
9867.000000;1.001965
9866.000000;1.001192
9865.000000;0.999751
9864.000000;0.998432
9863.000000;0.997935
9862.000000;0.998108
9861.000000;0.998320
9860.000000;0.998287
9859.000000;0.998174
9858.000000;0.998080
9857.000000;0.997893
9856.000000;0.997620
9855.000000;0.997428
9854.000000;0.997300
9853.000000;0.997034
9852.000000;0.996684
9851.000000;0.996559
9850.000000;0.996633
9849.000000;0.996337
9848.000000;0.995276
9847.000000;0.993813
9846.000000;0.992572
9845.000000;0.991596
9844.000000;0.990434
9843.000000;0.988956
9842.000000;0.987622
9841.000000;0.986929
9840.000000;0.987005
9839.000000;0.987848
9838.000000;0.989489
9837.000000;0.991600
9836.000000;0.993245
9835.000000;0.993507
9834.000000;0.992350
9833.000000;0.990471
9832.000000;0.988381
9831.000000;0.986127
9830.000000;0.984010
9829.000000;0.982893
9828.000000;0.983278
9827.000000;0.984443
9826.000000;0.985168
9825.000000;0.985227
9824.000000;0.985456
9823.000000;0.986179
9822.000000;0.986372
9821.000000;0.984948
9820.000000;0.982358
9819.000000;0.980157
9818.000000;0.979228
9817.000000;0.979096
9816.000000;0.978971
9815.000000;0.978800
9814.000000;0.979034
9813.000000;0.979763
9812.000000;0.980497
9811.000000;0.980705
9810.000000;0.980305
9809.000000;0.979633
9808.000000;0.979017
9807.000000;0.978461
9806.000000;0.977783
9805.000000;0.977042
9804.000000;0.976559
9803.000000;0.976348
9802.000000;0.975814
9801.000000;0.974458
9800.000000;0.972751
9799.000000;0.971728
9798.000000;0.971675
9797.000000;0.971773
9796.000000;0.971299
9795.000000;0.970607
9794.000000;0.970382
9793.000000;0.970371
9792.000000;0.969632
9791.000000;0.967977
9790.000000;0.966459
9789.000000;0.966212
9788.000000;0.967277
9787.000000;0.968812
9786.000000;0.970109
9785.000000;0.971030
9784.000000;0.971599
9783.000000;0.971633
9782.000000;0.970921
9781.000000;0.969591
9780.000000;0.968093
9779.000000;0.966815
9778.000000;0.965783
9777.000000;0.964801
9776.000000;0.963850
9775.000000;0.963252
9774.000000;0.963336
9773.000000;0.964018
9772.000000;0.964837
9771.000000;0.965363
9770.000000;0.965434
9769.000000;0.965035
9768.000000;0.964275
9767.000000;0.963544
9766.000000;0.963386
9765.000000;0.963868
9764.000000;0.964221
9763.000000;0.963447
9762.000000;0.961360
9761.000000;0.958834
9760.000000;0.957031
9759.000000;0.956552
9758.000000;0.957209
9757.000000;0.958285
9756.000000;0.958991
9755.000000;0.959015
9754.000000;0.958766
9753.000000;0.958876
9752.000000;0.959409
9751.000000;0.959836
9750.000000;0.959833
9749.000000;0.959673
9748.000000;0.959568
9747.000000;0.959070
9746.000000;0.957678
9745.000000;0.955770
9744.000000;0.954284
9743.000000;0.953504
9742.000000;0.952843
9741.000000;0.951977
9740.000000;0.951578
9739.000000;0.952438
9738.000000;0.954202
9737.000000;0.955464
9736.000000;0.955126
9735.000000;0.953409
9734.000000;0.951545
9733.000000;0.950690
9732.000000;0.951149
9731.000000;0.952303
9730.000000;0.953176
9729.000000;0.953199
9728.000000;0.952525
9727.000000;0.951619
9726.000000;0.950668
9725.000000;0.949524
9724.000000;0.948117
9723.000000;0.946678
9722.000000;0.945549
9721.000000;0.944900
9720.000000;0.944655
9719.000000;0.944571
9718.000000;0.944414
9717.000000;0.944146
9716.000000;0.943902
9715.000000;0.943674
9714.000000;0.943144
9713.000000;0.942086
9712.000000;0.940948
9711.000000;0.940729
9710.000000;0.942007
9709.000000;0.944131
9708.000000;0.945573
9707.000000;0.945199
9706.000000;0.943196
9705.000000;0.940799
9704.000000;0.939212
9703.000000;0.938740
9702.000000;0.938756
9701.000000;0.938425
9700.000000;0.937516
9699.000000;0.936578
9698.000000;0.936319
9697.000000;0.936895
9696.000000;0.937840
9695.000000;0.938641
9694.000000;0.939237
9693.000000;0.939867
9692.000000;0.940492
9691.000000;0.940600
9690.000000;0.939712
9689.000000;0.938034
9688.000000;0.936438
9687.000000;0.935706
9686.000000;0.935826
9685.000000;0.936095
9684.000000;0.935872
9683.000000;0.935120
9682.000000;0.934210
9681.000000;0.933390
9680.000000;0.932647
9679.000000;0.931995
9678.000000;0.931643
9677.000000;0.931736
9676.000000;0.932018
9675.000000;0.931924
9674.000000;0.931100
9673.000000;0.929786
9672.000000;0.928655
9671.000000;0.928254
9670.000000;0.928547
9669.000000;0.928937
9668.000000;0.928786
9667.000000;0.927973
9666.000000;0.926955
9665.000000;0.926270
9664.000000;0.926076
9663.000000;0.926255
9662.000000;0.926819
9661.000000;0.927834
9660.000000;0.928864
9659.000000;0.928879
9658.000000;0.927154
9657.000000;0.924284
9656.000000;0.921942
9655.000000;0.921465
9654.000000;0.922734
9653.000000;0.924423
9652.000000;0.925198
9651.000000;0.924652
9650.000000;0.923312
9649.000000;0.922034
9648.000000;0.921418
9647.000000;0.921523
9646.000000;0.921882
9645.000000;0.921823
9644.000000;0.921038
9643.000000;0.919921
9642.000000;0.919236
9641.000000;0.919386
9640.000000;0.920071
9639.000000;0.920625
9638.000000;0.920545
9637.000000;0.919674
9636.000000;0.918171
9635.000000;0.916499
9634.000000;0.915266
9633.000000;0.914739
9632.000000;0.914593
9631.000000;0.914363
9630.000000;0.914078
9629.000000;0.914089
9628.000000;0.914326
9627.000000;0.914185
9626.000000;0.913312
9625.000000;0.912090
9624.000000;0.911107
9623.000000;0.910480
9622.000000;0.910064
9621.000000;0.909978
9620.000000;0.910479
9619.000000;0.911419
9618.000000;0.912212
9617.000000;0.912392
9616.000000;0.912011
9615.000000;0.911513
9614.000000;0.911357
9613.000000;0.911613
9612.000000;0.911744
9611.000000;0.910997
9610.000000;0.909306
9609.000000;0.907614
9608.000000;0.906950
9607.000000;0.907372
9606.000000;0.908141
9605.000000;0.908753
9604.000000;0.909288
9603.000000;0.909791
9602.000000;0.909941
9601.000000;0.909554
9600.000000;0.908954
9599.000000;0.908529
9598.000000;0.908243
9597.000000;0.907827
9596.000000;0.907161
9595.000000;0.906283
9594.000000;0.905317
9593.000000;0.904578
9592.000000;0.904480
9591.000000;0.905045
9590.000000;0.905685
9589.000000;0.905680
9588.000000;0.904792
9587.000000;0.903338
9586.000000;0.901852
9585.000000;0.900812
9584.000000;0.900383
9583.000000;0.900194
9582.000000;0.899627
9581.000000;0.898575
9580.000000;0.897641
9579.000000;0.897403
9578.000000;0.897700
9577.000000;0.897870
9576.000000;0.897531
9575.000000;0.896852
9574.000000;0.896220
9573.000000;0.895943
9572.000000;0.896136
9571.000000;0.896502
9570.000000;0.896326
9569.000000;0.895080
9568.000000;0.893111
9567.000000;0.891496
9566.000000;0.891074
9565.000000;0.891782
9564.000000;0.892929
9563.000000;0.893908
9562.000000;0.894563
9561.000000;0.894997
9560.000000;0.895235
9559.000000;0.895115
9558.000000;0.894492
9557.000000;0.893460
9556.000000;0.892313
9555.000000;0.891325
9554.000000;0.890630
9553.000000;0.890269
9552.000000;0.890159
9551.000000;0.890042
9550.000000;0.889634
9549.000000;0.888925
9548.000000;0.888142
9547.000000;0.887399
9546.000000;0.886619
9545.000000;0.885878
9544.000000;0.885519
9543.000000;0.885684
9542.000000;0.885975
9541.000000;0.885796
9540.000000;0.884928
9539.000000;0.883603
9538.000000;0.882239
9537.000000;0.881393
9536.000000;0.881696
9535.000000;0.883339
9534.000000;0.885589
9533.000000;0.887181
9532.000000;0.887370
9531.000000;0.886426
9530.000000;0.885122
9529.000000;0.883974
9528.000000;0.883017
9527.000000;0.882054
9526.000000;0.880999
9525.000000;0.880129
9524.000000;0.879995
9523.000000;0.880883
9522.000000;0.882306
9521.000000;0.883181
9520.000000;0.882708
9519.000000;0.881061
9518.000000;0.879239
9517.000000;0.878252
9516.000000;0.878387
9515.000000;0.879043
9514.000000;0.879268
9513.000000;0.878624
9512.000000;0.877556
9511.000000;0.876831
9510.000000;0.876694
9509.000000;0.876777
9508.000000;0.876658
9507.000000;0.876191
9506.000000;0.875346
9505.000000;0.874149
9504.000000;0.872956
9503.000000;0.872395
9502.000000;0.872742
9501.000000;0.873532
9500.000000;0.874045
9499.000000;0.874051
9498.000000;0.873837
9497.000000;0.873613
9496.000000;0.873265
9495.000000;0.872702
9494.000000;0.872137
9493.000000;0.871807
9492.000000;0.871616
9491.000000;0.871316
9490.000000;0.870980
9489.000000;0.870978
9488.000000;0.871342
9487.000000;0.871396
9486.000000;0.870376
9485.000000;0.868469
9484.000000;0.866886
9483.000000;0.866691
9482.000000;0.867718
9481.000000;0.868862
9480.000000;0.869313
9479.000000;0.869173
9478.000000;0.868829
9477.000000;0.868198
9476.000000;0.866975
9475.000000;0.865421
9474.000000;0.864400
9473.000000;0.864454
9472.000000;0.865102
9471.000000;0.865326
9470.000000;0.864668
9469.000000;0.863699
9468.000000;0.863373
9467.000000;0.864047
9466.000000;0.865200
9465.000000;0.866012
9464.000000;0.866109
9463.000000;0.865726
9462.000000;0.865254
9461.000000;0.864755
9460.000000;0.864015
9459.000000;0.863032
9458.000000;0.862253
9457.000000;0.862123
9456.000000;0.862462
9455.000000;0.862591
9454.000000;0.862175
9453.000000;0.861735
9452.000000;0.862048
9451.000000;0.863144
9450.000000;0.864196
9449.000000;0.864383
9448.000000;0.863625
9447.000000;0.862419
9446.000000;0.861261
9445.000000;0.860377
9444.000000;0.859766
9443.000000;0.859300
9442.000000;0.858857
9441.000000;0.858457
9440.000000;0.858195
9439.000000;0.858006
9438.000000;0.857668
9437.000000;0.857126
9436.000000;0.856599
9435.000000;0.856244
9434.000000;0.855899
9433.000000;0.855337
9432.000000;0.854618
9431.000000;0.854009
9430.000000;0.853680
9429.000000;0.853664
9428.000000;0.853962
9427.000000;0.854460
9426.000000;0.854853
9425.000000;0.854869
9424.000000;0.854493
9423.000000;0.853833
9422.000000;0.852897
9421.000000;0.851751
9420.000000;0.850789
9419.000000;0.850501
9418.000000;0.850909
9417.000000;0.851472
9416.000000;0.851615
9415.000000;0.851164
9414.000000;0.850293
9413.000000;0.849284
9412.000000;0.848389
9411.000000;0.847707
9410.000000;0.847144
9409.000000;0.846627
9408.000000;0.846318
9407.000000;0.846418
9406.000000;0.846820
9405.000000;0.847239
9404.000000;0.847649
9403.000000;0.848193
9402.000000;0.848650
9401.000000;0.848429
9400.000000;0.847332
9399.000000;0.846004
9398.000000;0.845295
9397.000000;0.845368
9396.000000;0.845696
9395.000000;0.845739
9394.000000;0.845374
9393.000000;0.844807
9392.000000;0.844375
9391.000000;0.844393
9390.000000;0.844921
9389.000000;0.845612
9388.000000;0.846003
9387.000000;0.845992
9386.000000;0.845879
9385.000000;0.845900
9384.000000;0.845840
9383.000000;0.845193
9382.000000;0.843738
9381.000000;0.841913
9380.000000;0.840527
9379.000000;0.840049
9378.000000;0.840203
9377.000000;0.840374
9376.000000;0.840370
9375.000000;0.840557
9374.000000;0.841243
9373.000000;0.842217
9372.000000;0.843055
9371.000000;0.843598
9370.000000;0.843903
9369.000000;0.843896
9368.000000;0.843379
9367.000000;0.842304
9366.000000;0.840840
9365.000000;0.839234
9364.000000;0.837782
9363.000000;0.836852
9362.000000;0.836632
9361.000000;0.836886
9360.000000;0.837184
9359.000000;0.837396
9358.000000;0.837684
9357.000000;0.838004
9356.000000;0.837968
9355.000000;0.837350
9354.000000;0.836454
9353.000000;0.835765
9352.000000;0.835427
9351.000000;0.835251
9350.000000;0.835069
9349.000000;0.834854
9348.000000;0.834574
9347.000000;0.834197
9346.000000;0.833814
9345.000000;0.833593
9344.000000;0.833551
9343.000000;0.833522
9342.000000;0.833344
9341.000000;0.832979
9340.000000;0.832442
9339.000000;0.831788
9338.000000;0.831212
9337.000000;0.830957
9336.000000;0.831023
9335.000000;0.831132
9334.000000;0.831116
9333.000000;0.831200
9332.000000;0.831668
9331.000000;0.832302
9330.000000;0.832455
9329.000000;0.831806
9328.000000;0.830828
9327.000000;0.830292
9326.000000;0.830416
9325.000000;0.830704
9324.000000;0.830609
9323.000000;0.830136
9322.000000;0.829691
9321.000000;0.829481
9320.000000;0.829294
9319.000000;0.828869
9318.000000;0.828320
9317.000000;0.828035
9316.000000;0.828146
9315.000000;0.828247
9314.000000;0.827779
9313.000000;0.826689
9312.000000;0.825511
9311.000000;0.824749
9310.000000;0.824349
9309.000000;0.823960
9308.000000;0.823542
9307.000000;0.823457
9306.000000;0.823940
9305.000000;0.824711
9304.000000;0.825271
9303.000000;0.825463
9302.000000;0.825566
9301.000000;0.825858
9300.000000;0.826218
9299.000000;0.826226
9298.000000;0.825637
9297.000000;0.824704
9296.000000;0.823947
9295.000000;0.823545
9294.000000;0.823057
9293.000000;0.821892
9292.000000;0.820099
9291.000000;0.818535
9290.000000;0.818109
9289.000000;0.818912
9288.000000;0.820139
9287.000000;0.820829
9286.000000;0.820592
9285.000000;0.819714
9284.000000;0.818761
9283.000000;0.818194
9282.000000;0.818175
9281.000000;0.818540
9280.000000;0.818870
9279.000000;0.818737
9278.000000;0.818062
9277.000000;0.817273
9276.000000;0.816990
9275.000000;0.817414
9274.000000;0.818067
9273.000000;0.818231
9272.000000;0.817624
9271.000000;0.816578
9270.000000;0.815627
9269.000000;0.815104
9268.000000;0.815096
9267.000000;0.815483
9266.000000;0.815881
9265.000000;0.815768
9264.000000;0.814985
9263.000000;0.814057
9262.000000;0.813757
9261.000000;0.814247
9260.000000;0.814813
9259.000000;0.814571
9258.000000;0.813402
9257.000000;0.812078
9256.000000;0.811489
9255.000000;0.811814
9254.000000;0.812463
9253.000000;0.812728
9252.000000;0.812431
9251.000000;0.811895
9250.000000;0.811410
9249.000000;0.810900
9248.000000;0.810156
9247.000000;0.809235
9246.000000;0.808534
9245.000000;0.808450
9244.000000;0.809047
9243.000000;0.810021
9242.000000;0.810949
9241.000000;0.811595
9240.000000;0.811990
9239.000000;0.812245
9238.000000;0.812343
9237.000000;0.812183
9236.000000;0.811791
9235.000000;0.811313
9234.000000;0.810772
9233.000000;0.809986
9232.000000;0.808872
9231.000000;0.807769
9230.000000;0.807253
9229.000000;0.807579
9228.000000;0.808397
9227.000000;0.809074
9226.000000;0.809253
9225.000000;0.809081
9224.000000;0.808923
9223.000000;0.808896
9222.000000;0.808742
9221.000000;0.808167
9220.000000;0.807220
9219.000000;0.806255
9218.000000;0.805560
9217.000000;0.805181
9216.000000;0.805126
9215.000000;0.805494
9214.000000;0.806251
9213.000000;0.807015
9212.000000;0.807299
9211.000000;0.806936
9210.000000;0.806150
9209.000000;0.805271
9208.000000;0.804557
9207.000000;0.804242
9206.000000;0.804448
9205.000000;0.804963
9204.000000;0.805297
9203.000000;0.805123
9202.000000;0.804588
9201.000000;0.804069
9200.000000;0.803726
9199.000000;0.803418
9198.000000;0.803004
9197.000000;0.802550
9196.000000;0.802181
9195.000000;0.801863
9194.000000;0.801462
9193.000000;0.800971
9192.000000;0.800558
9191.000000;0.800369
9190.000000;0.800389
9189.000000;0.800538
9188.000000;0.800786
9187.000000;0.801091
9186.000000;0.801293
9185.000000;0.801219
9184.000000;0.800861
9183.000000;0.800293
9182.000000;0.799446
9181.000000;0.798203
9180.000000;0.796795
9179.000000;0.795830
9178.000000;0.795718
9177.000000;0.796198
9176.000000;0.796638
9175.000000;0.796724
9174.000000;0.796663
9173.000000;0.796791
9172.000000;0.797200
9171.000000;0.797714
9170.000000;0.798005
9169.000000;0.797757
9168.000000;0.796960
9167.000000;0.796080
9166.000000;0.795721
9165.000000;0.796019
9164.000000;0.796534
9163.000000;0.796752
9162.000000;0.796521
9161.000000;0.796001
9160.000000;0.795419
9159.000000;0.794979
9158.000000;0.794780
9157.000000;0.794702
9156.000000;0.794517
9155.000000;0.794222
9154.000000;0.794113
9153.000000;0.794389
9152.000000;0.794815
9151.000000;0.794928
9150.000000;0.794487
9149.000000;0.793622
9148.000000;0.792662
9147.000000;0.791948
9146.000000;0.791675
9145.000000;0.791756
9144.000000;0.791855
9143.000000;0.791699
9142.000000;0.791303
9141.000000;0.790817
9140.000000;0.790286
9139.000000;0.789688
9138.000000;0.789134
9137.000000;0.788850
9136.000000;0.788976
9135.000000;0.789471
9134.000000;0.790193
9133.000000;0.790947
9132.000000;0.791497
9131.000000;0.791634
9130.000000;0.791239
9129.000000;0.790280
9128.000000;0.788848
9127.000000;0.787294
9126.000000;0.786182
9125.000000;0.785913
9124.000000;0.786359
9123.000000;0.786963
9122.000000;0.787240
9121.000000;0.787173
9120.000000;0.787167
9119.000000;0.787620
9118.000000;0.788471
9117.000000;0.789156
9116.000000;0.789127
9115.000000;0.788452
9114.000000;0.787750
9113.000000;0.787477
9112.000000;0.787468
9111.000000;0.787273
9110.000000;0.786725
9109.000000;0.785999
9108.000000;0.785326
9107.000000;0.784923
9106.000000;0.784998
9105.000000;0.785469
9104.000000;0.785772
9103.000000;0.785353
9102.000000;0.784392
9101.000000;0.783650
9100.000000;0.783547
9099.000000;0.783739
9098.000000;0.783709
9097.000000;0.783433
9096.000000;0.783254
9095.000000;0.783373
9094.000000;0.783708
9093.000000;0.784043
9092.000000;0.784046
9091.000000;0.783370
9090.000000;0.782080
9089.000000;0.780909
9088.000000;0.780698
9087.000000;0.781517
9086.000000;0.782562
9085.000000;0.783008
9084.000000;0.782742
9083.000000;0.782173
9082.000000;0.781606
9081.000000;0.781055
9080.000000;0.780533
9079.000000;0.780221
9078.000000;0.780270
9077.000000;0.780618
9076.000000;0.781090
9075.000000;0.781562
9074.000000;0.781937
9073.000000;0.782046
9072.000000;0.781715
9071.000000;0.780974
9070.000000;0.780083
9069.000000;0.779314
9068.000000;0.778748
9067.000000;0.778316
9066.000000;0.778006
9065.000000;0.777915
9064.000000;0.778060
9063.000000;0.778215
9062.000000;0.778044
9061.000000;0.777485
9060.000000;0.776908
9059.000000;0.776806
9058.000000;0.777293
9057.000000;0.777990
9056.000000;0.778411
9055.000000;0.778344
9054.000000;0.777819
9053.000000;0.776950
