Criado como novo conjunto de dados;"e0108.spp","-4243482.6 Secs"
cm-1;Abs
10000.000000;0.998068
9999.000000;0.997967
9998.000000;0.998262
9997.000000;0.999074
9996.000000;1.000153
9995.000000;1.000972
9994.000000;1.001083
9993.000000;1.000386
9992.000000;0.999202
9991.000000;0.998076
9990.000000;0.997425
9989.000000;0.997321
9988.000000;0.997562
9987.000000;0.997822
9986.000000;0.997673
9985.000000;0.996782
9984.000000;0.995345
9983.000000;0.994091
9982.000000;0.993509
9981.000000;0.993263
9980.000000;0.992729
9979.000000;0.991931
9978.000000;0.991427
9977.000000;0.991413
9976.000000;0.991563
9975.000000;0.991760
9974.000000;0.992298
9973.000000;0.993153
9972.000000;0.993717
9971.000000;0.993610
9970.000000;0.993274
9969.000000;0.993273
9968.000000;0.993376
9967.000000;0.992869
9966.000000;0.991517
9965.000000;0.989761
9964.000000;0.988193
9963.000000;0.987276
9962.000000;0.987353
9961.000000;0.988354
9960.000000;0.989528
9959.000000;0.989938
9958.000000;0.989320
9957.000000;0.988164
9956.000000;0.987020
9955.000000;0.986066
9954.000000;0.985367
9953.000000;0.985118
9952.000000;0.985373
9951.000000;0.985811
9950.000000;0.985984
9949.000000;0.985733
9948.000000;0.985311
9947.000000;0.985116
9946.000000;0.985243
9945.000000;0.985221
9944.000000;0.984387
9943.000000;0.982732
9942.000000;0.981144
9941.000000;0.980487
9940.000000;0.980591
9939.000000;0.980561
9938.000000;0.979997
9937.000000;0.979413
9936.000000;0.979346
9935.000000;0.979596
9934.000000;0.979655
9933.000000;0.979444
9932.000000;0.979200
9931.000000;0.978879
9930.000000;0.978068
9929.000000;0.976489
9928.000000;0.974407
9927.000000;0.972525
9926.000000;0.971562
9925.000000;0.971786
9924.000000;0.972753
9923.000000;0.973577
9922.000000;0.973734
9921.000000;0.973513
9920.000000;0.973510
9919.000000;0.973848
9918.000000;0.974178
9917.000000;0.974326
9916.000000;0.974541
9915.000000;0.975049
9914.000000;0.975674
9913.000000;0.976050
9912.000000;0.975951
9911.000000;0.975268
9910.000000;0.973892
9909.000000;0.971909
9908.000000;0.969824
9907.000000;0.968286
9906.000000;0.967568
9905.000000;0.967495
9904.000000;0.967833
9903.000000;0.968536
9902.000000;0.969517
9901.000000;0.970383
9900.000000;0.970593
9899.000000;0.969927
9898.000000;0.968722
9897.000000;0.967579
9896.000000;0.966778
9895.000000;0.966015
9894.000000;0.964855
9893.000000;0.963531
9892.000000;0.963044
9891.000000;0.964145
9890.000000;0.966226
9889.000000;0.967597
9888.000000;0.967146
9887.000000;0.965446
9886.000000;0.963929
9885.000000;0.963274
9884.000000;0.963045
9883.000000;0.962641
9882.000000;0.962044
9881.000000;0.961526
9880.000000;0.961143
9879.000000;0.960818
9878.000000;0.960599
9877.000000;0.960548
9876.000000;0.960555
9875.000000;0.960479
9874.000000;0.960283
9873.000000;0.959865
9872.000000;0.959061
9871.000000;0.958100
9870.000000;0.957674
9869.000000;0.958152
9868.000000;0.958883
9867.000000;0.958772
9866.000000;0.957543
9865.000000;0.955942
9864.000000;0.954710
9863.000000;0.953842
9862.000000;0.953032
9861.000000;0.952410
9860.000000;0.952446
9859.000000;0.953281
9858.000000;0.954460
9857.000000;0.955288
9856.000000;0.955366
9855.000000;0.954873
9854.000000;0.954422
9853.000000;0.954524
9852.000000;0.955077
9851.000000;0.955428
9850.000000;0.955043
9849.000000;0.954027
9848.000000;0.952823
9847.000000;0.951541
9846.000000;0.949850
9845.000000;0.947612
9844.000000;0.945442
9843.000000;0.944440
9842.000000;0.945221
9841.000000;0.947184
9840.000000;0.948818
9839.000000;0.948954
9838.000000;0.947774
9837.000000;0.946522
9836.000000;0.946196
9835.000000;0.946630
9834.000000;0.946822
9833.000000;0.945961
9832.000000;0.944082
9831.000000;0.941945
9830.000000;0.940457
9829.000000;0.940086
9828.000000;0.940572
9827.000000;0.941174
9826.000000;0.941306
9825.000000;0.940952
9824.000000;0.940473
9823.000000;0.940155
9822.000000;0.940043
9821.000000;0.940051
9820.000000;0.940037
9819.000000;0.939813
9818.000000;0.939313
9817.000000;0.938767
9816.000000;0.938545
9815.000000;0.938764
9814.000000;0.939169
9813.000000;0.939471
9812.000000;0.939675
9811.000000;0.939995
9810.000000;0.940515
9809.000000;0.941071
9808.000000;0.941400
9807.000000;0.941283
9806.000000;0.940560
9805.000000;0.939167
9804.000000;0.937328
9803.000000;0.935685
9802.000000;0.934990
9801.000000;0.935433
9800.000000;0.936325
9799.000000;0.936623
9798.000000;0.935917
9797.000000;0.934801
9796.000000;0.934215
9795.000000;0.934511
9794.000000;0.935205
9793.000000;0.935534
9792.000000;0.935135
9791.000000;0.934261
9790.000000;0.933442
9789.000000;0.932972
9788.000000;0.932663
9787.000000;0.932093
9786.000000;0.931058
9785.000000;0.929771
9784.000000;0.928661
9783.000000;0.928055
9782.000000;0.928029
9781.000000;0.928373
9780.000000;0.928602
9779.000000;0.928168
9778.000000;0.926939
9777.000000;0.925504
9776.000000;0.924778
9775.000000;0.925129
9774.000000;0.925960
9773.000000;0.926334
9772.000000;0.926046
9771.000000;0.925845
9770.000000;0.926418
9769.000000;0.927333
9768.000000;0.927401
9767.000000;0.926195
9766.000000;0.924762
9765.000000;0.924358
9764.000000;0.924747
9763.000000;0.924407
9762.000000;0.922538
9761.000000;0.920243
9760.000000;0.919316
9759.000000;0.920322
9758.000000;0.922244
9757.000000;0.923660
9756.000000;0.923783
9755.000000;0.922598
9754.000000;0.920657
9753.000000;0.918947
9752.000000;0.918410
9751.000000;0.919167
9750.000000;0.920359
9749.000000;0.920995
9748.000000;0.920832
9747.000000;0.920331
9746.000000;0.920007
9745.000000;0.920040
9744.000000;0.920300
9743.000000;0.920476
9742.000000;0.920211
9741.000000;0.919380
9740.000000;0.918231
9739.000000;0.917116
9738.000000;0.916173
9737.000000;0.915407
9736.000000;0.914900
9735.000000;0.914702
9734.000000;0.914586
9733.000000;0.914233
9732.000000;0.913684
9731.000000;0.913356
9730.000000;0.913543
9729.000000;0.914096
9728.000000;0.914685
9727.000000;0.915129
9726.000000;0.915331
9725.000000;0.915164
9724.000000;0.914680
9723.000000;0.914226
9722.000000;0.913975
9721.000000;0.913468
9720.000000;0.912116
9719.000000;0.910221
9718.000000;0.908979
9717.000000;0.909128
9716.000000;0.909999
9715.000000;0.910324
9714.000000;0.909778
9713.000000;0.909179
9712.000000;0.909241
9711.000000;0.909729
9710.000000;0.910011
9709.000000;0.909918
9708.000000;0.909684
9707.000000;0.909388
9706.000000;0.908929
9705.000000;0.908322
9704.000000;0.907615
9703.000000;0.906598
9702.000000;0.905063
9701.000000;0.903352
9700.000000;0.902183
9699.000000;0.901862
9698.000000;0.902000
9697.000000;0.902164
9696.000000;0.902460
9695.000000;0.903211
9694.000000;0.904260
9693.000000;0.904917
9692.000000;0.904592
9691.000000;0.903288
9690.000000;0.901526
9689.000000;0.899921
9688.000000;0.898814
9687.000000;0.898221
9686.000000;0.898075
9685.000000;0.898441
9684.000000;0.899334
9683.000000;0.900340
9682.000000;0.900738
9681.000000;0.900191
9680.000000;0.899112
9679.000000;0.898153
9678.000000;0.897535
9677.000000;0.897083
9676.000000;0.896733
9675.000000;0.896654
9674.000000;0.896868
9673.000000;0.897119
9672.000000;0.897225
9671.000000;0.897291
9670.000000;0.897419
9669.000000;0.897461
9668.000000;0.897302
9667.000000;0.897173
9666.000000;0.897407
9665.000000;0.897926
9664.000000;0.898180
9663.000000;0.897626
9662.000000;0.896166
9661.000000;0.894168
9660.000000;0.892191
9659.000000;0.890684
9658.000000;0.889827
9657.000000;0.889625
9656.000000;0.890095
9655.000000;0.891245
9654.000000;0.892795
9653.000000;0.894111
9652.000000;0.894632
9651.000000;0.894346
9650.000000;0.893677
9649.000000;0.892983
9648.000000;0.892361
9647.000000;0.891836
9646.000000;0.891433
9645.000000;0.890981
9644.000000;0.890179
9643.000000;0.889031
9642.000000;0.887986
9641.000000;0.887401
9640.000000;0.887008
9639.000000;0.886171
9638.000000;0.884661
9637.000000;0.883037
9636.000000;0.882253
9635.000000;0.882951
9634.000000;0.884918
9633.000000;0.887026
9632.000000;0.887934
9631.000000;0.887270
9630.000000;0.886070
9629.000000;0.885703
9628.000000;0.886373
9627.000000;0.887042
9626.000000;0.886839
9625.000000;0.886055
9624.000000;0.885449
9623.000000;0.885089
9622.000000;0.884431
9621.000000;0.883287
9620.000000;0.882152
9619.000000;0.881506
9618.000000;0.881300
9617.000000;0.881275
9616.000000;0.881360
9615.000000;0.881479
9614.000000;0.881260
9613.000000;0.880337
9612.000000;0.878911
9611.000000;0.877742
9610.000000;0.877491
9609.000000;0.878153
9608.000000;0.879098
9607.000000;0.879650
9606.000000;0.879682
9605.000000;0.879624
9604.000000;0.879845
9603.000000;0.880059
9602.000000;0.879549
9601.000000;0.878078
9600.000000;0.876376
9599.000000;0.875516
9598.000000;0.875890
9597.000000;0.876906
9596.000000;0.877592
9595.000000;0.877357
9594.000000;0.876257
9593.000000;0.874778
9592.000000;0.873471
9591.000000;0.872656
9590.000000;0.872346
9589.000000;0.872409
9588.000000;0.872719
9587.000000;0.873136
9586.000000;0.873445
9585.000000;0.873489
9584.000000;0.873326
9583.000000;0.873118
9582.000000;0.872902
9581.000000;0.872606
9580.000000;0.872270
9579.000000;0.872027
9578.000000;0.871803
9577.000000;0.871229
9576.000000;0.870028
9575.000000;0.868403
9574.000000;0.866922
9573.000000;0.866074
9572.000000;0.866030
9571.000000;0.866674
9570.000000;0.867672
9569.000000;0.868557
9568.000000;0.868918
9567.000000;0.868623
9566.000000;0.867853
9565.000000;0.866998
9564.000000;0.866513
9563.000000;0.866691
9562.000000;0.867357
9561.000000;0.867829
9560.000000;0.867434
9559.000000;0.866131
9558.000000;0.864510
9557.000000;0.863197
9556.000000;0.862440
9555.000000;0.862221
9554.000000;0.862497
9553.000000;0.863151
9552.000000;0.863889
9551.000000;0.864453
9550.000000;0.864849
9549.000000;0.865174
9548.000000;0.865256
9547.000000;0.864727
9546.000000;0.863537
9545.000000;0.862180
9544.000000;0.861295
9543.000000;0.861121
9542.000000;0.861413
9541.000000;0.861723
9540.000000;0.861690
9539.000000;0.861189
9538.000000;0.860419
9537.000000;0.859868
9536.000000;0.860010
9535.000000;0.860912
9534.000000;0.862142
9533.000000;0.863062
9532.000000;0.863203
9531.000000;0.862461
9530.000000;0.861091
9529.000000;0.859571
9528.000000;0.858340
9527.000000;0.857579
9526.000000;0.857216
9525.000000;0.857138
9524.000000;0.857295
9523.000000;0.857577
9522.000000;0.857719
9521.000000;0.857479
9520.000000;0.856891
9519.000000;0.856208
9518.000000;0.855607
9517.000000;0.855057
9516.000000;0.854529
9515.000000;0.854213
9514.000000;0.854377
9513.000000;0.855003
9512.000000;0.855619
9511.000000;0.855622
9510.000000;0.854863
9509.000000;0.853896
9508.000000;0.853569
9507.000000;0.854234
9506.000000;0.855351
9505.000000;0.855973
9504.000000;0.855652
9503.000000;0.854811
9502.000000;0.854193
9501.000000;0.854074
9500.000000;0.854136
9499.000000;0.853967
9498.000000;0.853469
9497.000000;0.852747
9496.000000;0.851860
9495.000000;0.850862
9494.000000;0.850005
9493.000000;0.849665
9492.000000;0.849992
9491.000000;0.850724
9490.000000;0.851400
9489.000000;0.851686
9488.000000;0.851446
9487.000000;0.850605
9486.000000;0.849171
9485.000000;0.847442
9484.000000;0.846041
9483.000000;0.845559
9482.000000;0.846078
9481.000000;0.847066
9480.000000;0.847735
9479.000000;0.847538
9478.000000;0.846447
9477.000000;0.844905
9476.000000;0.843556
9475.000000;0.842875
9474.000000;0.842845
9473.000000;0.842993
9472.000000;0.842841
9471.000000;0.842380
9470.000000;0.842002
9469.000000;0.841989
9468.000000;0.842192
9467.000000;0.842316
9466.000000;0.842390
9465.000000;0.842732
9464.000000;0.843457
9463.000000;0.844202
9462.000000;0.844442
9461.000000;0.843995
9460.000000;0.843137
9459.000000;0.842317
9458.000000;0.841861
9457.000000;0.841866
9456.000000;0.842148
9455.000000;0.842314
9454.000000;0.842033
9453.000000;0.841333
9452.000000;0.840523
9451.000000;0.839801
9450.000000;0.839093
9449.000000;0.838328
9448.000000;0.837699
9447.000000;0.837476
9446.000000;0.837673
9445.000000;0.838110
9444.000000;0.838729
9443.000000;0.839543
9442.000000;0.840233
9441.000000;0.840131
9440.000000;0.838900
9439.000000;0.837140
9438.000000;0.836039
9437.000000;0.836348
9436.000000;0.837721
9435.000000;0.839048
9434.000000;0.839347
9433.000000;0.838408
9432.000000;0.836780
9431.000000;0.835253
9430.000000;0.834331
9429.000000;0.834089
9428.000000;0.834396
9427.000000;0.835151
9426.000000;0.836258
9425.000000;0.837411
9424.000000;0.838041
9423.000000;0.837663
9422.000000;0.836343
9421.000000;0.834778
9420.000000;0.833822
9419.000000;0.833826
9418.000000;0.834386
9417.000000;0.834763
9416.000000;0.834587
9415.000000;0.834089
9414.000000;0.833697
9413.000000;0.833545
9412.000000;0.833471
9411.000000;0.833350
9410.000000;0.833227
9409.000000;0.833130
9408.000000;0.832938
9407.000000;0.832510
9406.000000;0.831871
9405.000000;0.831206
9404.000000;0.830743
9403.000000;0.830630
9402.000000;0.830865
9401.000000;0.831229
9400.000000;0.831348
9399.000000;0.830964
9398.000000;0.830183
9397.000000;0.829409
9396.000000;0.828964
9395.000000;0.828788
9394.000000;0.828580
9393.000000;0.828224
9392.000000;0.828001
9391.000000;0.828241
9390.000000;0.828841
9389.000000;0.829313
9388.000000;0.829363
9387.000000;0.829220
9386.000000;0.829212
9385.000000;0.829198
9384.000000;0.828698
9383.000000;0.827560
9382.000000;0.826242
9381.000000;0.825330
9380.000000;0.824991
9379.000000;0.824980
9378.000000;0.824978
9377.000000;0.824793
9376.000000;0.824386
9375.000000;0.823913
9374.000000;0.823665
9373.000000;0.823823
9372.000000;0.824270
9371.000000;0.824753
9370.000000;0.825141
9369.000000;0.825446
9368.000000;0.825643
9367.000000;0.825642
9366.000000;0.825406
9365.000000;0.825003
9364.000000;0.824495
9363.000000;0.823866
9362.000000;0.823115
9361.000000;0.822383
9360.000000;0.821972
9359.000000;0.822148
9358.000000;0.822810
9357.000000;0.823353
9356.000000;0.823094
9355.000000;0.822008
9354.000000;0.820922
9353.000000;0.820729
9352.000000;0.821447
9351.000000;0.822224
9350.000000;0.822224
9349.000000;0.821345
9348.000000;0.820075
9347.000000;0.818939
9346.000000;0.818207
9345.000000;0.817930
9344.000000;0.817990
9343.000000;0.818128
9342.000000;0.818054
9341.000000;0.817630
9340.000000;0.816970
9339.000000;0.816407
9338.000000;0.816298
9337.000000;0.816707
9336.000000;0.817231
9335.000000;0.817273
9334.000000;0.816590
9333.000000;0.815539
9332.000000;0.814692
9331.000000;0.814260
9330.000000;0.813989
9329.000000;0.813587
9328.000000;0.813107
9327.000000;0.812877
9326.000000;0.813121
9325.000000;0.813732
9324.000000;0.814354
9323.000000;0.814669
9322.000000;0.814626
9321.000000;0.814466
9320.000000;0.814537
9319.000000;0.815019
9318.000000;0.815752
9317.000000;0.816349
9316.000000;0.816536
9315.000000;0.816385
9314.000000;0.816128
9313.000000;0.815767
9312.000000;0.815052
9311.000000;0.813918
9310.000000;0.812750
9309.000000;0.812001
9308.000000;0.811655
9307.000000;0.811305
9306.000000;0.810743
9305.000000;0.810195
9304.000000;0.809938
9303.000000;0.809970
9302.000000;0.810204
9301.000000;0.810694
9300.000000;0.811391
9299.000000;0.811854
9298.000000;0.811605
9297.000000;0.810790
9296.000000;0.810190
9295.000000;0.810398
9294.000000;0.811156
9293.000000;0.811626
9292.000000;0.811256
9291.000000;0.810291
9290.000000;0.809473
9289.000000;0.809325
9288.000000;0.809655
9287.000000;0.809741
9286.000000;0.809064
9285.000000;0.807895
9284.000000;0.807048
9283.000000;0.807055
9282.000000;0.807669
9281.000000;0.808208
9280.000000;0.808207
9279.000000;0.807636
9278.000000;0.806687
9277.000000;0.805630
9276.000000;0.804834
9275.000000;0.804603
9274.000000;0.804886
9273.000000;0.805320
9272.000000;0.805618
9271.000000;0.805741
9270.000000;0.805649
9269.000000;0.805161
9268.000000;0.804268
9267.000000;0.803372
9266.000000;0.802931
9265.000000;0.802967
9264.000000;0.803200
9263.000000;0.803542
9262.000000;0.804134
9261.000000;0.804889
9260.000000;0.805373
9259.000000;0.805318
9258.000000;0.804963
9257.000000;0.804687
9256.000000;0.804515
9255.000000;0.804207
9254.000000;0.803681
9253.000000;0.803154
9252.000000;0.802897
9251.000000;0.802999
9250.000000;0.803278
9249.000000;0.803359
9248.000000;0.802956
9247.000000;0.802247
9246.000000;0.801848
9245.000000;0.802171
9244.000000;0.802886
9243.000000;0.803242
9242.000000;0.802897
9241.000000;0.802185
9240.000000;0.801583
9239.000000;0.801233
9238.000000;0.801055
9237.000000;0.801064
9236.000000;0.801367
9235.000000;0.801934
9234.000000;0.802500
9233.000000;0.802666
9232.000000;0.802127
9231.000000;0.800905
9230.000000;0.799426
9229.000000;0.798276
9228.000000;0.797789
9227.000000;0.797883
9226.000000;0.798219
9225.000000;0.798436
9224.000000;0.798319
9223.000000;0.797967
9222.000000;0.797809
9221.000000;0.798219
9220.000000;0.798994
9219.000000;0.799419
9218.000000;0.799000
9217.000000;0.798011
9216.000000;0.797139
9215.000000;0.796735
9214.000000;0.796629
9213.000000;0.796604
9212.000000;0.796735
9211.000000;0.797138
9210.000000;0.797586
9209.000000;0.797617
9208.000000;0.797092
9207.000000;0.796483
9206.000000;0.796450
9205.000000;0.797113
9204.000000;0.797884
9203.000000;0.798096
9202.000000;0.797676
9201.000000;0.797033
9200.000000;0.796413
9199.000000;0.795651
9198.000000;0.794606
9197.000000;0.793578
9196.000000;0.793127
9195.000000;0.793542
9194.000000;0.794586
9193.000000;0.795648
9192.000000;0.796117
9191.000000;0.795760
9190.000000;0.794893
9189.000000;0.794118
9188.000000;0.793817
9187.000000;0.793904
9186.000000;0.794027
9185.000000;0.793879
9184.000000;0.793332
9183.000000;0.792487
9182.000000;0.791695
9181.000000;0.791327
9180.000000;0.791368
9179.000000;0.791414
9178.000000;0.791194
9177.000000;0.790944
9176.000000;0.791077
9175.000000;0.791630
9174.000000;0.792283
9173.000000;0.792787
9172.000000;0.793100
9171.000000;0.793147
9170.000000;0.792753
9169.000000;0.791884
9168.000000;0.790775
9167.000000;0.789773
9166.000000;0.789139
9165.000000;0.788981
9164.000000;0.789223
9163.000000;0.789652
9162.000000;0.790109
9161.000000;0.790603
9160.000000;0.791128
9159.000000;0.791456
9158.000000;0.791299
9157.000000;0.790646
9156.000000;0.789769
9155.000000;0.788896
9154.000000;0.788074
9153.000000;0.787383
9152.000000;0.787038
9151.000000;0.787205
9150.000000;0.787800
9149.000000;0.788555
9148.000000;0.789135
9147.000000;0.789231
9146.000000;0.788751
9145.000000;0.788030
9144.000000;0.787625
9143.000000;0.787743
9142.000000;0.787997
9141.000000;0.787883
9140.000000;0.787409
9139.000000;0.787070
9138.000000;0.787264
9137.000000;0.787847
9136.000000;0.788315
9135.000000;0.788332
9134.000000;0.788033
9133.000000;0.787805
9132.000000;0.787767
9131.000000;0.787581
9130.000000;0.786863
9129.000000;0.785724
9128.000000;0.784707
9127.000000;0.784226
9126.000000;0.784304
9125.000000;0.784846
9124.000000;0.785809
9123.000000;0.786902
9122.000000;0.787460
9121.000000;0.787045
9120.000000;0.786080
9119.000000;0.785495
9118.000000;0.785721
9117.000000;0.786328
9116.000000;0.786658
9115.000000;0.786508
9114.000000;0.786084
9113.000000;0.785583
9112.000000;0.785085
9111.000000;0.784671
9110.000000;0.784392
9109.000000;0.784154
9108.000000;0.783820
9107.000000;0.783394
9106.000000;0.782973
9105.000000;0.782591
9104.000000;0.782244
9103.000000;0.782033
9102.000000;0.782133
9101.000000;0.782551
9100.000000;0.783055
9099.000000;0.783401
9098.000000;0.783538
9097.000000;0.783547
9096.000000;0.783451
9095.000000;0.783210
9094.000000;0.782834
9093.000000;0.782452
9092.000000;0.782202
9091.000000;0.782070
9090.000000;0.781831
9089.000000;0.781231
9088.000000;0.780321
9087.000000;0.779585
9086.000000;0.779556
9085.000000;0.780226
9084.000000;0.780925
9083.000000;0.780953
9082.000000;0.780275
9081.000000;0.779462
9080.000000;0.779001
9079.000000;0.778886
9078.000000;0.778887
9077.000000;0.778956
9076.000000;0.779171
9075.000000;0.779451
9074.000000;0.779572
9073.000000;0.779439
9072.000000;0.779145
9071.000000;0.778778
9070.000000;0.778394
9069.000000;0.778188
9068.000000;0.778429
9067.000000;0.779074
9066.000000;0.779628
9065.000000;0.779571
9064.000000;0.778879
9063.000000;0.777993
9062.000000;0.777342
9061.000000;0.777023
9060.000000;0.776919
9059.000000;0.776942
9058.000000;0.777104
9057.000000;0.777464
9056.000000;0.778022
9055.000000;0.778635
9054.000000;0.779060
9053.000000;0.779177
