Criado como novo conjunto de dados;"e0108.spp","-4293345.5 Secs"
cm-1;Abs
10000.000000;0.020280
9999.000000;0.019795
9998.000000;0.019309
9997.000000;0.018826
9996.000000;0.018339
9995.000000;0.017863
9994.000000;0.017353
9993.000000;0.016669
9992.000000;0.015860
9991.000000;0.015220
9990.000000;0.015048
9989.000000;0.015235
9988.000000;0.015334
9987.000000;0.015027
9986.000000;0.014388
9985.000000;0.013695
9984.000000;0.013142
9983.000000;0.012767
9982.000000;0.012497
9981.000000;0.012228
9980.000000;0.011933
9979.000000;0.011695
9978.000000;0.011580
9977.000000;0.011519
9976.000000;0.011445
9975.000000;0.011483
9974.000000;0.011775
9973.000000;0.012117
9972.000000;0.011952
9971.000000;0.010912
9970.000000;0.009257
9969.000000;0.007674
9968.000000;0.006703
9967.000000;0.006438
9966.000000;0.006654
9965.000000;0.007017
9964.000000;0.007196
9963.000000;0.006998
9962.000000;0.006532
9961.000000;0.006151
9960.000000;0.006104
9959.000000;0.006237
9958.000000;0.006131
9957.000000;0.005538
9956.000000;0.004635
9955.000000;0.003821
9954.000000;0.003321
9953.000000;0.003038
9952.000000;0.002744
9951.000000;0.002310
9950.000000;0.001759
9949.000000;0.001189
9948.000000;0.000703
9947.000000;0.000345
9946.000000;0.000027
9945.000000;-0.000428
9944.000000;-0.001062
9943.000000;-0.001639
9942.000000;-0.001880
9941.000000;-0.001851
9940.000000;-0.001964
9939.000000;-0.002484
9938.000000;-0.003126
9937.000000;-0.003317
9936.000000;-0.002833
9935.000000;-0.002082
9934.000000;-0.001723
9933.000000;-0.002117
9932.000000;-0.003106
9931.000000;-0.004195
9930.000000;-0.004905
9929.000000;-0.005084
9928.000000;-0.004991
9927.000000;-0.005037
9926.000000;-0.005364
9925.000000;-0.005759
9924.000000;-0.006005
9923.000000;-0.006210
9922.000000;-0.006660
9921.000000;-0.007416
9920.000000;-0.008233
9919.000000;-0.008845
9918.000000;-0.009157
9917.000000;-0.009165
9916.000000;-0.008890
9915.000000;-0.008498
9914.000000;-0.008324
9913.000000;-0.008615
9912.000000;-0.009293
9911.000000;-0.010056
9910.000000;-0.010670
9909.000000;-0.011079
9908.000000;-0.011325
9907.000000;-0.011496
9906.000000;-0.011744
9905.000000;-0.012173
9904.000000;-0.012693
9903.000000;-0.013110
9902.000000;-0.013411
9901.000000;-0.013827
9900.000000;-0.014516
9899.000000;-0.015278
9898.000000;-0.015743
9897.000000;-0.015828
9896.000000;-0.015869
9895.000000;-0.016232
9894.000000;-0.016901
9893.000000;-0.017534
9892.000000;-0.017874
9891.000000;-0.017954
9890.000000;-0.017939
9889.000000;-0.017894
9888.000000;-0.017791
9887.000000;-0.017626
9886.000000;-0.017453
9885.000000;-0.017383
9884.000000;-0.017593
9883.000000;-0.018236
9882.000000;-0.019216
9881.000000;-0.020136
9880.000000;-0.020634
9879.000000;-0.020755
9878.000000;-0.020874
9877.000000;-0.021276
9876.000000;-0.021939
9875.000000;-0.022688
9874.000000;-0.023358
9873.000000;-0.023773
9872.000000;-0.023785
9871.000000;-0.023467
9870.000000;-0.023161
9869.000000;-0.023202
9868.000000;-0.023626
9867.000000;-0.024216
9866.000000;-0.024744
9865.000000;-0.025128
9864.000000;-0.025436
9863.000000;-0.025821
9862.000000;-0.026362
9861.000000;-0.026915
9860.000000;-0.027235
9859.000000;-0.027299
9858.000000;-0.027357
9857.000000;-0.027579
9856.000000;-0.027786
9855.000000;-0.027724
9854.000000;-0.027479
9853.000000;-0.027408
9852.000000;-0.027694
9851.000000;-0.028153
9850.000000;-0.028508
9849.000000;-0.028702
9848.000000;-0.028902
9847.000000;-0.029298
9846.000000;-0.029956
9845.000000;-0.030771
9844.000000;-0.031521
9843.000000;-0.031997
9842.000000;-0.032157
9841.000000;-0.032167
9840.000000;-0.032311
9839.000000;-0.032816
9838.000000;-0.033633
9837.000000;-0.034377
9836.000000;-0.034606
9835.000000;-0.034296
9834.000000;-0.033961
9833.000000;-0.034192
9832.000000;-0.035092
9831.000000;-0.036217
9830.000000;-0.036987
9829.000000;-0.037112
9828.000000;-0.036754
9827.000000;-0.036405
9826.000000;-0.036518
9825.000000;-0.037105
9824.000000;-0.037757
9823.000000;-0.038155
9822.000000;-0.038453
9821.000000;-0.038999
9820.000000;-0.039801
9819.000000;-0.040534
9818.000000;-0.040995
9817.000000;-0.041285
9816.000000;-0.041543
9815.000000;-0.041769
9814.000000;-0.041974
9813.000000;-0.042260
9812.000000;-0.042629
9811.000000;-0.042911
9810.000000;-0.042991
9809.000000;-0.042979
9808.000000;-0.043032
9807.000000;-0.043146
9806.000000;-0.043221
9805.000000;-0.043231
9804.000000;-0.043262
9803.000000;-0.043441
9802.000000;-0.043876
9801.000000;-0.044562
9800.000000;-0.045290
9799.000000;-0.045808
9798.000000;-0.046125
9797.000000;-0.046504
9796.000000;-0.047056
9795.000000;-0.047502
9794.000000;-0.047496
9793.000000;-0.047087
9792.000000;-0.046706
9791.000000;-0.046736
9790.000000;-0.047193
9789.000000;-0.047792
9788.000000;-0.048227
9787.000000;-0.048410
9786.000000;-0.048506
9785.000000;-0.048738
9784.000000;-0.049159
9783.000000;-0.049653
9782.000000;-0.050129
9781.000000;-0.050599
9780.000000;-0.051063
9779.000000;-0.051503
9778.000000;-0.052002
9777.000000;-0.052669
9776.000000;-0.053347
9775.000000;-0.053613
9774.000000;-0.053280
9773.000000;-0.052712
9772.000000;-0.052424
9771.000000;-0.052493
9770.000000;-0.052639
9769.000000;-0.052802
9768.000000;-0.053282
9767.000000;-0.054238
9766.000000;-0.055349
9765.000000;-0.056152
9764.000000;-0.056526
9763.000000;-0.056693
9762.000000;-0.056870
9761.000000;-0.057112
9760.000000;-0.057416
9759.000000;-0.057764
9758.000000;-0.058058
9757.000000;-0.058166
9756.000000;-0.058099
9755.000000;-0.058061
9754.000000;-0.058245
9753.000000;-0.058633
9752.000000;-0.059046
9751.000000;-0.059392
9750.000000;-0.059764
9749.000000;-0.060283
9748.000000;-0.060900
9747.000000;-0.061413
9746.000000;-0.061664
9745.000000;-0.061685
9744.000000;-0.061649
9743.000000;-0.061697
9742.000000;-0.061809
9741.000000;-0.061842
9740.000000;-0.061721
9739.000000;-0.061592
9738.000000;-0.061722
9737.000000;-0.062211
9736.000000;-0.062865
9735.000000;-0.063432
9734.000000;-0.063865
9733.000000;-0.064218
9732.000000;-0.064383
9731.000000;-0.064187
9730.000000;-0.063755
9729.000000;-0.063530
9728.000000;-0.063800
9727.000000;-0.064417
9726.000000;-0.065093
9725.000000;-0.065776
9724.000000;-0.066520
9723.000000;-0.067194
9722.000000;-0.067625
9721.000000;-0.067957
9720.000000;-0.068531
9719.000000;-0.069367
9718.000000;-0.070035
9717.000000;-0.070164
9716.000000;-0.069885
9715.000000;-0.069654
9714.000000;-0.069764
9713.000000;-0.070132
9712.000000;-0.070437
9711.000000;-0.070368
9710.000000;-0.069865
9709.000000;-0.069235
9708.000000;-0.068955
9707.000000;-0.069262
9706.000000;-0.069961
9705.000000;-0.070670
9704.000000;-0.071205
9703.000000;-0.071648
9702.000000;-0.072137
9701.000000;-0.072693
9700.000000;-0.073223
9699.000000;-0.073625
9698.000000;-0.073883
9697.000000;-0.074090
9696.000000;-0.074312
9695.000000;-0.074421
9694.000000;-0.074204
9693.000000;-0.073718
9692.000000;-0.073411
9691.000000;-0.073727
9690.000000;-0.074657
9689.000000;-0.075809
9688.000000;-0.076861
9687.000000;-0.077751
9686.000000;-0.078456
9685.000000;-0.078819
9684.000000;-0.078747
9683.000000;-0.078419
9682.000000;-0.078165
9681.000000;-0.078166
9680.000000;-0.078363
9679.000000;-0.078597
9678.000000;-0.078762
9677.000000;-0.078826
9676.000000;-0.078831
9675.000000;-0.078889
9674.000000;-0.079144
9673.000000;-0.079661
9672.000000;-0.080352
9671.000000;-0.081010
9670.000000;-0.081478
9669.000000;-0.081793
9668.000000;-0.082138
9667.000000;-0.082583
9666.000000;-0.082953
9665.000000;-0.083028
9664.000000;-0.082870
9663.000000;-0.082809
9662.000000;-0.083082
9661.000000;-0.083577
9660.000000;-0.084012
9659.000000;-0.084278
9658.000000;-0.084501
9657.000000;-0.084834
9656.000000;-0.085274
9655.000000;-0.085715
9654.000000;-0.086060
9653.000000;-0.086273
9652.000000;-0.086357
9651.000000;-0.086364
9650.000000;-0.086413
9649.000000;-0.086651
9648.000000;-0.087135
9647.000000;-0.087743
9646.000000;-0.088256
9645.000000;-0.088554
9644.000000;-0.088698
9643.000000;-0.088798
9642.000000;-0.088862
9641.000000;-0.088874
9640.000000;-0.088968
9639.000000;-0.089353
9638.000000;-0.090043
9637.000000;-0.090773
9636.000000;-0.091253
9635.000000;-0.091403
9634.000000;-0.091322
9633.000000;-0.091144
9632.000000;-0.091033
9631.000000;-0.091176
9630.000000;-0.091639
9629.000000;-0.092254
9628.000000;-0.092778
9627.000000;-0.093118
9626.000000;-0.093329
9625.000000;-0.093483
9624.000000;-0.093651
9623.000000;-0.093965
9622.000000;-0.094494
9621.000000;-0.095062
9620.000000;-0.095325
9619.000000;-0.095115
9618.000000;-0.094615
9617.000000;-0.094186
9616.000000;-0.094095
9615.000000;-0.094398
9614.000000;-0.094958
9613.000000;-0.095549
9612.000000;-0.096017
9611.000000;-0.096410
9610.000000;-0.096882
9609.000000;-0.097461
9608.000000;-0.097986
9607.000000;-0.098271
9606.000000;-0.098258
9605.000000;-0.098007
9604.000000;-0.097691
9603.000000;-0.097616
9602.000000;-0.098084
9601.000000;-0.099097
9600.000000;-0.100249
9599.000000;-0.101015
9598.000000;-0.101146
9597.000000;-0.100811
9596.000000;-0.100441
9595.000000;-0.100453
9594.000000;-0.100989
9593.000000;-0.101807
9592.000000;-0.102470
9591.000000;-0.102743
9590.000000;-0.102781
9589.000000;-0.102885
9588.000000;-0.103158
9587.000000;-0.103474
9586.000000;-0.103707
9585.000000;-0.103848
9584.000000;-0.103923
9583.000000;-0.103916
9582.000000;-0.103820
9581.000000;-0.103705
9580.000000;-0.103696
9579.000000;-0.103895
9578.000000;-0.104323
9577.000000;-0.104906
9576.000000;-0.105528
9575.000000;-0.106111
9574.000000;-0.106605
9573.000000;-0.106903
9572.000000;-0.106877
9571.000000;-0.106571
9570.000000;-0.106312
9569.000000;-0.106487
9568.000000;-0.107170
9567.000000;-0.108050
9566.000000;-0.108730
9565.000000;-0.109049
9564.000000;-0.109083
9563.000000;-0.108943
9562.000000;-0.108671
9561.000000;-0.108338
9560.000000;-0.108151
9559.000000;-0.108367
9558.000000;-0.109097
9557.000000;-0.110172
9556.000000;-0.111205
9555.000000;-0.111823
9554.000000;-0.111907
9553.000000;-0.111683
9552.000000;-0.111562
9551.000000;-0.111787
9550.000000;-0.112218
9549.000000;-0.112507
9548.000000;-0.112507
9547.000000;-0.112463
9546.000000;-0.112729
9545.000000;-0.113398
9544.000000;-0.114249
9543.000000;-0.114986
9542.000000;-0.115429
9541.000000;-0.115537
9540.000000;-0.115389
9539.000000;-0.115147
9538.000000;-0.114935
9537.000000;-0.114735
9536.000000;-0.114496
9535.000000;-0.114298
9534.000000;-0.114300
9533.000000;-0.114534
9532.000000;-0.114903
9531.000000;-0.115392
9530.000000;-0.116096
9529.000000;-0.116989
9528.000000;-0.117805
9527.000000;-0.118265
9526.000000;-0.118317
9525.000000;-0.118102
9524.000000;-0.117802
9523.000000;-0.117640
9522.000000;-0.117885
9521.000000;-0.118630
9520.000000;-0.119581
9519.000000;-0.120215
9518.000000;-0.120230
9517.000000;-0.119806
9516.000000;-0.119401
9515.000000;-0.119344
9514.000000;-0.119623
9513.000000;-0.120015
9512.000000;-0.120354
9511.000000;-0.120625
9510.000000;-0.120822
9509.000000;-0.120847
9508.000000;-0.120675
9507.000000;-0.120563
9506.000000;-0.120873
9505.000000;-0.121625
9504.000000;-0.122380
9503.000000;-0.122691
9502.000000;-0.122568
9501.000000;-0.122372
9500.000000;-0.122367
9499.000000;-0.122513
9498.000000;-0.122674
9497.000000;-0.122849
9496.000000;-0.123135
9495.000000;-0.123544
9494.000000;-0.123947
9493.000000;-0.124199
9492.000000;-0.124302
9491.000000;-0.124410
9490.000000;-0.124634
9489.000000;-0.124904
9488.000000;-0.125097
9487.000000;-0.125270
9486.000000;-0.125615
9485.000000;-0.126143
9484.000000;-0.126590
9483.000000;-0.126728
9482.000000;-0.126656
9481.000000;-0.126662
9480.000000;-0.126899
9479.000000;-0.127304
9478.000000;-0.127780
9477.000000;-0.128295
9476.000000;-0.128818
9475.000000;-0.129265
9474.000000;-0.129539
9473.000000;-0.129617
9472.000000;-0.129622
9471.000000;-0.129809
9470.000000;-0.130337
9469.000000;-0.131010
9468.000000;-0.131368
9467.000000;-0.131145
9466.000000;-0.130555
9465.000000;-0.130052
9464.000000;-0.129926
9463.000000;-0.130209
9462.000000;-0.130817
9461.000000;-0.131553
9460.000000;-0.132101
9459.000000;-0.132246
9458.000000;-0.132116
9457.000000;-0.132032
9456.000000;-0.132153
9455.000000;-0.132377
9454.000000;-0.132535
9453.000000;-0.132521
9452.000000;-0.132285
9451.000000;-0.131913
9450.000000;-0.131702
9449.000000;-0.131936
9448.000000;-0.132532
9447.000000;-0.133095
9446.000000;-0.133343
9445.000000;-0.133337
9444.000000;-0.133252
9443.000000;-0.133170
9442.000000;-0.133213
9441.000000;-0.133643
9440.000000;-0.134605
9439.000000;-0.135828
9438.000000;-0.136759
9437.000000;-0.137056
9436.000000;-0.136865
9435.000000;-0.136620
9434.000000;-0.136648
9433.000000;-0.136949
9432.000000;-0.137311
9431.000000;-0.137550
9430.000000;-0.137649
9429.000000;-0.137694
9428.000000;-0.137753
9427.000000;-0.137833
9426.000000;-0.137906
9425.000000;-0.137923
9424.000000;-0.137879
9423.000000;-0.137901
9422.000000;-0.138190
9421.000000;-0.138785
9420.000000;-0.139443
9419.000000;-0.139861
9418.000000;-0.139963
9417.000000;-0.139869
9416.000000;-0.139671
9415.000000;-0.139415
9414.000000;-0.139276
9413.000000;-0.139498
9412.000000;-0.140094
9411.000000;-0.140776
9410.000000;-0.141281
9409.000000;-0.141641
9408.000000;-0.142029
9407.000000;-0.142436
9406.000000;-0.142649
9405.000000;-0.142529
9404.000000;-0.142219
9403.000000;-0.142042
9402.000000;-0.142227
9401.000000;-0.142708
9400.000000;-0.143212
9399.000000;-0.143533
9398.000000;-0.143708
9397.000000;-0.143892
9396.000000;-0.144149
9395.000000;-0.144430
9394.000000;-0.144678
9393.000000;-0.144817
9392.000000;-0.144726
9391.000000;-0.144406
9390.000000;-0.144139
9389.000000;-0.144265
9388.000000;-0.144784
9387.000000;-0.145323
9386.000000;-0.145563
9385.000000;-0.145531
9384.000000;-0.145429
9383.000000;-0.145391
9382.000000;-0.145469
9381.000000;-0.145684
9380.000000;-0.145977
9379.000000;-0.146239
9378.000000;-0.146508
9377.000000;-0.146966
9376.000000;-0.147624
9375.000000;-0.148181
9374.000000;-0.148353
9373.000000;-0.148208
9372.000000;-0.148017
9371.000000;-0.147874
9370.000000;-0.147695
9369.000000;-0.147481
9368.000000;-0.147379
9367.000000;-0.147494
9366.000000;-0.147832
9365.000000;-0.148395
9364.000000;-0.149154
9363.000000;-0.149930
9362.000000;-0.150460
9361.000000;-0.150639
9360.000000;-0.150555
9359.000000;-0.150328
9358.000000;-0.150051
9357.000000;-0.149894
9356.000000;-0.150044
9355.000000;-0.150453
9354.000000;-0.150819
9353.000000;-0.150928
9352.000000;-0.150906
9351.000000;-0.151049
9350.000000;-0.151497
9349.000000;-0.152170
9348.000000;-0.152918
9347.000000;-0.153586
9346.000000;-0.153997
9345.000000;-0.154034
9344.000000;-0.153783
9343.000000;-0.153502
9342.000000;-0.153416
9341.000000;-0.153548
9340.000000;-0.153751
9339.000000;-0.153845
9338.000000;-0.153763
9337.000000;-0.153613
9336.000000;-0.153589
9335.000000;-0.153797
9334.000000;-0.154133
9333.000000;-0.154400
9332.000000;-0.154522
9331.000000;-0.154604
9330.000000;-0.154774
9329.000000;-0.155024
9328.000000;-0.155251
9327.000000;-0.155417
9326.000000;-0.155600
9325.000000;-0.155877
9324.000000;-0.156206
9323.000000;-0.156463
9322.000000;-0.156579
9321.000000;-0.156605
9320.000000;-0.156624
9319.000000;-0.156643
9318.000000;-0.156625
9317.000000;-0.156597
9316.000000;-0.156661
9315.000000;-0.156881
9314.000000;-0.157192
9313.000000;-0.157489
9312.000000;-0.157766
9311.000000;-0.158106
9310.000000;-0.158532
9309.000000;-0.158932
9308.000000;-0.159175
9307.000000;-0.159243
9306.000000;-0.159195
9305.000000;-0.159078
9304.000000;-0.158925
9303.000000;-0.158825
9302.000000;-0.158887
9301.000000;-0.159126
9300.000000;-0.159451
9299.000000;-0.159790
9298.000000;-0.160120
9297.000000;-0.160372
9296.000000;-0.160398
9295.000000;-0.160150
9294.000000;-0.159839
9293.000000;-0.159812
9292.000000;-0.160241
9291.000000;-0.160972
9290.000000;-0.161676
9289.000000;-0.162100
9288.000000;-0.162205
9287.000000;-0.162121
9286.000000;-0.162017
9285.000000;-0.161968
9284.000000;-0.161936
9283.000000;-0.161860
9282.000000;-0.161754
9281.000000;-0.161692
9280.000000;-0.161765
9279.000000;-0.162054
9278.000000;-0.162569
9277.000000;-0.163147
9276.000000;-0.163491
9275.000000;-0.163440
9274.000000;-0.163160
9273.000000;-0.162990
9272.000000;-0.163102
9271.000000;-0.163415
9270.000000;-0.163800
9269.000000;-0.164201
9268.000000;-0.164537
9267.000000;-0.164675
9266.000000;-0.164619
9265.000000;-0.164609
9264.000000;-0.164876
9263.000000;-0.165348
9262.000000;-0.165685
9261.000000;-0.165624
9260.000000;-0.165212
9259.000000;-0.164769
9258.000000;-0.164673
9257.000000;-0.165120
9256.000000;-0.165967
9255.000000;-0.166798
9254.000000;-0.167242
9253.000000;-0.167250
9252.000000;-0.167068
9251.000000;-0.166963
9250.000000;-0.167064
9249.000000;-0.167407
9248.000000;-0.167982
9247.000000;-0.168688
9246.000000;-0.169317
9245.000000;-0.169666
9244.000000;-0.169656
9243.000000;-0.169343
9242.000000;-0.168859
9241.000000;-0.168365
9240.000000;-0.168007
9239.000000;-0.167859
9238.000000;-0.167885
9237.000000;-0.167991
9236.000000;-0.168098
9235.000000;-0.168164
9234.000000;-0.168157
9233.000000;-0.168075
9232.000000;-0.167987
9231.000000;-0.168020
9230.000000;-0.168250
9229.000000;-0.168635
9228.000000;-0.169065
9227.000000;-0.169480
9226.000000;-0.169897
9225.000000;-0.170314
9224.000000;-0.170636
9223.000000;-0.170748
9222.000000;-0.170655
9221.000000;-0.170518
9220.000000;-0.170528
9219.000000;-0.170768
9218.000000;-0.171168
9217.000000;-0.171548
9216.000000;-0.171717
9215.000000;-0.171575
9214.000000;-0.171193
9213.000000;-0.170759
9212.000000;-0.170448
9211.000000;-0.170356
9210.000000;-0.170542
9209.000000;-0.171023
9208.000000;-0.171658
9207.000000;-0.172114
9206.000000;-0.172119
9205.000000;-0.171793
9204.000000;-0.171610
9203.000000;-0.171929
9202.000000;-0.172616
9201.000000;-0.173221
9200.000000;-0.173481
9199.000000;-0.173533
9198.000000;-0.173623
9197.000000;-0.173771
9196.000000;-0.173832
9195.000000;-0.173767
9194.000000;-0.173667
9193.000000;-0.173552
9192.000000;-0.173352
9191.000000;-0.173128
9190.000000;-0.173114
9189.000000;-0.173417
9188.000000;-0.173818
9187.000000;-0.174029
9186.000000;-0.174087
9185.000000;-0.174290
9184.000000;-0.174774
9183.000000;-0.175353
9182.000000;-0.175814
9181.000000;-0.176191
9180.000000;-0.176646
9179.000000;-0.177184
9178.000000;-0.177626
9177.000000;-0.177829
9176.000000;-0.177813
9175.000000;-0.177704
9174.000000;-0.177587
9173.000000;-0.177433
9172.000000;-0.177159
9171.000000;-0.176795
9170.000000;-0.176585
9169.000000;-0.176807
9168.000000;-0.177452
9167.000000;-0.178141
9166.000000;-0.178469
9165.000000;-0.178362
9164.000000;-0.178057
9163.000000;-0.177791
9162.000000;-0.177619
9161.000000;-0.177500
9160.000000;-0.177410
9159.000000;-0.177344
9158.000000;-0.177307
9157.000000;-0.177349
9156.000000;-0.177559
9155.000000;-0.177970
9154.000000;-0.178478
9153.000000;-0.178868
9152.000000;-0.178938
9151.000000;-0.178653
9150.000000;-0.178217
9149.000000;-0.177956
9148.000000;-0.178065
9147.000000;-0.178473
9146.000000;-0.178970
9145.000000;-0.179396
9144.000000;-0.179664
9143.000000;-0.179700
9142.000000;-0.179527
9141.000000;-0.179379
9140.000000;-0.179537
9139.000000;-0.179985
9138.000000;-0.180372
9137.000000;-0.180413
9136.000000;-0.180217
9135.000000;-0.180109
9134.000000;-0.180217
9133.000000;-0.180383
9132.000000;-0.180452
9131.000000;-0.180469
9130.000000;-0.180567
9129.000000;-0.180772
9128.000000;-0.181010
9127.000000;-0.181218
9126.000000;-0.181366
9125.000000;-0.181418
9124.000000;-0.181357
9123.000000;-0.181265
9122.000000;-0.181292
9121.000000;-0.181507
9120.000000;-0.181806
9119.000000;-0.182012
9118.000000;-0.182042
9117.000000;-0.181963
9116.000000;-0.181880
9115.000000;-0.181829
9114.000000;-0.181807
9113.000000;-0.181844
9112.000000;-0.182001
9111.000000;-0.182300
9110.000000;-0.182685
9109.000000;-0.183065
9108.000000;-0.183347
9107.000000;-0.183449
9106.000000;-0.183351
9105.000000;-0.183164
9104.000000;-0.183091
9103.000000;-0.183242
9102.000000;-0.183508
9101.000000;-0.183668
9100.000000;-0.183616
9099.000000;-0.183438
9098.000000;-0.183288
9097.000000;-0.183251
9096.000000;-0.183328
9095.000000;-0.183467
9094.000000;-0.183575
9093.000000;-0.183580
