Criado como novo conjunto de dados;"e0108.spp","-4252843.3 Secs"
cm-1;Abs
10000.000000;1.031608
9999.000000;1.032572
9998.000000;1.033534
9997.000000;1.034514
9996.000000;1.035327
9995.000000;1.035398
9994.000000;1.034526
9993.000000;1.033497
9992.000000;1.033403
9991.000000;1.034509
9990.000000;1.035857
9989.000000;1.036084
9988.000000;1.034637
9987.000000;1.032222
9986.000000;1.030151
9985.000000;1.029299
9984.000000;1.029503
9983.000000;1.029774
9982.000000;1.029111
9981.000000;1.027271
9980.000000;1.024871
9979.000000;1.022814
9978.000000;1.021639
9977.000000;1.021333
9976.000000;1.021637
9975.000000;1.022390
9974.000000;1.023554
9973.000000;1.024940
9972.000000;1.026021
9971.000000;1.026132
9970.000000;1.025005
9969.000000;1.023156
9968.000000;1.021647
9967.000000;1.021285
9966.000000;1.021961
9965.000000;1.022874
9964.000000;1.023480
9963.000000;1.024136
9962.000000;1.025550
9961.000000;1.027650
9960.000000;1.029330
9959.000000;1.029506
9958.000000;1.028147
9957.000000;1.026016
9956.000000;1.023734
9955.000000;1.021457
9954.000000;1.019351
9953.000000;1.017900
9952.000000;1.017483
9951.000000;1.017840
9950.000000;1.018147
9949.000000;1.017627
9948.000000;1.016218
9947.000000;1.014738
9946.000000;1.014291
9945.000000;1.015211
9944.000000;1.016515
9943.000000;1.016783
9942.000000;1.015640
9941.000000;1.013943
9940.000000;1.012565
9939.000000;1.011623
9938.000000;1.011012
9937.000000;1.010937
9936.000000;1.011451
9935.000000;1.011978
9934.000000;1.011942
9933.000000;1.011543
9932.000000;1.011404
9931.000000;1.011722
9930.000000;1.012259
9929.000000;1.012847
9928.000000;1.013261
9927.000000;1.012808
9926.000000;1.010847
9925.000000;1.007853
9924.000000;1.005288
9923.000000;1.004177
9922.000000;1.004231
9921.000000;1.004475
9920.000000;1.004315
9919.000000;1.003867
9918.000000;1.003660
9917.000000;1.004197
9916.000000;1.005468
9915.000000;1.006642
9914.000000;1.006608
9913.000000;1.005174
9912.000000;1.003512
9911.000000;1.003105
9910.000000;1.004337
9909.000000;1.006244
9908.000000;1.007480
9907.000000;1.007433
9906.000000;1.006549
9905.000000;1.005725
9904.000000;1.005347
9903.000000;1.004914
9902.000000;1.003704
9901.000000;1.001735
9900.000000;0.999778
9899.000000;0.998486
9898.000000;0.997930
9897.000000;0.998015
9896.000000;0.998871
9895.000000;1.000461
9894.000000;1.002090
9893.000000;1.002743
9892.000000;1.001948
9891.000000;1.000155
9890.000000;0.998297
9889.000000;0.997146
9888.000000;0.996948
9887.000000;0.997411
9886.000000;0.997996
9885.000000;0.998296
9884.000000;0.998196
9883.000000;0.997707
9882.000000;0.996813
9881.000000;0.995539
9880.000000;0.994059
9879.000000;0.992651
9878.000000;0.991601
9877.000000;0.991080
9876.000000;0.990971
9875.000000;0.990905
9874.000000;0.990696
9873.000000;0.990682
9872.000000;0.991279
9871.000000;0.992212
9870.000000;0.992555
9869.000000;0.991719
9868.000000;0.990098
9867.000000;0.988547
9866.000000;0.987545
9865.000000;0.987038
9864.000000;0.986783
9863.000000;0.986518
9862.000000;0.986016
9861.000000;0.985303
9860.000000;0.984720
9859.000000;0.984557
9858.000000;0.984708
9857.000000;0.984847
9856.000000;0.984861
9855.000000;0.984874
9854.000000;0.984938
9853.000000;0.985012
9852.000000;0.985271
9851.000000;0.986073
9850.000000;0.987381
9849.000000;0.988351
9848.000000;0.987864
9847.000000;0.985653
9846.000000;0.982786
9845.000000;0.980790
9844.000000;0.980335
9843.000000;0.980860
9842.000000;0.981376
9841.000000;0.981313
9840.000000;0.980561
9839.000000;0.979297
9838.000000;0.978181
9837.000000;0.978237
9836.000000;0.979814
9835.000000;0.981768
9834.000000;0.982371
9833.000000;0.981123
9832.000000;0.979052
9831.000000;0.977213
9830.000000;0.975747
9829.000000;0.974574
9828.000000;0.974091
9827.000000;0.974645
9826.000000;0.975873
9825.000000;0.977095
9824.000000;0.977966
9823.000000;0.978255
9822.000000;0.977438
9821.000000;0.975261
9820.000000;0.972547
9819.000000;0.970717
9818.000000;0.970485
9817.000000;0.971444
9816.000000;0.972760
9815.000000;0.973784
9814.000000;0.974101
9813.000000;0.973608
9812.000000;0.972716
9811.000000;0.972041
9810.000000;0.971765
9809.000000;0.971623
9808.000000;0.971503
9807.000000;0.971617
9806.000000;0.972018
9805.000000;0.972313
9804.000000;0.972040
9803.000000;0.971157
9802.000000;0.970007
9801.000000;0.968985
9800.000000;0.968293
9799.000000;0.967851
9798.000000;0.967367
9797.000000;0.966661
9796.000000;0.965972
9795.000000;0.965779
9794.000000;0.966223
9793.000000;0.966898
9792.000000;0.967266
9791.000000;0.967123
9790.000000;0.966613
9789.000000;0.965974
9788.000000;0.965358
9787.000000;0.964803
9786.000000;0.964289
9785.000000;0.963802
9784.000000;0.963308
9783.000000;0.962697
9782.000000;0.961931
9781.000000;0.961280
9780.000000;0.961119
9779.000000;0.961327
9778.000000;0.961205
9777.000000;0.960320
9776.000000;0.959223
9775.000000;0.958847
9774.000000;0.959355
9773.000000;0.960082
9772.000000;0.960544
9771.000000;0.960909
9770.000000;0.961303
9769.000000;0.961196
9768.000000;0.959928
9767.000000;0.957632
9766.000000;0.955260
9765.000000;0.953816
9764.000000;0.953760
9763.000000;0.954899
9762.000000;0.956500
9761.000000;0.957580
9760.000000;0.957528
9759.000000;0.956597
9758.000000;0.955628
9757.000000;0.955210
9756.000000;0.955224
9755.000000;0.955210
9754.000000;0.954989
9753.000000;0.954773
9752.000000;0.954766
9751.000000;0.954886
9750.000000;0.954919
9749.000000;0.954753
9748.000000;0.954329
9747.000000;0.953497
9746.000000;0.952148
9745.000000;0.950469
9744.000000;0.948927
9743.000000;0.947941
9742.000000;0.947680
9741.000000;0.948107
9740.000000;0.948992
9739.000000;0.949902
9738.000000;0.950426
9737.000000;0.950487
9736.000000;0.950259
9735.000000;0.949803
9734.000000;0.949103
9733.000000;0.948485
9732.000000;0.948544
9731.000000;0.949396
9730.000000;0.950296
9729.000000;0.950349
9728.000000;0.949415
9727.000000;0.948059
9726.000000;0.946837
9725.000000;0.945942
9724.000000;0.945305
9723.000000;0.944655
9722.000000;0.943645
9721.000000;0.942333
9720.000000;0.941406
9719.000000;0.941476
9718.000000;0.942275
9717.000000;0.942985
9716.000000;0.943260
9715.000000;0.943431
9714.000000;0.943751
9713.000000;0.944109
9712.000000;0.944556
9711.000000;0.945388
9710.000000;0.946378
9709.000000;0.946550
9708.000000;0.945248
9707.000000;0.943069
9706.000000;0.941258
9705.000000;0.940446
9704.000000;0.940339
9703.000000;0.940359
9702.000000;0.940163
9701.000000;0.939678
9700.000000;0.939097
9699.000000;0.938789
9698.000000;0.938856
9697.000000;0.938829
9696.000000;0.938213
9695.000000;0.937330
9694.000000;0.937149
9693.000000;0.938089
9692.000000;0.939369
9691.000000;0.939818
9690.000000;0.939103
9689.000000;0.937799
9688.000000;0.936422
9687.000000;0.934905
9686.000000;0.933188
9685.000000;0.931854
9684.000000;0.931686
9683.000000;0.932626
9682.000000;0.933674
9681.000000;0.933994
9680.000000;0.933765
9679.000000;0.933618
9678.000000;0.933583
9677.000000;0.933142
9676.000000;0.932175
9675.000000;0.931220
9674.000000;0.930676
9673.000000;0.930349
9672.000000;0.930109
9671.000000;0.930452
9670.000000;0.931802
9669.000000;0.933453
9668.000000;0.933935
9667.000000;0.932610
9666.000000;0.930442
9665.000000;0.928908
9664.000000;0.928503
9663.000000;0.928565
9662.000000;0.928283
9661.000000;0.927526
9660.000000;0.926706
9659.000000;0.926155
9658.000000;0.925855
9657.000000;0.925649
9656.000000;0.925497
9655.000000;0.925463
9654.000000;0.925548
9653.000000;0.925674
9652.000000;0.925758
9651.000000;0.925729
9650.000000;0.925468
9649.000000;0.924865
9648.000000;0.923950
9647.000000;0.922907
9646.000000;0.921991
9645.000000;0.921504
9644.000000;0.921727
9643.000000;0.922619
9642.000000;0.923572
9641.000000;0.923843
9640.000000;0.923359
9639.000000;0.922804
9638.000000;0.922742
9637.000000;0.922943
9636.000000;0.922858
9635.000000;0.922465
9634.000000;0.922181
9633.000000;0.922060
9632.000000;0.921660
9631.000000;0.920791
9630.000000;0.919910
9629.000000;0.919524
9628.000000;0.919543
9627.000000;0.919495
9626.000000;0.919065
9625.000000;0.918112
9624.000000;0.916487
9623.000000;0.914400
9622.000000;0.912827
9621.000000;0.912947
9620.000000;0.914912
9619.000000;0.917442
9618.000000;0.918925
9617.000000;0.918846
9616.000000;0.917956
9615.000000;0.917298
9614.000000;0.917329
9613.000000;0.917786
9612.000000;0.918014
9611.000000;0.917412
9610.000000;0.915888
9609.000000;0.914075
9608.000000;0.912925
9607.000000;0.912970
9606.000000;0.913946
9605.000000;0.915122
9604.000000;0.915881
9603.000000;0.915998
9602.000000;0.915522
9601.000000;0.914611
9600.000000;0.913493
9599.000000;0.912484
9598.000000;0.911884
9597.000000;0.911733
9596.000000;0.911663
9595.000000;0.911150
9594.000000;0.910050
9593.000000;0.908771
9592.000000;0.907810
9591.000000;0.907209
9590.000000;0.906717
9589.000000;0.906338
9588.000000;0.906334
9587.000000;0.906627
9586.000000;0.906634
9585.000000;0.905986
9584.000000;0.905113
9583.000000;0.904765
9582.000000;0.905082
9581.000000;0.905493
9580.000000;0.905458
9579.000000;0.904982
9578.000000;0.904377
9577.000000;0.903874
9576.000000;0.903591
9575.000000;0.903628
9574.000000;0.903983
9573.000000;0.904393
9572.000000;0.904451
9571.000000;0.903909
9570.000000;0.902920
9569.000000;0.901955
9568.000000;0.901445
9567.000000;0.901421
9566.000000;0.901573
9565.000000;0.901683
9564.000000;0.901885
9563.000000;0.902354
9562.000000;0.902906
9561.000000;0.903131
9560.000000;0.902869
9559.000000;0.902293
9558.000000;0.901567
9557.000000;0.900748
9556.000000;0.900043
9555.000000;0.899783
9554.000000;0.899925
9553.000000;0.899890
9552.000000;0.899213
9551.000000;0.898242
9550.000000;0.897852
9549.000000;0.898484
9548.000000;0.899644
9547.000000;0.900436
9546.000000;0.900392
9545.000000;0.899708
9544.000000;0.898826
9543.000000;0.898016
9542.000000;0.897351
9541.000000;0.896907
9540.000000;0.896792
9539.000000;0.896986
9538.000000;0.897260
9537.000000;0.897300
9536.000000;0.896955
9535.000000;0.896378
9534.000000;0.895958
9533.000000;0.896038
9532.000000;0.896530
9531.000000;0.896816
9530.000000;0.896298
9529.000000;0.895136
9528.000000;0.894182
9527.000000;0.893954
9526.000000;0.893957
9525.000000;0.893358
9524.000000;0.892126
9523.000000;0.891032
9522.000000;0.890575
9521.000000;0.890499
9520.000000;0.890467
9519.000000;0.890660
9518.000000;0.891264
9517.000000;0.891759
9516.000000;0.891325
9515.000000;0.889902
9514.000000;0.888359
9513.000000;0.887493
9512.000000;0.887205
9511.000000;0.886868
9510.000000;0.886303
9509.000000;0.886100
9508.000000;0.886918
9507.000000;0.888601
9506.000000;0.890136
9505.000000;0.890560
9504.000000;0.889894
9503.000000;0.889052
9502.000000;0.888828
9501.000000;0.889118
9500.000000;0.889247
9499.000000;0.888836
9498.000000;0.888100
9497.000000;0.887321
9496.000000;0.886418
9495.000000;0.885253
9494.000000;0.884151
9493.000000;0.883742
9492.000000;0.884209
9491.000000;0.884905
9490.000000;0.884915
9489.000000;0.883937
9488.000000;0.882467
9487.000000;0.881186
9486.000000;0.880381
9485.000000;0.880007
9484.000000;0.880046
9483.000000;0.880564
9482.000000;0.881465
9481.000000;0.882417
9480.000000;0.883042
9479.000000;0.883096
9478.000000;0.882498
9477.000000;0.881406
9476.000000;0.880248
9475.000000;0.879475
9474.000000;0.879143
9473.000000;0.878882
9472.000000;0.878383
9471.000000;0.877839
9470.000000;0.877765
9469.000000;0.878457
9468.000000;0.879693
9467.000000;0.880938
9466.000000;0.881784
9465.000000;0.882175
9464.000000;0.882222
9463.000000;0.881889
9462.000000;0.880960
9461.000000;0.879389
9460.000000;0.877617
9459.000000;0.876389
9458.000000;0.876215
9457.000000;0.877042
9456.000000;0.878365
9455.000000;0.879503
9454.000000;0.879824
9453.000000;0.879021
9452.000000;0.877357
9451.000000;0.875548
9450.000000;0.874274
9449.000000;0.873770
9448.000000;0.873837
9447.000000;0.874113
9446.000000;0.874316
9445.000000;0.874410
9444.000000;0.874640
9443.000000;0.875248
9442.000000;0.876029
9441.000000;0.876341
9440.000000;0.875749
9439.000000;0.874581
9438.000000;0.873647
9437.000000;0.873434
9436.000000;0.873683
9435.000000;0.873718
9434.000000;0.873061
9433.000000;0.871782
9432.000000;0.870402
9431.000000;0.869473
9430.000000;0.869182
9429.000000;0.869328
9428.000000;0.869642
9427.000000;0.870029
9426.000000;0.870472
9425.000000;0.870850
9424.000000;0.870976
9423.000000;0.870730
9422.000000;0.870074
9421.000000;0.869034
9420.000000;0.867803
9419.000000;0.866741
9418.000000;0.866121
9417.000000;0.865946
9416.000000;0.866084
9415.000000;0.866431
9414.000000;0.866783
9413.000000;0.866770
9412.000000;0.866205
9411.000000;0.865457
9410.000000;0.865191
9409.000000;0.865700
9408.000000;0.866672
9407.000000;0.867609
9406.000000;0.868256
9405.000000;0.868553
9404.000000;0.868412
9403.000000;0.867750
9402.000000;0.866692
9401.000000;0.865614
9400.000000;0.864946
9399.000000;0.864917
9398.000000;0.865388
9397.000000;0.865921
9396.000000;0.866095
9395.000000;0.865801
9394.000000;0.865261
9393.000000;0.864877
9392.000000;0.865058
9391.000000;0.865935
9390.000000;0.866983
9389.000000;0.867113
9388.000000;0.865581
9387.000000;0.862875
9386.000000;0.860402
9385.000000;0.859173
9384.000000;0.859061
9383.000000;0.859341
9382.000000;0.859556
9381.000000;0.859665
9380.000000;0.859657
9379.000000;0.859464
9378.000000;0.859201
9377.000000;0.859139
9376.000000;0.859386
9375.000000;0.859778
9374.000000;0.860123
9373.000000;0.860402
9372.000000;0.860690
9371.000000;0.861019
9370.000000;0.861407
9369.000000;0.861867
9368.000000;0.862277
9367.000000;0.862300
9366.000000;0.861597
9365.000000;0.860184
9364.000000;0.858545
9363.000000;0.857302
9362.000000;0.856751
9361.000000;0.856742
9360.000000;0.857006
9359.000000;0.857463
9358.000000;0.858096
9357.000000;0.858624
9356.000000;0.858578
9355.000000;0.857788
9354.000000;0.856623
9353.000000;0.855607
9352.000000;0.854889
9351.000000;0.854238
9350.000000;0.853435
9349.000000;0.852524
9348.000000;0.851726
9347.000000;0.851268
9346.000000;0.851258
9345.000000;0.851579
9344.000000;0.851910
9343.000000;0.851978
9342.000000;0.851811
9341.000000;0.851633
9340.000000;0.851564
9339.000000;0.851538
9338.000000;0.851505
9337.000000;0.851503
9336.000000;0.851517
9335.000000;0.851461
9334.000000;0.851400
9333.000000;0.851610
9332.000000;0.852211
9331.000000;0.852889
9330.000000;0.853181
9329.000000;0.853013
9328.000000;0.852718
9327.000000;0.852544
9326.000000;0.852353
9325.000000;0.851906
9324.000000;0.851240
9323.000000;0.850593
9322.000000;0.850103
9321.000000;0.849768
9320.000000;0.849597
9319.000000;0.849574
9318.000000;0.849531
9317.000000;0.849267
9316.000000;0.848835
9315.000000;0.848489
9314.000000;0.848310
9313.000000;0.848076
9312.000000;0.847624
9311.000000;0.847140
9310.000000;0.846912
9309.000000;0.846984
9308.000000;0.847218
9307.000000;0.847521
9306.000000;0.847766
9305.000000;0.847668
9304.000000;0.847115
9303.000000;0.846528
9302.000000;0.846488
9301.000000;0.846970
9300.000000;0.847315
9299.000000;0.847090
9298.000000;0.846610
9297.000000;0.846366
9296.000000;0.846287
9295.000000;0.845948
9294.000000;0.845296
9293.000000;0.844707
9292.000000;0.844354
9291.000000;0.843944
9290.000000;0.843191
9289.000000;0.842241
9288.000000;0.841471
9287.000000;0.841081
9286.000000;0.841065
9285.000000;0.841410
9284.000000;0.842091
9283.000000;0.842916
9282.000000;0.843581
9281.000000;0.843901
9280.000000;0.843891
9279.000000;0.843630
9278.000000;0.843178
9277.000000;0.842684
9276.000000;0.842416
9275.000000;0.842508
9274.000000;0.842719
9273.000000;0.842578
9272.000000;0.841877
9271.000000;0.840950
9270.000000;0.840353
9269.000000;0.840292
9268.000000;0.840491
9267.000000;0.840603
9266.000000;0.840573
9265.000000;0.840533
9264.000000;0.840500
9263.000000;0.840410
9262.000000;0.840402
9261.000000;0.840834
9260.000000;0.841871
9259.000000;0.843118
9258.000000;0.843781
9257.000000;0.843288
9256.000000;0.841786
9255.000000;0.839991
9254.000000;0.838557
9253.000000;0.837654
9252.000000;0.837143
9251.000000;0.836952
9250.000000;0.837021
9249.000000;0.836986
9248.000000;0.836340
9247.000000;0.835110
9246.000000;0.834095
9245.000000;0.834160
9244.000000;0.835365
9243.000000;0.836991
9242.000000;0.838308
9241.000000;0.839047
9240.000000;0.839220
9239.000000;0.838893
9238.000000;0.838305
9237.000000;0.837914
9236.000000;0.838071
9235.000000;0.838668
9234.000000;0.839226
9233.000000;0.839339
9232.000000;0.839004
9231.000000;0.838535
9230.000000;0.838188
9229.000000;0.837871
9228.000000;0.837245
9227.000000;0.836153
9226.000000;0.834860
9225.000000;0.833812
9224.000000;0.833246
9223.000000;0.833159
9222.000000;0.833500
9221.000000;0.834099
9220.000000;0.834465
9219.000000;0.834047
9218.000000;0.832887
9217.000000;0.831764
9216.000000;0.831435
9215.000000;0.831894
9214.000000;0.832552
9213.000000;0.832994
9212.000000;0.833250
9211.000000;0.833364
9210.000000;0.833050
9209.000000;0.832035
9208.000000;0.830599
9207.000000;0.829542
9206.000000;0.829490
9205.000000;0.830301
9204.000000;0.831216
9203.000000;0.831611
9202.000000;0.831507
9201.000000;0.831336
9200.000000;0.831357
9199.000000;0.831452
9198.000000;0.831425
9197.000000;0.831269
9196.000000;0.831092
9195.000000;0.830959
9194.000000;0.830877
9193.000000;0.830827
9192.000000;0.830722
9191.000000;0.830427
9190.000000;0.829913
9189.000000;0.829322
9188.000000;0.828839
9187.000000;0.828571
9186.000000;0.828549
9185.000000;0.828678
9184.000000;0.828665
9183.000000;0.828215
9182.000000;0.827384
9181.000000;0.826567
9180.000000;0.826014
9179.000000;0.825557
9178.000000;0.825000
9177.000000;0.824580
9176.000000;0.824731
9175.000000;0.825465
9174.000000;0.826275
9173.000000;0.826699
9172.000000;0.826756
9171.000000;0.826752
9170.000000;0.826838
9169.000000;0.826887
9168.000000;0.826723
9167.000000;0.826364
9166.000000;0.826046
9165.000000;0.826025
9164.000000;0.826295
9163.000000;0.826530
9162.000000;0.826391
9161.000000;0.825916
9160.000000;0.825546
9159.000000;0.825741
9158.000000;0.826561
9157.000000;0.827536
9156.000000;0.827938
9155.000000;0.827326
9154.000000;0.825945
9153.000000;0.824526
9152.000000;0.823614
9151.000000;0.823173
9150.000000;0.822899
9149.000000;0.822726
9148.000000;0.822766
9147.000000;0.822884
9146.000000;0.822724
9145.000000;0.822207
9144.000000;0.821701
9143.000000;0.821549
9142.000000;0.821705
9141.000000;0.821972
9140.000000;0.822368
9139.000000;0.822997
9138.000000;0.823711
9137.000000;0.824178
9136.000000;0.824282
9135.000000;0.824237
9134.000000;0.824265
9133.000000;0.824327
9132.000000;0.824176
9131.000000;0.823597
9130.000000;0.822571
9129.000000;0.821368
9128.000000;0.820485
9127.000000;0.820353
9126.000000;0.820974
9125.000000;0.821865
9124.000000;0.822445
9123.000000;0.822513
9122.000000;0.822332
9121.000000;0.822268
9120.000000;0.822365
9119.000000;0.822280
9118.000000;0.821642
9117.000000;0.820487
9116.000000;0.819306
9115.000000;0.818671
9114.000000;0.818840
9113.000000;0.819657
9112.000000;0.820688
9111.000000;0.821396
9110.000000;0.821321
9109.000000;0.820375
9108.000000;0.819038
9107.000000;0.818118
9106.000000;0.818159
9105.000000;0.818998
9104.000000;0.819914
9103.000000;0.820224
9102.000000;0.819780
9101.000000;0.818946
9100.000000;0.818194
9099.000000;0.817733
9098.000000;0.817468
9097.000000;0.817236
9096.000000;0.817049
9095.000000;0.817088
9094.000000;0.817465
9093.000000;0.818041
9092.000000;0.818509
9091.000000;0.818652
9090.000000;0.818473
9089.000000;0.818121
9088.000000;0.817783
9087.000000;0.817652
9086.000000;0.817847
9085.000000;0.818221
9084.000000;0.818350
9083.000000;0.817896
9082.000000;0.817027
9081.000000;0.816339
9080.000000;0.816296
9079.000000;0.816794
9078.000000;0.817318
9077.000000;0.817434
9076.000000;0.817104
9075.000000;0.816623
9074.000000;0.816329
9073.000000;0.816316
9072.000000;0.816363
9071.000000;0.816212
9070.000000;0.815915
9069.000000;0.815774
9068.000000;0.815864
9067.000000;0.815819
9066.000000;0.815307
9065.000000;0.814574
9064.000000;0.814226
9063.000000;0.814492
9062.000000;0.814942
9061.000000;0.815019
9060.000000;0.814634
9059.000000;0.814143
9058.000000;0.813896
9057.000000;0.813981
9056.000000;0.814274
9055.000000;0.814558
9054.000000;0.814645
9053.000000;0.814508
