Criado como novo conjunto de dados;"e0108.spp","-4262383.8 Secs"
cm-1;Abs
10000.000000;1.052950
9999.000000;1.051251
9998.000000;1.049628
9997.000000;1.048432
9996.000000;1.048243
9995.000000;1.049141
9994.000000;1.050281
9993.000000;1.050663
9992.000000;1.050110
9991.000000;1.049121
9990.000000;1.048040
9989.000000;1.046867
9988.000000;1.045751
9987.000000;1.045072
9986.000000;1.044982
9985.000000;1.045239
9984.000000;1.045506
9983.000000;1.045510
9982.000000;1.045052
9981.000000;1.044258
9980.000000;1.043726
9979.000000;1.043970
9978.000000;1.044804
9977.000000;1.045639
9976.000000;1.046269
9975.000000;1.046862
9974.000000;1.047292
9973.000000;1.047121
9972.000000;1.046309
9971.000000;1.045359
9970.000000;1.044540
9969.000000;1.043519
9968.000000;1.042083
9967.000000;1.040717
9966.000000;1.040042
9965.000000;1.040000
9964.000000;1.039987
9963.000000;1.039683
9962.000000;1.039479
9961.000000;1.040078
9960.000000;1.041658
9959.000000;1.043336
9958.000000;1.043595
9957.000000;1.041646
9956.000000;1.038384
9955.000000;1.035608
9954.000000;1.034290
9953.000000;1.034009
9952.000000;1.034013
9951.000000;1.034103
9950.000000;1.034284
9949.000000;1.034328
9948.000000;1.034265
9947.000000;1.034775
9946.000000;1.036317
9945.000000;1.038127
9944.000000;1.038839
9943.000000;1.038100
9942.000000;1.036820
9941.000000;1.035742
9940.000000;1.034569
9939.000000;1.032827
9938.000000;1.030948
9937.000000;1.029924
9936.000000;1.030109
9935.000000;1.030826
9934.000000;1.031093
9933.000000;1.030453
9932.000000;1.029190
9931.000000;1.028039
9930.000000;1.027671
9929.000000;1.028163
9928.000000;1.028909
9927.000000;1.029217
9926.000000;1.028998
9925.000000;1.028684
9924.000000;1.028547
9923.000000;1.028391
9922.000000;1.027930
9921.000000;1.027177
9920.000000;1.026327
9919.000000;1.025519
9918.000000;1.024888
9917.000000;1.024643
9916.000000;1.024845
9915.000000;1.025212
9914.000000;1.025349
9913.000000;1.025092
9912.000000;1.024465
9911.000000;1.023441
9910.000000;1.021987
9909.000000;1.020320
9908.000000;1.018866
9907.000000;1.017983
9906.000000;1.017848
9905.000000;1.018479
9904.000000;1.019534
9903.000000;1.020157
9902.000000;1.019542
9901.000000;1.017802
9900.000000;1.015921
9899.000000;1.014740
9898.000000;1.014310
9897.000000;1.014272
9896.000000;1.014443
9895.000000;1.014795
9894.000000;1.015242
9893.000000;1.015793
9892.000000;1.016609
9891.000000;1.017479
9890.000000;1.017578
9889.000000;1.016348
9888.000000;1.014558
9887.000000;1.013865
9886.000000;1.015089
9885.000000;1.017218
9884.000000;1.018355
9883.000000;1.017535
9882.000000;1.015408
9881.000000;1.013340
9880.000000;1.012184
9879.000000;1.011846
9878.000000;1.011728
9877.000000;1.011415
9876.000000;1.010972
9875.000000;1.010737
9874.000000;1.010911
9873.000000;1.011259
9872.000000;1.011189
9871.000000;1.010274
9870.000000;1.008779
9869.000000;1.007501
9868.000000;1.006930
9867.000000;1.006771
9866.000000;1.006497
9865.000000;1.006181
9864.000000;1.006335
9863.000000;1.007013
9862.000000;1.007643
9861.000000;1.007867
9860.000000;1.007943
9859.000000;1.008078
9858.000000;1.007947
9857.000000;1.007316
9856.000000;1.006628
9855.000000;1.006388
9854.000000;1.006307
9853.000000;1.005685
9852.000000;1.004515
9851.000000;1.003602
9850.000000;1.003578
9849.000000;1.004239
9848.000000;1.004820
9847.000000;1.004539
9846.000000;1.002963
9845.000000;1.000377
9844.000000;0.997930
9843.000000;0.996901
9842.000000;0.997521
9841.000000;0.998790
9840.000000;0.999627
9839.000000;0.999906
9838.000000;1.000206
9837.000000;1.000873
9836.000000;1.001619
9835.000000;1.001928
9834.000000;1.001569
9833.000000;1.000717
9832.000000;0.999701
9831.000000;0.998725
9830.000000;0.997830
9829.000000;0.997101
9828.000000;0.996778
9827.000000;0.997013
9826.000000;0.997598
9825.000000;0.998110
9824.000000;0.998243
9823.000000;0.997830
9822.000000;0.996620
9821.000000;0.994416
9820.000000;0.991525
9819.000000;0.988834
9818.000000;0.987244
9817.000000;0.987021
9816.000000;0.987660
9815.000000;0.988352
9814.000000;0.988631
9813.000000;0.988621
9812.000000;0.988577
9811.000000;0.988330
9810.000000;0.987500
9809.000000;0.986282
9808.000000;0.985462
9807.000000;0.985390
9806.000000;0.985477
9805.000000;0.985140
9804.000000;0.984775
9803.000000;0.985123
9802.000000;0.985995
9801.000000;0.986440
9800.000000;0.986087
9799.000000;0.985483
9798.000000;0.985025
9797.000000;0.984456
9796.000000;0.983696
9795.000000;0.983340
9794.000000;0.983797
9793.000000;0.984496
9792.000000;0.984503
9791.000000;0.983558
9790.000000;0.982084
9789.000000;0.980533
9788.000000;0.979211
9787.000000;0.978477
9786.000000;0.978619
9785.000000;0.979605
9784.000000;0.981149
9783.000000;0.982798
9782.000000;0.983805
9781.000000;0.983466
9780.000000;0.982018
9779.000000;0.980742
9778.000000;0.980602
9777.000000;0.981108
9776.000000;0.981083
9775.000000;0.980280
9774.000000;0.979514
9773.000000;0.979323
9772.000000;0.979340
9771.000000;0.979034
9770.000000;0.978304
9769.000000;0.977132
9768.000000;0.975410
9767.000000;0.973489
9766.000000;0.972279
9765.000000;0.972276
9764.000000;0.972914
9763.000000;0.973339
9762.000000;0.973469
9761.000000;0.973729
9760.000000;0.974081
9759.000000;0.974056
9758.000000;0.973648
9757.000000;0.973422
9756.000000;0.973599
9755.000000;0.973657
9754.000000;0.973107
9753.000000;0.972223
9752.000000;0.971676
9751.000000;0.971725
9750.000000;0.972039
9749.000000;0.972082
9748.000000;0.971473
9747.000000;0.970250
9746.000000;0.969066
9745.000000;0.968819
9744.000000;0.969703
9743.000000;0.970776
9742.000000;0.970887
9741.000000;0.969929
9740.000000;0.968717
9739.000000;0.967753
9738.000000;0.966795
9737.000000;0.965729
9736.000000;0.965159
9735.000000;0.965658
9734.000000;0.966848
9733.000000;0.967742
9732.000000;0.967875
9731.000000;0.967656
9730.000000;0.967627
9729.000000;0.967768
9728.000000;0.967592
9727.000000;0.966684
9726.000000;0.965069
9725.000000;0.963245
9724.000000;0.961895
9723.000000;0.961474
9722.000000;0.961968
9721.000000;0.962992
9720.000000;0.964015
9719.000000;0.964523
9718.000000;0.964242
9717.000000;0.963406
9716.000000;0.962603
9715.000000;0.962132
9714.000000;0.961692
9713.000000;0.960935
9712.000000;0.960159
9711.000000;0.960097
9710.000000;0.961026
9709.000000;0.962355
9708.000000;0.963145
9707.000000;0.962876
9706.000000;0.961715
9705.000000;0.960230
9704.000000;0.958890
9703.000000;0.957754
9702.000000;0.956692
9701.000000;0.955891
9700.000000;0.955859
9699.000000;0.956668
9698.000000;0.957494
9697.000000;0.957356
9696.000000;0.956257
9695.000000;0.955174
9694.000000;0.954926
9693.000000;0.955420
9692.000000;0.955991
9691.000000;0.956031
9690.000000;0.955226
9689.000000;0.953662
9688.000000;0.951960
9687.000000;0.950973
9686.000000;0.951039
9685.000000;0.951709
9684.000000;0.952336
9683.000000;0.952681
9682.000000;0.952735
9681.000000;0.952303
9680.000000;0.951213
9679.000000;0.949831
9678.000000;0.948939
9677.000000;0.948992
9676.000000;0.949686
9675.000000;0.950300
9674.000000;0.950297
9673.000000;0.949548
9672.000000;0.948230
9671.000000;0.946790
9670.000000;0.945876
9669.000000;0.945936
9668.000000;0.946655
9667.000000;0.947000
9666.000000;0.946282
9665.000000;0.945199
9664.000000;0.945293
9663.000000;0.947114
9662.000000;0.949305
9661.000000;0.949969
9660.000000;0.948770
9659.000000;0.947068
9658.000000;0.946050
9657.000000;0.945542
9656.000000;0.944795
9655.000000;0.943747
9654.000000;0.942987
9653.000000;0.942832
9652.000000;0.942986
9651.000000;0.943010
9650.000000;0.942742
9649.000000;0.942289
9648.000000;0.941854
9647.000000;0.941564
9646.000000;0.941294
9645.000000;0.940788
9644.000000;0.940091
9643.000000;0.939642
9642.000000;0.939684
9641.000000;0.939813
9640.000000;0.939472
9639.000000;0.938786
9638.000000;0.938452
9637.000000;0.938773
9636.000000;0.939202
9635.000000;0.939039
9634.000000;0.938292
9633.000000;0.937606
9632.000000;0.937465
9631.000000;0.937740
9630.000000;0.937942
9629.000000;0.937698
9628.000000;0.936954
9627.000000;0.935899
9626.000000;0.934833
9625.000000;0.934066
9624.000000;0.933764
9623.000000;0.933848
9622.000000;0.934072
9621.000000;0.934261
9620.000000;0.934413
9619.000000;0.934573
9618.000000;0.934708
9617.000000;0.934746
9616.000000;0.934629
9615.000000;0.934279
9614.000000;0.933668
9613.000000;0.932988
9612.000000;0.932525
9611.000000;0.932173
9610.000000;0.931335
9609.000000;0.929729
9608.000000;0.928160
9607.000000;0.927950
9606.000000;0.929517
9605.000000;0.931882
9604.000000;0.933707
9603.000000;0.934428
9602.000000;0.934162
9601.000000;0.932989
9600.000000;0.930920
9599.000000;0.928420
9598.000000;0.926373
9597.000000;0.925383
9596.000000;0.925323
9595.000000;0.925633
9594.000000;0.925864
9593.000000;0.925906
9592.000000;0.925902
9591.000000;0.926009
9590.000000;0.926142
9589.000000;0.926024
9588.000000;0.925597
9587.000000;0.925296
9586.000000;0.925685
9585.000000;0.926749
9584.000000;0.927685
9583.000000;0.927534
9582.000000;0.926085
9581.000000;0.924189
9580.000000;0.923127
9579.000000;0.923491
9578.000000;0.924589
9577.000000;0.925095
9576.000000;0.924434
9575.000000;0.923337
9574.000000;0.922832
9573.000000;0.922970
9572.000000;0.922929
9571.000000;0.922216
9570.000000;0.921212
9569.000000;0.920435
9568.000000;0.919804
9567.000000;0.918971
9566.000000;0.918058
9565.000000;0.917591
9564.000000;0.917746
9563.000000;0.918083
9562.000000;0.918145
9561.000000;0.918063
9560.000000;0.918336
9559.000000;0.919100
9558.000000;0.919820
9557.000000;0.919758
9556.000000;0.918719
9555.000000;0.917268
9554.000000;0.916184
9553.000000;0.915748
9552.000000;0.915629
9551.000000;0.915436
9550.000000;0.915219
9549.000000;0.915280
9548.000000;0.915539
9547.000000;0.915346
9546.000000;0.914160
9545.000000;0.912309
9544.000000;0.910803
9543.000000;0.910396
9542.000000;0.910960
9541.000000;0.911729
9540.000000;0.911998
9539.000000;0.911571
9538.000000;0.910827
9537.000000;0.910505
9536.000000;0.911135
9535.000000;0.912367
9534.000000;0.913023
9533.000000;0.912197
9532.000000;0.910282
9531.000000;0.908545
9530.000000;0.907754
9529.000000;0.907627
9528.000000;0.907601
9527.000000;0.907621
9526.000000;0.907938
9525.000000;0.908587
9524.000000;0.909376
9523.000000;0.910064
9522.000000;0.910201
9521.000000;0.909198
9520.000000;0.907124
9519.000000;0.905233
9518.000000;0.904989
9517.000000;0.906488
9516.000000;0.908335
9515.000000;0.909224
9514.000000;0.909176
9513.000000;0.909004
9512.000000;0.909080
9511.000000;0.909117
9510.000000;0.908900
9509.000000;0.908680
9508.000000;0.908777
9507.000000;0.909106
9506.000000;0.909245
9505.000000;0.908884
9504.000000;0.908125
9503.000000;0.907358
9502.000000;0.906815
9501.000000;0.906271
9500.000000;0.905330
9499.000000;0.904036
9498.000000;0.902987
9497.000000;0.902691
9496.000000;0.902960
9495.000000;0.903145
9494.000000;0.902904
9493.000000;0.902529
9492.000000;0.902548
9491.000000;0.903165
9490.000000;0.904048
9489.000000;0.904508
9488.000000;0.903986
9487.000000;0.902627
9486.000000;0.901281
9485.000000;0.900678
9484.000000;0.900609
9483.000000;0.900226
9482.000000;0.899180
9481.000000;0.898043
9480.000000;0.897459
9479.000000;0.897328
9478.000000;0.897111
9477.000000;0.896654
9476.000000;0.896328
9475.000000;0.896506
9474.000000;0.897258
9473.000000;0.898415
9472.000000;0.899510
9471.000000;0.899741
9470.000000;0.898544
9469.000000;0.896381
9468.000000;0.894562
9467.000000;0.894040
9466.000000;0.894638
9465.000000;0.895529
9464.000000;0.896126
9463.000000;0.896263
9462.000000;0.895913
9461.000000;0.895211
9460.000000;0.894607
9459.000000;0.894468
9458.000000;0.894469
9457.000000;0.893790
9456.000000;0.892161
9455.000000;0.890424
9454.000000;0.889727
9453.000000;0.890266
9452.000000;0.891094
9451.000000;0.891262
9450.000000;0.890908
9449.000000;0.890947
9448.000000;0.891819
9447.000000;0.892906
9446.000000;0.893307
9445.000000;0.892875
9444.000000;0.892186
9443.000000;0.891684
9442.000000;0.891337
9441.000000;0.891075
9440.000000;0.891057
9439.000000;0.891296
9438.000000;0.891417
9437.000000;0.891063
9436.000000;0.890339
9435.000000;0.889613
9434.000000;0.889089
9433.000000;0.888776
9432.000000;0.888658
9431.000000;0.888643
9430.000000;0.888520
9429.000000;0.888216
9428.000000;0.887957
9427.000000;0.887929
9426.000000;0.887961
9425.000000;0.887808
9424.000000;0.887557
9423.000000;0.887453
9422.000000;0.887480
9421.000000;0.887451
9420.000000;0.887376
9419.000000;0.887351
9418.000000;0.887223
9417.000000;0.886759
9416.000000;0.886087
9415.000000;0.885550
9414.000000;0.885181
9413.000000;0.884760
9412.000000;0.884396
9411.000000;0.884510
9410.000000;0.885096
9409.000000;0.885502
9408.000000;0.885209
9407.000000;0.884458
9406.000000;0.883787
9405.000000;0.883313
9404.000000;0.882835
9403.000000;0.882383
9402.000000;0.882241
9401.000000;0.882490
9400.000000;0.882812
9399.000000;0.882775
9398.000000;0.882204
9397.000000;0.881325
9396.000000;0.880627
9395.000000;0.880439
9394.000000;0.880573
9393.000000;0.880555
9392.000000;0.880277
9391.000000;0.880147
9390.000000;0.880439
9389.000000;0.880809
9388.000000;0.880713
9387.000000;0.880103
9386.000000;0.879430
9385.000000;0.879087
9384.000000;0.879099
9383.000000;0.879236
9382.000000;0.879189
9381.000000;0.878796
9380.000000;0.878252
9379.000000;0.877927
9378.000000;0.877821
9377.000000;0.877506
9376.000000;0.876840
9375.000000;0.876374
9374.000000;0.876624
9373.000000;0.877224
9372.000000;0.877400
9371.000000;0.877160
9370.000000;0.877329
9369.000000;0.878304
9368.000000;0.879365
9367.000000;0.879493
9366.000000;0.878456
9365.000000;0.876799
9364.000000;0.875125
9363.000000;0.873820
9362.000000;0.873230
9361.000000;0.873579
9360.000000;0.874640
9359.000000;0.875777
9358.000000;0.876426
9357.000000;0.876441
9356.000000;0.876048
9355.000000;0.875602
9354.000000;0.875373
9353.000000;0.875372
9352.000000;0.875339
9351.000000;0.874938
9350.000000;0.873989
9349.000000;0.872549
9348.000000;0.870909
9347.000000;0.869568
9346.000000;0.869052
9345.000000;0.869497
9344.000000;0.870436
9343.000000;0.871181
9342.000000;0.871462
9341.000000;0.871587
9340.000000;0.871945
9339.000000;0.872476
9338.000000;0.872733
9337.000000;0.872410
9336.000000;0.871670
9335.000000;0.870964
9334.000000;0.870598
9333.000000;0.870532
9332.000000;0.870530
9331.000000;0.870418
9330.000000;0.870206
9329.000000;0.870029
9328.000000;0.870018
9327.000000;0.870135
9326.000000;0.870122
9325.000000;0.869686
9324.000000;0.868821
9323.000000;0.867917
9322.000000;0.867434
9321.000000;0.867460
9320.000000;0.867668
9319.000000;0.867731
9318.000000;0.867665
9317.000000;0.867667
9316.000000;0.867716
9315.000000;0.867533
9314.000000;0.867007
9313.000000;0.866451
9312.000000;0.866255
9311.000000;0.866319
9310.000000;0.866063
9309.000000;0.865094
9308.000000;0.863746
9307.000000;0.862785
9306.000000;0.862634
9305.000000;0.863067
9304.000000;0.863607
9303.000000;0.863999
9302.000000;0.864230
9301.000000;0.864338
9300.000000;0.864362
9299.000000;0.864413
9298.000000;0.864610
9297.000000;0.864926
9296.000000;0.865164
9295.000000;0.865112
9294.000000;0.864665
9293.000000;0.863844
9292.000000;0.862789
9291.000000;0.861759
9290.000000;0.861047
9289.000000;0.860848
9288.000000;0.861155
9287.000000;0.861733
9286.000000;0.862156
9285.000000;0.861982
9284.000000;0.861053
9283.000000;0.859715
9282.000000;0.858684
9281.000000;0.858544
9280.000000;0.859241
9279.000000;0.860071
9278.000000;0.860268
9277.000000;0.859694
9276.000000;0.858864
9275.000000;0.858298
9274.000000;0.858019
9273.000000;0.857792
9272.000000;0.857607
9271.000000;0.857626
9270.000000;0.857775
9269.000000;0.857780
9268.000000;0.857664
9267.000000;0.857834
9266.000000;0.858485
9265.000000;0.859184
9264.000000;0.859308
9263.000000;0.858752
9262.000000;0.857968
9261.000000;0.857438
9260.000000;0.857301
9259.000000;0.857426
9258.000000;0.857587
9257.000000;0.857577
9256.000000;0.857317
9255.000000;0.856878
9254.000000;0.856332
9253.000000;0.855673
9252.000000;0.854974
9251.000000;0.854457
9250.000000;0.854240
9249.000000;0.854123
9248.000000;0.853837
9247.000000;0.853434
9246.000000;0.853228
9245.000000;0.853405
9244.000000;0.853883
9243.000000;0.854485
9242.000000;0.855016
9241.000000;0.855229
9240.000000;0.855035
9239.000000;0.854767
9238.000000;0.854934
9237.000000;0.855605
9236.000000;0.856210
9235.000000;0.856068
9234.000000;0.854998
9233.000000;0.853424
9232.000000;0.852060
9231.000000;0.851520
9230.000000;0.851933
9229.000000;0.852781
9228.000000;0.853271
9227.000000;0.853023
9226.000000;0.852297
9225.000000;0.851537
9224.000000;0.850957
9223.000000;0.850670
9222.000000;0.850869
9221.000000;0.851572
9220.000000;0.852353
9219.000000;0.852638
9218.000000;0.852260
9217.000000;0.851485
9216.000000;0.850556
9215.000000;0.849502
9214.000000;0.848468
9213.000000;0.847920
9212.000000;0.848274
9211.000000;0.849374
9210.000000;0.850523
9209.000000;0.851090
9208.000000;0.851053
9207.000000;0.850909
9206.000000;0.851094
9205.000000;0.851547
9204.000000;0.851860
9203.000000;0.851762
9202.000000;0.851331
9201.000000;0.850803
9200.000000;0.850302
9199.000000;0.849822
9198.000000;0.849322
9197.000000;0.848743
9196.000000;0.848033
9195.000000;0.847282
9194.000000;0.846803
9193.000000;0.846918
9192.000000;0.847597
9191.000000;0.848371
9190.000000;0.848669
9189.000000;0.848284
9188.000000;0.847508
9187.000000;0.846839
9186.000000;0.846566
9185.000000;0.846628
9184.000000;0.846797
9183.000000;0.846881
9182.000000;0.846731
9181.000000;0.846206
9180.000000;0.845298
9179.000000;0.844273
9178.000000;0.843496
9177.000000;0.843087
9176.000000;0.842878
9175.000000;0.842780
9174.000000;0.843021
9173.000000;0.843824
9172.000000;0.844959
9171.000000;0.845793
9170.000000;0.845845
9169.000000;0.845152
9168.000000;0.844111
9167.000000;0.843120
9166.000000;0.842433
9165.000000;0.842195
9164.000000;0.842420
9163.000000;0.842911
9162.000000;0.843355
9161.000000;0.843530
9160.000000;0.843369
9159.000000;0.842834
9158.000000;0.841896
9157.000000;0.840739
9156.000000;0.839809
9155.000000;0.839449
9154.000000;0.839519
9153.000000;0.839628
9152.000000;0.839735
9151.000000;0.840238
9150.000000;0.841358
9149.000000;0.842672
9148.000000;0.843445
9147.000000;0.843291
9146.000000;0.842387
9145.000000;0.841254
9144.000000;0.840519
9143.000000;0.840619
9142.000000;0.841377
9141.000000;0.841967
9140.000000;0.841700
9139.000000;0.840830
9138.000000;0.840209
9137.000000;0.840179
9136.000000;0.840235
9135.000000;0.839879
9134.000000;0.839354
9133.000000;0.839257
9132.000000;0.839747
9131.000000;0.840427
9130.000000;0.840836
9129.000000;0.840787
9128.000000;0.840363
9127.000000;0.839836
9126.000000;0.839485
9125.000000;0.839330
9124.000000;0.839120
9123.000000;0.838714
9122.000000;0.838318
9121.000000;0.838174
9120.000000;0.838205
9119.000000;0.838206
9118.000000;0.838184
9117.000000;0.838259
9116.000000;0.838321
9115.000000;0.838105
9114.000000;0.837601
9113.000000;0.837107
9112.000000;0.836861
9111.000000;0.836868
9110.000000;0.837101
9109.000000;0.837602
9108.000000;0.838248
9107.000000;0.838658
9106.000000;0.838496
9105.000000;0.837804
9104.000000;0.836901
9103.000000;0.836053
9102.000000;0.835326
9101.000000;0.834718
9100.000000;0.834333
9099.000000;0.834386
9098.000000;0.835017
9097.000000;0.836042
9096.000000;0.836939
9095.000000;0.837205
9094.000000;0.836743
9093.000000;0.835872
9092.000000;0.834961
9091.000000;0.834182
9090.000000;0.833596
9089.000000;0.833331
9088.000000;0.833560
9087.000000;0.834300
9086.000000;0.835304
9085.000000;0.836205
9084.000000;0.836787
9083.000000;0.837066
9082.000000;0.837090
9081.000000;0.836780
9080.000000;0.836102
9079.000000;0.835328
9078.000000;0.834861
9077.000000;0.834706
9076.000000;0.834345
9075.000000;0.833356
9074.000000;0.832042
9073.000000;0.831207
9072.000000;0.831333
9071.000000;0.832143
9070.000000;0.832948
9069.000000;0.833268
9068.000000;0.833125
9067.000000;0.832863
9066.000000;0.832753
9065.000000;0.832760
9064.000000;0.832700
9063.000000;0.832582
9062.000000;0.832601
9061.000000;0.832729
9060.000000;0.832561
9059.000000;0.831818
9058.000000;0.830848
9057.000000;0.830308
9056.000000;0.830379
9055.000000;0.830569
9054.000000;0.830316
9053.000000;0.829555
