Criado como novo conjunto de dados;"e0108.spp","-4240962.7 Secs"
cm-1;Abs
10000.000000;0.983438
9999.000000;0.984385
9998.000000;0.985129
9997.000000;0.985206
9996.000000;0.984425
9995.000000;0.983239
9994.000000;0.982377
9993.000000;0.982176
9992.000000;0.982456
9991.000000;0.982915
9990.000000;0.983243
9989.000000;0.982970
9988.000000;0.981736
9987.000000;0.979891
9986.000000;0.978470
9985.000000;0.978244
9984.000000;0.978946
9983.000000;0.979621
9982.000000;0.979632
9981.000000;0.979088
9980.000000;0.978427
9979.000000;0.977898
9978.000000;0.977519
9977.000000;0.977300
9976.000000;0.977353
9975.000000;0.977814
9974.000000;0.978616
9973.000000;0.979317
9972.000000;0.979270
9971.000000;0.978222
9970.000000;0.976727
9969.000000;0.975756
9968.000000;0.975778
9967.000000;0.976392
9966.000000;0.976884
9965.000000;0.976903
9964.000000;0.976523
9963.000000;0.975932
9962.000000;0.975301
9961.000000;0.974766
9960.000000;0.974282
9959.000000;0.973585
9958.000000;0.972510
9957.000000;0.971336
9956.000000;0.970550
9955.000000;0.970255
9954.000000;0.970052
9953.000000;0.969560
9952.000000;0.968823
9951.000000;0.968112
9950.000000;0.967571
9949.000000;0.967196
9948.000000;0.966999
9947.000000;0.967033
9946.000000;0.967308
9945.000000;0.967751
9944.000000;0.968155
9943.000000;0.968143
9942.000000;0.967383
9941.000000;0.965983
9940.000000;0.964535
9939.000000;0.963591
9938.000000;0.963224
9937.000000;0.963215
9936.000000;0.963465
9935.000000;0.963913
9934.000000;0.964227
9933.000000;0.964031
9932.000000;0.963556
9931.000000;0.963691
9930.000000;0.965042
9929.000000;0.967058
9928.000000;0.968370
9927.000000;0.968016
9926.000000;0.966195
9925.000000;0.963838
9924.000000;0.961741
9923.000000;0.960232
9922.000000;0.959409
9921.000000;0.959299
9920.000000;0.959732
9919.000000;0.960311
9918.000000;0.960691
9917.000000;0.960773
9916.000000;0.960506
9915.000000;0.959689
9914.000000;0.958226
9913.000000;0.956489
9912.000000;0.955101
9911.000000;0.954371
9910.000000;0.954173
9909.000000;0.954318
9908.000000;0.954735
9907.000000;0.955214
9906.000000;0.955346
9905.000000;0.954931
9904.000000;0.954160
9903.000000;0.953184
9902.000000;0.951893
9901.000000;0.950439
9900.000000;0.949566
9899.000000;0.949884
9898.000000;0.950966
9897.000000;0.951692
9896.000000;0.951530
9895.000000;0.950951
9894.000000;0.950502
9893.000000;0.950089
9892.000000;0.949415
9891.000000;0.948598
9890.000000;0.947920
9889.000000;0.947367
9888.000000;0.946891
9887.000000;0.946857
9886.000000;0.947662
9885.000000;0.948896
9884.000000;0.949432
9883.000000;0.948525
9882.000000;0.946570
9881.000000;0.944613
9880.000000;0.943422
9879.000000;0.943208
9878.000000;0.943943
9877.000000;0.945526
9876.000000;0.947590
9875.000000;0.949399
9874.000000;0.950235
9873.000000;0.949940
9872.000000;0.948983
9871.000000;0.947960
9870.000000;0.947052
9869.000000;0.946018
9868.000000;0.944632
9867.000000;0.942974
9866.000000;0.941278
9865.000000;0.939743
9864.000000;0.938576
9863.000000;0.938029
9862.000000;0.938144
9861.000000;0.938541
9860.000000;0.938734
9859.000000;0.938707
9858.000000;0.938956
9857.000000;0.939802
9856.000000;0.940802
9855.000000;0.941064
9854.000000;0.940129
9853.000000;0.938446
9852.000000;0.936956
9851.000000;0.936358
9850.000000;0.936669
9849.000000;0.937307
9848.000000;0.937548
9847.000000;0.937008
9846.000000;0.935827
9845.000000;0.934430
9844.000000;0.933186
9843.000000;0.932327
9842.000000;0.932026
9841.000000;0.932279
9840.000000;0.932664
9839.000000;0.932469
9838.000000;0.931376
9837.000000;0.930035
9836.000000;0.929643
9835.000000;0.930775
9834.000000;0.932764
9833.000000;0.934290
9832.000000;0.934538
9831.000000;0.933734
9830.000000;0.932694
9829.000000;0.931973
9828.000000;0.931453
9827.000000;0.930630
9826.000000;0.929276
9825.000000;0.927809
9824.000000;0.926977
9823.000000;0.927124
9822.000000;0.927815
9821.000000;0.928250
9820.000000;0.927983
9819.000000;0.927201
9818.000000;0.926386
9817.000000;0.925853
9816.000000;0.925564
9815.000000;0.925240
9814.000000;0.924607
9813.000000;0.923607
9812.000000;0.922421
9811.000000;0.921317
9810.000000;0.920584
9809.000000;0.920611
9808.000000;0.921774
9807.000000;0.923964
9806.000000;0.926312
9805.000000;0.927711
9804.000000;0.927738
9803.000000;0.926843
9802.000000;0.925620
9801.000000;0.924207
9800.000000;0.922537
9799.000000;0.920818
9798.000000;0.919429
9797.000000;0.918483
9796.000000;0.917865
9795.000000;0.917611
9794.000000;0.917897
9793.000000;0.918602
9792.000000;0.919194
9791.000000;0.919206
9790.000000;0.918647
9789.000000;0.917807
9788.000000;0.916869
9787.000000;0.915896
9786.000000;0.915074
9785.000000;0.914734
9784.000000;0.915088
9783.000000;0.916001
9782.000000;0.916983
9781.000000;0.917377
9780.000000;0.916721
9779.000000;0.915150
9778.000000;0.913433
9777.000000;0.912440
9776.000000;0.912475
9775.000000;0.913122
9774.000000;0.913681
9773.000000;0.913726
9772.000000;0.913340
9771.000000;0.912994
9770.000000;0.913169
9769.000000;0.913846
9768.000000;0.914294
9767.000000;0.913633
9766.000000;0.911830
9765.000000;0.909946
9764.000000;0.909138
9763.000000;0.909488
9762.000000;0.910053
9761.000000;0.909977
9760.000000;0.909348
9759.000000;0.908856
9758.000000;0.908881
9757.000000;0.909118
9756.000000;0.909026
9755.000000;0.908463
9754.000000;0.907810
9753.000000;0.907521
9752.000000;0.907636
9751.000000;0.907785
9750.000000;0.907622
9749.000000;0.907138
9748.000000;0.906507
9747.000000;0.905790
9746.000000;0.904993
9745.000000;0.904331
9744.000000;0.904143
9743.000000;0.904451
9742.000000;0.904811
9741.000000;0.904736
9740.000000;0.904181
9739.000000;0.903470
9738.000000;0.902857
9737.000000;0.902351
9736.000000;0.901876
9735.000000;0.901410
9734.000000;0.900939
9733.000000;0.900421
9732.000000;0.899850
9731.000000;0.899292
9730.000000;0.898790
9729.000000;0.898281
9728.000000;0.897702
9727.000000;0.897152
9726.000000;0.896834
9725.000000;0.896786
9724.000000;0.896754
9723.000000;0.896447
9722.000000;0.895910
9721.000000;0.895483
9720.000000;0.895368
9719.000000;0.895392
9718.000000;0.895340
9717.000000;0.895358
9716.000000;0.895799
9715.000000;0.896656
9714.000000;0.897389
9713.000000;0.897415
9712.000000;0.896689
9711.000000;0.895722
9710.000000;0.895107
9709.000000;0.895042
9708.000000;0.895246
9707.000000;0.895298
9706.000000;0.895054
9705.000000;0.894716
9704.000000;0.894430
9703.000000;0.893933
9702.000000;0.892812
9701.000000;0.891118
9700.000000;0.889467
9699.000000;0.888457
9698.000000;0.888214
9697.000000;0.888521
9696.000000;0.889141
9695.000000;0.889875
9694.000000;0.890456
9693.000000;0.890632
9692.000000;0.890315
9691.000000;0.889598
9690.000000;0.888686
9689.000000;0.887791
9688.000000;0.886962
9687.000000;0.886034
9686.000000;0.884944
9685.000000;0.884061
9684.000000;0.883874
9683.000000;0.884308
9682.000000;0.884704
9681.000000;0.884682
9680.000000;0.884661
9679.000000;0.885185
9678.000000;0.886032
9677.000000;0.886413
9676.000000;0.885933
9675.000000;0.884944
9674.000000;0.883992
9673.000000;0.883321
9672.000000;0.882937
9671.000000;0.882789
9670.000000;0.882741
9669.000000;0.882592
9668.000000;0.882250
9667.000000;0.881739
9666.000000;0.881044
9665.000000;0.880118
9664.000000;0.879116
9663.000000;0.878429
9662.000000;0.878422
9661.000000;0.879176
9660.000000;0.880446
9659.000000;0.881716
9658.000000;0.882342
9657.000000;0.881912
9656.000000;0.880564
9655.000000;0.878841
9654.000000;0.877267
9653.000000;0.876174
9652.000000;0.875779
9651.000000;0.876094
9650.000000;0.876718
9649.000000;0.877035
9648.000000;0.876801
9647.000000;0.876385
9646.000000;0.876310
9645.000000;0.876681
9644.000000;0.877133
9643.000000;0.877216
9642.000000;0.876782
9641.000000;0.876061
9640.000000;0.875438
9639.000000;0.875048
9638.000000;0.874620
9637.000000;0.873833
9636.000000;0.872776
9635.000000;0.871904
9634.000000;0.871486
9633.000000;0.871290
9632.000000;0.870896
9631.000000;0.870171
9630.000000;0.869357
9629.000000;0.868830
9628.000000;0.868838
9627.000000;0.869314
9626.000000;0.869873
9625.000000;0.870111
9624.000000;0.869935
9623.000000;0.869511
9622.000000;0.868953
9621.000000;0.868308
9620.000000;0.867833
9619.000000;0.867910
9618.000000;0.868455
9617.000000;0.868731
9616.000000;0.868112
9615.000000;0.866919
9614.000000;0.866131
9613.000000;0.866227
9612.000000;0.866607
9611.000000;0.866285
9610.000000;0.865008
9609.000000;0.863517
9608.000000;0.862750
9607.000000;0.862959
9606.000000;0.863688
9605.000000;0.864432
9604.000000;0.865087
9603.000000;0.865671
9602.000000;0.865929
9601.000000;0.865544
9600.000000;0.864722
9599.000000;0.864200
9598.000000;0.864523
9597.000000;0.865470
9596.000000;0.866284
9595.000000;0.866325
9594.000000;0.865446
9593.000000;0.863955
9592.000000;0.862429
9591.000000;0.861435
9590.000000;0.861196
9589.000000;0.861499
9588.000000;0.861927
9587.000000;0.862137
9586.000000;0.861915
9585.000000;0.861212
9584.000000;0.860295
9583.000000;0.859700
9582.000000;0.859779
9581.000000;0.860283
9580.000000;0.860538
9579.000000;0.860073
9578.000000;0.858992
9577.000000;0.857728
9576.000000;0.856568
9575.000000;0.855481
9574.000000;0.854380
9573.000000;0.853479
9572.000000;0.853218
9571.000000;0.853733
9570.000000;0.854491
9569.000000;0.854700
9568.000000;0.854142
9567.000000;0.853362
9566.000000;0.852925
9565.000000;0.852741
9564.000000;0.852363
9563.000000;0.851718
9562.000000;0.851182
9561.000000;0.850968
9560.000000;0.850820
9559.000000;0.850413
9558.000000;0.849843
9557.000000;0.849542
9556.000000;0.849806
9555.000000;0.850554
9554.000000;0.851467
9553.000000;0.852231
9552.000000;0.852593
9551.000000;0.852353
9550.000000;0.851466
9549.000000;0.850193
9548.000000;0.849011
9547.000000;0.848229
9546.000000;0.847726
9545.000000;0.847202
9544.000000;0.846629
9543.000000;0.846295
9542.000000;0.846375
9541.000000;0.846692
9540.000000;0.846954
9539.000000;0.847057
9538.000000;0.847004
9537.000000;0.846701
9536.000000;0.846093
9535.000000;0.845394
9534.000000;0.844931
9533.000000;0.844801
9532.000000;0.844833
9531.000000;0.844843
9530.000000;0.844706
9529.000000;0.844293
9528.000000;0.843585
9527.000000;0.842908
9526.000000;0.842776
9525.000000;0.843337
9524.000000;0.844119
9523.000000;0.844449
9522.000000;0.844047
9521.000000;0.843139
9520.000000;0.842180
9519.000000;0.841578
9518.000000;0.841541
9517.000000;0.841963
9516.000000;0.842487
9515.000000;0.842826
9514.000000;0.843021
9513.000000;0.843261
9512.000000;0.843461
9511.000000;0.843235
9510.000000;0.842360
9509.000000;0.841139
9508.000000;0.840147
9507.000000;0.839648
9506.000000;0.839368
9505.000000;0.838878
9504.000000;0.838093
9503.000000;0.837361
9502.000000;0.837063
9501.000000;0.837216
9500.000000;0.837509
9499.000000;0.837650
9498.000000;0.837609
9497.000000;0.837527
9496.000000;0.837478
9495.000000;0.837399
9494.000000;0.837199
9493.000000;0.836869
9492.000000;0.836512
9491.000000;0.836292
9490.000000;0.836318
9489.000000;0.836462
9488.000000;0.836286
9487.000000;0.835355
9486.000000;0.833796
9485.000000;0.832464
9484.000000;0.832315
9483.000000;0.833484
9482.000000;0.835073
9481.000000;0.835945
9480.000000;0.835711
9479.000000;0.834860
9478.000000;0.834041
9477.000000;0.833448
9476.000000;0.832955
9475.000000;0.832592
9474.000000;0.832619
9473.000000;0.833037
9472.000000;0.833258
9471.000000;0.832537
9470.000000;0.830841
9469.000000;0.829084
9468.000000;0.828301
9467.000000;0.828634
9466.000000;0.829293
9465.000000;0.829533
9464.000000;0.829392
9463.000000;0.829360
9462.000000;0.829570
9461.000000;0.829634
9460.000000;0.829240
9459.000000;0.828612
9458.000000;0.828233
9457.000000;0.828298
9456.000000;0.828610
9455.000000;0.828905
9454.000000;0.829104
9453.000000;0.829240
9452.000000;0.829266
9451.000000;0.829028
9450.000000;0.828392
9449.000000;0.827401
9448.000000;0.826331
9447.000000;0.825586
9446.000000;0.825458
9445.000000;0.825908
9444.000000;0.826567
9443.000000;0.826964
9442.000000;0.826804
9441.000000;0.826081
9440.000000;0.825033
9439.000000;0.824071
9438.000000;0.823634
9437.000000;0.823868
9436.000000;0.824401
9435.000000;0.824629
9434.000000;0.824334
9433.000000;0.823874
9432.000000;0.823636
9431.000000;0.823494
9430.000000;0.823083
9429.000000;0.822446
9428.000000;0.822018
9427.000000;0.821994
9426.000000;0.822121
9425.000000;0.822186
9424.000000;0.822309
9423.000000;0.822594
9422.000000;0.822862
9421.000000;0.822963
9420.000000;0.823039
9419.000000;0.823153
9418.000000;0.822964
9417.000000;0.822150
9416.000000;0.820981
9415.000000;0.820075
9414.000000;0.819693
9413.000000;0.819617
9412.000000;0.819612
9411.000000;0.819638
9410.000000;0.819635
9409.000000;0.819461
9408.000000;0.819122
9407.000000;0.818819
9406.000000;0.818729
9405.000000;0.818885
9404.000000;0.819228
9403.000000;0.819559
9402.000000;0.819530
9401.000000;0.818942
9400.000000;0.817980
9399.000000;0.816942
9398.000000;0.815885
9397.000000;0.814835
9396.000000;0.814149
9395.000000;0.814187
9394.000000;0.814690
9393.000000;0.814996
9392.000000;0.814922
9391.000000;0.814926
9390.000000;0.815262
9389.000000;0.815510
9388.000000;0.815157
9387.000000;0.814280
9386.000000;0.813395
9385.000000;0.812899
9384.000000;0.812850
9383.000000;0.812992
9382.000000;0.812860
9381.000000;0.812177
9380.000000;0.811304
9379.000000;0.810971
9378.000000;0.811405
9377.000000;0.812101
9376.000000;0.812619
9375.000000;0.813130
9374.000000;0.813873
9373.000000;0.814518
9372.000000;0.814560
9371.000000;0.814049
9370.000000;0.813487
9369.000000;0.813163
9368.000000;0.812972
9367.000000;0.812712
9366.000000;0.812190
9365.000000;0.811201
9364.000000;0.809781
9363.000000;0.808389
9362.000000;0.807521
9361.000000;0.807252
9360.000000;0.807423
9359.000000;0.808070
9358.000000;0.809241
9357.000000;0.810503
9356.000000;0.811075
9355.000000;0.810585
9354.000000;0.809430
9353.000000;0.808374
9352.000000;0.807931
9351.000000;0.808042
9350.000000;0.808105
9349.000000;0.807433
9348.000000;0.805980
9347.000000;0.804505
9346.000000;0.803811
9345.000000;0.803943
9344.000000;0.804352
9343.000000;0.804610
9342.000000;0.804626
9341.000000;0.804415
9340.000000;0.804137
9339.000000;0.804199
9338.000000;0.804777
9337.000000;0.805297
9336.000000;0.804951
9335.000000;0.803803
9334.000000;0.802841
9333.000000;0.802796
9332.000000;0.803368
9331.000000;0.803781
9330.000000;0.803654
9329.000000;0.803104
9328.000000;0.802357
9327.000000;0.801611
9326.000000;0.801048
9325.000000;0.800718
9324.000000;0.800554
9323.000000;0.800593
9322.000000;0.800955
9321.000000;0.801487
9320.000000;0.801723
9319.000000;0.801425
9318.000000;0.800930
9317.000000;0.800723
9316.000000;0.800853
9315.000000;0.800978
9314.000000;0.800813
9313.000000;0.800306
9312.000000;0.799539
9311.000000;0.798723
9310.000000;0.798189
9309.000000;0.798145
9308.000000;0.798423
9307.000000;0.798652
9306.000000;0.798656
9305.000000;0.798601
9304.000000;0.798754
9303.000000;0.799206
9302.000000;0.799775
9301.000000;0.800111
9300.000000;0.799901
9299.000000;0.799090
9298.000000;0.797944
9297.000000;0.796940
9296.000000;0.796553
9295.000000;0.796958
9294.000000;0.797739
9293.000000;0.798055
9292.000000;0.797402
9291.000000;0.796255
9290.000000;0.795648
9289.000000;0.796027
9288.000000;0.796776
9287.000000;0.796970
9286.000000;0.796371
9285.000000;0.795491
9284.000000;0.794903
9283.000000;0.794760
9282.000000;0.794842
9281.000000;0.794840
9280.000000;0.794601
9279.000000;0.794233
9278.000000;0.793953
9277.000000;0.793781
9276.000000;0.793497
9275.000000;0.792997
9274.000000;0.792537
9273.000000;0.792460
9272.000000;0.792751
9271.000000;0.793048
9270.000000;0.793063
9269.000000;0.792893
9268.000000;0.792912
9267.000000;0.793370
9266.000000;0.794067
9265.000000;0.794400
9264.000000;0.793888
9263.000000;0.792685
9262.000000;0.791478
9261.000000;0.790840
9260.000000;0.790779
9259.000000;0.790930
9258.000000;0.790971
9257.000000;0.790753
9256.000000;0.790223
9255.000000;0.789470
9254.000000;0.788781
9253.000000;0.788497
9252.000000;0.788805
9251.000000;0.789652
9250.000000;0.790725
9249.000000;0.791428
9248.000000;0.791145
9247.000000;0.789786
9246.000000;0.788013
9245.000000;0.786741
9244.000000;0.786415
9243.000000;0.786845
9242.000000;0.787594
9241.000000;0.788337
9240.000000;0.788897
9239.000000;0.789175
9238.000000;0.789133
9237.000000;0.788808
9236.000000;0.788298
9235.000000;0.787758
9234.000000;0.787360
9233.000000;0.787169
9232.000000;0.787134
9231.000000;0.787237
9230.000000;0.787581
9229.000000;0.788218
9228.000000;0.788929
9227.000000;0.789302
9226.000000;0.789059
9225.000000;0.788309
9224.000000;0.787512
9223.000000;0.787171
9222.000000;0.787441
9221.000000;0.787949
9220.000000;0.788086
9219.000000;0.787532
9218.000000;0.786479
9217.000000;0.785330
9216.000000;0.784331
9215.000000;0.783586
9214.000000;0.783228
9213.000000;0.783367
9212.000000;0.783866
9211.000000;0.784336
9210.000000;0.784399
9209.000000;0.784004
9208.000000;0.783514
9207.000000;0.783448
9206.000000;0.783947
9205.000000;0.784466
9204.000000;0.784249
9203.000000;0.783212
9202.000000;0.782148
9201.000000;0.781863
9200.000000;0.782329
9199.000000;0.782892
9198.000000;0.783157
9197.000000;0.783289
9196.000000;0.783515
9195.000000;0.783741
9194.000000;0.783761
9193.000000;0.783554
9192.000000;0.783185
9191.000000;0.782607
9190.000000;0.781780
9189.000000;0.780903
9188.000000;0.780368
9187.000000;0.780422
9186.000000;0.780892
9185.000000;0.781248
9184.000000;0.781024
9183.000000;0.780267
9182.000000;0.779560
9181.000000;0.779450
9180.000000;0.779834
9179.000000;0.780038
9178.000000;0.779545
9177.000000;0.778546
9176.000000;0.777709
9175.000000;0.777518
9174.000000;0.777940
9173.000000;0.778611
9172.000000;0.779166
9171.000000;0.779393
9170.000000;0.779203
9169.000000;0.778585
9168.000000;0.777614
9167.000000;0.776474
9166.000000;0.775459
9165.000000;0.774924
9164.000000;0.775123
9163.000000;0.776001
9162.000000;0.777142
9161.000000;0.778030
9160.000000;0.778457
9159.000000;0.778602
9158.000000;0.778662
9157.000000;0.778512
9156.000000;0.777883
9155.000000;0.776837
9154.000000;0.775866
9153.000000;0.775501
9152.000000;0.775896
9151.000000;0.776795
9150.000000;0.777736
9149.000000;0.778259
9148.000000;0.778075
9147.000000;0.777211
9146.000000;0.775994
9145.000000;0.774880
9144.000000;0.774259
9143.000000;0.774302
9142.000000;0.774810
9141.000000;0.775236
9140.000000;0.775138
9139.000000;0.774690
9138.000000;0.774512
9137.000000;0.774892
9136.000000;0.775377
9135.000000;0.775362
9134.000000;0.774848
9133.000000;0.774357
9132.000000;0.774197
9131.000000;0.774134
9130.000000;0.773796
9129.000000;0.773148
9128.000000;0.772452
9127.000000;0.771988
9126.000000;0.771919
9125.000000;0.772319
9124.000000;0.773120
9123.000000;0.773993
9122.000000;0.774452
9121.000000;0.774204
9120.000000;0.773454
9119.000000;0.772742
9118.000000;0.772414
9117.000000;0.772302
9116.000000;0.772048
9115.000000;0.771645
9114.000000;0.771426
9113.000000;0.771520
9112.000000;0.771608
9111.000000;0.771338
9110.000000;0.770808
9109.000000;0.770442
9108.000000;0.770525
9107.000000;0.770966
9106.000000;0.771394
9105.000000;0.771407
9104.000000;0.770882
9103.000000;0.770206
9102.000000;0.770017
9101.000000;0.770528
9100.000000;0.771224
9099.000000;0.771425
9098.000000;0.771041
9097.000000;0.770555
9096.000000;0.770383
9095.000000;0.770490
9094.000000;0.770545
9093.000000;0.770246
9092.000000;0.769557
9091.000000;0.768867
9090.000000;0.768817
9089.000000;0.769684
9088.000000;0.770942
9087.000000;0.771716
9086.000000;0.771680
9085.000000;0.771210
9084.000000;0.770667
9083.000000;0.769955
9082.000000;0.768946
9081.000000;0.767980
9080.000000;0.767579
9079.000000;0.767816
9078.000000;0.768227
9077.000000;0.768335
9076.000000;0.768056
9075.000000;0.767589
9074.000000;0.767092
9073.000000;0.766533
9072.000000;0.765837
9071.000000;0.765112
9070.000000;0.764707
9069.000000;0.764974
9068.000000;0.765947
9067.000000;0.767266
9066.000000;0.768389
9065.000000;0.768878
9064.000000;0.768572
9063.000000;0.767675
9062.000000;0.766699
9061.000000;0.766132
9060.000000;0.766046
9059.000000;0.766072
9058.000000;0.765840
9057.000000;0.765395
9056.000000;0.765107
9055.000000;0.765231
9054.000000;0.765648
9053.000000;0.766022
