Criado como novo conjunto de dados;"e0108.spp","-4228002.1 Secs"
cm-1;Abs
10000.000000;1.896069
9999.000000;1.891546
9998.000000;1.884869
9997.000000;1.874742
9996.000000;1.865659
9995.000000;1.862056
9994.000000;1.863618
9993.000000;1.867535
9992.000000;1.872638
9991.000000;1.879615
9990.000000;1.887044
9989.000000;1.891500
9988.000000;1.892617
9987.000000;1.894810
9986.000000;1.901557
9985.000000;1.909523
9984.000000;1.910733
9983.000000;1.901814
9982.000000;1.888872
9981.000000;1.880896
9980.000000;1.880883
9979.000000;1.884536
9978.000000;1.886141
9977.000000;1.884923
9976.000000;1.884575
9975.000000;1.886967
9974.000000;1.888563
9973.000000;1.884529
9972.000000;1.875665
9971.000000;1.868273
9970.000000;1.866902
9969.000000;1.869707
9968.000000;1.871589
9967.000000;1.870633
9966.000000;1.869400
9965.000000;1.870357
9964.000000;1.872741
9963.000000;1.874436
9962.000000;1.875240
9961.000000;1.876959
9960.000000;1.880833
9959.000000;1.885485
9958.000000;1.886761
9957.000000;1.880280
9956.000000;1.866702
9955.000000;1.853886
9954.000000;1.850338
9953.000000;1.856148
9952.000000;1.862181
9951.000000;1.860705
9950.000000;1.855379
9949.000000;1.855173
9948.000000;1.861485
9947.000000;1.866995
9946.000000;1.866514
9945.000000;1.863630
9944.000000;1.863849
9943.000000;1.866623
9942.000000;1.867785
9941.000000;1.865904
9940.000000;1.862191
9939.000000;1.857302
9938.000000;1.852795
9937.000000;1.853179
9936.000000;1.861542
9935.000000;1.873890
9934.000000;1.881721
9933.000000;1.881283
9932.000000;1.876910
9931.000000;1.874669
9930.000000;1.876560
9929.000000;1.880798
9928.000000;1.884182
9927.000000;1.883176
9926.000000;1.875581
9925.000000;1.863132
9924.000000;1.850972
9923.000000;1.843653
9922.000000;1.842884
9921.000000;1.848111
9920.000000;1.856356
9919.000000;1.862318
9918.000000;1.862511
9917.000000;1.860029
9916.000000;1.861779
9915.000000;1.869793
9914.000000;1.877340
9913.000000;1.875419
9912.000000;1.862998
9911.000000;1.848162
9910.000000;1.839983
9909.000000;1.841705
9908.000000;1.849335
9907.000000;1.854962
9906.000000;1.853324
9905.000000;1.846127
9904.000000;1.838751
9903.000000;1.833681
9902.000000;1.829982
9901.000000;1.827946
9900.000000;1.829358
9899.000000;1.833179
9898.000000;1.835678
9897.000000;1.835534
9896.000000;1.836041
9895.000000;1.841164
9894.000000;1.850667
9893.000000;1.860648
9892.000000;1.867256
9891.000000;1.868074
9890.000000;1.862248
9889.000000;1.852306
9888.000000;1.844397
9887.000000;1.843098
9886.000000;1.846679
9885.000000;1.849316
9884.000000;1.847872
9883.000000;1.844729
9882.000000;1.843806
9881.000000;1.846848
9880.000000;1.853297
9879.000000;1.860602
9878.000000;1.864567
9877.000000;1.862438
9876.000000;1.856318
9875.000000;1.851219
9874.000000;1.849385
9873.000000;1.848627
9872.000000;1.846328
9871.000000;1.842556
9870.000000;1.838656
9869.000000;1.835200
9868.000000;1.832192
9867.000000;1.829693
9866.000000;1.827714
9865.000000;1.826434
9864.000000;1.826485
9863.000000;1.827959
9862.000000;1.829299
9861.000000;1.828707
9860.000000;1.826888
9859.000000;1.826646
9858.000000;1.829253
9857.000000;1.832615
9856.000000;1.833944
9855.000000;1.833285
9854.000000;1.833207
9853.000000;1.835805
9852.000000;1.840930
9851.000000;1.846567
9850.000000;1.850164
9849.000000;1.850017
9848.000000;1.846002
9847.000000;1.839246
9846.000000;1.831610
9845.000000;1.825536
9844.000000;1.823019
9843.000000;1.823607
9842.000000;1.824119
9841.000000;1.821418
9840.000000;1.815331
9839.000000;1.808926
9838.000000;1.806211
9837.000000;1.809018
9836.000000;1.815694
9835.000000;1.822145
9834.000000;1.824595
9833.000000;1.822787
9832.000000;1.820106
9831.000000;1.819716
9830.000000;1.821470
9829.000000;1.823302
9828.000000;1.824364
9827.000000;1.825104
9826.000000;1.825190
9825.000000;1.823619
9824.000000;1.820718
9823.000000;1.818277
9822.000000;1.817683
9821.000000;1.819288
9820.000000;1.823348
9819.000000;1.829636
9818.000000;1.835862
9817.000000;1.838699
9816.000000;1.836957
9815.000000;1.832489
9814.000000;1.828220
9813.000000;1.825986
9812.000000;1.825707
9811.000000;1.825503
9810.000000;1.823320
9809.000000;1.819829
9808.000000;1.818337
9807.000000;1.820461
9806.000000;1.823508
9805.000000;1.823707
9804.000000;1.820884
9803.000000;1.817801
9802.000000;1.815828
9801.000000;1.814406
9800.000000;1.814400
9799.000000;1.818103
9798.000000;1.824821
9797.000000;1.829502
9796.000000;1.827858
9795.000000;1.821099
9794.000000;1.813646
9793.000000;1.808461
9792.000000;1.806326
9791.000000;1.807091
9790.000000;1.809472
9789.000000;1.811019
9788.000000;1.810031
9787.000000;1.806838
9786.000000;1.802521
9785.000000;1.797862
9784.000000;1.794189
9783.000000;1.793178
9782.000000;1.794541
9781.000000;1.795567
9780.000000;1.794515
9779.000000;1.793048
9778.000000;1.793592
9777.000000;1.795818
9776.000000;1.797735
9775.000000;1.799369
9774.000000;1.802926
9773.000000;1.809075
9772.000000;1.814959
9771.000000;1.816784
9770.000000;1.813847
9769.000000;1.809332
9768.000000;1.806964
9767.000000;1.807138
9766.000000;1.806726
9765.000000;1.803265
9764.000000;1.798858
9763.000000;1.798045
9762.000000;1.801851
9761.000000;1.805993
9760.000000;1.805981
9759.000000;1.802431
9758.000000;1.799479
9757.000000;1.799749
9756.000000;1.802716
9755.000000;1.806638
9754.000000;1.810224
9753.000000;1.812598
9752.000000;1.812953
9751.000000;1.810673
9750.000000;1.805440
9749.000000;1.797564
9748.000000;1.788791
9747.000000;1.781840
9746.000000;1.778250
9745.000000;1.777459
9744.000000;1.778387
9743.000000;1.780785
9742.000000;1.784338
9741.000000;1.787644
9740.000000;1.789362
9739.000000;1.789902
9738.000000;1.791168
9737.000000;1.794765
9736.000000;1.800569
9735.000000;1.806433
9734.000000;1.809200
9733.000000;1.807315
9732.000000;1.802758
9731.000000;1.798946
9730.000000;1.796755
9729.000000;1.794240
9728.000000;1.790420
9727.000000;1.787096
9726.000000;1.785646
9725.000000;1.784476
9724.000000;1.781787
9723.000000;1.778849
9722.000000;1.777977
9721.000000;1.778752
9720.000000;1.779045
9719.000000;1.778963
9718.000000;1.780763
9717.000000;1.784985
9716.000000;1.789403
9715.000000;1.792053
9714.000000;1.792990
9713.000000;1.792793
9712.000000;1.791652
9711.000000;1.790655
9710.000000;1.791544
9709.000000;1.793795
9708.000000;1.794262
9707.000000;1.791327
9706.000000;1.787671
9705.000000;1.787057
9704.000000;1.789605
9703.000000;1.791846
9702.000000;1.791005
9701.000000;1.787792
9700.000000;1.784794
9699.000000;1.783654
9698.000000;1.783988
9697.000000;1.784044
9696.000000;1.782392
9695.000000;1.779166
9694.000000;1.775439
9693.000000;1.771913
9692.000000;1.768854
9691.000000;1.766901
9690.000000;1.767156
9689.000000;1.769905
9688.000000;1.773484
9687.000000;1.775500
9686.000000;1.775042
9685.000000;1.773137
9684.000000;1.771532
9683.000000;1.771351
9682.000000;1.772490
9681.000000;1.774037
9680.000000;1.775465
9679.000000;1.777317
9678.000000;1.780193
9677.000000;1.782695
9676.000000;1.781344
9675.000000;1.774053
9674.000000;1.763364
9673.000000;1.755010
9672.000000;1.752801
9671.000000;1.754916
9670.000000;1.756010
9669.000000;1.753761
9668.000000;1.752284
9667.000000;1.757574
9666.000000;1.770060
9665.000000;1.782472
9664.000000;1.786271
9663.000000;1.780206
9662.000000;1.770028
9661.000000;1.761574
9660.000000;1.756957
9659.000000;1.755602
9658.000000;1.756301
9657.000000;1.757673
9656.000000;1.758320
9655.000000;1.758142
9654.000000;1.758636
9653.000000;1.760774
9652.000000;1.763707
9651.000000;1.766362
9650.000000;1.768834
9649.000000;1.771209
9648.000000;1.771998
9647.000000;1.769588
9646.000000;1.765631
9645.000000;1.764408
9644.000000;1.767432
9643.000000;1.770693
9642.000000;1.769226
9641.000000;1.763675
9640.000000;1.759422
9639.000000;1.759582
9638.000000;1.761739
9637.000000;1.761938
9636.000000;1.759995
9635.000000;1.758985
9634.000000;1.760351
9633.000000;1.761892
9632.000000;1.760712
9631.000000;1.756466
9630.000000;1.751157
9629.000000;1.747101
9628.000000;1.745696
9627.000000;1.746948
9626.000000;1.749352
9625.000000;1.750998
9624.000000;1.751407
9623.000000;1.751533
9622.000000;1.751534
9621.000000;1.749747
9620.000000;1.745091
9619.000000;1.739788
9618.000000;1.737915
9617.000000;1.741098
9616.000000;1.746636
9615.000000;1.750322
9614.000000;1.750939
9613.000000;1.750929
9612.000000;1.752624
9611.000000;1.754937
9610.000000;1.754544
9609.000000;1.750262
9608.000000;1.745064
9607.000000;1.742947
9606.000000;1.744768
9605.000000;1.748064
9604.000000;1.750445
9603.000000;1.751849
9602.000000;1.753045
9601.000000;1.753577
9600.000000;1.752760
9599.000000;1.751406
9598.000000;1.750618
9597.000000;1.749697
9596.000000;1.747183
9595.000000;1.743844
9594.000000;1.742969
9593.000000;1.746901
9592.000000;1.753900
9591.000000;1.759341
9590.000000;1.760463
9589.000000;1.758620
9588.000000;1.756144
9587.000000;1.752712
9586.000000;1.746003
9585.000000;1.735789
9584.000000;1.725853
9583.000000;1.720723
9582.000000;1.721471
9581.000000;1.725273
9580.000000;1.728689
9579.000000;1.731056
9578.000000;1.734387
9577.000000;1.740286
9576.000000;1.747589
9575.000000;1.753013
9574.000000;1.754023
9573.000000;1.751055
9572.000000;1.746897
9571.000000;1.744348
9570.000000;1.744370
9569.000000;1.745895
9568.000000;1.747256
9567.000000;1.747894
9566.000000;1.748679
9565.000000;1.750723
9564.000000;1.753933
9563.000000;1.756498
9562.000000;1.755944
9561.000000;1.751254
9560.000000;1.743932
9559.000000;1.736677
9558.000000;1.731283
9557.000000;1.728060
9556.000000;1.726919
9555.000000;1.728406
9554.000000;1.733134
9553.000000;1.740072
9552.000000;1.745645
9551.000000;1.745435
9550.000000;1.738189
9549.000000;1.728239
9548.000000;1.722428
9547.000000;1.724153
9546.000000;1.730693
9545.000000;1.736266
9544.000000;1.737764
9543.000000;1.736821
9542.000000;1.736408
9541.000000;1.737345
9540.000000;1.738680
9539.000000;1.740031
9538.000000;1.742095
9537.000000;1.745020
9536.000000;1.747241
9535.000000;1.746206
9534.000000;1.740569
9533.000000;1.732098
9532.000000;1.725188
9531.000000;1.723466
9530.000000;1.726287
9529.000000;1.729112
9528.000000;1.728247
9527.000000;1.724750
9526.000000;1.722541
9525.000000;1.723731
9524.000000;1.727172
9523.000000;1.730484
9522.000000;1.731921
9521.000000;1.730574
9520.000000;1.726549
9519.000000;1.721741
9518.000000;1.718922
9517.000000;1.719034
9516.000000;1.720219
9515.000000;1.720088
9514.000000;1.718456
9513.000000;1.717170
9512.000000;1.717791
9511.000000;1.720290
9510.000000;1.723415
9509.000000;1.725457
9508.000000;1.725085
9507.000000;1.722440
9506.000000;1.719365
9505.000000;1.717832
9504.000000;1.717999
9503.000000;1.718347
9502.000000;1.717696
9501.000000;1.716323
9500.000000;1.714912
9499.000000;1.713157
9498.000000;1.710503
9497.000000;1.707916
9496.000000;1.707341
9495.000000;1.709249
9494.000000;1.711954
9493.000000;1.713832
9492.000000;1.715287
9491.000000;1.717687
9490.000000;1.721048
9489.000000;1.723711
9488.000000;1.724146
9487.000000;1.722156
9486.000000;1.718312
9485.000000;1.713301
9484.000000;1.708305
9483.000000;1.705260
9482.000000;1.705823
9481.000000;1.709756
9480.000000;1.714409
9479.000000;1.716133
9478.000000;1.713083
9477.000000;1.706998
9476.000000;1.701739
9475.000000;1.699996
9474.000000;1.701397
9473.000000;1.703574
9472.000000;1.704601
9471.000000;1.704084
9470.000000;1.702749
9469.000000;1.702105
9468.000000;1.704029
9467.000000;1.709239
9466.000000;1.715856
9465.000000;1.720541
9464.000000;1.721585
9463.000000;1.720016
9462.000000;1.717459
9461.000000;1.714361
9460.000000;1.710702
9459.000000;1.707097
9458.000000;1.704311
9457.000000;1.702279
9456.000000;1.700775
9455.000000;1.700745
9454.000000;1.703582
9453.000000;1.709067
9452.000000;1.714873
9451.000000;1.718391
9450.000000;1.718629
9449.000000;1.716141
9448.000000;1.711860
9447.000000;1.706781
9446.000000;1.702583
9445.000000;1.701504
9444.000000;1.704772
9443.000000;1.710851
9442.000000;1.715705
9441.000000;1.716079
9440.000000;1.712834
9439.000000;1.709929
9438.000000;1.710147
9437.000000;1.712432
9436.000000;1.713524
9435.000000;1.711850
9434.000000;1.708745
9433.000000;1.706265
9432.000000;1.705416
9431.000000;1.706195
9430.000000;1.708010
9429.000000;1.709552
9428.000000;1.708955
9427.000000;1.705042
9426.000000;1.698570
9425.000000;1.691975
9424.000000;1.687818
9423.000000;1.687201
9422.000000;1.689458
9421.000000;1.693259
9420.000000;1.697790
9419.000000;1.702684
9418.000000;1.707164
9417.000000;1.710174
9416.000000;1.711449
9415.000000;1.711604
9414.000000;1.710918
9413.000000;1.708960
9412.000000;1.705812
9411.000000;1.702690
9410.000000;1.700593
9409.000000;1.699077
9408.000000;1.697155
9407.000000;1.694884
9406.000000;1.693175
9405.000000;1.692340
9404.000000;1.691849
9403.000000;1.691526
9402.000000;1.692033
9401.000000;1.693800
9400.000000;1.696192
9399.000000;1.698189
9398.000000;1.699312
9397.000000;1.699314
9396.000000;1.697853
9395.000000;1.695206
9394.000000;1.692462
9393.000000;1.690694
9392.000000;1.690584
9391.000000;1.692209
9390.000000;1.694518
9389.000000;1.695905
9388.000000;1.695643
9387.000000;1.694121
9386.000000;1.691733
9385.000000;1.688410
9384.000000;1.684655
9383.000000;1.682165
9382.000000;1.682315
9381.000000;1.684271
9380.000000;1.685564
9379.000000;1.684833
9378.000000;1.683200
9377.000000;1.682586
9376.000000;1.683606
9375.000000;1.685544
9374.000000;1.687635
9373.000000;1.689530
9372.000000;1.690579
9371.000000;1.689584
9370.000000;1.685980
9369.000000;1.681172
9368.000000;1.678128
9367.000000;1.679256
9366.000000;1.684230
9365.000000;1.689615
9364.000000;1.691377
9363.000000;1.688744
9362.000000;1.685282
9361.000000;1.685189
9360.000000;1.688676
9359.000000;1.691766
9358.000000;1.690878
9357.000000;1.687123
9356.000000;1.684970
9355.000000;1.687030
9354.000000;1.691394
9353.000000;1.694347
9352.000000;1.694847
9351.000000;1.694673
9350.000000;1.694730
9349.000000;1.693703
9348.000000;1.690629
9347.000000;1.686766
9346.000000;1.683788
9345.000000;1.681529
9344.000000;1.678929
9343.000000;1.676578
9342.000000;1.676456
9341.000000;1.679078
9340.000000;1.682508
9339.000000;1.684500
9338.000000;1.684539
9337.000000;1.683291
9336.000000;1.681192
9335.000000;1.678822
9334.000000;1.677926
9333.000000;1.680326
9332.000000;1.685286
9331.000000;1.689190
9330.000000;1.689167
9329.000000;1.686437
9328.000000;1.684560
9327.000000;1.684912
9326.000000;1.685677
9325.000000;1.685403
9324.000000;1.685513
9323.000000;1.687848
9322.000000;1.691192
9321.000000;1.692173
9320.000000;1.689314
9319.000000;1.684438
9318.000000;1.680213
9317.000000;1.678158
9316.000000;1.678794
9315.000000;1.681635
9314.000000;1.684618
9313.000000;1.685353
9312.000000;1.683844
9311.000000;1.682562
9310.000000;1.683144
9309.000000;1.684493
9308.000000;1.684816
9307.000000;1.683876
9306.000000;1.682000
9305.000000;1.678575
9304.000000;1.673541
9303.000000;1.669247
9302.000000;1.668628
9301.000000;1.671736
9300.000000;1.675341
9299.000000;1.676047
9298.000000;1.673079
9297.000000;1.668168
9296.000000;1.664093
9295.000000;1.663550
9294.000000;1.667946
9293.000000;1.676116
9292.000000;1.684375
9291.000000;1.688618
9290.000000;1.687109
9289.000000;1.681748
9288.000000;1.676806
9287.000000;1.675876
9286.000000;1.678950
9285.000000;1.682080
9284.000000;1.680909
9283.000000;1.675286
9282.000000;1.669425
9281.000000;1.667199
9280.000000;1.668297
9279.000000;1.669169
9278.000000;1.667221
9277.000000;1.663669
9276.000000;1.662075
9275.000000;1.664482
9274.000000;1.669219
9273.000000;1.672507
9272.000000;1.672274
9271.000000;1.669856
9270.000000;1.667826
9269.000000;1.667075
9268.000000;1.666645
9267.000000;1.666034
9266.000000;1.666405
9265.000000;1.668950
9264.000000;1.672777
9263.000000;1.674988
9262.000000;1.672930
9261.000000;1.666522
9260.000000;1.658561
9259.000000;1.652819
9258.000000;1.651500
9257.000000;1.653951
9256.000000;1.657479
9255.000000;1.659542
9254.000000;1.659462
9253.000000;1.658254
9252.000000;1.657233
9251.000000;1.656900
9250.000000;1.656715
9249.000000;1.655816
9248.000000;1.654151
9247.000000;1.652731
9246.000000;1.652600
9245.000000;1.653700
9244.000000;1.654882
9243.000000;1.655075
9242.000000;1.654344
9241.000000;1.653703
9240.000000;1.654039
9239.000000;1.655302
9238.000000;1.656767
9237.000000;1.658127
9236.000000;1.660031
9235.000000;1.663187
9234.000000;1.667234
9233.000000;1.670713
9232.000000;1.672014
9231.000000;1.670368
9230.000000;1.666343
9229.000000;1.661725
9228.000000;1.658527
9227.000000;1.657279
9226.000000;1.656445
9225.000000;1.654551
9224.000000;1.652692
9223.000000;1.653380
9222.000000;1.656898
9221.000000;1.660440
9220.000000;1.661383
9219.000000;1.659961
9218.000000;1.657856
9217.000000;1.656010
9216.000000;1.655121
9215.000000;1.656393
9214.000000;1.659767
9213.000000;1.662598
9212.000000;1.662260
9211.000000;1.659525
9210.000000;1.657107
9209.000000;1.655585
9208.000000;1.653204
9207.000000;1.649503
9206.000000;1.646623
9205.000000;1.646307
9204.000000;1.647682
9203.000000;1.648912
9202.000000;1.649199
9201.000000;1.648179
9200.000000;1.645226
9199.000000;1.640820
9198.000000;1.637352
9197.000000;1.637085
9196.000000;1.639747
9195.000000;1.643157
9194.000000;1.646000
9193.000000;1.648917
9192.000000;1.652811
9191.000000;1.657139
9190.000000;1.660186
9189.000000;1.660521
9188.000000;1.657905
9187.000000;1.653190
9186.000000;1.647924
9185.000000;1.644055
9184.000000;1.643349
9183.000000;1.646253
9182.000000;1.650985
9181.000000;1.654281
9180.000000;1.653956
9179.000000;1.650809
9178.000000;1.647562
9177.000000;1.645923
9176.000000;1.645251
9175.000000;1.644176
9174.000000;1.642502
9173.000000;1.641118
9172.000000;1.640975
9171.000000;1.642293
9170.000000;1.644264
9169.000000;1.645631
9168.000000;1.645766
9167.000000;1.645049
9166.000000;1.644324
9165.000000;1.644002
9164.000000;1.643794
9163.000000;1.643405
9162.000000;1.642965
9161.000000;1.642825
9160.000000;1.643548
9159.000000;1.645802
9158.000000;1.649619
9157.000000;1.653855
9156.000000;1.656771
9155.000000;1.657403
9154.000000;1.656294
9153.000000;1.654650
9152.000000;1.653078
9151.000000;1.651379
9150.000000;1.649053
9149.000000;1.645657
9148.000000;1.641263
9147.000000;1.637028
9146.000000;1.634991
9145.000000;1.636711
9144.000000;1.641659
9143.000000;1.647049
9142.000000;1.649775
9141.000000;1.649000
9140.000000;1.646622
9139.000000;1.644839
9138.000000;1.643571
9137.000000;1.640812
9136.000000;1.635502
9135.000000;1.629313
9134.000000;1.625275
9133.000000;1.625349
9132.000000;1.629397
9131.000000;1.635612
9130.000000;1.641430
9129.000000;1.644697
9128.000000;1.645148
9127.000000;1.644505
9126.000000;1.644235
9125.000000;1.643944
9124.000000;1.642463
9123.000000;1.639677
9122.000000;1.636577
9121.000000;1.634132
9120.000000;1.633137
9119.000000;1.634610
9118.000000;1.638971
9117.000000;1.644697
9116.000000;1.648818
9115.000000;1.649214
9114.000000;1.646014
9113.000000;1.640914
9112.000000;1.636014
9111.000000;1.633120
9110.000000;1.632997
9109.000000;1.634935
9108.000000;1.637624
9107.000000;1.640406
9106.000000;1.643055
9105.000000;1.644829
9104.000000;1.644916
9103.000000;1.643653
9102.000000;1.642076
9101.000000;1.640487
9100.000000;1.638725
9099.000000;1.637478
9098.000000;1.637855
9097.000000;1.639652
9096.000000;1.641535
9095.000000;1.643138
9094.000000;1.645314
9093.000000;1.647945
9092.000000;1.649216
9091.000000;1.647727
9090.000000;1.643992
9089.000000;1.639345
9088.000000;1.634909
9087.000000;1.632202
9086.000000;1.632865
9085.000000;1.636538
9084.000000;1.640188
9083.000000;1.640995
9082.000000;1.639293
9081.000000;1.637371
9080.000000;1.636433
9079.000000;1.636245
9078.000000;1.636630
9077.000000;1.637329
9076.000000;1.637134
9075.000000;1.635347
9074.000000;1.633747
9073.000000;1.634910
9072.000000;1.638417
9071.000000;1.640533
9070.000000;1.638426
9069.000000;1.633353
9068.000000;1.628656
9067.000000;1.626070
9066.000000;1.625137
9065.000000;1.625167
9064.000000;1.626451
9063.000000;1.629434
9062.000000;1.633366
9061.000000;1.636270
9060.000000;1.636507
9059.000000;1.634454
9058.000000;1.632206
9057.000000;1.631347
9056.000000;1.631502
9055.000000;1.631379
9054.000000;1.630626
9053.000000;1.629800
