Criado como novo conjunto de dados;"e0108.spp","-4251403.0 Secs"
cm-1;Abs
10000.000000;1.034907
9999.000000;1.035080
9998.000000;1.034470
9997.000000;1.033269
9996.000000;1.031939
9995.000000;1.030464
9994.000000;1.029018
9993.000000;1.028171
9992.000000;1.028422
9991.000000;1.029459
9990.000000;1.030458
9989.000000;1.030780
9988.000000;1.030276
9987.000000;1.029145
9986.000000;1.027837
9985.000000;1.026874
9984.000000;1.026390
9983.000000;1.025939
9982.000000;1.025054
9981.000000;1.023916
9980.000000;1.023141
9979.000000;1.023011
9978.000000;1.023272
9977.000000;1.023688
9976.000000;1.024390
9975.000000;1.025434
9974.000000;1.026311
9973.000000;1.026231
9972.000000;1.024920
9971.000000;1.022936
9970.000000;1.021229
9969.000000;1.020504
9968.000000;1.020862
9967.000000;1.021748
9966.000000;1.022231
9965.000000;1.021596
9964.000000;1.019942
9963.000000;1.018220
9962.000000;1.017556
9961.000000;1.018349
9960.000000;1.019957
9959.000000;1.021259
9958.000000;1.021581
9957.000000;1.021128
9956.000000;1.020591
9955.000000;1.020400
9954.000000;1.020430
9953.000000;1.020293
9952.000000;1.019685
9951.000000;1.018438
9950.000000;1.016549
9949.000000;1.014402
9948.000000;1.012777
9947.000000;1.012291
9946.000000;1.012834
9945.000000;1.013774
9944.000000;1.014677
9943.000000;1.015454
9942.000000;1.015736
9941.000000;1.014724
9940.000000;1.012211
9939.000000;1.009417
9938.000000;1.008133
9937.000000;1.008999
9936.000000;1.010956
9935.000000;1.012421
9934.000000;1.012685
9933.000000;1.012048
9932.000000;1.011077
9931.000000;1.010145
9930.000000;1.009445
9929.000000;1.009052
9928.000000;1.008895
9927.000000;1.008858
9926.000000;1.008889
9925.000000;1.008883
9924.000000;1.008595
9923.000000;1.007879
9922.000000;1.006930
9921.000000;1.006099
9920.000000;1.005585
9919.000000;1.005476
9918.000000;1.005929
9917.000000;1.006978
9916.000000;1.008247
9915.000000;1.009171
9914.000000;1.009576
9913.000000;1.009708
9912.000000;1.009555
9911.000000;1.008491
9910.000000;1.006007
9909.000000;1.002688
9908.000000;1.000048
9907.000000;0.999237
9906.000000;1.000024
9905.000000;1.001130
9904.000000;1.001533
9903.000000;1.001324
9902.000000;1.001240
9901.000000;1.001579
9900.000000;1.001880
9899.000000;1.001626
9898.000000;1.000947
9897.000000;1.000379
9896.000000;1.000090
9895.000000;0.999666
9894.000000;0.998736
9893.000000;0.997490
9892.000000;0.996423
9891.000000;0.995745
9890.000000;0.995270
9889.000000;0.994823
9888.000000;0.994475
9887.000000;0.994321
9886.000000;0.994205
9885.000000;0.993837
9884.000000;0.993172
9883.000000;0.992539
9882.000000;0.992314
9881.000000;0.992513
9880.000000;0.992838
9879.000000;0.993053
9878.000000;0.993139
9877.000000;0.993009
9876.000000;0.992363
9875.000000;0.991113
9874.000000;0.989804
9873.000000;0.989196
9872.000000;0.989384
9871.000000;0.989687
9870.000000;0.989549
9869.000000;0.989155
9868.000000;0.988939
9867.000000;0.988838
9866.000000;0.988469
9865.000000;0.987873
9864.000000;0.987568
9863.000000;0.987768
9862.000000;0.988023
9861.000000;0.987816
9860.000000;0.987152
9859.000000;0.986312
9858.000000;0.985408
9857.000000;0.984556
9856.000000;0.984262
9855.000000;0.985089
9854.000000;0.986867
9853.000000;0.988569
9852.000000;0.989190
9851.000000;0.988623
9850.000000;0.987566
9849.000000;0.986732
9848.000000;0.986295
9847.000000;0.985927
9846.000000;0.985189
9845.000000;0.983871
9844.000000;0.982138
9843.000000;0.980466
9842.000000;0.979361
9841.000000;0.978999
9840.000000;0.979050
9839.000000;0.978908
9838.000000;0.978199
9837.000000;0.977102
9836.000000;0.976107
9835.000000;0.975523
9834.000000;0.975307
9833.000000;0.975348
9832.000000;0.975684
9831.000000;0.976347
9830.000000;0.977143
9829.000000;0.977772
9828.000000;0.978055
9827.000000;0.977899
9826.000000;0.977157
9825.000000;0.975841
9824.000000;0.974413
9823.000000;0.973541
9822.000000;0.973418
9821.000000;0.973502
9820.000000;0.973101
9819.000000;0.972079
9818.000000;0.970890
9817.000000;0.970057
9816.000000;0.969695
9815.000000;0.969488
9814.000000;0.969031
9813.000000;0.968243
9812.000000;0.967458
9811.000000;0.967033
9810.000000;0.966936
9809.000000;0.966885
9808.000000;0.966882
9807.000000;0.967289
9806.000000;0.968256
9805.000000;0.969307
9804.000000;0.969706
9803.000000;0.969121
9802.000000;0.967782
9801.000000;0.966160
9800.000000;0.964725
9799.000000;0.963870
9798.000000;0.963758
9797.000000;0.964170
9796.000000;0.964681
9795.000000;0.965021
9794.000000;0.965219
9793.000000;0.965460
9792.000000;0.965916
9791.000000;0.966617
9790.000000;0.967335
9789.000000;0.967657
9788.000000;0.967357
9787.000000;0.966650
9786.000000;0.965950
9785.000000;0.965401
9784.000000;0.964802
9783.000000;0.963931
9782.000000;0.962831
9781.000000;0.961793
9780.000000;0.961135
9779.000000;0.960946
9778.000000;0.960956
9777.000000;0.960775
9776.000000;0.960373
9775.000000;0.960140
9774.000000;0.960322
9773.000000;0.960589
9772.000000;0.960395
9771.000000;0.959640
9770.000000;0.958696
9769.000000;0.957926
9768.000000;0.957507
9767.000000;0.957599
9766.000000;0.958190
9765.000000;0.958745
9764.000000;0.958464
9763.000000;0.957165
9762.000000;0.955606
9761.000000;0.954753
9760.000000;0.954855
9759.000000;0.955318
9758.000000;0.955292
9757.000000;0.954376
9756.000000;0.952979
9755.000000;0.952006
9754.000000;0.951961
9753.000000;0.952366
9752.000000;0.952356
9751.000000;0.951810
9750.000000;0.951457
9749.000000;0.951754
9748.000000;0.952252
9747.000000;0.952393
9746.000000;0.952399
9745.000000;0.952774
9744.000000;0.953260
9743.000000;0.952988
9742.000000;0.951645
9741.000000;0.949887
9740.000000;0.948420
9739.000000;0.947223
9738.000000;0.945950
9737.000000;0.944727
9736.000000;0.944112
9735.000000;0.944368
9734.000000;0.945105
9733.000000;0.945743
9732.000000;0.946130
9731.000000;0.946572
9730.000000;0.947313
9729.000000;0.948135
9728.000000;0.948462
9727.000000;0.947798
9726.000000;0.946118
9725.000000;0.944043
9724.000000;0.942664
9723.000000;0.942812
9722.000000;0.944167
9721.000000;0.945284
9720.000000;0.944993
9719.000000;0.943704
9718.000000;0.942863
9717.000000;0.943145
9716.000000;0.943757
9715.000000;0.943685
9714.000000;0.942967
9713.000000;0.942308
9712.000000;0.941942
9711.000000;0.941512
9710.000000;0.940819
9709.000000;0.940093
9708.000000;0.939589
9707.000000;0.939420
9706.000000;0.939724
9705.000000;0.940496
9704.000000;0.941230
9703.000000;0.941140
9702.000000;0.939879
9701.000000;0.937807
9700.000000;0.935597
9699.000000;0.933875
9698.000000;0.933129
9697.000000;0.933460
9696.000000;0.934329
9695.000000;0.934909
9694.000000;0.934830
9693.000000;0.934369
9692.000000;0.933927
9691.000000;0.933660
9690.000000;0.933588
9689.000000;0.933651
9688.000000;0.933564
9687.000000;0.933036
9686.000000;0.932273
9685.000000;0.931828
9684.000000;0.931799
9683.000000;0.931637
9682.000000;0.930963
9681.000000;0.930145
9680.000000;0.929715
9679.000000;0.929633
9678.000000;0.929570
9677.000000;0.929576
9676.000000;0.929922
9675.000000;0.930397
9674.000000;0.930329
9673.000000;0.929403
9672.000000;0.928058
9671.000000;0.926984
9670.000000;0.926481
9669.000000;0.926400
9668.000000;0.926469
9667.000000;0.926588
9666.000000;0.926900
9665.000000;0.927602
9664.000000;0.928596
9663.000000;0.929371
9662.000000;0.929418
9661.000000;0.928778
9660.000000;0.928006
9659.000000;0.927566
9658.000000;0.927409
9657.000000;0.927148
9656.000000;0.926510
9655.000000;0.925576
9654.000000;0.924690
9653.000000;0.924202
9652.000000;0.924197
9651.000000;0.924379
9650.000000;0.924264
9649.000000;0.923555
9648.000000;0.922386
9647.000000;0.921280
9646.000000;0.920847
9645.000000;0.921340
9644.000000;0.922347
9643.000000;0.923051
9642.000000;0.922954
9641.000000;0.922318
9640.000000;0.921761
9639.000000;0.921546
9638.000000;0.921434
9637.000000;0.921151
9636.000000;0.920741
9635.000000;0.920386
9634.000000;0.920085
9633.000000;0.919682
9632.000000;0.919174
9631.000000;0.918824
9630.000000;0.918853
9629.000000;0.919040
9628.000000;0.918776
9627.000000;0.917658
9626.000000;0.915988
9625.000000;0.914475
9624.000000;0.913492
9623.000000;0.912882
9622.000000;0.912538
9621.000000;0.912764
9620.000000;0.913747
9619.000000;0.914926
9618.000000;0.915321
9617.000000;0.914541
9616.000000;0.913152
9615.000000;0.912022
9614.000000;0.911586
9613.000000;0.911783
9612.000000;0.912326
9611.000000;0.912824
9610.000000;0.912900
9609.000000;0.912496
9608.000000;0.911985
9607.000000;0.911815
9606.000000;0.912023
9605.000000;0.912203
9604.000000;0.911910
9603.000000;0.911018
9602.000000;0.909680
9601.000000;0.908082
9600.000000;0.906353
9599.000000;0.904771
9598.000000;0.903903
9597.000000;0.904241
9596.000000;0.905558
9595.000000;0.906845
9594.000000;0.907199
9593.000000;0.906707
9592.000000;0.906196
9591.000000;0.906187
9590.000000;0.906467
9589.000000;0.906718
9588.000000;0.907067
9587.000000;0.907728
9586.000000;0.908386
9585.000000;0.908340
9584.000000;0.907231
9583.000000;0.905434
9582.000000;0.903787
9581.000000;0.903062
9580.000000;0.903543
9579.000000;0.904795
9578.000000;0.905859
9577.000000;0.905934
9576.000000;0.904993
9575.000000;0.903668
9574.000000;0.902639
9573.000000;0.902256
9572.000000;0.902556
9571.000000;0.903276
9570.000000;0.903804
9569.000000;0.903503
9568.000000;0.902298
9567.000000;0.900835
9566.000000;0.899893
9565.000000;0.899733
9564.000000;0.900089
9563.000000;0.900597
9562.000000;0.901042
9561.000000;0.901253
9560.000000;0.901026
9559.000000;0.900283
9558.000000;0.899214
9557.000000;0.898181
9556.000000;0.897475
9555.000000;0.897150
9554.000000;0.897018
9553.000000;0.896762
9552.000000;0.896122
9551.000000;0.895099
9550.000000;0.894000
9549.000000;0.893241
9548.000000;0.893040
9547.000000;0.893279
9546.000000;0.893579
9545.000000;0.893529
9544.000000;0.892917
9543.000000;0.891876
9542.000000;0.890881
9541.000000;0.890503
9540.000000;0.891017
9539.000000;0.892181
9538.000000;0.893402
9537.000000;0.894146
9536.000000;0.894228
9535.000000;0.893809
9534.000000;0.893232
9533.000000;0.892813
9532.000000;0.892663
9531.000000;0.892650
9530.000000;0.892603
9529.000000;0.892503
9528.000000;0.892377
9527.000000;0.892099
9526.000000;0.891541
9525.000000;0.890898
9524.000000;0.890550
9523.000000;0.890462
9522.000000;0.890031
9521.000000;0.888832
9520.000000;0.887340
9519.000000;0.886549
9518.000000;0.886870
9517.000000;0.887729
9516.000000;0.888315
9515.000000;0.888409
9514.000000;0.888331
9513.000000;0.888345
9512.000000;0.888378
9511.000000;0.888259
9510.000000;0.888048
9509.000000;0.888087
9508.000000;0.888656
9507.000000;0.889513
9506.000000;0.889857
9505.000000;0.889012
9504.000000;0.887257
9503.000000;0.885725
9502.000000;0.885297
9501.000000;0.885740
9500.000000;0.886105
9499.000000;0.885780
9498.000000;0.884899
9497.000000;0.883874
9496.000000;0.882964
9495.000000;0.882335
9494.000000;0.882137
9493.000000;0.882301
9492.000000;0.882491
9491.000000;0.882530
9490.000000;0.882709
9489.000000;0.883379
9488.000000;0.884319
9487.000000;0.884825
9486.000000;0.884480
9485.000000;0.883622
9484.000000;0.882961
9483.000000;0.882881
9482.000000;0.883191
9481.000000;0.883394
9480.000000;0.883072
9479.000000;0.882069
9478.000000;0.880466
9477.000000;0.878499
9476.000000;0.876578
9475.000000;0.875355
9474.000000;0.875493
9473.000000;0.877059
9472.000000;0.879106
9471.000000;0.880174
9470.000000;0.879504
9469.000000;0.877665
9468.000000;0.875900
9467.000000;0.875023
9466.000000;0.875075
9465.000000;0.875684
9464.000000;0.876298
9463.000000;0.876223
9462.000000;0.875088
9461.000000;0.873480
9460.000000;0.872667
9459.000000;0.873330
9458.000000;0.874813
9457.000000;0.875903
9456.000000;0.876126
9455.000000;0.875943
9454.000000;0.875882
9453.000000;0.876008
9452.000000;0.876200
9451.000000;0.876446
9450.000000;0.876677
9449.000000;0.876637
9448.000000;0.876100
9447.000000;0.875037
9446.000000;0.873486
9445.000000;0.871585
9444.000000;0.869892
9443.000000;0.869257
9442.000000;0.869942
9441.000000;0.871053
9440.000000;0.871350
9439.000000;0.870719
9438.000000;0.870363
9437.000000;0.871247
9436.000000;0.872710
9435.000000;0.873065
9434.000000;0.871550
9433.000000;0.869260
9432.000000;0.867959
9431.000000;0.868289
9430.000000;0.869417
9429.000000;0.870230
9428.000000;0.870410
9427.000000;0.870213
9426.000000;0.869683
9425.000000;0.868623
9424.000000;0.867214
9423.000000;0.866102
9422.000000;0.865719
9421.000000;0.865874
9420.000000;0.866206
9419.000000;0.866706
9418.000000;0.867494
9417.000000;0.868311
9416.000000;0.868667
9415.000000;0.868419
9414.000000;0.867882
9413.000000;0.867327
9412.000000;0.866706
9411.000000;0.865935
9410.000000;0.865176
9409.000000;0.864642
9408.000000;0.864314
9407.000000;0.864049
9406.000000;0.863865
9405.000000;0.863965
9404.000000;0.864437
9403.000000;0.865010
9402.000000;0.865184
9401.000000;0.864625
9400.000000;0.863481
9399.000000;0.862282
9398.000000;0.861471
9397.000000;0.861072
9396.000000;0.860874
9395.000000;0.860831
9394.000000;0.861120
9393.000000;0.861818
9392.000000;0.862705
9391.000000;0.863454
9390.000000;0.863873
9389.000000;0.863878
9388.000000;0.863382
9387.000000;0.862376
9386.000000;0.861102
9385.000000;0.860013
9384.000000;0.859485
9383.000000;0.859557
9382.000000;0.859943
9381.000000;0.860277
9380.000000;0.860368
9379.000000;0.860225
9378.000000;0.859877
9377.000000;0.859300
9376.000000;0.858562
9375.000000;0.857932
9374.000000;0.857698
9373.000000;0.857962
9372.000000;0.858632
9371.000000;0.859507
9370.000000;0.860268
9369.000000;0.860586
9368.000000;0.860430
9367.000000;0.860105
9366.000000;0.859732
9365.000000;0.858902
9364.000000;0.857264
9363.000000;0.855369
9362.000000;0.854399
9361.000000;0.854892
9360.000000;0.856170
9359.000000;0.857173
9358.000000;0.857440
9357.000000;0.857012
9356.000000;0.855930
9355.000000;0.854415
9354.000000;0.853214
9353.000000;0.853074
9352.000000;0.853851
9351.000000;0.854635
9350.000000;0.854832
9349.000000;0.854701
9348.000000;0.854719
9347.000000;0.854853
9346.000000;0.854708
9345.000000;0.854126
9344.000000;0.853347
9343.000000;0.852688
9342.000000;0.852263
9341.000000;0.851969
9340.000000;0.851660
9339.000000;0.851371
9338.000000;0.851360
9337.000000;0.851761
9336.000000;0.852228
9335.000000;0.852159
9334.000000;0.851389
9333.000000;0.850441
9332.000000;0.849949
9331.000000;0.850004
9330.000000;0.850194
9329.000000;0.850142
9328.000000;0.849814
9327.000000;0.849380
9326.000000;0.848961
9325.000000;0.848552
9324.000000;0.848119
9323.000000;0.847738
9322.000000;0.847587
9321.000000;0.847731
9320.000000;0.847943
9319.000000;0.847864
9318.000000;0.847384
9317.000000;0.846742
9316.000000;0.846243
9315.000000;0.845995
9314.000000;0.845968
9313.000000;0.846080
9312.000000;0.846140
9311.000000;0.845908
9310.000000;0.845383
9309.000000;0.844876
9308.000000;0.844653
9307.000000;0.844678
9306.000000;0.844835
9305.000000;0.845171
9304.000000;0.845695
9303.000000;0.846068
9302.000000;0.845858
9301.000000;0.845101
9300.000000;0.844332
9299.000000;0.843993
9298.000000;0.844022
9297.000000;0.844087
9296.000000;0.844071
9295.000000;0.844131
9294.000000;0.844344
9293.000000;0.844452
9292.000000;0.844048
9291.000000;0.843036
9290.000000;0.841887
9289.000000;0.841325
9288.000000;0.841697
9287.000000;0.842678
9286.000000;0.843596
9285.000000;0.843943
9284.000000;0.843582
9283.000000;0.842680
9282.000000;0.841665
9281.000000;0.841100
9280.000000;0.841312
9279.000000;0.842091
9278.000000;0.842900
9277.000000;0.843363
9276.000000;0.843425
9275.000000;0.843113
9274.000000;0.842470
9273.000000;0.841735
9272.000000;0.841251
9271.000000;0.841037
9270.000000;0.840719
9269.000000;0.840074
9268.000000;0.839406
9267.000000;0.839134
9266.000000;0.839213
9265.000000;0.839254
9264.000000;0.839118
9263.000000;0.839070
9262.000000;0.839333
9261.000000;0.839765
9260.000000;0.840040
9259.000000;0.839970
9258.000000;0.839547
9257.000000;0.838853
9256.000000;0.838054
9255.000000;0.837344
9254.000000;0.836795
9253.000000;0.836309
9252.000000;0.835827
9251.000000;0.835476
9250.000000;0.835437
9249.000000;0.835709
9248.000000;0.836083
9247.000000;0.836282
9246.000000;0.836091
9245.000000;0.835494
9244.000000;0.834776
9243.000000;0.834414
9242.000000;0.834728
9241.000000;0.835596
9240.000000;0.836534
9239.000000;0.837040
9238.000000;0.836880
9237.000000;0.836163
9236.000000;0.835252
9235.000000;0.834569
9234.000000;0.834338
9233.000000;0.834441
9232.000000;0.834570
9231.000000;0.834516
9230.000000;0.834280
9229.000000;0.833976
9228.000000;0.833717
9227.000000;0.833559
9226.000000;0.833450
9225.000000;0.833276
9224.000000;0.833027
9223.000000;0.832857
9222.000000;0.832859
9221.000000;0.832836
9220.000000;0.832512
9219.000000;0.831942
9218.000000;0.831476
9217.000000;0.831296
9216.000000;0.831211
9215.000000;0.831022
9214.000000;0.830836
9213.000000;0.830844
9212.000000;0.830973
9211.000000;0.830963
9210.000000;0.830710
9209.000000;0.830343
9208.000000;0.830055
9207.000000;0.830036
9206.000000;0.830422
9205.000000;0.831072
9204.000000;0.831471
9203.000000;0.831111
9202.000000;0.830012
9201.000000;0.828725
9200.000000;0.827819
9199.000000;0.827524
9198.000000;0.827785
9197.000000;0.828361
9196.000000;0.828850
9195.000000;0.828929
9194.000000;0.828692
9193.000000;0.828542
9192.000000;0.828623
9191.000000;0.828619
9190.000000;0.828262
9189.000000;0.827779
9188.000000;0.827574
9187.000000;0.827600
9186.000000;0.827378
9185.000000;0.826636
9184.000000;0.825723
9183.000000;0.825310
9182.000000;0.825748
9181.000000;0.826729
9180.000000;0.827500
9179.000000;0.827467
9178.000000;0.826696
9177.000000;0.825822
9176.000000;0.825422
9175.000000;0.825494
9174.000000;0.825602
9173.000000;0.825427
9172.000000;0.825031
9171.000000;0.824603
9170.000000;0.824142
9169.000000;0.823482
9168.000000;0.822619
9167.000000;0.821930
9166.000000;0.821981
9165.000000;0.823015
9164.000000;0.824585
9163.000000;0.825803
9162.000000;0.826073
9161.000000;0.825542
9160.000000;0.824810
9159.000000;0.824357
9158.000000;0.824348
9157.000000;0.824787
9156.000000;0.825530
9155.000000;0.826183
9154.000000;0.826293
9153.000000;0.825785
9152.000000;0.825032
9151.000000;0.824398
9150.000000;0.823866
9149.000000;0.823251
9148.000000;0.822603
9147.000000;0.822183
9146.000000;0.822122
9145.000000;0.822324
9144.000000;0.822692
9143.000000;0.823213
9142.000000;0.823709
9141.000000;0.823697
9140.000000;0.822751
9139.000000;0.821023
9138.000000;0.819237
9137.000000;0.818089
9136.000000;0.817741
9135.000000;0.817930
9134.000000;0.818418
9133.000000;0.819149
9132.000000;0.819981
9131.000000;0.820527
9130.000000;0.820473
9129.000000;0.820022
9128.000000;0.819801
9127.000000;0.820239
9126.000000;0.821114
9125.000000;0.821811
9124.000000;0.821964
9123.000000;0.821733
9122.000000;0.821467
9121.000000;0.821298
9120.000000;0.821151
9119.000000;0.820993
9118.000000;0.820859
9117.000000;0.820656
9116.000000;0.820162
9115.000000;0.819311
9114.000000;0.818331
9113.000000;0.817485
9112.000000;0.816804
9111.000000;0.816228
9110.000000;0.815880
9109.000000;0.815948
9108.000000;0.816316
9107.000000;0.816597
9106.000000;0.816620
9105.000000;0.816661
9104.000000;0.817034
9103.000000;0.817603
9102.000000;0.817915
9101.000000;0.817737
9100.000000;0.817298
9099.000000;0.817000
9098.000000;0.817043
9097.000000;0.817325
9096.000000;0.817565
9095.000000;0.817513
9094.000000;0.817127
9093.000000;0.816623
9092.000000;0.816291
9091.000000;0.816275
9090.000000;0.816489
9089.000000;0.816686
9088.000000;0.816563
9087.000000;0.815956
9086.000000;0.815080
9085.000000;0.814482
9084.000000;0.814529
9083.000000;0.814932
9082.000000;0.814963
9081.000000;0.814238
9080.000000;0.813171
9079.000000;0.812554
9078.000000;0.812818
9077.000000;0.813756
9076.000000;0.814817
9075.000000;0.815520
9074.000000;0.815689
9073.000000;0.815470
9072.000000;0.815150
9071.000000;0.814901
9070.000000;0.814720
9069.000000;0.814591
9068.000000;0.814597
9067.000000;0.814735
9066.000000;0.814748
9065.000000;0.814322
9064.000000;0.813492
9063.000000;0.812706
9062.000000;0.812432
9061.000000;0.812762
9060.000000;0.813399
9059.000000;0.813948
9058.000000;0.814194
9057.000000;0.814227
9056.000000;0.814337
9055.000000;0.814687
9054.000000;0.815065
9053.000000;0.815054
