Criado como novo conjunto de dados;"e0108.spp","-4260583.5 Secs"
cm-1;Abs
10000.000000;1.038083
9999.000000;1.038628
9998.000000;1.039248
9997.000000;1.039716
9996.000000;1.040851
9995.000000;1.042148
9994.000000;1.042312
9993.000000;1.041470
9992.000000;1.040393
9991.000000;1.039922
9990.000000;1.040058
9989.000000;1.040192
9988.000000;1.039875
9987.000000;1.039298
9986.000000;1.038846
9985.000000;1.038430
9984.000000;1.037567
9983.000000;1.036094
9982.000000;1.034521
9981.000000;1.033628
9980.000000;1.033819
9979.000000;1.034883
9978.000000;1.036211
9977.000000;1.037179
9976.000000;1.037428
9975.000000;1.036914
9974.000000;1.035772
9973.000000;1.034238
9972.000000;1.032705
9971.000000;1.031614
9970.000000;1.031034
9969.000000;1.030488
9968.000000;1.029530
9967.000000;1.028436
9966.000000;1.027954
9965.000000;1.028329
9964.000000;1.028990
9963.000000;1.029400
9962.000000;1.029815
9961.000000;1.030791
9960.000000;1.032110
9959.000000;1.032649
9958.000000;1.031499
9957.000000;1.029055
9956.000000;1.026686
9955.000000;1.025408
9954.000000;1.025087
9953.000000;1.024934
9952.000000;1.024494
9951.000000;1.023909
9950.000000;1.023389
9949.000000;1.022813
9948.000000;1.022013
9947.000000;1.021160
9946.000000;1.020623
9945.000000;1.020655
9944.000000;1.021390
9943.000000;1.022861
9942.000000;1.024570
9941.000000;1.025311
9940.000000;1.024159
9939.000000;1.021768
9938.000000;1.020057
9937.000000;1.020292
9936.000000;1.021877
9935.000000;1.023263
9934.000000;1.023583
9933.000000;1.023005
9932.000000;1.022021
9931.000000;1.021148
9930.000000;1.021039
9929.000000;1.022028
9928.000000;1.023352
9927.000000;1.023514
9926.000000;1.021817
9925.000000;1.019192
9924.000000;1.017164
9923.000000;1.016361
9922.000000;1.016273
9921.000000;1.016113
9920.000000;1.015562
9919.000000;1.014846
9918.000000;1.014486
9917.000000;1.014898
9916.000000;1.015923
9915.000000;1.016797
9914.000000;1.016834
9913.000000;1.016052
9912.000000;1.014884
9911.000000;1.013369
9910.000000;1.011056
9909.000000;1.007948
9908.000000;1.005181
9907.000000;1.004329
9906.000000;1.005987
9905.000000;1.009198
9904.000000;1.012232
9903.000000;1.013827
9902.000000;1.013683
9901.000000;1.012111
9900.000000;1.009714
9899.000000;1.007413
9898.000000;1.006198
9897.000000;1.006411
9896.000000;1.007425
9895.000000;1.008375
9894.000000;1.009077
9893.000000;1.009920
9892.000000;1.010937
9891.000000;1.011464
9890.000000;1.010843
9889.000000;1.009134
9888.000000;1.006968
9887.000000;1.005063
9886.000000;1.004011
9885.000000;1.004025
9884.000000;1.004521
9883.000000;1.004341
9882.000000;1.002917
9881.000000;1.001081
9880.000000;1.000234
9879.000000;1.000843
9878.000000;1.002150
9877.000000;1.003219
9876.000000;1.003738
9875.000000;1.003816
9874.000000;1.003551
9873.000000;1.003047
9872.000000;1.002481
9871.000000;1.001906
9870.000000;1.001253
9869.000000;1.000613
9868.000000;1.000168
9867.000000;0.999731
9866.000000;0.998787
9865.000000;0.997255
9864.000000;0.995773
9863.000000;0.994911
9862.000000;0.994488
9861.000000;0.994086
9860.000000;0.993836
9859.000000;0.994138
9858.000000;0.994837
9857.000000;0.995318
9856.000000;0.995410
9855.000000;0.995566
9854.000000;0.996049
9853.000000;0.996476
9852.000000;0.996421
9851.000000;0.996039
9850.000000;0.995790
9849.000000;0.995811
9848.000000;0.995821
9847.000000;0.995452
9846.000000;0.994476
9845.000000;0.992951
9844.000000;0.991375
9843.000000;0.990458
9842.000000;0.990432
9841.000000;0.990679
9840.000000;0.990305
9839.000000;0.989039
9838.000000;0.987387
9837.000000;0.986044
9836.000000;0.985381
9835.000000;0.985407
9834.000000;0.985899
9833.000000;0.986494
9832.000000;0.986866
9831.000000;0.986920
9830.000000;0.986799
9829.000000;0.986682
9828.000000;0.986643
9827.000000;0.986636
9826.000000;0.986487
9825.000000;0.985975
9824.000000;0.985081
9823.000000;0.984093
9822.000000;0.983269
9821.000000;0.982501
9820.000000;0.981595
9819.000000;0.980784
9818.000000;0.980608
9817.000000;0.981234
9816.000000;0.982115
9815.000000;0.982530
9814.000000;0.982295
9813.000000;0.981761
9812.000000;0.981308
9811.000000;0.981107
9810.000000;0.981218
9809.000000;0.981556
9808.000000;0.981790
9807.000000;0.981572
9806.000000;0.980909
9805.000000;0.980081
9804.000000;0.979167
9803.000000;0.977971
9802.000000;0.976574
9801.000000;0.975649
9800.000000;0.975882
9799.000000;0.977150
9798.000000;0.978504
9797.000000;0.978974
9796.000000;0.978293
9795.000000;0.976880
9794.000000;0.975382
9793.000000;0.974253
9792.000000;0.973537
9791.000000;0.972905
9790.000000;0.972020
9789.000000;0.970974
9788.000000;0.970250
9787.000000;0.970203
9786.000000;0.970712
9785.000000;0.971413
9784.000000;0.972063
9783.000000;0.972493
9782.000000;0.972400
9781.000000;0.971530
9780.000000;0.970113
9779.000000;0.968824
9778.000000;0.968217
9777.000000;0.968288
9776.000000;0.968560
9775.000000;0.968466
9774.000000;0.967714
9773.000000;0.966531
9772.000000;0.965607
9771.000000;0.965581
9770.000000;0.966416
9769.000000;0.967389
9768.000000;0.967783
9767.000000;0.967492
9766.000000;0.966894
9765.000000;0.966333
9764.000000;0.965910
9763.000000;0.965592
9762.000000;0.965299
9761.000000;0.964914
9760.000000;0.964353
9759.000000;0.963661
9758.000000;0.962998
9757.000000;0.962561
9756.000000;0.962508
9755.000000;0.962840
9754.000000;0.963316
9753.000000;0.963662
9752.000000;0.963939
9751.000000;0.964447
9750.000000;0.965136
9749.000000;0.965380
9748.000000;0.964659
9747.000000;0.963278
9746.000000;0.962048
9745.000000;0.961335
9744.000000;0.960756
9743.000000;0.959792
9742.000000;0.958383
9741.000000;0.956884
9740.000000;0.955729
9739.000000;0.955242
9738.000000;0.955535
9737.000000;0.956424
9736.000000;0.957532
9735.000000;0.958454
9734.000000;0.958779
9733.000000;0.958156
9732.000000;0.956736
9731.000000;0.955460
9730.000000;0.955355
9729.000000;0.956331
9728.000000;0.957091
9727.000000;0.956538
9726.000000;0.954978
9725.000000;0.953592
9724.000000;0.953065
9723.000000;0.953123
9722.000000;0.953220
9721.000000;0.953119
9720.000000;0.952783
9719.000000;0.952119
9718.000000;0.951074
9717.000000;0.949860
9716.000000;0.948848
9715.000000;0.948267
9714.000000;0.948092
9713.000000;0.948216
9712.000000;0.948706
9711.000000;0.949794
9710.000000;0.951457
9709.000000;0.953053
9708.000000;0.953665
9707.000000;0.952963
9706.000000;0.951477
9705.000000;0.949869
9704.000000;0.948270
9703.000000;0.946633
9702.000000;0.945404
9701.000000;0.945276
9700.000000;0.946297
9699.000000;0.947606
9698.000000;0.948226
9697.000000;0.947929
9696.000000;0.947271
9695.000000;0.946965
9694.000000;0.947259
9693.000000;0.947688
9692.000000;0.947467
9691.000000;0.946335
9690.000000;0.944959
9689.000000;0.944232
9688.000000;0.944270
9687.000000;0.944467
9686.000000;0.944467
9685.000000;0.944549
9684.000000;0.944903
9683.000000;0.945080
9682.000000;0.944561
9681.000000;0.943524
9680.000000;0.942581
9679.000000;0.941997
9678.000000;0.941568
9677.000000;0.941164
9676.000000;0.940977
9675.000000;0.941176
9674.000000;0.941595
9673.000000;0.941839
9672.000000;0.941612
9671.000000;0.940906
9670.000000;0.939921
9669.000000;0.938791
9668.000000;0.937424
9667.000000;0.935780
9666.000000;0.934280
9665.000000;0.933622
9664.000000;0.934007
9663.000000;0.934791
9662.000000;0.935124
9661.000000;0.934724
9660.000000;0.933844
9659.000000;0.932738
9658.000000;0.931605
9657.000000;0.930866
9656.000000;0.930979
9655.000000;0.931858
9654.000000;0.932799
9653.000000;0.933131
9652.000000;0.932791
9651.000000;0.932245
9650.000000;0.932034
9649.000000;0.932429
9648.000000;0.933276
9647.000000;0.934064
9646.000000;0.934259
9645.000000;0.933680
9644.000000;0.932566
9643.000000;0.931349
9642.000000;0.930428
9641.000000;0.929963
9640.000000;0.929677
9639.000000;0.928999
9638.000000;0.927733
9637.000000;0.926564
9636.000000;0.926514
9635.000000;0.927836
9634.000000;0.929701
9633.000000;0.931002
9632.000000;0.931226
9631.000000;0.930547
9630.000000;0.929481
9629.000000;0.928655
9628.000000;0.928508
9627.000000;0.928880
9626.000000;0.929078
9625.000000;0.928664
9624.000000;0.928006
9623.000000;0.927755
9622.000000;0.927932
9621.000000;0.927914
9620.000000;0.927283
9619.000000;0.926313
9618.000000;0.925506
9617.000000;0.924916
9616.000000;0.924161
9615.000000;0.922973
9614.000000;0.921545
9613.000000;0.920351
9612.000000;0.919690
9611.000000;0.919416
9610.000000;0.919163
9609.000000;0.918814
9608.000000;0.918701
9607.000000;0.919240
9606.000000;0.920422
9605.000000;0.921747
9604.000000;0.922596
9603.000000;0.922596
9602.000000;0.921718
9601.000000;0.920293
9600.000000;0.918928
9599.000000;0.918167
9598.000000;0.918029
9597.000000;0.917968
9596.000000;0.917440
9595.000000;0.916454
9594.000000;0.915499
9593.000000;0.914994
9592.000000;0.914983
9591.000000;0.915289
9590.000000;0.915743
9589.000000;0.916195
9588.000000;0.916465
9587.000000;0.916447
9586.000000;0.916205
9585.000000;0.915873
9584.000000;0.915533
9583.000000;0.915303
9582.000000;0.915383
9581.000000;0.915782
9580.000000;0.916049
9579.000000;0.915579
9578.000000;0.914327
9577.000000;0.912997
9576.000000;0.912311
9575.000000;0.912269
9574.000000;0.912300
9573.000000;0.912059
9572.000000;0.911793
9571.000000;0.911894
9570.000000;0.912304
9569.000000;0.912494
9568.000000;0.911946
9567.000000;0.910610
9566.000000;0.908924
9565.000000;0.907461
9564.000000;0.906591
9563.000000;0.906460
9562.000000;0.907100
9561.000000;0.908343
9560.000000;0.909596
9559.000000;0.910044
9558.000000;0.909393
9557.000000;0.908275
9556.000000;0.907624
9555.000000;0.907673
9554.000000;0.907815
9553.000000;0.907449
9552.000000;0.906687
9551.000000;0.906098
9550.000000;0.906007
9549.000000;0.906229
9548.000000;0.906343
9547.000000;0.906062
9546.000000;0.905415
9545.000000;0.904695
9544.000000;0.904209
9543.000000;0.903982
9542.000000;0.903764
9541.000000;0.903384
9540.000000;0.903005
9539.000000;0.902929
9538.000000;0.903216
9537.000000;0.903599
9536.000000;0.903770
9535.000000;0.903682
9534.000000;0.903549
9533.000000;0.903560
9532.000000;0.903602
9531.000000;0.903282
9530.000000;0.902301
9529.000000;0.900824
9528.000000;0.899436
9527.000000;0.898693
9526.000000;0.898737
9525.000000;0.899290
9524.000000;0.899932
9523.000000;0.900351
9522.000000;0.900429
9521.000000;0.900190
9520.000000;0.899697
9519.000000;0.898992
9518.000000;0.898168
9517.000000;0.897452
9516.000000;0.897112
9515.000000;0.897218
9514.000000;0.897511
9513.000000;0.897562
9512.000000;0.897138
9511.000000;0.896458
9510.000000;0.896072
9509.000000;0.896352
9508.000000;0.897057
9507.000000;0.897482
9506.000000;0.897154
9505.000000;0.896292
9504.000000;0.895448
9503.000000;0.894878
9502.000000;0.894437
9501.000000;0.893963
9500.000000;0.893505
9499.000000;0.893171
9498.000000;0.893013
9497.000000;0.893112
9496.000000;0.893566
9495.000000;0.894285
9494.000000;0.894978
9493.000000;0.895413
9492.000000;0.895543
9491.000000;0.895322
9490.000000;0.894584
9489.000000;0.893240
9488.000000;0.891517
9487.000000;0.889891
9486.000000;0.888801
9485.000000;0.888428
9484.000000;0.888635
9483.000000;0.889069
9482.000000;0.889442
9481.000000;0.889747
9480.000000;0.890106
9479.000000;0.890462
9478.000000;0.890575
9477.000000;0.890352
9476.000000;0.889990
9475.000000;0.889730
9474.000000;0.889642
9473.000000;0.889703
9472.000000;0.889862
9471.000000;0.889920
9470.000000;0.889557
9469.000000;0.888712
9468.000000;0.887741
9467.000000;0.886969
9466.000000;0.886199
9465.000000;0.884996
9464.000000;0.883413
9463.000000;0.882122
9462.000000;0.881727
9461.000000;0.882164
9460.000000;0.882914
9459.000000;0.883660
9458.000000;0.884522
9457.000000;0.885596
9456.000000;0.886485
9455.000000;0.886507
9454.000000;0.885432
9453.000000;0.883876
9452.000000;0.882789
9451.000000;0.882601
9450.000000;0.882962
9449.000000;0.883271
9448.000000;0.883255
9447.000000;0.883030
9446.000000;0.882792
9445.000000;0.882608
9444.000000;0.882409
9443.000000;0.882054
9442.000000;0.881412
9441.000000;0.880494
9440.000000;0.879535
9439.000000;0.878911
9438.000000;0.878878
9437.000000;0.879328
9436.000000;0.879802
9435.000000;0.879852
9434.000000;0.879409
9433.000000;0.878742
9432.000000;0.878077
9431.000000;0.877422
9430.000000;0.876825
9429.000000;0.876570
9428.000000;0.876841
9427.000000;0.877352
9426.000000;0.877618
9425.000000;0.877554
9424.000000;0.877489
9423.000000;0.877595
9422.000000;0.877651
9421.000000;0.877445
9420.000000;0.877053
9419.000000;0.876588
9418.000000;0.875991
9417.000000;0.875267
9416.000000;0.874694
9415.000000;0.874516
9414.000000;0.874576
9413.000000;0.874474
9412.000000;0.874040
9411.000000;0.873550
9410.000000;0.873542
9409.000000;0.874368
9408.000000;0.875741
9407.000000;0.876685
9406.000000;0.876280
9405.000000;0.874634
9404.000000;0.872812
9403.000000;0.871676
9402.000000;0.871128
9401.000000;0.870661
9400.000000;0.870249
9399.000000;0.870280
9398.000000;0.870820
9397.000000;0.871395
9396.000000;0.871532
9395.000000;0.871208
9394.000000;0.870739
9393.000000;0.870457
9392.000000;0.870496
9391.000000;0.870723
9390.000000;0.870861
9389.000000;0.870772
9388.000000;0.870539
9387.000000;0.870218
9386.000000;0.869763
9385.000000;0.869279
9384.000000;0.869071
9383.000000;0.869215
9382.000000;0.869341
9381.000000;0.869164
9380.000000;0.869009
9379.000000;0.869395
9378.000000;0.870207
9377.000000;0.870734
9376.000000;0.870496
9375.000000;0.869679
9374.000000;0.868747
9373.000000;0.868004
9372.000000;0.867601
9371.000000;0.867574
9370.000000;0.867706
9369.000000;0.867669
9368.000000;0.867411
9367.000000;0.867187
9366.000000;0.867074
9365.000000;0.866773
9364.000000;0.866051
9363.000000;0.865157
9362.000000;0.864605
9361.000000;0.864690
9360.000000;0.865354
9359.000000;0.866345
9358.000000;0.867307
9357.000000;0.867860
9356.000000;0.867818
9355.000000;0.867336
9354.000000;0.866730
9353.000000;0.866177
9352.000000;0.865647
9351.000000;0.865087
9350.000000;0.864538
9349.000000;0.864040
9348.000000;0.863470
9347.000000;0.862570
9346.000000;0.861257
9345.000000;0.859917
9344.000000;0.859220
9343.000000;0.859472
9342.000000;0.860241
9341.000000;0.860761
9340.000000;0.860676
9339.000000;0.860238
9338.000000;0.859845
9337.000000;0.859645
9336.000000;0.859613
9335.000000;0.859766
9334.000000;0.860114
9333.000000;0.860520
9332.000000;0.860736
9331.000000;0.860605
9330.000000;0.860164
9329.000000;0.859561
9328.000000;0.858905
9327.000000;0.858212
9326.000000;0.857548
9325.000000;0.857155
9324.000000;0.857285
9323.000000;0.857824
9322.000000;0.858249
9321.000000;0.858106
9320.000000;0.857441
9319.000000;0.856670
9318.000000;0.856178
9317.000000;0.856150
9316.000000;0.856542
9315.000000;0.856984
9314.000000;0.856930
9313.000000;0.856225
9312.000000;0.855413
9311.000000;0.855137
9310.000000;0.855345
9309.000000;0.855450
9308.000000;0.855184
9307.000000;0.854848
9306.000000;0.854705
9305.000000;0.854585
9304.000000;0.854294
9303.000000;0.854008
9302.000000;0.853967
9301.000000;0.854039
9300.000000;0.853897
9299.000000;0.853483
9298.000000;0.853094
9297.000000;0.853078
9296.000000;0.853564
9295.000000;0.854386
9294.000000;0.855168
9293.000000;0.855557
9292.000000;0.855470
9291.000000;0.855110
9290.000000;0.854723
9289.000000;0.854422
9288.000000;0.854155
9287.000000;0.853730
9286.000000;0.852958
9285.000000;0.851988
9284.000000;0.851419
9283.000000;0.851774
9282.000000;0.852863
9281.000000;0.853906
9280.000000;0.854286
9279.000000;0.853891
9278.000000;0.852805
9277.000000;0.851168
9276.000000;0.849467
9275.000000;0.848424
9274.000000;0.848275
9273.000000;0.848491
9272.000000;0.848535
9271.000000;0.848576
9270.000000;0.849106
9269.000000;0.850096
9268.000000;0.850947
9267.000000;0.851160
9266.000000;0.850706
9265.000000;0.849826
9264.000000;0.848810
9263.000000;0.848000
9262.000000;0.847700
9261.000000;0.847969
9260.000000;0.848602
9259.000000;0.849273
9258.000000;0.849651
9257.000000;0.849536
9256.000000;0.849081
9255.000000;0.848726
9254.000000;0.848730
9253.000000;0.848850
9252.000000;0.848677
9251.000000;0.848108
9250.000000;0.847275
9249.000000;0.846212
9248.000000;0.844954
9247.000000;0.843804
9246.000000;0.843134
9245.000000;0.842932
9244.000000;0.842867
9243.000000;0.842792
9242.000000;0.842855
9241.000000;0.843128
9240.000000;0.843486
9239.000000;0.843894
9238.000000;0.844461
9237.000000;0.845096
9236.000000;0.845386
9235.000000;0.845012
9234.000000;0.844152
9233.000000;0.843350
9232.000000;0.843065
9231.000000;0.843375
9230.000000;0.843935
9229.000000;0.844188
9228.000000;0.843802
9227.000000;0.842990
9226.000000;0.842264
9225.000000;0.841891
9224.000000;0.841786
9223.000000;0.841878
9222.000000;0.842279
9221.000000;0.842965
9220.000000;0.843608
9219.000000;0.843928
9218.000000;0.843989
9217.000000;0.843951
9216.000000;0.843714
9215.000000;0.843104
9214.000000;0.842264
9213.000000;0.841584
9212.000000;0.841281
9211.000000;0.841268
9210.000000;0.841397
9209.000000;0.841562
9208.000000;0.841563
9207.000000;0.841143
9206.000000;0.840299
9205.000000;0.839419
9204.000000;0.838988
9203.000000;0.839219
9202.000000;0.839968
9201.000000;0.840832
9200.000000;0.841291
9199.000000;0.840984
9198.000000;0.840014
9197.000000;0.838906
9196.000000;0.838142
9195.000000;0.837802
9194.000000;0.837743
9193.000000;0.837960
9192.000000;0.838494
9191.000000;0.839030
9190.000000;0.838940
9189.000000;0.837956
9188.000000;0.836619
9187.000000;0.835807
9186.000000;0.835843
9185.000000;0.836251
9184.000000;0.836406
9183.000000;0.836198
9182.000000;0.836015
9181.000000;0.836182
9180.000000;0.836574
9179.000000;0.836757
9178.000000;0.836461
9177.000000;0.835904
9176.000000;0.835610
9175.000000;0.835840
9174.000000;0.836265
9173.000000;0.836336
9172.000000;0.835980
9171.000000;0.835716
9170.000000;0.835966
9169.000000;0.836437
9168.000000;0.836416
9167.000000;0.835635
9166.000000;0.834610
9165.000000;0.834046
9164.000000;0.834059
9163.000000;0.834108
9162.000000;0.833649
9161.000000;0.832772
9160.000000;0.832173
9159.000000;0.832500
9158.000000;0.833689
9157.000000;0.834883
9156.000000;0.835044
9155.000000;0.833791
9154.000000;0.831761
9153.000000;0.830192
9152.000000;0.830007
9151.000000;0.831091
9150.000000;0.832400
9149.000000;0.832902
9148.000000;0.832471
9147.000000;0.831773
9146.000000;0.831379
9145.000000;0.831262
9144.000000;0.831174
9143.000000;0.831131
9142.000000;0.831226
9141.000000;0.831249
9140.000000;0.830970
9139.000000;0.830664
9138.000000;0.830886
9137.000000;0.831622
9136.000000;0.832098
9135.000000;0.831724
9134.000000;0.830908
9133.000000;0.830549
9132.000000;0.830920
9131.000000;0.831445
9130.000000;0.831491
9129.000000;0.831016
9128.000000;0.830359
9127.000000;0.829748
9126.000000;0.829219
9125.000000;0.828789
9124.000000;0.828459
9123.000000;0.828151
9122.000000;0.827835
9121.000000;0.827677
9120.000000;0.827870
9119.000000;0.828308
9118.000000;0.828599
9117.000000;0.828485
9116.000000;0.828128
9115.000000;0.827886
9114.000000;0.827889
9113.000000;0.827962
9112.000000;0.827890
9111.000000;0.827659
9110.000000;0.827439
9109.000000;0.827395
9108.000000;0.827529
9107.000000;0.827671
9106.000000;0.827629
9105.000000;0.827406
9104.000000;0.827227
9103.000000;0.827250
9102.000000;0.827274
9101.000000;0.826926
9100.000000;0.826235
9099.000000;0.825808
9098.000000;0.826172
9097.000000;0.826989
9096.000000;0.827241
9095.000000;0.826364
9094.000000;0.824967
9093.000000;0.824139
9092.000000;0.824218
9091.000000;0.824578
9090.000000;0.824544
9089.000000;0.824169
9088.000000;0.823945
9087.000000;0.824125
9086.000000;0.824642
9085.000000;0.825430
9084.000000;0.826368
9083.000000;0.826967
9082.000000;0.826635
9081.000000;0.825458
9080.000000;0.824386
9079.000000;0.824343
9078.000000;0.825294
9077.000000;0.826345
9076.000000;0.826594
9075.000000;0.825749
9074.000000;0.824124
9073.000000;0.822366
9072.000000;0.821118
9071.000000;0.820680
9070.000000;0.820900
9069.000000;0.821457
9068.000000;0.822147
9067.000000;0.822789
9066.000000;0.823090
9065.000000;0.822932
9064.000000;0.822689
9063.000000;0.822882
9062.000000;0.823479
9061.000000;0.823850
9060.000000;0.823506
9059.000000;0.822618
9058.000000;0.821739
9057.000000;0.821301
9056.000000;0.821477
9055.000000;0.822163
9054.000000;0.822881
9053.000000;0.822989
