Criado como novo conjunto de dados;"Jao_teste_celulas.spp","8883.7 Secs"
cm-1;Abs
10000.000000;1.896744
9999.000000;1.893379
9998.000000;1.890043
9997.000000;1.886728
9996.000000;1.883445
9995.000000;1.880168
9994.000000;1.877008
9993.000000;1.874789
9992.000000;1.874064
9991.000000;1.874384
9990.000000;1.875149
9989.000000;1.875527
9988.000000;1.874766
9987.000000;1.873437
9986.000000;1.873642
9985.000000;1.876682
9984.000000;1.880910
9983.000000;1.883077
9982.000000;1.881894
9981.000000;1.879052
9980.000000;1.876780
9979.000000;1.875906
9978.000000;1.876326
9977.000000;1.877615
9976.000000;1.878553
9975.000000;1.877627
9974.000000;1.875064
9973.000000;1.873146
9972.000000;1.873517
9971.000000;1.875022
9970.000000;1.875162
9969.000000;1.873112
9968.000000;1.870023
9967.000000;1.866869
9966.000000;1.863728
9965.000000;1.861107
9964.000000;1.860213
9963.000000;1.861328
9962.000000;1.863088
9961.000000;1.864152
9960.000000;1.864777
9959.000000;1.866011
9958.000000;1.868006
9957.000000;1.869940
9956.000000;1.871015
9955.000000;1.870800
9954.000000;1.869129
9953.000000;1.866360
9952.000000;1.863288
9951.000000;1.860276
9950.000000;1.857165
9949.000000;1.854653
9948.000000;1.854666
9947.000000;1.857982
9946.000000;1.862176
9945.000000;1.863662
9944.000000;1.861870
9943.000000;1.859482
9942.000000;1.858469
9941.000000;1.858256
9940.000000;1.858083
9939.000000;1.858644
9938.000000;1.860077
9937.000000;1.860349
9936.000000;1.857778
9935.000000;1.853986
9934.000000;1.852097
9933.000000;1.852756
9932.000000;1.853913
9931.000000;1.854027
9930.000000;1.853465
9929.000000;1.852636
9928.000000;1.850852
9927.000000;1.847923
9926.000000;1.845472
9925.000000;1.845491
9924.000000;1.848282
9923.000000;1.852410
9922.000000;1.855989
9921.000000;1.857547
9920.000000;1.856409
9919.000000;1.853114
9918.000000;1.849306
9917.000000;1.846611
9916.000000;1.845488
9915.000000;1.845177
9914.000000;1.844487
9913.000000;1.842684
9912.000000;1.840102
9911.000000;1.838074
9910.000000;1.837820
9909.000000;1.839215
9908.000000;1.841019
9907.000000;1.842367
9906.000000;1.843315
9905.000000;1.843769
9904.000000;1.842950
9903.000000;1.840655
9902.000000;1.838247
9901.000000;1.837338
9900.000000;1.837909
9899.000000;1.838552
9898.000000;1.838261
9897.000000;1.837232
9896.000000;1.836109
9895.000000;1.835343
9894.000000;1.835383
9893.000000;1.836626
9892.000000;1.838562
9891.000000;1.839673
9890.000000;1.838853
9889.000000;1.836547
9888.000000;1.834082
9887.000000;1.832443
9886.000000;1.832089
9885.000000;1.833243
9884.000000;1.835485
9883.000000;1.837290
9882.000000;1.836905
9881.000000;1.834099
9880.000000;1.830598
9879.000000;1.828495
9878.000000;1.828531
9877.000000;1.829809
9876.000000;1.830680
9875.000000;1.829882
9874.000000;1.827397
9873.000000;1.824570
9872.000000;1.823185
9871.000000;1.823922
9870.000000;1.825631
9869.000000;1.826540
9868.000000;1.826167
9867.000000;1.825577
9866.000000;1.825797
9865.000000;1.826599
9864.000000;1.827094
9863.000000;1.827038
9862.000000;1.827042
9861.000000;1.827690
9860.000000;1.828948
9859.000000;1.830448
9858.000000;1.831835
9857.000000;1.832701
9856.000000;1.832536
9855.000000;1.831063
9854.000000;1.828647
9853.000000;1.826303
9852.000000;1.825036
9851.000000;1.824782
9850.000000;1.824211
9849.000000;1.822107
9848.000000;1.819031
9847.000000;1.817150
9846.000000;1.817988
9845.000000;1.820606
9844.000000;1.822423
9843.000000;1.821862
9842.000000;1.819723
9841.000000;1.817778
9840.000000;1.816725
9839.000000;1.816043
9838.000000;1.815339
9837.000000;1.815076
9836.000000;1.815706
9835.000000;1.816524
9834.000000;1.816005
9833.000000;1.813471
9832.000000;1.810064
9831.000000;1.807782
9830.000000;1.807723
9829.000000;1.809403
9828.000000;1.811499
9827.000000;1.812887
9826.000000;1.813114
9825.000000;1.812411
9824.000000;1.811411
9823.000000;1.810503
9822.000000;1.809296
9821.000000;1.807128
9820.000000;1.804306
9819.000000;1.802208
9818.000000;1.801749
9817.000000;1.802258
9816.000000;1.802373
9815.000000;1.801766
9814.000000;1.801335
9813.000000;1.801849
9812.000000;1.802977
9811.000000;1.803626
9810.000000;1.802769
9809.000000;1.800059
9808.000000;1.796352
9807.000000;1.793684
9806.000000;1.793854
9805.000000;1.796601
9804.000000;1.799571
9803.000000;1.800599
9802.000000;1.799767
9801.000000;1.798715
9800.000000;1.798471
9799.000000;1.798685
9798.000000;1.798609
9797.000000;1.798072
9796.000000;1.797348
9795.000000;1.796517
9794.000000;1.795231
9793.000000;1.792974
9792.000000;1.789585
9791.000000;1.785796
9790.000000;1.783116
9789.000000;1.782707
9788.000000;1.784206
9787.000000;1.785899
9786.000000;1.786320
9785.000000;1.785590
9784.000000;1.785043
9783.000000;1.785736
9782.000000;1.787528
9781.000000;1.789388
9780.000000;1.790318
9779.000000;1.789992
9778.000000;1.788710
9777.000000;1.786920
9776.000000;1.784943
9775.000000;1.783145
9774.000000;1.782037
9773.000000;1.781809
9772.000000;1.781790
9771.000000;1.780894
9770.000000;1.778962
9769.000000;1.777333
9768.000000;1.777556
9767.000000;1.779644
9766.000000;1.782025
9765.000000;1.783337
9764.000000;1.783877
9763.000000;1.784923
9762.000000;1.786888
9761.000000;1.788693
9760.000000;1.788973
9759.000000;1.787407
9758.000000;1.784761
9757.000000;1.782101
9756.000000;1.780194
9755.000000;1.779273
9754.000000;1.779036
9753.000000;1.778942
9752.000000;1.778643
9751.000000;1.778113
9750.000000;1.777354
9749.000000;1.776128
9748.000000;1.774180
9747.000000;1.771751
9746.000000;1.769674
9745.000000;1.768819
9744.000000;1.769414
9743.000000;1.770934
9742.000000;1.772599
9741.000000;1.773869
9740.000000;1.774469
9739.000000;1.774139
9738.000000;1.772694
9737.000000;1.770342
9736.000000;1.767695
9735.000000;1.765457
9734.000000;1.764224
9733.000000;1.764323
9732.000000;1.765472
9731.000000;1.766710
9730.000000;1.767176
9729.000000;1.767014
9728.000000;1.767032
9727.000000;1.767455
9726.000000;1.767627
9725.000000;1.767218
9724.000000;1.767020
9723.000000;1.767922
9722.000000;1.769538
9721.000000;1.770520
9720.000000;1.769943
9719.000000;1.767810
9718.000000;1.764642
9717.000000;1.761422
9716.000000;1.759520
9715.000000;1.759567
9714.000000;1.760351
9713.000000;1.759844
9712.000000;1.757541
9711.000000;1.754845
9710.000000;1.752953
9709.000000;1.751572
9708.000000;1.750136
9707.000000;1.749138
9706.000000;1.749423
9705.000000;1.750938
9704.000000;1.753001
9703.000000;1.755232
9702.000000;1.757222
9701.000000;1.757701
9700.000000;1.755486
9699.000000;1.751351
9698.000000;1.747804
9697.000000;1.746675
9696.000000;1.747561
9695.000000;1.748647
9694.000000;1.748476
9693.000000;1.746886
9692.000000;1.744871
9691.000000;1.743854
9690.000000;1.744619
9689.000000;1.746653
9688.000000;1.748732
9687.000000;1.750089
9686.000000;1.750540
9685.000000;1.749483
9684.000000;1.745911
9683.000000;1.740317
9682.000000;1.735712
9681.000000;1.735449
9680.000000;1.739943
9679.000000;1.745983
9678.000000;1.749592
9677.000000;1.749584
9676.000000;1.747920
9675.000000;1.746960
9674.000000;1.747204
9673.000000;1.747637
9672.000000;1.747472
9671.000000;1.746998
9670.000000;1.746843
9669.000000;1.746899
9668.000000;1.746303
9667.000000;1.744488
9666.000000;1.741967
9665.000000;1.739838
9664.000000;1.738572
9663.000000;1.737551
9662.000000;1.736024
9661.000000;1.734338
9660.000000;1.733756
9659.000000;1.734904
9658.000000;1.736831
9657.000000;1.737958
9656.000000;1.737776
9655.000000;1.737117
9654.000000;1.736846
9653.000000;1.736898
9652.000000;1.736718
9651.000000;1.736106
9650.000000;1.735284
9649.000000;1.734441
9648.000000;1.733520
9647.000000;1.732303
9646.000000;1.730576
9645.000000;1.728411
9644.000000;1.726468
9643.000000;1.725730
9642.000000;1.726684
9641.000000;1.728859
9640.000000;1.731294
9639.000000;1.733265
9638.000000;1.734334
9637.000000;1.734094
9636.000000;1.732473
9635.000000;1.730170
9634.000000;1.728247
9633.000000;1.727129
9632.000000;1.726289
9631.000000;1.725083
9630.000000;1.723646
9629.000000;1.722703
9628.000000;1.722582
9627.000000;1.722788
9626.000000;1.722690
9625.000000;1.722410
9624.000000;1.722548
9623.000000;1.723055
9622.000000;1.722969
9621.000000;1.721550
9620.000000;1.719329
9619.000000;1.717611
9618.000000;1.717082
9617.000000;1.717342
9616.000000;1.717687
9615.000000;1.717730
9614.000000;1.717287
9613.000000;1.716323
9612.000000;1.715306
9611.000000;1.715043
9610.000000;1.715839
9609.000000;1.717176
9608.000000;1.718362
9607.000000;1.719031
9606.000000;1.718766
9605.000000;1.716922
9604.000000;1.713489
9603.000000;1.709820
9602.000000;1.707818
9601.000000;1.708391
9600.000000;1.710860
9599.000000;1.713503
9598.000000;1.714464
9597.000000;1.712767
9596.000000;1.709189
9595.000000;1.705962
9594.000000;1.704977
9593.000000;1.706218
9592.000000;1.708213
9591.000000;1.709807
9590.000000;1.710938
9589.000000;1.711730
9588.000000;1.711756
9587.000000;1.710690
9586.000000;1.709021
9585.000000;1.707490
9584.000000;1.706191
9583.000000;1.704724
9582.000000;1.703043
9581.000000;1.701725
9580.000000;1.701430
9579.000000;1.702390
9578.000000;1.704335
9577.000000;1.706543
9576.000000;1.707988
9575.000000;1.707874
9574.000000;1.706336
9573.000000;1.704429
9572.000000;1.703141
9571.000000;1.702447
9570.000000;1.701516
9569.000000;1.699848
9568.000000;1.697857
9567.000000;1.696184
9566.000000;1.694822
9565.000000;1.693361
9564.000000;1.692022
9563.000000;1.691880
9562.000000;1.693711
9561.000000;1.696828
9560.000000;1.699337
9559.000000;1.699639
9558.000000;1.697637
9557.000000;1.694565
9556.000000;1.691900
9555.000000;1.690515
9554.000000;1.690522
9553.000000;1.691516
9552.000000;1.692792
9551.000000;1.693512
9550.000000;1.693034
9549.000000;1.691394
9548.000000;1.689401
9547.000000;1.687979
9546.000000;1.687368
9545.000000;1.687171
9544.000000;1.687147
9543.000000;1.687640
9542.000000;1.689038
9541.000000;1.691005
9540.000000;1.692535
9539.000000;1.692772
9538.000000;1.691593
9537.000000;1.689448
9536.000000;1.686907
9535.000000;1.684469
9534.000000;1.682598
9533.000000;1.681725
9532.000000;1.682063
9531.000000;1.683311
9530.000000;1.684608
9529.000000;1.684960
9528.000000;1.683919
9527.000000;1.681914
9526.000000;1.680025
9525.000000;1.679384
9524.000000;1.680422
9523.000000;1.682435
9522.000000;1.684068
9521.000000;1.684561
9520.000000;1.684356
9519.000000;1.684142
9518.000000;1.683759
9517.000000;1.682646
9516.000000;1.681016
9515.000000;1.679783
9514.000000;1.679266
9513.000000;1.678691
9512.000000;1.677248
9511.000000;1.675053
9510.000000;1.672732
9509.000000;1.670675
9508.000000;1.669092
9507.000000;1.668253
9506.000000;1.668169
9505.000000;1.668362
9504.000000;1.668353
9503.000000;1.668191
9502.000000;1.668180
9501.000000;1.668330
9500.000000;1.668463
9499.000000;1.668574
9498.000000;1.668679
9497.000000;1.668630
9496.000000;1.668551
9495.000000;1.669150
9494.000000;1.670955
9493.000000;1.673313
9492.000000;1.674663
9491.000000;1.673948
9490.000000;1.671475
9489.000000;1.668501
9488.000000;1.666292
9487.000000;1.665424
9486.000000;1.665510
9485.000000;1.665532
9484.000000;1.664744
9483.000000;1.663390
9482.000000;1.662351
9481.000000;1.662266
9480.000000;1.663149
9479.000000;1.664573
9478.000000;1.665837
9477.000000;1.666236
9476.000000;1.665704
9475.000000;1.665093
9474.000000;1.665360
9473.000000;1.666478
9472.000000;1.667523
9471.000000;1.667754
9470.000000;1.667183
9469.000000;1.666149
9468.000000;1.664871
9467.000000;1.663507
9466.000000;1.662173
9465.000000;1.660712
9464.000000;1.658907
9463.000000;1.657137
9462.000000;1.656384
9461.000000;1.657240
9460.000000;1.659106
9459.000000;1.660576
9458.000000;1.660593
9457.000000;1.659110
9456.000000;1.656810
9455.000000;1.654434
9454.000000;1.652356
9453.000000;1.650644
9452.000000;1.649417
9451.000000;1.649028
9450.000000;1.649746
9449.000000;1.651232
9448.000000;1.652524
9447.000000;1.652732
9446.000000;1.651812
9445.000000;1.650609
9444.000000;1.650068
9443.000000;1.650336
9442.000000;1.650670
9441.000000;1.650278
9440.000000;1.649146
9439.000000;1.647798
9438.000000;1.646407
9437.000000;1.644670
9436.000000;1.642757
9435.000000;1.641757
9434.000000;1.642562
9433.000000;1.644561
9432.000000;1.646081
9431.000000;1.646137
9430.000000;1.645161
9429.000000;1.643964
9428.000000;1.642652
9427.000000;1.640924
9426.000000;1.638981
9425.000000;1.637681
9424.000000;1.637773
9423.000000;1.639225
9422.000000;1.641257
9421.000000;1.642855
9420.000000;1.643306
9419.000000;1.642488
9418.000000;1.640897
9417.000000;1.639404
9416.000000;1.638732
9415.000000;1.638906
9414.000000;1.639237
9413.000000;1.639019
9412.000000;1.638215
9411.000000;1.637266
9410.000000;1.636385
9409.000000;1.635520
9408.000000;1.635009
9407.000000;1.635589
9406.000000;1.637326
9405.000000;1.639020
9404.000000;1.639289
9403.000000;1.638104
9402.000000;1.636636
9401.000000;1.635679
9400.000000;1.634835
9399.000000;1.633246
9398.000000;1.630719
9397.000000;1.628039
9396.000000;1.626431
9395.000000;1.626656
9394.000000;1.628269
9393.000000;1.629741
9392.000000;1.629774
9391.000000;1.628652
9390.000000;1.627833
9389.000000;1.628213
9388.000000;1.629227
9387.000000;1.629664
9386.000000;1.628898
9385.000000;1.627152
9384.000000;1.625029
9383.000000;1.623211
9382.000000;1.622335
9381.000000;1.622673
9380.000000;1.623870
9379.000000;1.625146
9378.000000;1.625821
9377.000000;1.625726
9376.000000;1.625176
9375.000000;1.624550
9374.000000;1.623845
9373.000000;1.622730
9372.000000;1.621170
9371.000000;1.619808
9370.000000;1.619387
9369.000000;1.619868
9368.000000;1.620497
9367.000000;1.620793
9366.000000;1.621054
9365.000000;1.621718
9364.000000;1.622662
9363.000000;1.623465
9362.000000;1.624029
9361.000000;1.624537
9360.000000;1.624901
9359.000000;1.624602
9358.000000;1.623156
9357.000000;1.620658
9356.000000;1.617856
9355.000000;1.615715
9354.000000;1.614832
9353.000000;1.615114
9352.000000;1.616002
9351.000000;1.616955
9350.000000;1.617593
9349.000000;1.617535
9348.000000;1.616547
9347.000000;1.615080
9346.000000;1.614206
9345.000000;1.614606
9344.000000;1.615801
9343.000000;1.616655
9342.000000;1.616508
9341.000000;1.615576
9340.000000;1.614402
9339.000000;1.613384
9338.000000;1.612860
9337.000000;1.613090
9336.000000;1.613838
9335.000000;1.614217
9334.000000;1.613320
9333.000000;1.611074
9332.000000;1.608331
9331.000000;1.606139
9330.000000;1.605018
9329.000000;1.604807
9328.000000;1.604976
9327.000000;1.604986
9326.000000;1.604541
9325.000000;1.603701
9324.000000;1.602821
9323.000000;1.602242
9322.000000;1.601985
9321.000000;1.601762
9320.000000;1.601287
9319.000000;1.600580
9318.000000;1.599979
9317.000000;1.599922
9316.000000;1.600654
9315.000000;1.601969
9314.000000;1.603179
9313.000000;1.603575
9312.000000;1.603062
9311.000000;1.602260
9310.000000;1.601864
9309.000000;1.601983
9308.000000;1.602197
9307.000000;1.602093
9306.000000;1.601513
9305.000000;1.600373
9304.000000;1.598639
9303.000000;1.596656
9302.000000;1.595180
9301.000000;1.594786
9300.000000;1.595350
9299.000000;1.596358
9298.000000;1.597561
9297.000000;1.598942
9296.000000;1.600059
9295.000000;1.600039
9294.000000;1.598614
9293.000000;1.596770
9292.000000;1.595789
9291.000000;1.595809
9290.000000;1.595828
9289.000000;1.595105
9288.000000;1.594061
9287.000000;1.593658
9286.000000;1.594381
9285.000000;1.596014
9284.000000;1.597859
9283.000000;1.598813
9282.000000;1.597797
9281.000000;1.594808
9280.000000;1.591331
9279.000000;1.589116
9278.000000;1.588642
9277.000000;1.589121
9276.000000;1.589746
9275.000000;1.590376
9274.000000;1.591028
9273.000000;1.591374
9272.000000;1.591034
9271.000000;1.589999
9270.000000;1.588612
9269.000000;1.587372
9268.000000;1.586736
9267.000000;1.586656
9266.000000;1.586390
9265.000000;1.585364
9264.000000;1.584219
9263.000000;1.584214
9262.000000;1.585357
9261.000000;1.585869
9260.000000;1.584181
9259.000000;1.580960
9258.000000;1.578286
9257.000000;1.577214
9256.000000;1.577063
9255.000000;1.576936
9254.000000;1.577018
9253.000000;1.577971
9252.000000;1.579628
9251.000000;1.580900
9250.000000;1.580922
9249.000000;1.579904
9248.000000;1.578715
9247.000000;1.577927
9246.000000;1.577492
9245.000000;1.577220
9244.000000;1.577213
9243.000000;1.577588
9242.000000;1.578002
9241.000000;1.577888
9240.000000;1.577132
9239.000000;1.576154
9238.000000;1.575306
9237.000000;1.574610
9236.000000;1.574122
9235.000000;1.573987
9234.000000;1.573951
9233.000000;1.573382
9232.000000;1.572176
9231.000000;1.571179
9230.000000;1.571220
9229.000000;1.572104
9228.000000;1.573030
9227.000000;1.573685
9226.000000;1.574271
9225.000000;1.574664
9224.000000;1.574293
9223.000000;1.572997
9222.000000;1.571398
9221.000000;1.570195
9220.000000;1.569483
9219.000000;1.568931
9218.000000;1.568327
9217.000000;1.567719
9216.000000;1.567193
9215.000000;1.566741
9214.000000;1.566267
9213.000000;1.565618
9212.000000;1.564665
9211.000000;1.563429
9210.000000;1.562142
9209.000000;1.561269
9208.000000;1.561408
9207.000000;1.562846
9206.000000;1.565004
9205.000000;1.566523
9204.000000;1.566264
9203.000000;1.564321
9202.000000;1.561902
9201.000000;1.560283
9200.000000;1.559955
9199.000000;1.560501
9198.000000;1.560952
9197.000000;1.560511
9196.000000;1.559270
9195.000000;1.558103
9194.000000;1.557652
9193.000000;1.557670
9192.000000;1.557605
9191.000000;1.557492
9190.000000;1.557758
9189.000000;1.558307
9188.000000;1.558396
9187.000000;1.557566
9186.000000;1.556261
9185.000000;1.555298
9184.000000;1.554987
9183.000000;1.554924
9182.000000;1.554528
9181.000000;1.553712
9180.000000;1.553053
9179.000000;1.553194
9178.000000;1.554005
9177.000000;1.554540
9176.000000;1.554110
9175.000000;1.553206
9174.000000;1.552982
9173.000000;1.553907
9172.000000;1.555267
9171.000000;1.555978
9170.000000;1.555570
9169.000000;1.554383
9168.000000;1.553118
9167.000000;1.552238
9166.000000;1.551597
9165.000000;1.550689
9164.000000;1.549470
9163.000000;1.548680
9162.000000;1.548973
9161.000000;1.549931
9160.000000;1.550424
9159.000000;1.549909
9158.000000;1.548887
9157.000000;1.548075
9156.000000;1.547718
9155.000000;1.547797
9154.000000;1.548302
9153.000000;1.548961
9152.000000;1.549166
9151.000000;1.548601
9150.000000;1.547726
9149.000000;1.547208
9148.000000;1.547049
9147.000000;1.546651
9146.000000;1.545706
9145.000000;1.544678
9144.000000;1.544253
9143.000000;1.544492
9142.000000;1.544700
9141.000000;1.544146
9140.000000;1.542822
9139.000000;1.541343
9138.000000;1.540182
9137.000000;1.539285
9136.000000;1.538520
9135.000000;1.538085
9134.000000;1.538131
9133.000000;1.538347
9132.000000;1.538445
9131.000000;1.538847
9130.000000;1.540216
9129.000000;1.542253
9128.000000;1.543608
9127.000000;1.543309
9126.000000;1.541795
9125.000000;1.540164
9124.000000;1.538872
9123.000000;1.537661
9122.000000;1.536423
9121.000000;1.535551
9120.000000;1.535375
9119.000000;1.535678
9118.000000;1.535917
9117.000000;1.535751
9116.000000;1.535230
9115.000000;1.534539
9114.000000;1.533710
9113.000000;1.532758
9112.000000;1.532100
9111.000000;1.532518
9110.000000;1.534291
9109.000000;1.536389
9108.000000;1.537023
9107.000000;1.535419
9106.000000;1.532719
9105.000000;1.530768
9104.000000;1.530297
9103.000000;1.530715
9102.000000;1.531418
9101.000000;1.532609
9100.000000;1.534518
9099.000000;1.536366
9098.000000;1.536799
9097.000000;1.535417
9096.000000;1.533303
9095.000000;1.531755
9094.000000;1.530923
9093.000000;1.530072
9092.000000;1.528860
9091.000000;1.527763
9090.000000;1.527271
9089.000000;1.527303
9088.000000;1.527631
9087.000000;1.528292
9086.000000;1.529181
9085.000000;1.529694
9084.000000;1.529348
9083.000000;1.528499
9082.000000;1.527857
9081.000000;1.527431
9080.000000;1.526589
9079.000000;1.525126
9078.000000;1.523692
9077.000000;1.523028
9076.000000;1.523212
9075.000000;1.523790
9074.000000;1.524227
9073.000000;1.524102
9072.000000;1.523302
9071.000000;1.522265
9070.000000;1.521692
9069.000000;1.521809
9068.000000;1.522169
9067.000000;1.522284
9066.000000;1.522076
9065.000000;1.521567
9064.000000;1.520599
9063.000000;1.519166
9062.000000;1.517712
9061.000000;1.516749
9060.000000;1.516436
9059.000000;1.516714
9058.000000;1.517495
9057.000000;1.518373
9056.000000;1.518575
9055.000000;1.517742
9054.000000;1.516591
9053.000000;1.516194
