Criado como novo conjunto de dados;"Jao_teste_celulas.spp","5763.2 Secs"
cm-1;Abs
10000.000000;1.190823
9999.000000;1.190036
9998.000000;1.189251
9997.000000;1.188466
9996.000000;1.187684
9995.000000;1.186902
9994.000000;1.186123
9993.000000;1.185342
9992.000000;1.184569
9991.000000;1.183786
9990.000000;1.183026
9989.000000;1.182173
9988.000000;1.181176
9987.000000;1.180154
9986.000000;1.179223
9985.000000;1.178535
9984.000000;1.178207
9983.000000;1.178182
9982.000000;1.178096
9981.000000;1.177523
9980.000000;1.176449
9979.000000;1.175382
9978.000000;1.174903
9977.000000;1.175181
9976.000000;1.175899
9975.000000;1.176490
9974.000000;1.176406
9973.000000;1.175432
9972.000000;1.173925
9971.000000;1.172646
9970.000000;1.172130
9969.000000;1.172246
9968.000000;1.172457
9967.000000;1.172452
9966.000000;1.172403
9965.000000;1.172618
9964.000000;1.173059
9963.000000;1.173260
9962.000000;1.172720
9961.000000;1.171438
9960.000000;1.170059
9959.000000;1.169379
9958.000000;1.169614
9957.000000;1.170194
9956.000000;1.170329
9955.000000;1.169742
9954.000000;1.168787
9953.000000;1.168012
9952.000000;1.167727
9951.000000;1.167840
9950.000000;1.167864
9949.000000;1.167171
9948.000000;1.165555
9947.000000;1.163611
9946.000000;1.162369
9945.000000;1.162370
9944.000000;1.163180
9943.000000;1.163860
9942.000000;1.163833
9941.000000;1.163165
9940.000000;1.162148
9939.000000;1.160900
9938.000000;1.159492
9937.000000;1.158208
9936.000000;1.157441
9935.000000;1.157299
9934.000000;1.157496
9933.000000;1.157663
9932.000000;1.157663
9931.000000;1.157549
9930.000000;1.157321
9929.000000;1.156882
9928.000000;1.156174
9927.000000;1.155284
9926.000000;1.154432
9925.000000;1.153902
9924.000000;1.153879
9923.000000;1.154190
9922.000000;1.154272
9921.000000;1.153648
9920.000000;1.152481
9919.000000;1.151476
9918.000000;1.151162
9917.000000;1.151399
9916.000000;1.151649
9915.000000;1.151557
9914.000000;1.151112
9913.000000;1.150408
9912.000000;1.149503
9911.000000;1.148537
9910.000000;1.147795
9909.000000;1.147509
9908.000000;1.147629
9907.000000;1.147858
9906.000000;1.147945
9905.000000;1.147934
9904.000000;1.148039
9903.000000;1.148245
9902.000000;1.148168
9901.000000;1.147505
9900.000000;1.146519
9899.000000;1.145817
9898.000000;1.145580
9897.000000;1.145302
9896.000000;1.144455
9895.000000;1.143177
9894.000000;1.142075
9893.000000;1.141487
9892.000000;1.141261
9891.000000;1.141159
9890.000000;1.141115
9889.000000;1.141015
9888.000000;1.140614
9887.000000;1.139901
9886.000000;1.139300
9885.000000;1.139175
9884.000000;1.139184
9883.000000;1.138507
9882.000000;1.136845
9881.000000;1.134979
9880.000000;1.134079
9879.000000;1.134554
9878.000000;1.135753
9877.000000;1.136724
9876.000000;1.137006
9875.000000;1.136621
9874.000000;1.135644
9873.000000;1.134166
9872.000000;1.132597
9871.000000;1.131589
9870.000000;1.131472
9869.000000;1.131917
9868.000000;1.132291
9867.000000;1.132252
9866.000000;1.131927
9865.000000;1.131629
9864.000000;1.131498
9863.000000;1.131327
9862.000000;1.130691
9861.000000;1.129397
9860.000000;1.127859
9859.000000;1.126825
9858.000000;1.126589
9857.000000;1.126667
9856.000000;1.126427
9855.000000;1.125883
9854.000000;1.125557
9853.000000;1.125630
9852.000000;1.125633
9851.000000;1.125071
9850.000000;1.124087
9849.000000;1.123289
9848.000000;1.123103
9847.000000;1.123457
9846.000000;1.123972
9845.000000;1.124286
9844.000000;1.124239
9843.000000;1.123854
9842.000000;1.123210
9841.000000;1.122337
9840.000000;1.121289
9839.000000;1.120257
9838.000000;1.119481
9837.000000;1.118985
9836.000000;1.118538
9835.000000;1.117957
9834.000000;1.117353
9833.000000;1.116956
9832.000000;1.116796
9831.000000;1.116692
9830.000000;1.116504
9829.000000;1.116244
9828.000000;1.115940
9827.000000;1.115559
9826.000000;1.115116
9825.000000;1.114740
9824.000000;1.114515
9823.000000;1.114334
9822.000000;1.114001
9821.000000;1.113470
9820.000000;1.112858
9819.000000;1.112227
9818.000000;1.111483
9817.000000;1.110576
9816.000000;1.109723
9815.000000;1.109266
9814.000000;1.109319
9813.000000;1.109619
9812.000000;1.109800
9811.000000;1.109714
9810.000000;1.109439
9809.000000;1.109049
9808.000000;1.108524
9807.000000;1.107894
9806.000000;1.107340
9805.000000;1.107068
9804.000000;1.107085
9803.000000;1.107166
9802.000000;1.107062
9801.000000;1.106718
9800.000000;1.106267
9799.000000;1.105846
9798.000000;1.105490
9797.000000;1.105155
9796.000000;1.104757
9795.000000;1.104150
9794.000000;1.103218
9793.000000;1.102091
9792.000000;1.101159
9791.000000;1.100687
9790.000000;1.100466
9789.000000;1.100030
9788.000000;1.099253
9787.000000;1.098504
9786.000000;1.098140
9785.000000;1.098038
9784.000000;1.097808
9783.000000;1.097317
9782.000000;1.096804
9781.000000;1.096503
9780.000000;1.096325
9779.000000;1.095964
9778.000000;1.095245
9777.000000;1.094327
9776.000000;1.093613
9775.000000;1.093383
9774.000000;1.093453
9773.000000;1.093262
9772.000000;1.092415
9771.000000;1.091151
9770.000000;1.090151
9769.000000;1.089920
9768.000000;1.090390
9767.000000;1.091060
9766.000000;1.091387
9765.000000;1.091078
9764.000000;1.090228
9763.000000;1.089260
9762.000000;1.088631
9761.000000;1.088454
9760.000000;1.088400
9759.000000;1.088009
9758.000000;1.087140
9757.000000;1.086124
9756.000000;1.085468
9755.000000;1.085426
9754.000000;1.085831
9753.000000;1.086321
9752.000000;1.086638
9751.000000;1.086690
9750.000000;1.086483
9749.000000;1.086167
9748.000000;1.086048
9747.000000;1.086279
9746.000000;1.086514
9745.000000;1.086192
9744.000000;1.085269
9743.000000;1.084347
9742.000000;1.083867
9741.000000;1.083508
9740.000000;1.082730
9739.000000;1.081670
9738.000000;1.080963
9737.000000;1.080791
9736.000000;1.080634
9735.000000;1.080076
9734.000000;1.079376
9733.000000;1.078986
9732.000000;1.078881
9731.000000;1.078702
9730.000000;1.078308
9729.000000;1.077845
9728.000000;1.077382
9727.000000;1.076799
9726.000000;1.076043
9725.000000;1.075257
9724.000000;1.074614
9723.000000;1.074154
9722.000000;1.073789
9721.000000;1.073372
9720.000000;1.072794
9719.000000;1.072142
9718.000000;1.071731
9717.000000;1.071829
9716.000000;1.072288
9715.000000;1.072549
9714.000000;1.072101
9713.000000;1.070956
9712.000000;1.069684
9711.000000;1.068922
9710.000000;1.068814
9709.000000;1.068912
9708.000000;1.068667
9707.000000;1.068003
9706.000000;1.067306
9705.000000;1.066906
9704.000000;1.066735
9703.000000;1.066555
9702.000000;1.066308
9701.000000;1.066069
9700.000000;1.065789
9699.000000;1.065318
9698.000000;1.064673
9697.000000;1.064091
9696.000000;1.063796
9695.000000;1.063795
9694.000000;1.063929
9693.000000;1.064008
9692.000000;1.063885
9691.000000;1.063473
9690.000000;1.062756
9689.000000;1.061806
9688.000000;1.060795
9687.000000;1.059947
9686.000000;1.059402
9685.000000;1.059086
9684.000000;1.058814
9683.000000;1.058526
9682.000000;1.058308
9681.000000;1.058139
9680.000000;1.057803
9679.000000;1.057182
9678.000000;1.056517
9677.000000;1.056163
9676.000000;1.056156
9675.000000;1.056173
9674.000000;1.055899
9673.000000;1.055285
9672.000000;1.054464
9671.000000;1.053627
9670.000000;1.052981
9669.000000;1.052664
9668.000000;1.052617
9667.000000;1.052622
9666.000000;1.052504
9665.000000;1.052207
9664.000000;1.051715
9663.000000;1.051031
9662.000000;1.050248
9661.000000;1.049504
9660.000000;1.048857
9659.000000;1.048341
9658.000000;1.048102
9657.000000;1.048284
9656.000000;1.048709
9655.000000;1.048883
9654.000000;1.048457
9653.000000;1.047572
9652.000000;1.046651
9651.000000;1.046004
9650.000000;1.045736
9649.000000;1.045848
9648.000000;1.046213
9647.000000;1.046505
9646.000000;1.046370
9645.000000;1.045725
9644.000000;1.044802
9643.000000;1.043881
9642.000000;1.043083
9641.000000;1.042406
9640.000000;1.041865
9639.000000;1.041513
9638.000000;1.041344
9637.000000;1.041194
9636.000000;1.040814
9635.000000;1.040115
9634.000000;1.039351
9633.000000;1.038895
9632.000000;1.038789
9631.000000;1.038653
9630.000000;1.038139
9629.000000;1.037351
9628.000000;1.036697
9627.000000;1.036426
9626.000000;1.036473
9625.000000;1.036648
9624.000000;1.036792
9623.000000;1.036765
9622.000000;1.036493
9621.000000;1.036014
9620.000000;1.035360
9619.000000;1.034445
9618.000000;1.033270
9617.000000;1.032212
9616.000000;1.031813
9615.000000;1.032182
9614.000000;1.032789
9613.000000;1.032952
9612.000000;1.032411
9611.000000;1.031390
9610.000000;1.030314
9609.000000;1.029621
9608.000000;1.029603
9607.000000;1.030190
9606.000000;1.030932
9605.000000;1.031376
9604.000000;1.031402
9603.000000;1.031094
9602.000000;1.030468
9601.000000;1.029546
9600.000000;1.028574
9599.000000;1.027852
9598.000000;1.027359
9597.000000;1.026832
9596.000000;1.026233
9595.000000;1.025859
9594.000000;1.025867
9593.000000;1.025931
9592.000000;1.025571
9591.000000;1.024716
9590.000000;1.023746
9589.000000;1.023059
9588.000000;1.022734
9587.000000;1.022590
9586.000000;1.022391
9585.000000;1.021988
9584.000000;1.021396
9583.000000;1.020853
9582.000000;1.020707
9581.000000;1.021112
9580.000000;1.021771
9579.000000;1.022076
9578.000000;1.021607
9577.000000;1.020522
9576.000000;1.019388
9575.000000;1.018648
9574.000000;1.018328
9573.000000;1.018220
9572.000000;1.018147
9571.000000;1.017945
9570.000000;1.017403
9569.000000;1.016487
9568.000000;1.015544
9567.000000;1.015037
9566.000000;1.015043
9565.000000;1.015195
9564.000000;1.015145
9563.000000;1.014877
9562.000000;1.014510
9561.000000;1.014033
9560.000000;1.013383
9559.000000;1.012629
9558.000000;1.011908
9557.000000;1.011275
9556.000000;1.010723
9555.000000;1.010280
9554.000000;1.009951
9553.000000;1.009670
9552.000000;1.009443
9551.000000;1.009435
9550.000000;1.009753
9549.000000;1.010190
9548.000000;1.010351
9547.000000;1.010036
9546.000000;1.009375
9545.000000;1.008594
9544.000000;1.007808
9543.000000;1.007053
9542.000000;1.006396
9541.000000;1.005951
9540.000000;1.005825
9539.000000;1.006014
9538.000000;1.006289
9537.000000;1.006248
9536.000000;1.005609
9535.000000;1.004482
9534.000000;1.003271
9533.000000;1.002328
9532.000000;1.001764
9531.000000;1.001512
9530.000000;1.001428
9529.000000;1.001352
9528.000000;1.001224
9527.000000;1.001148
9526.000000;1.001202
9525.000000;1.001208
9524.000000;1.000877
9523.000000;1.000230
9522.000000;0.999665
9521.000000;0.999492
9520.000000;0.999527
9519.000000;0.999295
9518.000000;0.998553
9517.000000;0.997469
9516.000000;0.996377
9515.000000;0.995535
9514.000000;0.995103
9513.000000;0.995137
9512.000000;0.995474
9511.000000;0.995714
9510.000000;0.995472
9509.000000;0.994737
9508.000000;0.993917
9507.000000;0.993469
9506.000000;0.993444
9505.000000;0.993417
9504.000000;0.992933
9503.000000;0.991999
9502.000000;0.991086
9501.000000;0.990628
9500.000000;0.990603
9499.000000;0.990601
9498.000000;0.990251
9497.000000;0.989534
9496.000000;0.988751
9495.000000;0.988243
9494.000000;0.988126
9493.000000;0.988223
9492.000000;0.988231
9491.000000;0.988011
9490.000000;0.987720
9489.000000;0.987605
9488.000000;0.987694
9487.000000;0.987742
9486.000000;0.987498
9485.000000;0.986981
9484.000000;0.986434
9483.000000;0.986048
9482.000000;0.985800
9481.000000;0.985535
9480.000000;0.985159
9479.000000;0.984700
9478.000000;0.984263
9477.000000;0.983976
9476.000000;0.983933
9475.000000;0.984079
9474.000000;0.984146
9473.000000;0.983791
9472.000000;0.982903
9471.000000;0.981764
9470.000000;0.980851
9469.000000;0.980468
9468.000000;0.980531
9467.000000;0.980679
9466.000000;0.980576
9465.000000;0.980132
9464.000000;0.979469
9463.000000;0.978709
9462.000000;0.977884
9461.000000;0.977085
9460.000000;0.976594
9459.000000;0.976675
9458.000000;0.977233
9457.000000;0.977799
9456.000000;0.977924
9455.000000;0.977514
9454.000000;0.976764
9453.000000;0.975942
9452.000000;0.975295
9451.000000;0.974988
9450.000000;0.974964
9449.000000;0.974948
9448.000000;0.974744
9447.000000;0.974433
9446.000000;0.974134
9445.000000;0.973724
9444.000000;0.973028
9443.000000;0.972212
9442.000000;0.971729
9441.000000;0.971815
9440.000000;0.972231
9439.000000;0.972524
9438.000000;0.972391
9437.000000;0.971796
9436.000000;0.970923
9435.000000;0.970073
9434.000000;0.969449
9433.000000;0.968998
9432.000000;0.968566
9431.000000;0.968198
9430.000000;0.968064
9429.000000;0.968115
9428.000000;0.968088
9427.000000;0.967914
9426.000000;0.967834
9425.000000;0.967958
9424.000000;0.967981
9423.000000;0.967582
9422.000000;0.966880
9421.000000;0.966230
9420.000000;0.965729
9419.000000;0.965198
9418.000000;0.964542
9417.000000;0.963851
9416.000000;0.963186
9415.000000;0.962554
9414.000000;0.962089
9413.000000;0.961964
9412.000000;0.962087
9411.000000;0.962109
9410.000000;0.961820
9409.000000;0.961359
9408.000000;0.960965
9407.000000;0.960704
9406.000000;0.960518
9405.000000;0.960372
9404.000000;0.960220
9403.000000;0.959963
9402.000000;0.959563
9401.000000;0.959112
9400.000000;0.958712
9399.000000;0.958354
9398.000000;0.957995
9397.000000;0.957655
9396.000000;0.957353
9395.000000;0.957031
9394.000000;0.956610
9393.000000;0.956102
9392.000000;0.955594
9391.000000;0.955190
9390.000000;0.954979
9389.000000;0.954974
9388.000000;0.954998
9387.000000;0.954763
9386.000000;0.954160
9385.000000;0.953446
9384.000000;0.953014
9383.000000;0.953003
9382.000000;0.953201
9381.000000;0.953286
9380.000000;0.953088
9379.000000;0.952661
9378.000000;0.952200
9377.000000;0.951863
9376.000000;0.951594
9375.000000;0.951134
9374.000000;0.950314
9373.000000;0.949312
9372.000000;0.948527
9371.000000;0.948137
9370.000000;0.947888
9369.000000;0.947371
9368.000000;0.946462
9367.000000;0.945433
9366.000000;0.944666
9365.000000;0.944323
9364.000000;0.944310
9363.000000;0.944472
9362.000000;0.944722
9361.000000;0.945008
9360.000000;0.945216
9359.000000;0.945210
9358.000000;0.944936
9357.000000;0.944435
9356.000000;0.943782
9355.000000;0.943082
9354.000000;0.942550
9353.000000;0.942432
9352.000000;0.942741
9351.000000;0.943119
9350.000000;0.943096
9349.000000;0.942536
9348.000000;0.941740
9347.000000;0.941117
9346.000000;0.940801
9345.000000;0.940624
9344.000000;0.940402
9343.000000;0.940169
9342.000000;0.940112
9341.000000;0.940290
9340.000000;0.940487
9339.000000;0.940377
9338.000000;0.939859
9337.000000;0.939159
9336.000000;0.938568
9335.000000;0.938139
9334.000000;0.937715
9333.000000;0.937194
9332.000000;0.936666
9331.000000;0.936272
9330.000000;0.936016
9329.000000;0.935781
9328.000000;0.935461
9327.000000;0.935071
9326.000000;0.934728
9325.000000;0.934561
9324.000000;0.934535
9323.000000;0.934379
9322.000000;0.933772
9321.000000;0.932692
9320.000000;0.931507
9319.000000;0.930684
9318.000000;0.930393
9317.000000;0.930452
9316.000000;0.930581
9315.000000;0.930607
9314.000000;0.930452
9313.000000;0.930058
9312.000000;0.929426
9311.000000;0.928721
9310.000000;0.928232
9309.000000;0.928174
9308.000000;0.928484
9307.000000;0.928812
9306.000000;0.928771
9305.000000;0.928251
9304.000000;0.927492
9303.000000;0.926853
9302.000000;0.926488
9301.000000;0.926272
9300.000000;0.925975
9299.000000;0.925489
9298.000000;0.924899
9297.000000;0.924409
9296.000000;0.924206
9295.000000;0.924297
9294.000000;0.924439
9293.000000;0.924272
9292.000000;0.923634
9291.000000;0.922762
9290.000000;0.922123
9289.000000;0.921989
9288.000000;0.922190
9287.000000;0.922299
9286.000000;0.922056
9285.000000;0.921587
9284.000000;0.921201
9283.000000;0.921043
9282.000000;0.920997
9281.000000;0.920871
9280.000000;0.920586
9279.000000;0.920168
9278.000000;0.919656
9277.000000;0.919110
9276.000000;0.918660
9275.000000;0.918456
9274.000000;0.918532
9273.000000;0.918728
9272.000000;0.918749
9271.000000;0.918340
9270.000000;0.917469
9269.000000;0.916419
9268.000000;0.915626
9267.000000;0.915359
9266.000000;0.915513
9265.000000;0.915746
9264.000000;0.915767
9263.000000;0.915491
9262.000000;0.915001
9261.000000;0.914474
9260.000000;0.914133
9259.000000;0.914099
9258.000000;0.914238
9257.000000;0.914247
9256.000000;0.913940
9255.000000;0.913391
9254.000000;0.912762
9253.000000;0.912104
9252.000000;0.911420
9251.000000;0.910841
9250.000000;0.910590
9249.000000;0.910735
9248.000000;0.911033
9247.000000;0.911074
9246.000000;0.910608
9245.000000;0.909766
9244.000000;0.908970
9243.000000;0.908590
9242.000000;0.908657
9241.000000;0.908917
9240.000000;0.909123
9239.000000;0.909194
9238.000000;0.909119
9237.000000;0.908852
9236.000000;0.908417
9235.000000;0.907992
9234.000000;0.907733
9233.000000;0.907572
9232.000000;0.907298
9231.000000;0.906863
9230.000000;0.906452
9229.000000;0.906231
9228.000000;0.906120
9227.000000;0.905900
9226.000000;0.905471
9225.000000;0.904941
9224.000000;0.904473
9223.000000;0.904112
9222.000000;0.903759
9221.000000;0.903269
9220.000000;0.902574
9219.000000;0.901745
9218.000000;0.900977
9217.000000;0.900505
9216.000000;0.900461
9215.000000;0.900765
9214.000000;0.901141
9213.000000;0.901303
9212.000000;0.901132
9211.000000;0.900702
9210.000000;0.900149
9209.000000;0.899607
9208.000000;0.899212
9207.000000;0.899048
9206.000000;0.899007
9205.000000;0.898815
9204.000000;0.898291
9203.000000;0.897554
9202.000000;0.896927
9201.000000;0.896654
9200.000000;0.896733
9199.000000;0.896916
9198.000000;0.896832
9197.000000;0.896230
9196.000000;0.895250
9195.000000;0.894376
9194.000000;0.894015
9193.000000;0.894129
9192.000000;0.894364
9191.000000;0.894466
9190.000000;0.894422
9189.000000;0.894273
9188.000000;0.893997
9187.000000;0.893633
9186.000000;0.893321
9185.000000;0.893116
9184.000000;0.892883
9183.000000;0.892475
9182.000000;0.891928
9181.000000;0.891403
9180.000000;0.891007
9179.000000;0.890741
9178.000000;0.890549
9177.000000;0.890341
9176.000000;0.890018
9175.000000;0.889539
9174.000000;0.888965
9173.000000;0.888393
9172.000000;0.887913
9171.000000;0.887622
9170.000000;0.887601
9169.000000;0.887811
9168.000000;0.888068
9167.000000;0.888170
9166.000000;0.888026
9165.000000;0.887639
9164.000000;0.887046
9163.000000;0.886333
9162.000000;0.885660
9161.000000;0.885190
9160.000000;0.884990
9159.000000;0.885007
9158.000000;0.885098
9157.000000;0.885072
9156.000000;0.884816
9155.000000;0.884411
9154.000000;0.884060
9153.000000;0.883824
9152.000000;0.883532
9151.000000;0.883015
9150.000000;0.882369
9149.000000;0.881879
9148.000000;0.881725
9147.000000;0.881863
9146.000000;0.882123
9145.000000;0.882287
9144.000000;0.882101
9143.000000;0.881396
9142.000000;0.880284
9141.000000;0.879147
9140.000000;0.878356
9139.000000;0.878026
9138.000000;0.878041
9137.000000;0.878217
9136.000000;0.878381
9135.000000;0.878383
9134.000000;0.878155
9133.000000;0.877774
9132.000000;0.877396
9131.000000;0.877127
9130.000000;0.876965
9129.000000;0.876880
9128.000000;0.876866
9127.000000;0.876897
9126.000000;0.876897
9125.000000;0.876819
9124.000000;0.876734
9123.000000;0.876755
9122.000000;0.876836
9121.000000;0.876748
9120.000000;0.876311
9119.000000;0.875601
9118.000000;0.874853
9117.000000;0.874214
9116.000000;0.873667
9115.000000;0.873185
9114.000000;0.872816
9113.000000;0.872582
9112.000000;0.872394
9111.000000;0.872133
9110.000000;0.871767
9109.000000;0.871349
9108.000000;0.870927
9107.000000;0.870481
9106.000000;0.869958
9105.000000;0.869363
9104.000000;0.868850
9103.000000;0.868654
9102.000000;0.868840
9101.000000;0.869136
9100.000000;0.869161
9099.000000;0.868847
9098.000000;0.868500
9097.000000;0.868381
9096.000000;0.868367
9095.000000;0.868166
9094.000000;0.867739
9093.000000;0.867321
9092.000000;0.867068
9091.000000;0.866875
9090.000000;0.866565
9089.000000;0.866134
9088.000000;0.865706
9087.000000;0.865331
9086.000000;0.864915
9085.000000;0.864350
9084.000000;0.863701
9083.000000;0.863207
9082.000000;0.863065
9081.000000;0.863195
9080.000000;0.863305
9079.000000;0.863217
9078.000000;0.863062
9077.000000;0.863055
9076.000000;0.863148
9075.000000;0.863031
9074.000000;0.862507
9073.000000;0.861757
9072.000000;0.861180
9071.000000;0.861020
9070.000000;0.861168
9069.000000;0.861299
9068.000000;0.861171
9067.000000;0.860830
9066.000000;0.860509
9065.000000;0.860334
9064.000000;0.860183
9063.000000;0.859866
9062.000000;0.859403
9061.000000;0.858997
9060.000000;0.858750
9059.000000;0.858525
9058.000000;0.858118
9057.000000;0.857515
9056.000000;0.856906
9055.000000;0.856483
9054.000000;0.856296
9053.000000;0.856269
