Criado como novo conjunto de dados;"Jao_teste_celulas.spp","4743.0 Secs"
cm-1;Abs
10000.000000;1.041772
9999.000000;1.042436
9998.000000;1.043427
9997.000000;1.044255
9996.000000;1.044384
9995.000000;1.043727
9994.000000;1.042571
9993.000000;1.041472
9992.000000;1.040726
9991.000000;1.040259
9990.000000;1.039767
9989.000000;1.039074
9988.000000;1.038225
9987.000000;1.037353
9986.000000;1.036538
9985.000000;1.035783
9984.000000;1.035058
9983.000000;1.034325
9982.000000;1.033617
9981.000000;1.033128
9980.000000;1.033101
9979.000000;1.033506
9978.000000;1.033909
9977.000000;1.033836
9976.000000;1.033251
9975.000000;1.032512
9974.000000;1.031881
9973.000000;1.031325
9972.000000;1.030837
9971.000000;1.030632
9970.000000;1.030835
9969.000000;1.031139
9968.000000;1.031022
9967.000000;1.030285
9966.000000;1.029227
9965.000000;1.028327
9964.000000;1.027863
9963.000000;1.027780
9962.000000;1.027776
9961.000000;1.027522
9960.000000;1.026901
9959.000000;1.026057
9958.000000;1.025230
9957.000000;1.024633
9956.000000;1.024461
9955.000000;1.024796
9954.000000;1.025384
9953.000000;1.025687
9952.000000;1.025358
9951.000000;1.024564
9950.000000;1.023641
9949.000000;1.022633
9948.000000;1.021437
9947.000000;1.020285
9946.000000;1.019664
9945.000000;1.019724
9944.000000;1.020025
9943.000000;1.020018
9942.000000;1.019557
9941.000000;1.018890
9940.000000;1.018331
9939.000000;1.018057
9938.000000;1.018016
9937.000000;1.017938
9936.000000;1.017544
9935.000000;1.016847
9934.000000;1.016119
9933.000000;1.015552
9932.000000;1.015126
9931.000000;1.014823
9930.000000;1.014751
9929.000000;1.014913
9928.000000;1.015064
9927.000000;1.014929
9926.000000;1.014436
9925.000000;1.013619
9924.000000;1.012470
9923.000000;1.011092
9922.000000;1.009846
9921.000000;1.009138
9920.000000;1.009060
9919.000000;1.009341
9918.000000;1.009577
9917.000000;1.009452
9916.000000;1.008839
9915.000000;1.007900
9914.000000;1.007041
9913.000000;1.006618
9912.000000;1.006654
9911.000000;1.006851
9910.000000;1.006876
9909.000000;1.006608
9908.000000;1.006199
9907.000000;1.005922
9906.000000;1.005893
9905.000000;1.005894
9904.000000;1.005606
9903.000000;1.005036
9902.000000;1.004534
9901.000000;1.004310
9900.000000;1.004123
9899.000000;1.003586
9898.000000;1.002630
9897.000000;1.001489
9896.000000;1.000370
9895.000000;0.999348
9894.000000;0.998511
9893.000000;0.997988
9892.000000;0.997819
9891.000000;0.997911
9890.000000;0.998126
9889.000000;0.998319
9888.000000;0.998359
9887.000000;0.998217
9886.000000;0.997968
9885.000000;0.997665
9884.000000;0.997299
9883.000000;0.996928
9882.000000;0.996678
9881.000000;0.996487
9880.000000;0.996114
9879.000000;0.995562
9878.000000;0.995229
9877.000000;0.995325
9876.000000;0.995356
9875.000000;0.994627
9874.000000;0.993171
9873.000000;0.991734
9872.000000;0.990844
9871.000000;0.990339
9870.000000;0.989872
9869.000000;0.989415
9868.000000;0.989072
9867.000000;0.988749
9866.000000;0.988286
9865.000000;0.987696
9864.000000;0.987060
9863.000000;0.986396
9862.000000;0.985852
9861.000000;0.985783
9860.000000;0.986322
9859.000000;0.987013
9858.000000;0.987195
9857.000000;0.986733
9856.000000;0.986098
9855.000000;0.985714
9854.000000;0.985503
9853.000000;0.985114
9852.000000;0.984378
9851.000000;0.983397
9850.000000;0.982370
9849.000000;0.981499
9848.000000;0.980995
9847.000000;0.980976
9846.000000;0.981271
9845.000000;0.981461
9844.000000;0.981212
9843.000000;0.980570
9842.000000;0.979855
9841.000000;0.979295
9840.000000;0.978860
9839.000000;0.978456
9838.000000;0.978083
9837.000000;0.977700
9836.000000;0.977135
9835.000000;0.976311
9834.000000;0.975482
9833.000000;0.975007
9832.000000;0.974948
9831.000000;0.975091
9830.000000;0.975285
9829.000000;0.975513
9828.000000;0.975649
9827.000000;0.975458
9826.000000;0.974909
9825.000000;0.974224
9824.000000;0.973514
9823.000000;0.972651
9822.000000;0.971626
9821.000000;0.970753
9820.000000;0.970314
9819.000000;0.970219
9818.000000;0.970197
9817.000000;0.970128
9816.000000;0.969951
9815.000000;0.969493
9814.000000;0.968692
9813.000000;0.967853
9812.000000;0.967351
9811.000000;0.967173
9810.000000;0.967045
9809.000000;0.966924
9808.000000;0.967007
9807.000000;0.967246
9806.000000;0.967224
9805.000000;0.966642
9804.000000;0.965668
9803.000000;0.964687
9802.000000;0.963935
9801.000000;0.963510
9800.000000;0.963461
9799.000000;0.963670
9798.000000;0.963817
9797.000000;0.963688
9796.000000;0.963416
9795.000000;0.963216
9794.000000;0.962968
9793.000000;0.962323
9792.000000;0.961220
9791.000000;0.960070
9790.000000;0.959328
9789.000000;0.958998
9788.000000;0.958692
9787.000000;0.958096
9786.000000;0.957267
9785.000000;0.956496
9784.000000;0.956002
9783.000000;0.955803
9782.000000;0.955741
9781.000000;0.955562
9780.000000;0.955031
9779.000000;0.954127
9778.000000;0.953115
9777.000000;0.952319
9776.000000;0.951839
9775.000000;0.951586
9774.000000;0.951569
9773.000000;0.951906
9772.000000;0.952480
9771.000000;0.952807
9770.000000;0.952451
9769.000000;0.951491
9768.000000;0.950377
9767.000000;0.949442
9766.000000;0.948749
9765.000000;0.948339
9764.000000;0.948308
9763.000000;0.948562
9762.000000;0.948717
9761.000000;0.948396
9760.000000;0.947576
9759.000000;0.946553
9758.000000;0.945655
9757.000000;0.945074
9756.000000;0.944869
9755.000000;0.944976
9754.000000;0.945157
9753.000000;0.945045
9752.000000;0.944365
9751.000000;0.943233
9750.000000;0.942226
9749.000000;0.941961
9748.000000;0.942495
9747.000000;0.943197
9746.000000;0.943357
9745.000000;0.942874
9744.000000;0.942191
9743.000000;0.941651
9742.000000;0.941168
9741.000000;0.940561
9740.000000;0.939917
9739.000000;0.939470
9738.000000;0.939280
9737.000000;0.939195
9736.000000;0.939044
9735.000000;0.938741
9734.000000;0.938265
9733.000000;0.937673
9732.000000;0.937082
9731.000000;0.936542
9730.000000;0.935981
9729.000000;0.935353
9728.000000;0.934772
9727.000000;0.934399
9726.000000;0.934255
9725.000000;0.934218
9724.000000;0.934172
9723.000000;0.934049
9722.000000;0.933798
9721.000000;0.933435
9720.000000;0.933082
9719.000000;0.932801
9718.000000;0.932406
9717.000000;0.931598
9716.000000;0.930363
9715.000000;0.929127
9714.000000;0.928403
9713.000000;0.928351
9712.000000;0.928695
9711.000000;0.929032
9710.000000;0.929138
9709.000000;0.929019
9708.000000;0.928769
9707.000000;0.928416
9706.000000;0.927924
9705.000000;0.927308
9704.000000;0.926692
9703.000000;0.926199
9702.000000;0.925784
9701.000000;0.925267
9700.000000;0.924571
9699.000000;0.923859
9698.000000;0.923367
9697.000000;0.923130
9696.000000;0.922951
9695.000000;0.922629
9694.000000;0.922113
9693.000000;0.921450
9692.000000;0.920712
9691.000000;0.920061
9690.000000;0.919759
9689.000000;0.919962
9688.000000;0.920473
9687.000000;0.920832
9686.000000;0.920692
9685.000000;0.920089
9684.000000;0.919318
9683.000000;0.918660
9682.000000;0.918239
9681.000000;0.918022
9680.000000;0.917837
9679.000000;0.917458
9678.000000;0.916782
9677.000000;0.915934
9676.000000;0.915138
9675.000000;0.914521
9674.000000;0.914099
9673.000000;0.913897
9672.000000;0.913940
9671.000000;0.914107
9670.000000;0.914135
9669.000000;0.913826
9668.000000;0.913242
9667.000000;0.912611
9666.000000;0.912087
9665.000000;0.911608
9664.000000;0.910980
9663.000000;0.910055
9662.000000;0.908879
9661.000000;0.907689
9660.000000;0.906794
9659.000000;0.906402
9658.000000;0.906533
9657.000000;0.907035
9656.000000;0.907683
9655.000000;0.908285
9654.000000;0.908702
9653.000000;0.908792
9652.000000;0.908398
9651.000000;0.907514
9650.000000;0.906456
9649.000000;0.905712
9648.000000;0.905511
9647.000000;0.905591
9646.000000;0.905507
9645.000000;0.905093
9644.000000;0.904526
9643.000000;0.903980
9642.000000;0.903398
9641.000000;0.902642
9640.000000;0.901773
9639.000000;0.901076
9638.000000;0.900809
9637.000000;0.900934
9636.000000;0.901096
9635.000000;0.900926
9634.000000;0.900397
9633.000000;0.899825
9632.000000;0.899462
9631.000000;0.899218
9630.000000;0.898868
9629.000000;0.898410
9628.000000;0.898061
9627.000000;0.897967
9626.000000;0.898085
9625.000000;0.898274
9624.000000;0.898312
9623.000000;0.897910
9622.000000;0.896975
9621.000000;0.895859
9620.000000;0.895043
9619.000000;0.894564
9618.000000;0.894051
9617.000000;0.893396
9616.000000;0.893011
9615.000000;0.893186
9614.000000;0.893518
9613.000000;0.893313
9612.000000;0.892456
9611.000000;0.891516
9610.000000;0.891057
9609.000000;0.891124
9608.000000;0.891403
9607.000000;0.891605
9606.000000;0.891596
9605.000000;0.891339
9604.000000;0.890821
9603.000000;0.890050
9602.000000;0.889100
9601.000000;0.888181
9600.000000;0.887552
9599.000000;0.887252
9598.000000;0.886998
9597.000000;0.886506
9596.000000;0.885835
9595.000000;0.885292
9594.000000;0.885051
9593.000000;0.885053
9592.000000;0.885183
9591.000000;0.885287
9590.000000;0.885081
9589.000000;0.884333
9588.000000;0.883250
9587.000000;0.882428
9586.000000;0.882255
9585.000000;0.882534
9584.000000;0.882785
9583.000000;0.882792
9582.000000;0.882679
9581.000000;0.882582
9580.000000;0.882451
9579.000000;0.882185
9578.000000;0.881783
9577.000000;0.881306
9576.000000;0.880738
9575.000000;0.879991
9574.000000;0.879073
9573.000000;0.878211
9572.000000;0.877718
9571.000000;0.877640
9570.000000;0.877601
9569.000000;0.877124
9568.000000;0.876101
9567.000000;0.874895
9566.000000;0.873990
9565.000000;0.873660
9564.000000;0.873904
9563.000000;0.874476
9562.000000;0.874940
9561.000000;0.874887
9560.000000;0.874260
9559.000000;0.873400
9558.000000;0.872711
9557.000000;0.872383
9556.000000;0.872402
9555.000000;0.872640
9554.000000;0.872818
9553.000000;0.872590
9552.000000;0.871868
9551.000000;0.871000
9550.000000;0.870428
9549.000000;0.870215
9548.000000;0.870030
9547.000000;0.869586
9546.000000;0.868955
9545.000000;0.868467
9544.000000;0.868373
9543.000000;0.868587
9542.000000;0.868695
9541.000000;0.868283
9540.000000;0.867369
9539.000000;0.866436
9538.000000;0.865952
9537.000000;0.865927
9536.000000;0.866037
9535.000000;0.866067
9534.000000;0.866010
9533.000000;0.865826
9532.000000;0.865370
9531.000000;0.864649
9530.000000;0.863925
9529.000000;0.863430
9528.000000;0.863111
9527.000000;0.862779
9526.000000;0.862405
9525.000000;0.862147
9524.000000;0.862121
9523.000000;0.862230
9522.000000;0.862201
9521.000000;0.861763
9520.000000;0.860850
9519.000000;0.859711
9518.000000;0.858744
9517.000000;0.858162
9516.000000;0.857840
9515.000000;0.857528
9514.000000;0.857164
9513.000000;0.856893
9512.000000;0.856819
9511.000000;0.856813
9510.000000;0.856625
9509.000000;0.856143
9508.000000;0.855536
9507.000000;0.855129
9506.000000;0.855103
9505.000000;0.855301
9504.000000;0.855347
9503.000000;0.854986
9502.000000;0.854292
9501.000000;0.853555
9500.000000;0.853025
9499.000000;0.852769
9498.000000;0.852688
9497.000000;0.852578
9496.000000;0.852209
9495.000000;0.851485
9494.000000;0.850572
9493.000000;0.849849
9492.000000;0.849648
9491.000000;0.850010
9490.000000;0.850642
9489.000000;0.851102
9488.000000;0.851084
9487.000000;0.850601
9486.000000;0.849917
9485.000000;0.849298
9484.000000;0.848813
9483.000000;0.848344
9482.000000;0.847740
9481.000000;0.846965
9480.000000;0.846137
9479.000000;0.845469
9478.000000;0.845134
9477.000000;0.845128
9476.000000;0.845257
9475.000000;0.845268
9474.000000;0.845013
9473.000000;0.844510
9472.000000;0.843915
9471.000000;0.843460
9470.000000;0.843336
9469.000000;0.843530
9468.000000;0.843782
9467.000000;0.843759
9466.000000;0.843313
9465.000000;0.842533
9464.000000;0.841595
9463.000000;0.840655
9462.000000;0.839867
9461.000000;0.839391
9460.000000;0.839285
9459.000000;0.839428
9458.000000;0.839582
9457.000000;0.839526
9456.000000;0.839148
9455.000000;0.838469
9454.000000;0.837660
9453.000000;0.836964
9452.000000;0.836535
9451.000000;0.836347
9450.000000;0.836279
9449.000000;0.836252
9448.000000;0.836231
9447.000000;0.836119
9446.000000;0.835775
9445.000000;0.835145
9444.000000;0.834337
9443.000000;0.833521
9442.000000;0.832807
9441.000000;0.832258
9440.000000;0.831926
9439.000000;0.831828
9438.000000;0.831898
9437.000000;0.832022
9436.000000;0.832093
9435.000000;0.831994
9434.000000;0.831602
9433.000000;0.830913
9432.000000;0.830154
9431.000000;0.829642
9430.000000;0.829483
9429.000000;0.829462
9428.000000;0.829271
9427.000000;0.828795
9426.000000;0.828157
9425.000000;0.827570
9424.000000;0.827190
9423.000000;0.827035
9422.000000;0.826980
9421.000000;0.826863
9420.000000;0.826680
9419.000000;0.826606
9418.000000;0.826727
9417.000000;0.826827
9416.000000;0.826570
9415.000000;0.825919
9414.000000;0.825204
9413.000000;0.824734
9412.000000;0.824450
9411.000000;0.824055
9410.000000;0.823409
9409.000000;0.822673
9408.000000;0.822081
9407.000000;0.821677
9406.000000;0.821327
9405.000000;0.820933
9404.000000;0.820560
9403.000000;0.820334
9402.000000;0.820238
9401.000000;0.820089
9400.000000;0.819744
9399.000000;0.819263
9398.000000;0.818819
9397.000000;0.818491
9396.000000;0.818253
9395.000000;0.818111
9394.000000;0.818108
9393.000000;0.818179
9392.000000;0.818145
9391.000000;0.817918
9390.000000;0.817576
9389.000000;0.817175
9388.000000;0.816628
9387.000000;0.815900
9386.000000;0.815201
9385.000000;0.814819
9384.000000;0.814793
9383.000000;0.814894
9382.000000;0.814911
9381.000000;0.814812
9380.000000;0.814642
9379.000000;0.814403
9378.000000;0.814060
9377.000000;0.813584
9376.000000;0.812958
9375.000000;0.812248
9374.000000;0.811664
9373.000000;0.811404
9372.000000;0.811401
9371.000000;0.811344
9370.000000;0.810998
9369.000000;0.810417
9368.000000;0.809795
9367.000000;0.809213
9366.000000;0.808645
9365.000000;0.808092
9364.000000;0.807602
9363.000000;0.807211
9362.000000;0.806948
9361.000000;0.806858
9360.000000;0.806930
9359.000000;0.807022
9358.000000;0.806981
9357.000000;0.806855
9356.000000;0.806861
9355.000000;0.807080
9354.000000;0.807267
9353.000000;0.807030
9352.000000;0.806235
9351.000000;0.805176
9350.000000;0.804324
9349.000000;0.803936
9348.000000;0.803910
9347.000000;0.803971
9346.000000;0.803922
9345.000000;0.803710
9344.000000;0.803346
9343.000000;0.802894
9342.000000;0.802482
9341.000000;0.802219
9340.000000;0.802046
9339.000000;0.801782
9338.000000;0.801343
9337.000000;0.800874
9336.000000;0.800596
9335.000000;0.800574
9334.000000;0.800668
9333.000000;0.800661
9332.000000;0.800408
9331.000000;0.799929
9330.000000;0.799372
9329.000000;0.798872
9328.000000;0.798429
9327.000000;0.797967
9326.000000;0.797502
9325.000000;0.797129
9324.000000;0.796817
9323.000000;0.796367
9322.000000;0.795663
9321.000000;0.794877
9320.000000;0.794286
9319.000000;0.793963
9318.000000;0.793767
9317.000000;0.793593
9316.000000;0.793456
9315.000000;0.793351
9314.000000;0.793187
9313.000000;0.792928
9312.000000;0.792675
9311.000000;0.792543
9310.000000;0.792527
9309.000000;0.792539
9308.000000;0.792489
9307.000000;0.792298
9306.000000;0.791924
9305.000000;0.791449
9304.000000;0.791072
9303.000000;0.790921
9302.000000;0.790894
9301.000000;0.790768
9300.000000;0.790439
9299.000000;0.790006
9298.000000;0.789645
9297.000000;0.789445
9296.000000;0.789335
9295.000000;0.789132
9294.000000;0.788675
9293.000000;0.787982
9292.000000;0.787299
9291.000000;0.786924
9290.000000;0.786954
9289.000000;0.787203
9288.000000;0.787370
9287.000000;0.787255
9286.000000;0.786832
9285.000000;0.786170
9284.000000;0.785364
9283.000000;0.784540
9282.000000;0.783868
9281.000000;0.783494
9280.000000;0.783448
9279.000000;0.783608
9278.000000;0.783796
9277.000000;0.783868
9276.000000;0.783744
9275.000000;0.783388
9274.000000;0.782831
9273.000000;0.782217
9272.000000;0.781729
9271.000000;0.781422
9270.000000;0.781148
9269.000000;0.780709
9268.000000;0.780072
9267.000000;0.779399
9266.000000;0.778881
9265.000000;0.778589
9264.000000;0.778470
9263.000000;0.778434
9262.000000;0.778389
9261.000000;0.778259
9260.000000;0.778022
9259.000000;0.777735
9258.000000;0.777490
9257.000000;0.777342
9256.000000;0.777271
9255.000000;0.777178
9254.000000;0.776896
9253.000000;0.776277
9252.000000;0.775353
9251.000000;0.774406
9250.000000;0.773761
9249.000000;0.773490
9248.000000;0.773388
9247.000000;0.773250
9246.000000;0.773069
9245.000000;0.772931
9244.000000;0.772813
9243.000000;0.772625
9242.000000;0.772379
9241.000000;0.772179
9240.000000;0.772051
9239.000000;0.771892
9238.000000;0.771609
9237.000000;0.771233
9236.000000;0.770869
9235.000000;0.770622
9234.000000;0.770551
9233.000000;0.770589
9232.000000;0.770498
9231.000000;0.770044
9230.000000;0.769282
9229.000000;0.768551
9228.000000;0.768105
9227.000000;0.767873
9226.000000;0.767643
9225.000000;0.767352
9224.000000;0.767061
9223.000000;0.766740
9222.000000;0.766289
9221.000000;0.765759
9220.000000;0.765374
9219.000000;0.765291
9218.000000;0.765437
9217.000000;0.765630
9216.000000;0.765730
9215.000000;0.765652
9214.000000;0.765335
9213.000000;0.764804
9212.000000;0.764201
9211.000000;0.763671
9210.000000;0.763238
9209.000000;0.762847
9208.000000;0.762479
9207.000000;0.762157
9206.000000;0.761866
9205.000000;0.761547
9204.000000;0.761185
9203.000000;0.760873
9202.000000;0.760734
9201.000000;0.760809
9200.000000;0.761009
9199.000000;0.761184
9198.000000;0.761197
9197.000000;0.760961
9196.000000;0.760433
9195.000000;0.759658
9194.000000;0.758797
9193.000000;0.758065
9192.000000;0.757572
9191.000000;0.757247
9190.000000;0.756948
9189.000000;0.756626
9188.000000;0.756342
9187.000000;0.756161
9186.000000;0.756077
9185.000000;0.756037
9184.000000;0.755970
9183.000000;0.755809
9182.000000;0.755544
9181.000000;0.755250
9180.000000;0.755002
9179.000000;0.754777
9178.000000;0.754490
9177.000000;0.754141
9176.000000;0.753837
9175.000000;0.753657
9174.000000;0.753543
9173.000000;0.753380
9172.000000;0.753108
9171.000000;0.752726
9170.000000;0.752254
9169.000000;0.751770
9168.000000;0.751418
9167.000000;0.751294
9166.000000;0.751317
9165.000000;0.751298
9164.000000;0.751144
9163.000000;0.750903
9162.000000;0.750624
9161.000000;0.750257
9160.000000;0.749770
9159.000000;0.749289
9158.000000;0.749003
9157.000000;0.748911
9156.000000;0.748760
9155.000000;0.748299
9154.000000;0.747568
9153.000000;0.746876
9152.000000;0.746501
9151.000000;0.746452
9150.000000;0.746519
9149.000000;0.746501
9148.000000;0.746358
9147.000000;0.746175
9146.000000;0.746039
9145.000000;0.745956
9144.000000;0.745875
9143.000000;0.745750
9142.000000;0.745569
9141.000000;0.745329
9140.000000;0.745025
9139.000000;0.744671
9138.000000;0.744316
9137.000000;0.743971
9136.000000;0.743571
9135.000000;0.743087
9134.000000;0.742650
9133.000000;0.742468
9132.000000;0.742540
9131.000000;0.742571
9130.000000;0.742258
9129.000000;0.741618
9128.000000;0.740933
9127.000000;0.740433
9126.000000;0.740150
9125.000000;0.740041
9124.000000;0.740089
9123.000000;0.740207
9122.000000;0.740186
9121.000000;0.739843
9120.000000;0.739219
9119.000000;0.738559
9118.000000;0.738109
9117.000000;0.737959
9116.000000;0.738020
9115.000000;0.738107
9114.000000;0.738055
9113.000000;0.737839
9112.000000;0.737578
9111.000000;0.737421
9110.000000;0.737391
9109.000000;0.737350
9108.000000;0.737113
9107.000000;0.736600
9106.000000;0.735919
9105.000000;0.735290
9104.000000;0.734876
9103.000000;0.734666
9102.000000;0.734523
9101.000000;0.734367
9100.000000;0.734255
9099.000000;0.734275
9098.000000;0.734381
9097.000000;0.734376
9096.000000;0.734068
9095.000000;0.733437
9094.000000;0.732664
9093.000000;0.731995
9092.000000;0.731578
9091.000000;0.731423
9090.000000;0.731458
9089.000000;0.731579
9088.000000;0.731646
9087.000000;0.731494
9086.000000;0.731049
9085.000000;0.730433
9084.000000;0.729894
9083.000000;0.729585
9082.000000;0.729436
9081.000000;0.729247
9080.000000;0.728915
9079.000000;0.728540
9078.000000;0.728288
9077.000000;0.728193
9076.000000;0.728113
9075.000000;0.727927
9074.000000;0.727688
9073.000000;0.727512
9072.000000;0.727341
9071.000000;0.726963
9070.000000;0.726315
9069.000000;0.725638
9068.000000;0.725221
9067.000000;0.725061
9066.000000;0.724894
9065.000000;0.724530
9064.000000;0.724025
9063.000000;0.723557
9062.000000;0.723252
9061.000000;0.723152
9060.000000;0.723235
9059.000000;0.723400
9058.000000;0.723517
9057.000000;0.723535
9056.000000;0.723486
9055.000000;0.723374
9054.000000;0.723164
9053.000000;0.722880
