Criado como novo conjunto de dados;"Jao_teste_celulas.spp","7563.4 Secs"
cm-1;Abs
10000.000000;1.452781
9999.000000;1.451250
9998.000000;1.449733
9997.000000;1.448206
9996.000000;1.446711
9995.000000;1.445168
9994.000000;1.443791
9993.000000;1.443091
9992.000000;1.442881
9991.000000;1.442870
9990.000000;1.442661
9989.000000;1.442015
9988.000000;1.441011
9987.000000;1.439963
9986.000000;1.439066
9985.000000;1.438356
9984.000000;1.437973
9983.000000;1.438100
9982.000000;1.438480
9981.000000;1.438373
9980.000000;1.437316
9979.000000;1.435847
9978.000000;1.435151
9977.000000;1.435821
9976.000000;1.437106
9975.000000;1.437617
9974.000000;1.436764
9973.000000;1.435354
9972.000000;1.434677
9971.000000;1.435130
9970.000000;1.435916
9969.000000;1.436085
9968.000000;1.435589
9967.000000;1.435111
9966.000000;1.435046
9965.000000;1.435024
9964.000000;1.434468
9963.000000;1.433336
9962.000000;1.432130
9961.000000;1.431315
9960.000000;1.430945
9959.000000;1.430815
9958.000000;1.430786
9957.000000;1.430835
9956.000000;1.430863
9955.000000;1.430593
9954.000000;1.429767
9953.000000;1.428477
9952.000000;1.427199
9951.000000;1.426435
9950.000000;1.426306
9949.000000;1.426466
9948.000000;1.426387
9947.000000;1.425784
9946.000000;1.424824
9945.000000;1.423915
9944.000000;1.423295
9943.000000;1.422848
9942.000000;1.422372
9941.000000;1.421935
9940.000000;1.421774
9939.000000;1.421865
9938.000000;1.421826
9937.000000;1.421388
9936.000000;1.420776
9935.000000;1.420468
9934.000000;1.420625
9933.000000;1.420893
9932.000000;1.420752
9931.000000;1.420029
9930.000000;1.419122
9929.000000;1.418675
9928.000000;1.418850
9927.000000;1.418930
9926.000000;1.417973
9925.000000;1.415979
9924.000000;1.414076
9923.000000;1.413297
9922.000000;1.413542
9921.000000;1.414041
9920.000000;1.414476
9919.000000;1.415061
9918.000000;1.415670
9917.000000;1.415642
9916.000000;1.414678
9915.000000;1.413328
9914.000000;1.412203
9913.000000;1.411147
9912.000000;1.409653
9911.000000;1.407861
9910.000000;1.406633
9909.000000;1.406608
9908.000000;1.407480
9907.000000;1.408266
9906.000000;1.408145
9905.000000;1.407098
9904.000000;1.405858
9903.000000;1.405261
9902.000000;1.405553
9901.000000;1.406266
9900.000000;1.406708
9899.000000;1.406462
9898.000000;1.405484
9897.000000;1.404030
9896.000000;1.402622
9895.000000;1.401818
9894.000000;1.401762
9893.000000;1.402059
9892.000000;1.402300
9891.000000;1.402565
9890.000000;1.403134
9889.000000;1.403817
9888.000000;1.403945
9887.000000;1.403084
9886.000000;1.401569
9885.000000;1.400215
9884.000000;1.399619
9883.000000;1.399768
9882.000000;1.400075
9881.000000;1.399752
9880.000000;1.398400
9879.000000;1.396384
9878.000000;1.394524
9877.000000;1.393435
9876.000000;1.393273
9875.000000;1.393926
9874.000000;1.395059
9873.000000;1.395938
9872.000000;1.395739
9871.000000;1.394342
9870.000000;1.392622
9869.000000;1.391615
9868.000000;1.391499
9867.000000;1.391583
9866.000000;1.391174
9865.000000;1.390256
9864.000000;1.389344
9863.000000;1.388904
9862.000000;1.388962
9861.000000;1.389168
9860.000000;1.389201
9859.000000;1.389068
9858.000000;1.388925
9857.000000;1.388666
9856.000000;1.387957
9855.000000;1.386774
9854.000000;1.385584
9853.000000;1.384766
9852.000000;1.384153
9851.000000;1.383451
9850.000000;1.382837
9849.000000;1.382716
9848.000000;1.383019
9847.000000;1.383182
9846.000000;1.382823
9845.000000;1.382038
9844.000000;1.381055
9843.000000;1.380059
9842.000000;1.379431
9841.000000;1.379603
9840.000000;1.380393
9839.000000;1.380927
9838.000000;1.380648
9837.000000;1.380045
9836.000000;1.379962
9835.000000;1.380429
9834.000000;1.380668
9833.000000;1.380114
9832.000000;1.379031
9831.000000;1.378116
9830.000000;1.377827
9829.000000;1.378131
9828.000000;1.378549
9827.000000;1.378359
9826.000000;1.377093
9825.000000;1.375025
9824.000000;1.373063
9823.000000;1.372049
9822.000000;1.372193
9821.000000;1.373042
9820.000000;1.373780
9819.000000;1.373693
9818.000000;1.372667
9817.000000;1.371339
9816.000000;1.370528
9815.000000;1.370428
9814.000000;1.370463
9813.000000;1.369949
9812.000000;1.368751
9811.000000;1.367305
9810.000000;1.366273
9809.000000;1.366229
9808.000000;1.367359
9807.000000;1.369213
9806.000000;1.370907
9805.000000;1.371756
9804.000000;1.371667
9803.000000;1.370899
9802.000000;1.369653
9801.000000;1.368046
9800.000000;1.366293
9799.000000;1.364632
9798.000000;1.363179
9797.000000;1.362045
9796.000000;1.361472
9795.000000;1.361640
9794.000000;1.362377
9793.000000;1.363245
9792.000000;1.363890
9791.000000;1.364160
9790.000000;1.363929
9789.000000;1.363072
9788.000000;1.361715
9787.000000;1.360350
9786.000000;1.359492
9785.000000;1.359200
9784.000000;1.358966
9783.000000;1.358150
9782.000000;1.356630
9781.000000;1.355080
9780.000000;1.354485
9779.000000;1.355198
9778.000000;1.356500
9777.000000;1.357260
9776.000000;1.357076
9775.000000;1.356480
9774.000000;1.355964
9773.000000;1.355213
9772.000000;1.353719
9771.000000;1.351887
9770.000000;1.350868
9769.000000;1.351143
9768.000000;1.351767
9767.000000;1.351420
9766.000000;1.349983
9765.000000;1.348617
9764.000000;1.348370
9763.000000;1.349177
9762.000000;1.350212
9761.000000;1.350747
9760.000000;1.350464
9759.000000;1.349336
9758.000000;1.347659
9757.000000;1.346104
9756.000000;1.345345
9755.000000;1.345506
9754.000000;1.346050
9753.000000;1.346186
9752.000000;1.345373
9751.000000;1.343596
9750.000000;1.341432
9749.000000;1.339830
9748.000000;1.339606
9747.000000;1.340945
9746.000000;1.343286
9745.000000;1.345579
9744.000000;1.346779
9743.000000;1.346416
9742.000000;1.344916
9741.000000;1.343169
9740.000000;1.341648
9739.000000;1.340097
9738.000000;1.338236
9737.000000;1.336446
9736.000000;1.335410
9735.000000;1.335246
9734.000000;1.335462
9733.000000;1.335712
9732.000000;1.336140
9731.000000;1.336828
9730.000000;1.337366
9729.000000;1.337251
9728.000000;1.336499
9727.000000;1.335589
9726.000000;1.334932
9725.000000;1.334527
9724.000000;1.334020
9723.000000;1.333025
9722.000000;1.331501
9721.000000;1.329897
9720.000000;1.328811
9719.000000;1.328490
9718.000000;1.328777
9717.000000;1.329465
9716.000000;1.330384
9715.000000;1.331153
9714.000000;1.331286
9713.000000;1.330764
9712.000000;1.330146
9711.000000;1.329837
9710.000000;1.329553
9709.000000;1.328837
9708.000000;1.327853
9707.000000;1.327270
9706.000000;1.327495
9705.000000;1.328333
9704.000000;1.329233
9703.000000;1.329541
9702.000000;1.328668
9701.000000;1.326504
9700.000000;1.323776
9699.000000;1.321666
9698.000000;1.320911
9697.000000;1.321354
9696.000000;1.322269
9695.000000;1.322906
9694.000000;1.322804
9693.000000;1.321957
9692.000000;1.320837
9691.000000;1.320054
9690.000000;1.319834
9689.000000;1.319895
9688.000000;1.319879
9687.000000;1.319737
9686.000000;1.319593
9685.000000;1.319410
9684.000000;1.318964
9683.000000;1.318146
9682.000000;1.317191
9681.000000;1.316536
9680.000000;1.316394
9679.000000;1.316468
9678.000000;1.316201
9677.000000;1.315386
9676.000000;1.314396
9675.000000;1.313705
9674.000000;1.313370
9673.000000;1.313195
9672.000000;1.313230
9671.000000;1.313756
9670.000000;1.314762
9669.000000;1.315766
9668.000000;1.316286
9667.000000;1.316260
9666.000000;1.315887
9665.000000;1.315269
9664.000000;1.314390
9663.000000;1.313273
9662.000000;1.312016
9661.000000;1.310762
9660.000000;1.309749
9659.000000;1.309235
9658.000000;1.309226
9657.000000;1.309383
9656.000000;1.309347
9655.000000;1.309057
9654.000000;1.308613
9653.000000;1.307968
9652.000000;1.307010
9651.000000;1.305935
9650.000000;1.305236
9649.000000;1.305179
9648.000000;1.305481
9647.000000;1.305639
9646.000000;1.305394
9645.000000;1.304716
9644.000000;1.303507
9643.000000;1.301711
9642.000000;1.299773
9641.000000;1.298616
9640.000000;1.298827
9639.000000;1.299958
9638.000000;1.300900
9637.000000;1.300982
9636.000000;1.300463
9635.000000;1.299955
9634.000000;1.299741
9633.000000;1.299792
9632.000000;1.300059
9631.000000;1.300330
9630.000000;1.300072
9629.000000;1.298880
9628.000000;1.297102
9627.000000;1.295627
9626.000000;1.294982
9625.000000;1.294874
9624.000000;1.294652
9623.000000;1.293996
9622.000000;1.293126
9621.000000;1.292549
9620.000000;1.292632
9619.000000;1.293163
9618.000000;1.293315
9617.000000;1.292392
9616.000000;1.290740
9615.000000;1.289553
9614.000000;1.289563
9613.000000;1.290230
9612.000000;1.290480
9611.000000;1.289980
9610.000000;1.289293
9609.000000;1.288953
9608.000000;1.288879
9607.000000;1.288711
9606.000000;1.288332
9605.000000;1.287869
9604.000000;1.287426
9603.000000;1.287047
9602.000000;1.286802
9601.000000;1.286762
9600.000000;1.286898
9599.000000;1.287094
9598.000000;1.287258
9597.000000;1.287372
9596.000000;1.287433
9595.000000;1.287351
9594.000000;1.286944
9593.000000;1.286132
9592.000000;1.285151
9591.000000;1.284414
9590.000000;1.284056
9589.000000;1.283796
9588.000000;1.283375
9587.000000;1.282931
9586.000000;1.282670
9585.000000;1.282340
9584.000000;1.281479
9583.000000;1.280175
9582.000000;1.279130
9581.000000;1.278819
9580.000000;1.278914
9579.000000;1.278818
9578.000000;1.278453
9577.000000;1.278183
9576.000000;1.278144
9575.000000;1.278065
9574.000000;1.277712
9573.000000;1.277080
9572.000000;1.276137
9571.000000;1.274784
9570.000000;1.273286
9569.000000;1.272405
9568.000000;1.272759
9567.000000;1.274066
9566.000000;1.275269
9565.000000;1.275464
9564.000000;1.274605
9563.000000;1.273321
9562.000000;1.272266
9561.000000;1.271758
9560.000000;1.271827
9559.000000;1.272290
9558.000000;1.272714
9557.000000;1.272568
9556.000000;1.271702
9555.000000;1.270614
9554.000000;1.269949
9553.000000;1.269706
9552.000000;1.269212
9551.000000;1.268060
9550.000000;1.266806
9549.000000;1.266421
9548.000000;1.267183
9547.000000;1.268411
9546.000000;1.269237
9545.000000;1.269303
9544.000000;1.268624
9543.000000;1.267227
9542.000000;1.265215
9541.000000;1.262993
9540.000000;1.261122
9539.000000;1.259949
9538.000000;1.259505
9537.000000;1.259649
9536.000000;1.260173
9535.000000;1.260853
9534.000000;1.261566
9533.000000;1.262272
9532.000000;1.262808
9531.000000;1.262832
9530.000000;1.262140
9529.000000;1.260958
9528.000000;1.259765
9527.000000;1.258975
9526.000000;1.258893
9525.000000;1.259686
9524.000000;1.261025
9523.000000;1.261943
9522.000000;1.261557
9521.000000;1.260010
9520.000000;1.258330
9519.000000;1.257272
9518.000000;1.256682
9517.000000;1.256036
9516.000000;1.255208
9515.000000;1.254480
9514.000000;1.254078
9513.000000;1.253997
9512.000000;1.254100
9511.000000;1.254149
9510.000000;1.253888
9509.000000;1.253300
9508.000000;1.252612
9507.000000;1.251881
9506.000000;1.250808
9505.000000;1.249250
9504.000000;1.247746
9503.000000;1.247146
9502.000000;1.247727
9501.000000;1.248896
9500.000000;1.249783
9499.000000;1.249942
9498.000000;1.249524
9497.000000;1.249005
9496.000000;1.248781
9495.000000;1.248798
9494.000000;1.248524
9493.000000;1.247486
9492.000000;1.245912
9491.000000;1.244654
9490.000000;1.244366
9489.000000;1.244912
9488.000000;1.245589
9487.000000;1.245773
9486.000000;1.245247
9485.000000;1.244128
9484.000000;1.242736
9483.000000;1.241488
9482.000000;1.240686
9481.000000;1.240312
9480.000000;1.240094
9479.000000;1.239850
9478.000000;1.239702
9477.000000;1.239897
9476.000000;1.240463
9475.000000;1.241102
9474.000000;1.241428
9473.000000;1.241248
9472.000000;1.240574
9471.000000;1.239531
9470.000000;1.238439
9469.000000;1.237845
9468.000000;1.238098
9467.000000;1.238786
9466.000000;1.238900
9465.000000;1.237855
9464.000000;1.236164
9463.000000;1.234861
9462.000000;1.234449
9461.000000;1.234723
9460.000000;1.235379
9459.000000;1.236265
9458.000000;1.237015
9457.000000;1.237012
9456.000000;1.236069
9455.000000;1.234831
9454.000000;1.234171
9453.000000;1.234333
9452.000000;1.234919
9451.000000;1.235473
9450.000000;1.235721
9449.000000;1.235356
9448.000000;1.234116
9447.000000;1.232249
9446.000000;1.230604
9445.000000;1.229947
9444.000000;1.230240
9443.000000;1.230701
9442.000000;1.230566
9441.000000;1.229715
9440.000000;1.228620
9439.000000;1.227790
9438.000000;1.227347
9437.000000;1.227071
9436.000000;1.226727
9435.000000;1.226297
9434.000000;1.225917
9433.000000;1.225704
9432.000000;1.225654
9431.000000;1.225604
9430.000000;1.225264
9429.000000;1.224367
9428.000000;1.222948
9427.000000;1.221471
9426.000000;1.220537
9425.000000;1.220395
9424.000000;1.220819
9423.000000;1.221462
9422.000000;1.222208
9421.000000;1.223084
9420.000000;1.223918
9419.000000;1.224319
9418.000000;1.224050
9417.000000;1.223296
9416.000000;1.222404
9415.000000;1.221491
9414.000000;1.220460
9413.000000;1.219400
9412.000000;1.218713
9411.000000;1.218676
9410.000000;1.218994
9409.000000;1.218991
9408.000000;1.218279
9407.000000;1.217104
9406.000000;1.215976
9405.000000;1.215121
9404.000000;1.214386
9403.000000;1.213609
9402.000000;1.212927
9401.000000;1.212687
9400.000000;1.213089
9399.000000;1.213932
9398.000000;1.214689
9397.000000;1.214848
9396.000000;1.214269
9395.000000;1.213270
9394.000000;1.212373
9393.000000;1.211932
9392.000000;1.211930
9391.000000;1.212082
9390.000000;1.212108
9389.000000;1.211910
9388.000000;1.211519
9387.000000;1.210920
9386.000000;1.210025
9385.000000;1.208837
9384.000000;1.207636
9383.000000;1.206885
9382.000000;1.206871
9381.000000;1.207395
9380.000000;1.207859
9379.000000;1.207716
9378.000000;1.206903
9377.000000;1.205824
9376.000000;1.204936
9375.000000;1.204415
9374.000000;1.204203
9373.000000;1.204196
9372.000000;1.204268
9371.000000;1.204203
9370.000000;1.203844
9369.000000;1.203312
9368.000000;1.202929
9367.000000;1.202848
9366.000000;1.202909
9365.000000;1.202903
9364.000000;1.202790
9363.000000;1.202582
9362.000000;1.202204
9361.000000;1.201629
9360.000000;1.201001
9359.000000;1.200437
9358.000000;1.199838
9357.000000;1.199120
9356.000000;1.198515
9355.000000;1.198364
9354.000000;1.198662
9353.000000;1.199075
9352.000000;1.199393
9351.000000;1.199669
9350.000000;1.199871
9349.000000;1.199735
9348.000000;1.199149
9347.000000;1.198403
9346.000000;1.197781
9345.000000;1.197086
9344.000000;1.195837
9343.000000;1.193979
9342.000000;1.192172
9341.000000;1.191325
9340.000000;1.191838
9339.000000;1.193220
9338.000000;1.194394
9337.000000;1.194525
9336.000000;1.193684
9335.000000;1.192641
9334.000000;1.192009
9333.000000;1.191732
9332.000000;1.191444
9331.000000;1.191077
9330.000000;1.190865
9329.000000;1.190898
9328.000000;1.190983
9327.000000;1.190916
9326.000000;1.190657
9325.000000;1.190243
9324.000000;1.189790
9323.000000;1.189581
9322.000000;1.189833
9321.000000;1.190239
9320.000000;1.190066
9319.000000;1.188947
9318.000000;1.187407
9317.000000;1.186311
9316.000000;1.185907
9315.000000;1.185723
9314.000000;1.185313
9313.000000;1.184756
9312.000000;1.184338
9311.000000;1.184086
9310.000000;1.183857
9309.000000;1.183688
9308.000000;1.183748
9307.000000;1.184003
9306.000000;1.184184
9305.000000;1.184137
9304.000000;1.183993
9303.000000;1.183904
9302.000000;1.183799
9301.000000;1.183545
9300.000000;1.183212
9299.000000;1.182969
9298.000000;1.182785
9297.000000;1.182414
9296.000000;1.181748
9295.000000;1.180996
9294.000000;1.180405
9293.000000;1.179890
9292.000000;1.179097
9291.000000;1.177833
9290.000000;1.176387
9289.000000;1.175360
9288.000000;1.175208
9287.000000;1.175887
9286.000000;1.176857
9285.000000;1.177445
9284.000000;1.177318
9283.000000;1.176732
9282.000000;1.176295
9281.000000;1.176398
9280.000000;1.176849
9279.000000;1.177081
9278.000000;1.176708
9277.000000;1.175833
9276.000000;1.174816
9275.000000;1.173903
9274.000000;1.173159
9273.000000;1.172642
9272.000000;1.172458
9271.000000;1.172623
9270.000000;1.172987
9269.000000;1.173316
9268.000000;1.173407
9267.000000;1.173175
9266.000000;1.172736
9265.000000;1.172378
9264.000000;1.172291
9263.000000;1.172301
9262.000000;1.172026
9261.000000;1.171356
9260.000000;1.170630
9259.000000;1.170274
9258.000000;1.170362
9257.000000;1.170615
9256.000000;1.170683
9255.000000;1.170321
9254.000000;1.169445
9253.000000;1.168180
9252.000000;1.166815
9251.000000;1.165603
9250.000000;1.164657
9249.000000;1.164108
9248.000000;1.164180
9247.000000;1.164908
9246.000000;1.165883
9245.000000;1.166497
9244.000000;1.166498
9243.000000;1.166152
9242.000000;1.165865
9241.000000;1.165774
9240.000000;1.165689
9239.000000;1.165290
9238.000000;1.164402
9237.000000;1.163189
9236.000000;1.162082
9235.000000;1.161436
9234.000000;1.161270
9233.000000;1.161394
9232.000000;1.161632
9231.000000;1.161781
9230.000000;1.161513
9229.000000;1.160628
9228.000000;1.159403
9227.000000;1.158405
9226.000000;1.157907
9225.000000;1.157739
9224.000000;1.157697
9223.000000;1.157801
9222.000000;1.158048
9221.000000;1.158208
9220.000000;1.158035
9219.000000;1.157543
9218.000000;1.156924
9217.000000;1.156340
9216.000000;1.155908
9215.000000;1.155695
9214.000000;1.155609
9213.000000;1.155423
9212.000000;1.155011
9211.000000;1.154443
9210.000000;1.153824
9209.000000;1.153268
9208.000000;1.153043
9207.000000;1.153394
9206.000000;1.154057
9205.000000;1.154290
9204.000000;1.153704
9203.000000;1.152833
9202.000000;1.152494
9201.000000;1.152759
9200.000000;1.152932
9199.000000;1.152465
9198.000000;1.151549
9197.000000;1.150790
9196.000000;1.150603
9195.000000;1.150960
9194.000000;1.151442
9193.000000;1.151497
9192.000000;1.150923
9191.000000;1.150137
9190.000000;1.149708
9189.000000;1.149647
9188.000000;1.149444
9187.000000;1.148844
9186.000000;1.148217
9185.000000;1.148004
9184.000000;1.148116
9183.000000;1.148120
9182.000000;1.147776
9181.000000;1.147124
9180.000000;1.146210
9179.000000;1.145017
9178.000000;1.143643
9177.000000;1.142350
9176.000000;1.141435
9175.000000;1.141161
9174.000000;1.141670
9173.000000;1.142741
9172.000000;1.143711
9171.000000;1.143915
9170.000000;1.143308
9169.000000;1.142470
9168.000000;1.141959
9167.000000;1.141823
9166.000000;1.141761
9165.000000;1.141569
9164.000000;1.141257
9163.000000;1.140860
9162.000000;1.140327
9161.000000;1.139648
9160.000000;1.138940
9159.000000;1.138343
9158.000000;1.137897
9157.000000;1.137606
9156.000000;1.137562
9155.000000;1.137862
9154.000000;1.138384
9153.000000;1.138752
9152.000000;1.138647
9151.000000;1.138126
9150.000000;1.137555
9149.000000;1.137227
9148.000000;1.137125
9147.000000;1.137033
9146.000000;1.136812
9145.000000;1.136497
9144.000000;1.136190
9143.000000;1.135925
9142.000000;1.135677
9141.000000;1.135425
9140.000000;1.135167
9139.000000;1.134842
9138.000000;1.134311
9137.000000;1.133525
9136.000000;1.132716
9135.000000;1.132280
9134.000000;1.132362
9133.000000;1.132624
9132.000000;1.132531
9131.000000;1.131866
9130.000000;1.130895
9129.000000;1.130094
9128.000000;1.129813
9127.000000;1.130141
9126.000000;1.130877
9125.000000;1.131597
9124.000000;1.131925
9123.000000;1.131830
9122.000000;1.131560
9121.000000;1.131240
9120.000000;1.130724
9119.000000;1.129913
9118.000000;1.129053
9117.000000;1.128502
9116.000000;1.128295
9115.000000;1.128142
9114.000000;1.127839
9113.000000;1.127477
9112.000000;1.127227
9111.000000;1.127079
9110.000000;1.126891
9109.000000;1.126575
9108.000000;1.126141
9107.000000;1.125614
9106.000000;1.125005
9105.000000;1.124329
9104.000000;1.123572
9103.000000;1.122681
9102.000000;1.121700
9101.000000;1.120919
9100.000000;1.120742
9099.000000;1.121275
9098.000000;1.122095
9097.000000;1.122550
9096.000000;1.122370
9095.000000;1.121910
9094.000000;1.121709
9093.000000;1.121872
9092.000000;1.121974
9091.000000;1.121575
9090.000000;1.120741
9089.000000;1.119973
9088.000000;1.119696
9087.000000;1.119899
9086.000000;1.120281
9085.000000;1.120623
9084.000000;1.120925
9083.000000;1.121173
9082.000000;1.121128
9081.000000;1.120498
9080.000000;1.119349
9079.000000;1.118195
9078.000000;1.117580
9077.000000;1.117577
9076.000000;1.117789
9075.000000;1.117818
9074.000000;1.117636
9073.000000;1.117461
9072.000000;1.117435
9071.000000;1.117505
9070.000000;1.117524
9069.000000;1.117294
9068.000000;1.116569
9067.000000;1.115228
9066.000000;1.113571
9065.000000;1.112310
9064.000000;1.112071
9063.000000;1.112831
9062.000000;1.113848
9061.000000;1.114218
9060.000000;1.113567
9059.000000;1.112297
9058.000000;1.111196
9057.000000;1.110796
9056.000000;1.111001
9055.000000;1.111265
9054.000000;1.111116
9053.000000;1.110536
