Criado como novo conjunto de dados;"Jao_teste_celulas.spp","4443.0 Secs"
cm-1;Abs
10000.000000;0.914269
9999.000000;0.914049
9998.000000;0.913987
9997.000000;0.913772
9996.000000;0.913194
9995.000000;0.912440
9994.000000;0.911812
9993.000000;0.911503
9992.000000;0.911377
9991.000000;0.911161
9990.000000;0.910709
9989.000000;0.910165
9988.000000;0.909744
9987.000000;0.909437
9986.000000;0.909032
9985.000000;0.908446
9984.000000;0.907870
9983.000000;0.907500
9982.000000;0.907263
9981.000000;0.906953
9980.000000;0.906516
9979.000000;0.906019
9978.000000;0.905429
9977.000000;0.904633
9976.000000;0.903692
9975.000000;0.902875
9974.000000;0.902394
9973.000000;0.902211
9972.000000;0.902123
9971.000000;0.901933
9970.000000;0.901556
9969.000000;0.901107
9968.000000;0.900848
9967.000000;0.900904
9966.000000;0.901041
9965.000000;0.900895
9964.000000;0.900433
9963.000000;0.899944
9962.000000;0.899567
9961.000000;0.899104
9960.000000;0.898392
9959.000000;0.897598
9958.000000;0.896992
9957.000000;0.896653
9956.000000;0.896544
9955.000000;0.896631
9954.000000;0.896745
9953.000000;0.896543
9952.000000;0.895912
9951.000000;0.895240
9950.000000;0.894946
9949.000000;0.894864
9948.000000;0.894433
9947.000000;0.893497
9946.000000;0.892555
9945.000000;0.892105
9944.000000;0.892055
9943.000000;0.891957
9942.000000;0.891604
9941.000000;0.891155
9940.000000;0.890773
9939.000000;0.890381
9938.000000;0.889817
9937.000000;0.889094
9936.000000;0.888419
9935.000000;0.887960
9934.000000;0.887646
9933.000000;0.887240
9932.000000;0.886601
9931.000000;0.885834
9930.000000;0.885130
9929.000000;0.884535
9928.000000;0.883973
9927.000000;0.883450
9926.000000;0.883110
9925.000000;0.883050
9924.000000;0.883190
9923.000000;0.883362
9922.000000;0.883456
9921.000000;0.883423
9920.000000;0.883187
9919.000000;0.882658
9918.000000;0.881828
9917.000000;0.880844
9916.000000;0.879970
9915.000000;0.879444
9914.000000;0.879324
9913.000000;0.879418
9912.000000;0.879360
9911.000000;0.878794
9910.000000;0.877613
9909.000000;0.876120
9908.000000;0.874934
9907.000000;0.874525
9906.000000;0.874778
9905.000000;0.875113
9904.000000;0.875144
9903.000000;0.875077
9902.000000;0.875301
9901.000000;0.875718
9900.000000;0.875743
9899.000000;0.874974
9898.000000;0.873661
9897.000000;0.872419
9896.000000;0.871649
9895.000000;0.871304
9894.000000;0.871076
9893.000000;0.870680
9892.000000;0.870066
9891.000000;0.869431
9890.000000;0.869033
9889.000000;0.868924
9888.000000;0.868935
9887.000000;0.868892
9886.000000;0.868771
9885.000000;0.868618
9884.000000;0.868420
9883.000000;0.868104
9882.000000;0.867588
9881.000000;0.866798
9880.000000;0.865782
9879.000000;0.864839
9878.000000;0.864386
9877.000000;0.864521
9876.000000;0.864788
9875.000000;0.864574
9874.000000;0.863752
9873.000000;0.862799
9872.000000;0.862243
9871.000000;0.862125
9870.000000;0.862042
9869.000000;0.861616
9868.000000;0.860846
9867.000000;0.860019
9866.000000;0.859410
9865.000000;0.859085
9864.000000;0.858917
9863.000000;0.858703
9862.000000;0.858261
9861.000000;0.857533
9860.000000;0.856666
9859.000000;0.855958
9858.000000;0.855600
9857.000000;0.855454
9856.000000;0.855179
9855.000000;0.854633
9854.000000;0.854060
9853.000000;0.853793
9852.000000;0.853830
9851.000000;0.853813
9850.000000;0.853417
9849.000000;0.852676
9848.000000;0.851894
9847.000000;0.851354
9846.000000;0.851130
9845.000000;0.851102
9844.000000;0.851049
9843.000000;0.850758
9842.000000;0.850173
9841.000000;0.849473
9840.000000;0.848936
9839.000000;0.848675
9838.000000;0.848506
9837.000000;0.848121
9836.000000;0.847390
9835.000000;0.846493
9834.000000;0.845796
9833.000000;0.845585
9832.000000;0.845849
9831.000000;0.846252
9830.000000;0.846366
9829.000000;0.846032
9828.000000;0.845497
9827.000000;0.845129
9826.000000;0.845031
9825.000000;0.845004
9824.000000;0.844850
9823.000000;0.844555
9822.000000;0.844160
9821.000000;0.843629
9820.000000;0.842966
9819.000000;0.842320
9818.000000;0.841807
9817.000000;0.841299
9816.000000;0.840591
9815.000000;0.839719
9814.000000;0.838964
9813.000000;0.838506
9812.000000;0.838248
9811.000000;0.838010
9810.000000;0.837747
9809.000000;0.837497
9808.000000;0.837241
9807.000000;0.836933
9806.000000;0.836597
9805.000000;0.836300
9804.000000;0.836043
9803.000000;0.835761
9802.000000;0.835420
9801.000000;0.835089
9800.000000;0.834906
9799.000000;0.834957
9798.000000;0.835130
9797.000000;0.835128
9796.000000;0.834725
9795.000000;0.834027
9794.000000;0.833369
9793.000000;0.832912
9792.000000;0.832478
9791.000000;0.831819
9790.000000;0.830936
9789.000000;0.830026
9788.000000;0.829246
9787.000000;0.828660
9786.000000;0.828334
9785.000000;0.828279
9784.000000;0.828298
9783.000000;0.828064
9782.000000;0.827396
9781.000000;0.826368
9780.000000;0.825175
9779.000000;0.824044
9778.000000;0.823285
9777.000000;0.823192
9776.000000;0.823716
9775.000000;0.824355
9774.000000;0.824556
9773.000000;0.824213
9772.000000;0.823650
9771.000000;0.823145
9770.000000;0.822663
9769.000000;0.822078
9768.000000;0.821454
9767.000000;0.820940
9766.000000;0.820492
9765.000000;0.819906
9764.000000;0.819150
9763.000000;0.818504
9762.000000;0.818261
9761.000000;0.818363
9760.000000;0.818430
9759.000000;0.818133
9758.000000;0.817477
9757.000000;0.816752
9756.000000;0.816286
9755.000000;0.816221
9754.000000;0.816412
9753.000000;0.816522
9752.000000;0.816303
9751.000000;0.815847
9750.000000;0.815480
9749.000000;0.815359
9748.000000;0.815241
9747.000000;0.814756
9746.000000;0.813853
9745.000000;0.812876
9744.000000;0.812181
9743.000000;0.811804
9742.000000;0.811529
9741.000000;0.811174
9740.000000;0.810710
9739.000000;0.810184
9738.000000;0.809640
9737.000000;0.809161
9736.000000;0.808855
9735.000000;0.808732
9734.000000;0.808650
9733.000000;0.808438
9732.000000;0.808055
9731.000000;0.807575
9730.000000;0.807050
9729.000000;0.806452
9728.000000;0.805762
9727.000000;0.805035
9726.000000;0.804350
9725.000000;0.803773
9724.000000;0.803385
9723.000000;0.803257
9722.000000;0.803325
9721.000000;0.803371
9720.000000;0.803211
9719.000000;0.802869
9718.000000;0.802512
9717.000000;0.802250
9716.000000;0.802097
9715.000000;0.802053
9714.000000;0.802096
9713.000000;0.802098
9712.000000;0.801878
9711.000000;0.801358
9710.000000;0.800603
9709.000000;0.799703
9708.000000;0.798744
9707.000000;0.797893
9706.000000;0.797349
9705.000000;0.797131
9704.000000;0.797037
9703.000000;0.796897
9702.000000;0.796767
9701.000000;0.796755
9700.000000;0.796751
9699.000000;0.796481
9698.000000;0.795823
9697.000000;0.794931
9696.000000;0.794072
9695.000000;0.793416
9694.000000;0.792955
9693.000000;0.792544
9692.000000;0.792037
9691.000000;0.791484
9690.000000;0.791132
9689.000000;0.791155
9688.000000;0.791376
9687.000000;0.791397
9686.000000;0.790994
9685.000000;0.790259
9684.000000;0.789375
9683.000000;0.788433
9682.000000;0.787523
9681.000000;0.786827
9680.000000;0.786465
9679.000000;0.786341
9678.000000;0.786251
9677.000000;0.786098
9676.000000;0.785911
9675.000000;0.785712
9674.000000;0.785494
9673.000000;0.785274
9672.000000;0.785084
9671.000000;0.784887
9670.000000;0.784615
9669.000000;0.784286
9668.000000;0.783971
9667.000000;0.783640
9666.000000;0.783138
9665.000000;0.782390
9664.000000;0.781559
9663.000000;0.780926
9662.000000;0.780627
9661.000000;0.780548
9660.000000;0.780490
9659.000000;0.780351
9658.000000;0.780153
9657.000000;0.779920
9656.000000;0.779610
9655.000000;0.779193
9654.000000;0.778726
9653.000000;0.778300
9652.000000;0.777910
9651.000000;0.777465
9650.000000;0.776916
9649.000000;0.776353
9648.000000;0.775920
9647.000000;0.775688
9646.000000;0.775602
9645.000000;0.775498
9644.000000;0.775172
9643.000000;0.774517
9642.000000;0.773673
9641.000000;0.772944
9640.000000;0.772482
9639.000000;0.772119
9638.000000;0.771620
9637.000000;0.771026
9636.000000;0.770597
9635.000000;0.770430
9634.000000;0.770331
9633.000000;0.770097
9632.000000;0.769757
9631.000000;0.769431
9630.000000;0.769112
9629.000000;0.768717
9628.000000;0.768279
9627.000000;0.767938
9626.000000;0.767739
9625.000000;0.767562
9624.000000;0.767270
9623.000000;0.766844
9622.000000;0.766382
9621.000000;0.765990
9620.000000;0.765663
9619.000000;0.765258
9618.000000;0.764639
9617.000000;0.763898
9616.000000;0.763349
9615.000000;0.763217
9614.000000;0.763354
9613.000000;0.763378
9612.000000;0.763053
9611.000000;0.762441
9610.000000;0.761724
9609.000000;0.761047
9608.000000;0.760543
9607.000000;0.760324
9606.000000;0.760310
9605.000000;0.760184
9604.000000;0.759677
9603.000000;0.758891
9602.000000;0.758225
9601.000000;0.757985
9600.000000;0.758104
9599.000000;0.758261
9598.000000;0.758190
9597.000000;0.757864
9596.000000;0.757433
9595.000000;0.757050
9594.000000;0.756741
9593.000000;0.756402
9592.000000;0.755910
9591.000000;0.755254
9590.000000;0.754579
9589.000000;0.754107
9588.000000;0.753956
9587.000000;0.754016
9586.000000;0.754026
9585.000000;0.753797
9584.000000;0.753338
9583.000000;0.752749
9582.000000;0.752084
9581.000000;0.751392
9580.000000;0.750822
9579.000000;0.750526
9578.000000;0.750447
9577.000000;0.750335
9576.000000;0.750026
9575.000000;0.749586
9574.000000;0.749127
9573.000000;0.748633
9572.000000;0.748052
9571.000000;0.747484
9570.000000;0.747094
9569.000000;0.746902
9568.000000;0.746776
9567.000000;0.746609
9566.000000;0.746384
9565.000000;0.746087
9564.000000;0.745719
9563.000000;0.745401
9562.000000;0.745292
9561.000000;0.745339
9560.000000;0.745249
9559.000000;0.744802
9558.000000;0.744109
9557.000000;0.743447
9556.000000;0.742929
9555.000000;0.742476
9554.000000;0.742050
9553.000000;0.741727
9552.000000;0.741516
9551.000000;0.741284
9550.000000;0.740934
9549.000000;0.740556
9548.000000;0.740282
9547.000000;0.740064
9546.000000;0.739716
9545.000000;0.739164
9544.000000;0.738539
9543.000000;0.738002
9542.000000;0.737588
9541.000000;0.737238
9540.000000;0.736875
9539.000000;0.736385
9538.000000;0.735639
9537.000000;0.734683
9536.000000;0.733855
9535.000000;0.733574
9534.000000;0.733923
9533.000000;0.734520
9532.000000;0.734841
9531.000000;0.734641
9530.000000;0.734055
9529.000000;0.733397
9528.000000;0.732923
9527.000000;0.732708
9526.000000;0.732604
9525.000000;0.732323
9524.000000;0.731680
9523.000000;0.730816
9522.000000;0.730108
9521.000000;0.729788
9520.000000;0.729699
9519.000000;0.729468
9518.000000;0.728940
9517.000000;0.728344
9516.000000;0.728030
9515.000000;0.728066
9514.000000;0.728178
9513.000000;0.728049
9512.000000;0.727608
9511.000000;0.727015
9510.000000;0.726440
9509.000000;0.725965
9508.000000;0.725648
9507.000000;0.725538
9506.000000;0.725561
9505.000000;0.725493
9504.000000;0.725153
9503.000000;0.724611
9502.000000;0.724118
9501.000000;0.723836
9500.000000;0.723690
9499.000000;0.723490
9498.000000;0.723097
9497.000000;0.722434
9496.000000;0.721464
9495.000000;0.720311
9494.000000;0.719372
9493.000000;0.719091
9492.000000;0.719505
9491.000000;0.720094
9490.000000;0.720263
9489.000000;0.719942
9488.000000;0.719543
9487.000000;0.719346
9486.000000;0.719157
9485.000000;0.718690
9484.000000;0.718057
9483.000000;0.717625
9482.000000;0.717447
9481.000000;0.717155
9480.000000;0.716455
9479.000000;0.715554
9478.000000;0.714931
9477.000000;0.714839
9476.000000;0.715125
9475.000000;0.715453
9474.000000;0.715571
9473.000000;0.715423
9472.000000;0.715106
9471.000000;0.714724
9470.000000;0.714235
9469.000000;0.713493
9468.000000;0.712484
9467.000000;0.711451
9466.000000;0.710702
9465.000000;0.710368
9464.000000;0.710378
9463.000000;0.710578
9462.000000;0.710762
9461.000000;0.710698
9460.000000;0.710290
9459.000000;0.709733
9458.000000;0.709356
9457.000000;0.709284
9456.000000;0.709314
9455.000000;0.709157
9454.000000;0.708701
9453.000000;0.708051
9452.000000;0.707399
9451.000000;0.706875
9450.000000;0.706489
9449.000000;0.706159
9448.000000;0.705820
9447.000000;0.705488
9446.000000;0.705192
9445.000000;0.704898
9444.000000;0.704560
9443.000000;0.704205
9442.000000;0.703886
9441.000000;0.703569
9440.000000;0.703184
9439.000000;0.702735
9438.000000;0.702274
9437.000000;0.701794
9436.000000;0.701288
9435.000000;0.700879
9434.000000;0.700734
9433.000000;0.700797
9432.000000;0.700769
9431.000000;0.700444
9430.000000;0.699957
9429.000000;0.699595
9428.000000;0.699450
9427.000000;0.699325
9426.000000;0.698948
9425.000000;0.698219
9424.000000;0.697300
9423.000000;0.696535
9422.000000;0.696203
9421.000000;0.696291
9420.000000;0.696499
9419.000000;0.696504
9418.000000;0.696198
9417.000000;0.695666
9416.000000;0.695060
9415.000000;0.694520
9414.000000;0.694134
9413.000000;0.693880
9412.000000;0.693675
9411.000000;0.693505
9410.000000;0.693401
9409.000000;0.693257
9408.000000;0.692838
9407.000000;0.692099
9406.000000;0.691368
9405.000000;0.691003
9404.000000;0.690960
9403.000000;0.690866
9402.000000;0.690511
9401.000000;0.690049
9400.000000;0.689718
9399.000000;0.689553
9398.000000;0.689445
9397.000000;0.689309
9396.000000;0.689086
9395.000000;0.688730
9394.000000;0.688290
9393.000000;0.687930
9392.000000;0.687742
9391.000000;0.687596
9390.000000;0.687280
9389.000000;0.686771
9388.000000;0.686260
9387.000000;0.685955
9386.000000;0.685899
9385.000000;0.685952
9384.000000;0.685880
9383.000000;0.685499
9382.000000;0.684853
9381.000000;0.684214
9380.000000;0.683841
9379.000000;0.683716
9378.000000;0.683594
9377.000000;0.683314
9376.000000;0.682933
9375.000000;0.682559
9374.000000;0.682176
9373.000000;0.681742
9372.000000;0.681354
9371.000000;0.681171
9370.000000;0.681179
9369.000000;0.681146
9368.000000;0.680841
9367.000000;0.680233
9366.000000;0.679471
9365.000000;0.678751
9364.000000;0.678233
9363.000000;0.678000
9362.000000;0.678006
9361.000000;0.678087
9360.000000;0.678076
9359.000000;0.677900
9358.000000;0.677571
9357.000000;0.677130
9356.000000;0.676649
9355.000000;0.676240
9354.000000;0.675962
9353.000000;0.675743
9352.000000;0.675453
9351.000000;0.675050
9350.000000;0.674609
9349.000000;0.674210
9348.000000;0.673888
9347.000000;0.673666
9346.000000;0.673546
9345.000000;0.673443
9344.000000;0.673241
9343.000000;0.672945
9342.000000;0.672689
9341.000000;0.672517
9340.000000;0.672263
9339.000000;0.671749
9338.000000;0.671055
9337.000000;0.670470
9336.000000;0.670177
9335.000000;0.670078
9334.000000;0.669961
9333.000000;0.669752
9332.000000;0.669537
9331.000000;0.669379
9330.000000;0.669184
9329.000000;0.668791
9328.000000;0.668148
9327.000000;0.667383
9326.000000;0.666677
9325.000000;0.666105
9324.000000;0.665633
9323.000000;0.665244
9322.000000;0.664985
9321.000000;0.664885
9320.000000;0.664894
9319.000000;0.664910
9318.000000;0.664818
9317.000000;0.664503
9316.000000;0.663931
9315.000000;0.663269
9314.000000;0.662824
9313.000000;0.662747
9312.000000;0.662846
9311.000000;0.662797
9310.000000;0.662492
9309.000000;0.662095
9308.000000;0.661784
9307.000000;0.661578
9306.000000;0.661409
9305.000000;0.661229
9304.000000;0.661009
9303.000000;0.660727
9302.000000;0.660402
9301.000000;0.660070
9300.000000;0.659723
9299.000000;0.659332
9298.000000;0.658961
9297.000000;0.658743
9296.000000;0.658699
9295.000000;0.658677
9294.000000;0.658504
9293.000000;0.658122
9292.000000;0.657553
9291.000000;0.656836
9290.000000;0.656086
9289.000000;0.655490
9288.000000;0.655156
9287.000000;0.654995
9286.000000;0.654851
9285.000000;0.654678
9284.000000;0.654494
9283.000000;0.654244
9282.000000;0.653852
9281.000000;0.653374
9280.000000;0.652976
9279.000000;0.652735
9278.000000;0.652574
9277.000000;0.652394
9276.000000;0.652174
9275.000000;0.651907
9274.000000;0.651573
9273.000000;0.651211
9272.000000;0.650922
9271.000000;0.650763
9270.000000;0.650676
9269.000000;0.650571
9268.000000;0.650395
9267.000000;0.650107
9266.000000;0.649688
9265.000000;0.649245
9264.000000;0.648995
9263.000000;0.649026
9262.000000;0.649139
9261.000000;0.649032
9260.000000;0.648613
9259.000000;0.648036
9258.000000;0.647458
9257.000000;0.646902
9256.000000;0.646343
9255.000000;0.645805
9254.000000;0.645322
9253.000000;0.644901
9252.000000;0.644565
9251.000000;0.644367
9250.000000;0.644305
9249.000000;0.644287
9248.000000;0.644235
9247.000000;0.644169
9246.000000;0.644112
9245.000000;0.643982
9244.000000;0.643662
9243.000000;0.643160
9242.000000;0.642604
9241.000000;0.642100
9240.000000;0.641669
9239.000000;0.641320
9238.000000;0.641080
9237.000000;0.640922
9236.000000;0.640759
9235.000000;0.640542
9234.000000;0.640322
9233.000000;0.640173
9232.000000;0.640098
9231.000000;0.640040
9230.000000;0.639954
9229.000000;0.639793
9228.000000;0.639507
9227.000000;0.639105
9226.000000;0.638690
9225.000000;0.638347
9224.000000;0.638024
9223.000000;0.637599
9222.000000;0.637065
9221.000000;0.636565
9220.000000;0.636222
9219.000000;0.636002
9218.000000;0.635755
9217.000000;0.635366
9216.000000;0.634847
9215.000000;0.634321
9214.000000;0.633928
9213.000000;0.633696
9212.000000;0.633495
9211.000000;0.633175
9210.000000;0.632740
9209.000000;0.632351
9208.000000;0.632136
9207.000000;0.632060
9206.000000;0.632002
9205.000000;0.631857
9204.000000;0.631555
9203.000000;0.631083
9202.000000;0.630552
9201.000000;0.630176
9200.000000;0.630080
9199.000000;0.630162
9198.000000;0.630216
9197.000000;0.630128
9196.000000;0.629891
9195.000000;0.629524
9194.000000;0.629075
9193.000000;0.628669
9192.000000;0.628409
9191.000000;0.628235
9190.000000;0.627994
9189.000000;0.627651
9188.000000;0.627318
9187.000000;0.627057
9186.000000;0.626774
9185.000000;0.626381
9184.000000;0.625949
9183.000000;0.625637
9182.000000;0.625513
9181.000000;0.625498
9180.000000;0.625445
9179.000000;0.625229
9178.000000;0.624834
9177.000000;0.624384
9176.000000;0.624048
9175.000000;0.623859
9174.000000;0.623687
9173.000000;0.623404
9172.000000;0.623030
9171.000000;0.622671
9170.000000;0.622388
9169.000000;0.622187
9168.000000;0.622053
9167.000000;0.621936
9166.000000;0.621750
9165.000000;0.621450
9164.000000;0.621100
9163.000000;0.620782
9162.000000;0.620486
9161.000000;0.620146
9160.000000;0.619738
9159.000000;0.619289
9158.000000;0.618824
9157.000000;0.618372
9156.000000;0.617987
9155.000000;0.617706
9154.000000;0.617511
9153.000000;0.617383
9152.000000;0.617340
9151.000000;0.617357
9150.000000;0.617286
9149.000000;0.616987
9148.000000;0.616524
9147.000000;0.616136
9146.000000;0.615983
9145.000000;0.615990
9144.000000;0.615938
9143.000000;0.615659
9142.000000;0.615144
9141.000000;0.614539
9140.000000;0.614036
9139.000000;0.613697
9138.000000;0.613396
9137.000000;0.612978
9136.000000;0.612473
9135.000000;0.612075
9134.000000;0.611921
9133.000000;0.611970
9132.000000;0.612085
9131.000000;0.612114
9130.000000;0.611917
9129.000000;0.611442
9128.000000;0.610838
9127.000000;0.610370
9126.000000;0.610158
9125.000000;0.610068
9124.000000;0.609912
9123.000000;0.609670
9122.000000;0.609450
9121.000000;0.609304
9120.000000;0.609201
9119.000000;0.609113
9118.000000;0.609029
9117.000000;0.608884
9116.000000;0.608576
9115.000000;0.608069
9114.000000;0.607438
9113.000000;0.606806
9112.000000;0.606276
9111.000000;0.605892
9110.000000;0.605623
9109.000000;0.605367
9108.000000;0.605047
9107.000000;0.604694
9106.000000;0.604414
9105.000000;0.604269
9104.000000;0.604236
9103.000000;0.604255
9102.000000;0.604272
9101.000000;0.604226
9100.000000;0.604046
9099.000000;0.603683
9098.000000;0.603157
9097.000000;0.602559
9096.000000;0.602038
9095.000000;0.601756
9094.000000;0.601785
9093.000000;0.602019
9092.000000;0.602199
9091.000000;0.602096
9090.000000;0.601695
9089.000000;0.601198
9088.000000;0.600806
9087.000000;0.600523
9086.000000;0.600197
9085.000000;0.599758
9084.000000;0.599333
9083.000000;0.599096
9082.000000;0.599048
9081.000000;0.599024
9080.000000;0.598889
9079.000000;0.598665
9078.000000;0.598441
9077.000000;0.598257
9076.000000;0.598089
9075.000000;0.597903
9074.000000;0.597666
9073.000000;0.597351
9072.000000;0.596982
9071.000000;0.596631
9070.000000;0.596359
9069.000000;0.596178
9068.000000;0.596070
9067.000000;0.595993
9066.000000;0.595839
9065.000000;0.595470
9064.000000;0.594852
9063.000000;0.594108
9062.000000;0.593412
9061.000000;0.592857
9060.000000;0.592467
9059.000000;0.592269
9058.000000;0.592260
9057.000000;0.592311
9056.000000;0.592211
9055.000000;0.591848
9054.000000;0.591344
9053.000000;0.590960
