Criado como novo conjunto de dados;"Jao_teste_celulas.spp","301.8 Secs"
cm-1;Abs
10000.000000;0.803619
9999.000000;0.802563
9998.000000;0.801464
9997.000000;0.800718
9996.000000;0.800631
9995.000000;0.800950
9994.000000;0.801188
9993.000000;0.801204
9992.000000;0.801204
9991.000000;0.801119
9990.000000;0.800581
9989.000000;0.799547
9988.000000;0.798427
9987.000000;0.797484
9986.000000;0.796613
9985.000000;0.795810
9984.000000;0.795324
9983.000000;0.795178
9982.000000;0.795055
9981.000000;0.794847
9980.000000;0.794787
9979.000000;0.794855
9978.000000;0.794636
9977.000000;0.793998
9976.000000;0.793390
9975.000000;0.793130
9974.000000;0.792897
9973.000000;0.792281
9972.000000;0.791384
9971.000000;0.790529
9970.000000;0.789761
9969.000000;0.789004
9968.000000;0.788365
9967.000000;0.787965
9966.000000;0.787754
9965.000000;0.787721
9964.000000;0.787966
9963.000000;0.788317
9962.000000;0.788266
9961.000000;0.787595
9960.000000;0.786702
9959.000000;0.786044
9958.000000;0.785598
9957.000000;0.785138
9956.000000;0.784665
9955.000000;0.784245
9954.000000;0.783724
9953.000000;0.782981
9952.000000;0.782207
9951.000000;0.781658
9950.000000;0.781334
9949.000000;0.781120
9948.000000;0.780970
9947.000000;0.780727
9946.000000;0.780078
9945.000000;0.778995
9944.000000;0.777966
9943.000000;0.777466
9942.000000;0.777361
9941.000000;0.777101
9940.000000;0.776385
9939.000000;0.775401
9938.000000;0.774535
9937.000000;0.774024
9936.000000;0.773839
9935.000000;0.773784
9934.000000;0.773728
9933.000000;0.773684
9932.000000;0.773597
9931.000000;0.773196
9930.000000;0.772323
9929.000000;0.771274
9928.000000;0.770487
9927.000000;0.769995
9926.000000;0.769557
9925.000000;0.769224
9924.000000;0.769271
9923.000000;0.769571
9922.000000;0.769560
9921.000000;0.768921
9920.000000;0.767870
9919.000000;0.766702
9918.000000;0.765548
9917.000000;0.764645
9916.000000;0.764303
9915.000000;0.764402
9914.000000;0.764399
9913.000000;0.764032
9912.000000;0.763583
9911.000000;0.763300
9910.000000;0.763052
9909.000000;0.762772
9908.000000;0.762702
9907.000000;0.762878
9906.000000;0.762815
9905.000000;0.762115
9904.000000;0.761022
9903.000000;0.760039
9902.000000;0.759277
9901.000000;0.758527
9900.000000;0.757697
9899.000000;0.756860
9898.000000;0.756064
9897.000000;0.755384
9896.000000;0.754973
9895.000000;0.754817
9894.000000;0.754608
9893.000000;0.754084
9892.000000;0.753377
9891.000000;0.752841
9890.000000;0.752658
9889.000000;0.752723
9888.000000;0.752780
9887.000000;0.752571
9886.000000;0.752007
9885.000000;0.751279
9884.000000;0.750708
9883.000000;0.750453
9882.000000;0.750450
9881.000000;0.750526
9880.000000;0.750398
9879.000000;0.749730
9878.000000;0.748525
9877.000000;0.747329
9876.000000;0.746727
9875.000000;0.746700
9874.000000;0.746827
9873.000000;0.746962
9872.000000;0.747251
9871.000000;0.747569
9870.000000;0.747496
9869.000000;0.746877
9868.000000;0.745938
9867.000000;0.744812
9866.000000;0.743475
9865.000000;0.742190
9864.000000;0.741460
9863.000000;0.741371
9862.000000;0.741445
9861.000000;0.741272
9860.000000;0.740846
9859.000000;0.740201
9858.000000;0.739240
9857.000000;0.738129
9856.000000;0.737358
9855.000000;0.737152
9854.000000;0.737175
9853.000000;0.737018
9852.000000;0.736627
9851.000000;0.736107
9850.000000;0.735480
9849.000000;0.734805
9848.000000;0.734162
9847.000000;0.733406
9846.000000;0.732336
9845.000000;0.731211
9844.000000;0.730657
9843.000000;0.730883
9842.000000;0.731401
9841.000000;0.731707
9840.000000;0.731812
9839.000000;0.731875
9838.000000;0.731763
9837.000000;0.731273
9836.000000;0.730479
9835.000000;0.729591
9834.000000;0.728761
9833.000000;0.728177
9832.000000;0.727992
9831.000000;0.727971
9830.000000;0.727554
9829.000000;0.726531
9828.000000;0.725323
9827.000000;0.724412
9826.000000;0.723839
9825.000000;0.723471
9824.000000;0.723386
9823.000000;0.723673
9822.000000;0.724098
9821.000000;0.724264
9820.000000;0.723979
9819.000000;0.723286
9818.000000;0.722312
9817.000000;0.721239
9816.000000;0.720224
9815.000000;0.719286
9814.000000;0.718433
9813.000000;0.717915
9812.000000;0.718030
9811.000000;0.718624
9810.000000;0.719089
9809.000000;0.718976
9808.000000;0.718352
9807.000000;0.717497
9806.000000;0.716579
9805.000000;0.715747
9804.000000;0.715190
9803.000000;0.714912
9802.000000;0.714656
9801.000000;0.714175
9800.000000;0.713441
9799.000000;0.712581
9798.000000;0.711829
9797.000000;0.711492
9796.000000;0.711671
9795.000000;0.712019
9794.000000;0.712060
9793.000000;0.711698
9792.000000;0.711138
9791.000000;0.710427
9790.000000;0.709492
9789.000000;0.708536
9788.000000;0.707896
9787.000000;0.707521
9786.000000;0.707064
9785.000000;0.706496
9784.000000;0.706104
9783.000000;0.705877
9782.000000;0.705443
9781.000000;0.704702
9780.000000;0.703989
9779.000000;0.703474
9778.000000;0.702947
9777.000000;0.702320
9776.000000;0.701808
9775.000000;0.701438
9774.000000;0.700876
9773.000000;0.699995
9772.000000;0.699142
9771.000000;0.698611
9770.000000;0.698277
9769.000000;0.697972
9768.000000;0.697770
9767.000000;0.697669
9766.000000;0.697415
9765.000000;0.696906
9764.000000;0.696404
9763.000000;0.696089
9762.000000;0.695778
9761.000000;0.695324
9760.000000;0.694936
9759.000000;0.694831
9758.000000;0.694901
9757.000000;0.694932
9756.000000;0.694854
9755.000000;0.694574
9754.000000;0.693920
9753.000000;0.692966
9752.000000;0.692078
9751.000000;0.691450
9750.000000;0.690908
9749.000000;0.690352
9748.000000;0.689989
9747.000000;0.689913
9746.000000;0.689822
9745.000000;0.689445
9744.000000;0.688901
9743.000000;0.688401
9742.000000;0.687902
9741.000000;0.687322
9740.000000;0.686795
9739.000000;0.686434
9738.000000;0.686101
9737.000000;0.685674
9736.000000;0.685272
9735.000000;0.684979
9734.000000;0.684579
9733.000000;0.683853
9732.000000;0.682939
9731.000000;0.682149
9730.000000;0.681603
9729.000000;0.681229
9728.000000;0.680957
9727.000000;0.680725
9726.000000;0.680451
9725.000000;0.680124
9724.000000;0.679797
9723.000000;0.679412
9722.000000;0.678835
9721.000000;0.678124
9720.000000;0.677546
9719.000000;0.677276
9718.000000;0.677235
9717.000000;0.677252
9716.000000;0.677146
9715.000000;0.676701
9714.000000;0.675865
9713.000000;0.674963
9712.000000;0.674385
9711.000000;0.674057
9710.000000;0.673582
9709.000000;0.672880
9708.000000;0.672270
9707.000000;0.671899
9706.000000;0.671561
9705.000000;0.671148
9704.000000;0.670808
9703.000000;0.670513
9702.000000;0.669973
9701.000000;0.669204
9700.000000;0.668677
9699.000000;0.668646
9698.000000;0.668736
9697.000000;0.668511
9696.000000;0.668053
9695.000000;0.667636
9694.000000;0.667152
9693.000000;0.666298
9692.000000;0.665134
9691.000000;0.664112
9690.000000;0.663603
9689.000000;0.663618
9688.000000;0.663881
9687.000000;0.664038
9686.000000;0.663895
9685.000000;0.663552
9684.000000;0.663190
9683.000000;0.662738
9682.000000;0.661982
9681.000000;0.660994
9680.000000;0.660166
9679.000000;0.659727
9678.000000;0.659526
9677.000000;0.659332
9676.000000;0.659085
9675.000000;0.658781
9674.000000;0.658425
9673.000000;0.658166
9672.000000;0.658163
9671.000000;0.658233
9670.000000;0.657961
9669.000000;0.657232
9668.000000;0.656349
9667.000000;0.655537
9666.000000;0.654714
9665.000000;0.653882
9664.000000;0.653325
9663.000000;0.653208
9662.000000;0.653284
9661.000000;0.653218
9660.000000;0.652973
9659.000000;0.652689
9658.000000;0.652434
9657.000000;0.652211
9656.000000;0.651992
9655.000000;0.651640
9654.000000;0.651015
9653.000000;0.650247
9652.000000;0.649669
9651.000000;0.649408
9650.000000;0.649295
9649.000000;0.649183
9648.000000;0.649046
9647.000000;0.648727
9646.000000;0.648002
9645.000000;0.646980
9644.000000;0.646114
9643.000000;0.645666
9642.000000;0.645482
9641.000000;0.645361
9640.000000;0.645281
9639.000000;0.645134
9638.000000;0.644655
9637.000000;0.643813
9636.000000;0.642958
9635.000000;0.642369
9634.000000;0.641941
9633.000000;0.641464
9632.000000;0.640939
9631.000000;0.640463
9630.000000;0.640057
9629.000000;0.639742
9628.000000;0.639511
9627.000000;0.639171
9626.000000;0.638504
9625.000000;0.637709
9624.000000;0.637277
9623.000000;0.637298
9622.000000;0.637244
9621.000000;0.636649
9620.000000;0.635702
9619.000000;0.634936
9618.000000;0.634582
9617.000000;0.634464
9616.000000;0.634305
9615.000000;0.633935
9614.000000;0.633367
9613.000000;0.632817
9612.000000;0.632501
9611.000000;0.632347
9610.000000;0.632090
9609.000000;0.631661
9608.000000;0.631224
9607.000000;0.630831
9606.000000;0.630348
9605.000000;0.629748
9604.000000;0.629157
9603.000000;0.628560
9602.000000;0.627824
9601.000000;0.627071
9600.000000;0.626664
9599.000000;0.626666
9598.000000;0.626694
9597.000000;0.626429
9596.000000;0.625964
9595.000000;0.625512
9594.000000;0.625118
9593.000000;0.624807
9592.000000;0.624677
9591.000000;0.624645
9590.000000;0.624394
9589.000000;0.623773
9588.000000;0.622995
9587.000000;0.622308
9586.000000;0.621728
9585.000000;0.621214
9584.000000;0.620826
9583.000000;0.620539
9582.000000;0.620190
9581.000000;0.619746
9580.000000;0.619380
9579.000000;0.619191
9578.000000;0.619073
9577.000000;0.618958
9576.000000;0.618878
9575.000000;0.618729
9574.000000;0.618286
9573.000000;0.617569
9572.000000;0.616876
9571.000000;0.616376
9570.000000;0.615975
9569.000000;0.615649
9568.000000;0.615530
9567.000000;0.615536
9566.000000;0.615314
9565.000000;0.614723
9564.000000;0.614031
9563.000000;0.613487
9562.000000;0.613024
9561.000000;0.612548
9560.000000;0.612146
9559.000000;0.611813
9558.000000;0.611350
9557.000000;0.610725
9556.000000;0.610194
9555.000000;0.609844
9554.000000;0.609369
9553.000000;0.608573
9552.000000;0.607750
9551.000000;0.607286
9550.000000;0.607129
9549.000000;0.606958
9548.000000;0.606649
9547.000000;0.606290
9546.000000;0.605930
9545.000000;0.605559
9544.000000;0.605206
9543.000000;0.604876
9542.000000;0.604513
9541.000000;0.604144
9540.000000;0.603880
9539.000000;0.603663
9538.000000;0.603226
9537.000000;0.602457
9536.000000;0.601583
9535.000000;0.600878
9534.000000;0.600393
9533.000000;0.600087
9532.000000;0.599969
9531.000000;0.599960
9530.000000;0.599840
9529.000000;0.599467
9528.000000;0.598904
9527.000000;0.598247
9526.000000;0.597559
9525.000000;0.597007
9524.000000;0.596791
9523.000000;0.596810
9522.000000;0.596689
9521.000000;0.596224
9520.000000;0.595571
9519.000000;0.594911
9518.000000;0.594243
9517.000000;0.593603
9516.000000;0.593154
9515.000000;0.592878
9514.000000;0.592517
9513.000000;0.591999
9512.000000;0.591611
9511.000000;0.591537
9510.000000;0.591491
9509.000000;0.591067
9508.000000;0.590243
9507.000000;0.589331
9506.000000;0.588617
9505.000000;0.588239
9504.000000;0.588210
9503.000000;0.588374
9502.000000;0.588476
9501.000000;0.588422
9500.000000;0.588313
9499.000000;0.588145
9498.000000;0.587713
9497.000000;0.586962
9496.000000;0.586179
9495.000000;0.585654
9494.000000;0.585354
9493.000000;0.585075
9492.000000;0.584743
9491.000000;0.584386
9490.000000;0.583978
9489.000000;0.583478
9488.000000;0.582914
9487.000000;0.582330
9486.000000;0.581771
9485.000000;0.581345
9484.000000;0.581116
9483.000000;0.580909
9482.000000;0.580447
9481.000000;0.579733
9480.000000;0.579087
9479.000000;0.578724
9478.000000;0.578526
9477.000000;0.578295
9476.000000;0.577985
9475.000000;0.577602
9474.000000;0.577128
9473.000000;0.576648
9472.000000;0.576320
9471.000000;0.576121
9470.000000;0.575859
9469.000000;0.575496
9468.000000;0.575218
9467.000000;0.575113
9466.000000;0.575035
9465.000000;0.574865
9464.000000;0.574664
9463.000000;0.574433
9462.000000;0.574015
9461.000000;0.573351
9460.000000;0.572601
9459.000000;0.571893
9458.000000;0.571175
9457.000000;0.570438
9456.000000;0.569838
9455.000000;0.569465
9454.000000;0.569210
9453.000000;0.568985
9452.000000;0.568858
9451.000000;0.568840
9450.000000;0.568724
9449.000000;0.568299
9448.000000;0.567580
9447.000000;0.566749
9446.000000;0.566016
9445.000000;0.565563
9444.000000;0.565449
9443.000000;0.565512
9442.000000;0.565543
9441.000000;0.565533
9440.000000;0.565562
9439.000000;0.565491
9438.000000;0.565074
9437.000000;0.564345
9436.000000;0.563600
9435.000000;0.562958
9434.000000;0.562279
9433.000000;0.561552
9432.000000;0.561004
9431.000000;0.560723
9430.000000;0.560509
9429.000000;0.560181
9428.000000;0.559762
9427.000000;0.559265
9426.000000;0.558610
9425.000000;0.557895
9424.000000;0.557416
9423.000000;0.557306
9422.000000;0.557378
9421.000000;0.557414
9420.000000;0.557330
9419.000000;0.557005
9418.000000;0.556277
9417.000000;0.555266
9416.000000;0.554387
9415.000000;0.553901
9414.000000;0.553697
9413.000000;0.553585
9412.000000;0.553509
9411.000000;0.553384
9410.000000;0.553056
9409.000000;0.552581
9408.000000;0.552217
9407.000000;0.552008
9406.000000;0.551662
9405.000000;0.551010
9404.000000;0.550259
9403.000000;0.549652
9402.000000;0.549179
9401.000000;0.548828
9400.000000;0.548766
9399.000000;0.549014
9398.000000;0.549210
9397.000000;0.548951
9396.000000;0.548221
9395.000000;0.547296
9394.000000;0.546417
9393.000000;0.545728
9392.000000;0.545308
9391.000000;0.545084
9390.000000;0.544846
9389.000000;0.544486
9388.000000;0.544091
9387.000000;0.543722
9386.000000;0.543337
9385.000000;0.542973
9384.000000;0.542762
9383.000000;0.542658
9382.000000;0.542422
9381.000000;0.541999
9380.000000;0.541640
9379.000000;0.541496
9378.000000;0.541359
9377.000000;0.540972
9376.000000;0.540345
9375.000000;0.539618
9374.000000;0.538848
9373.000000;0.538123
9372.000000;0.537624
9371.000000;0.537398
9370.000000;0.537256
9369.000000;0.537056
9368.000000;0.536876
9367.000000;0.536757
9366.000000;0.536523
9365.000000;0.536045
9364.000000;0.535501
9363.000000;0.535142
9362.000000;0.534953
9361.000000;0.534728
9360.000000;0.534366
9359.000000;0.533937
9358.000000;0.533561
9357.000000;0.533323
9356.000000;0.533219
9355.000000;0.533111
9354.000000;0.532840
9353.000000;0.532424
9352.000000;0.532003
9351.000000;0.531591
9350.000000;0.531093
9349.000000;0.530549
9348.000000;0.530143
9347.000000;0.529917
9346.000000;0.529719
9345.000000;0.529461
9344.000000;0.529181
9343.000000;0.528853
9342.000000;0.528387
9341.000000;0.527886
9340.000000;0.527575
9339.000000;0.527439
9338.000000;0.527220
9337.000000;0.526818
9336.000000;0.526382
9335.000000;0.525937
9334.000000;0.525329
9333.000000;0.524630
9332.000000;0.524199
9331.000000;0.524135
9330.000000;0.524055
9329.000000;0.523658
9328.000000;0.523152
9327.000000;0.522851
9326.000000;0.522633
9325.000000;0.522139
9324.000000;0.521298
9323.000000;0.520379
9322.000000;0.519648
9321.000000;0.519215
9320.000000;0.519051
9319.000000;0.518962
9318.000000;0.518677
9317.000000;0.518156
9316.000000;0.517663
9315.000000;0.517420
9314.000000;0.517324
9313.000000;0.517153
9312.000000;0.516847
9311.000000;0.516452
9310.000000;0.515996
9309.000000;0.515570
9308.000000;0.515347
9307.000000;0.515318
9306.000000;0.515219
9305.000000;0.514877
9304.000000;0.514460
9303.000000;0.514208
9302.000000;0.514060
9301.000000;0.513746
9300.000000;0.513107
9299.000000;0.512208
9298.000000;0.511272
9297.000000;0.510617
9296.000000;0.510457
9295.000000;0.510613
9294.000000;0.510601
9293.000000;0.510154
9292.000000;0.509515
9291.000000;0.509083
9290.000000;0.508947
9289.000000;0.508926
9288.000000;0.508866
9287.000000;0.508710
9286.000000;0.508428
9285.000000;0.508060
9284.000000;0.507740
9283.000000;0.507535
9282.000000;0.507358
9281.000000;0.507165
9280.000000;0.507075
9279.000000;0.507141
9278.000000;0.507154
9277.000000;0.506837
9276.000000;0.506145
9275.000000;0.505270
9274.000000;0.504417
9273.000000;0.503712
9272.000000;0.503209
9271.000000;0.502881
9270.000000;0.502655
9269.000000;0.502502
9268.000000;0.502436
9267.000000;0.502399
9266.000000;0.502284
9265.000000;0.502082
9264.000000;0.501852
9263.000000;0.501570
9262.000000;0.501159
9261.000000;0.500666
9260.000000;0.500204
9259.000000;0.499727
9258.000000;0.499121
9257.000000;0.498531
9256.000000;0.498285
9255.000000;0.498408
9254.000000;0.498497
9253.000000;0.498214
9252.000000;0.497657
9251.000000;0.497093
9250.000000;0.496589
9249.000000;0.496091
9248.000000;0.495633
9247.000000;0.495255
9246.000000;0.494887
9245.000000;0.494500
9244.000000;0.494217
9243.000000;0.494114
9242.000000;0.494025
9241.000000;0.493733
9240.000000;0.493251
9239.000000;0.492771
9238.000000;0.492434
9237.000000;0.492263
9236.000000;0.492175
9235.000000;0.491985
9234.000000;0.491506
9233.000000;0.490778
9232.000000;0.490055
9231.000000;0.489492
9230.000000;0.488988
9229.000000;0.488433
9228.000000;0.487917
9227.000000;0.487565
9226.000000;0.487321
9225.000000;0.487042
9224.000000;0.486716
9223.000000;0.486435
9222.000000;0.486240
9221.000000;0.486100
9220.000000;0.485966
9219.000000;0.485760
9218.000000;0.485399
9217.000000;0.484910
9216.000000;0.484450
9215.000000;0.484129
9214.000000;0.483896
9213.000000;0.483638
9212.000000;0.483292
9211.000000;0.482855
9210.000000;0.482389
9209.000000;0.482023
9208.000000;0.481835
9207.000000;0.481715
9206.000000;0.481488
9205.000000;0.481166
9204.000000;0.480929
9203.000000;0.480834
9202.000000;0.480721
9201.000000;0.480461
9200.000000;0.480101
9199.000000;0.479728
9198.000000;0.479352
9197.000000;0.478991
9196.000000;0.478710
9195.000000;0.478496
9194.000000;0.478228
9193.000000;0.477842
9192.000000;0.477396
9191.000000;0.476958
9190.000000;0.476545
9189.000000;0.476201
9188.000000;0.475970
9187.000000;0.475780
9186.000000;0.475491
9185.000000;0.475077
9184.000000;0.474637
9183.000000;0.474234
9182.000000;0.473901
9181.000000;0.473752
9180.000000;0.473842
9179.000000;0.473936
9178.000000;0.473664
9177.000000;0.472973
9176.000000;0.472209
9175.000000;0.471680
9174.000000;0.471356
9173.000000;0.471062
9172.000000;0.470733
9171.000000;0.470382
9170.000000;0.470015
9169.000000;0.469690
9168.000000;0.469495
9167.000000;0.469393
9166.000000;0.469219
9165.000000;0.468891
9164.000000;0.468475
9163.000000;0.468014
9162.000000;0.467472
9161.000000;0.466897
9160.000000;0.466446
9159.000000;0.466186
9158.000000;0.466005
9157.000000;0.465794
9156.000000;0.465552
9155.000000;0.465286
9154.000000;0.464953
9153.000000;0.464558
9152.000000;0.464176
9151.000000;0.463853
9150.000000;0.463594
9149.000000;0.463414
9148.000000;0.463269
9147.000000;0.462975
9146.000000;0.462407
9145.000000;0.461751
9144.000000;0.461325
9143.000000;0.461169
9142.000000;0.461032
9141.000000;0.460770
9140.000000;0.460492
9139.000000;0.460293
9138.000000;0.460074
9137.000000;0.459727
9136.000000;0.459292
9135.000000;0.458865
9134.000000;0.458521
9133.000000;0.458336
9132.000000;0.458304
9131.000000;0.458234
9130.000000;0.457929
9129.000000;0.457466
9128.000000;0.457085
9127.000000;0.456817
9126.000000;0.456474
9125.000000;0.455998
9124.000000;0.455557
9123.000000;0.455272
9122.000000;0.455103
9121.000000;0.455008
9120.000000;0.454959
9119.000000;0.454781
9118.000000;0.454299
9117.000000;0.453663
9116.000000;0.453251
9115.000000;0.453157
9114.000000;0.453072
9113.000000;0.452744
9112.000000;0.452257
9111.000000;0.451773
9110.000000;0.451308
9109.000000;0.450883
9108.000000;0.450601
9107.000000;0.450435
9106.000000;0.450174
9105.000000;0.449724
9104.000000;0.449235
9103.000000;0.448831
9102.000000;0.448458
9101.000000;0.448102
9100.000000;0.447867
9099.000000;0.447746
9098.000000;0.447565
9097.000000;0.447298
9096.000000;0.447142
9095.000000;0.447140
9094.000000;0.447023
9093.000000;0.446610
9092.000000;0.446106
9091.000000;0.445782
9090.000000;0.445586
9089.000000;0.445304
9088.000000;0.444915
9087.000000;0.444567
9086.000000;0.444309
9085.000000;0.444078
9084.000000;0.443831
9083.000000;0.443524
9082.000000;0.443074
9081.000000;0.442472
9080.000000;0.441861
9079.000000;0.441376
9078.000000;0.441030
9077.000000;0.440806
9076.000000;0.440722
9075.000000;0.440700
9074.000000;0.440557
9073.000000;0.440234
9072.000000;0.439886
9071.000000;0.439627
9070.000000;0.439359
9069.000000;0.438962
9068.000000;0.438497
9067.000000;0.438090
9066.000000;0.437757
9065.000000;0.437478
9064.000000;0.437276
9063.000000;0.437133
9062.000000;0.436928
9061.000000;0.436609
9060.000000;0.436293
9059.000000;0.436077
9058.000000;0.435879
9057.000000;0.435569
9056.000000;0.435168
9055.000000;0.434787
9054.000000;0.434472
9053.000000;0.434190
