Criado como novo conjunto de dados;"Jao_teste_celulas.spp","902.1 Secs"
cm-1;Abs
10000.000000;0.810719
9999.000000;0.810018
9998.000000;0.809316
9997.000000;0.808619
9996.000000;0.807917
9995.000000;0.807227
9994.000000;0.806510
9993.000000;0.805782
9992.000000;0.805235
9991.000000;0.804815
9990.000000;0.804325
9989.000000;0.803639
9988.000000;0.802891
9987.000000;0.802327
9986.000000;0.802025
9985.000000;0.801812
9984.000000;0.801508
9983.000000;0.801152
9982.000000;0.800881
9981.000000;0.800659
9980.000000;0.800280
9979.000000;0.799683
9978.000000;0.799099
9977.000000;0.798735
9976.000000;0.798428
9975.000000;0.797832
9974.000000;0.796951
9973.000000;0.796236
9972.000000;0.796007
9971.000000;0.795967
9970.000000;0.795548
9969.000000;0.794658
9968.000000;0.793812
9967.000000;0.793479
9966.000000;0.793551
9965.000000;0.793576
9964.000000;0.793324
9963.000000;0.792909
9962.000000;0.792458
9961.000000;0.791909
9960.000000;0.791169
9959.000000;0.790313
9958.000000;0.789551
9957.000000;0.789037
9956.000000;0.788716
9955.000000;0.788301
9954.000000;0.787476
9953.000000;0.786221
9952.000000;0.784971
9951.000000;0.784291
9950.000000;0.784364
9949.000000;0.784851
9948.000000;0.785261
9947.000000;0.785378
9946.000000;0.785278
9945.000000;0.785080
9944.000000;0.784766
9943.000000;0.784220
9942.000000;0.783380
9941.000000;0.782380
9940.000000;0.781543
9939.000000;0.781140
9938.000000;0.781107
9937.000000;0.781064
9936.000000;0.780682
9935.000000;0.779963
9934.000000;0.779121
9933.000000;0.778281
9932.000000;0.777448
9931.000000;0.776692
9930.000000;0.776192
9929.000000;0.776015
9928.000000;0.775960
9927.000000;0.775730
9926.000000;0.775227
9925.000000;0.774622
9924.000000;0.774135
9923.000000;0.773806
9922.000000;0.773508
9921.000000;0.773134
9920.000000;0.772713
9919.000000;0.772364
9918.000000;0.772190
9917.000000;0.772209
9916.000000;0.772286
9915.000000;0.772126
9914.000000;0.771440
9913.000000;0.770236
9912.000000;0.768862
9911.000000;0.767675
9910.000000;0.766732
9909.000000;0.765937
9908.000000;0.765381
9907.000000;0.765314
9906.000000;0.765768
9905.000000;0.766393
9904.000000;0.766780
9903.000000;0.766773
9902.000000;0.766409
9901.000000;0.765703
9900.000000;0.764708
9899.000000;0.763686
9898.000000;0.763004
9897.000000;0.762814
9896.000000;0.762892
9895.000000;0.762831
9894.000000;0.762370
9893.000000;0.761565
9892.000000;0.760716
9891.000000;0.760084
9890.000000;0.759638
9889.000000;0.759106
9888.000000;0.758304
9887.000000;0.757357
9886.000000;0.756546
9885.000000;0.756009
9884.000000;0.755664
9883.000000;0.755373
9882.000000;0.755080
9881.000000;0.754824
9880.000000;0.754656
9879.000000;0.754537
9878.000000;0.754277
9877.000000;0.753645
9876.000000;0.752617
9875.000000;0.751460
9874.000000;0.750510
9873.000000;0.749907
9872.000000;0.749583
9871.000000;0.749430
9870.000000;0.749378
9869.000000;0.749338
9868.000000;0.749193
9867.000000;0.748851
9866.000000;0.748269
9865.000000;0.747475
9864.000000;0.746631
9863.000000;0.745987
9862.000000;0.745667
9861.000000;0.745527
9860.000000;0.745321
9859.000000;0.744961
9858.000000;0.744517
9857.000000;0.743995
9856.000000;0.743265
9855.000000;0.742250
9854.000000;0.741089
9853.000000;0.740092
9852.000000;0.739542
9851.000000;0.739492
9850.000000;0.739687
9849.000000;0.739736
9848.000000;0.739458
9847.000000;0.739034
9846.000000;0.738726
9845.000000;0.738556
9844.000000;0.738351
9843.000000;0.738029
9842.000000;0.737645
9841.000000;0.737219
9840.000000;0.736693
9839.000000;0.736081
9838.000000;0.735458
9837.000000;0.734779
9836.000000;0.733909
9835.000000;0.732898
9834.000000;0.732045
9833.000000;0.731586
9832.000000;0.731473
9831.000000;0.731520
9830.000000;0.731621
9829.000000;0.731672
9828.000000;0.731442
9827.000000;0.730730
9826.000000;0.729645
9825.000000;0.728576
9824.000000;0.727865
9823.000000;0.727588
9822.000000;0.727581
9821.000000;0.727605
9820.000000;0.727499
9819.000000;0.727273
9818.000000;0.727043
9817.000000;0.726856
9816.000000;0.726575
9815.000000;0.726009
9814.000000;0.725139
9813.000000;0.724169
9812.000000;0.723361
9811.000000;0.722830
9810.000000;0.722470
9809.000000;0.722098
9808.000000;0.721663
9807.000000;0.721313
9806.000000;0.721165
9805.000000;0.721083
9804.000000;0.720759
9803.000000;0.720058
9802.000000;0.719148
9801.000000;0.718305
9800.000000;0.717710
9799.000000;0.717456
9798.000000;0.717530
9797.000000;0.717686
9796.000000;0.717501
9795.000000;0.716772
9794.000000;0.715789
9793.000000;0.715062
9792.000000;0.714824
9791.000000;0.714902
9790.000000;0.714934
9789.000000;0.714609
9788.000000;0.713798
9787.000000;0.712659
9786.000000;0.711571
9785.000000;0.710813
9784.000000;0.710331
9783.000000;0.709930
9782.000000;0.709617
9781.000000;0.709526
9780.000000;0.709577
9779.000000;0.709453
9778.000000;0.708988
9777.000000;0.708382
9776.000000;0.707949
9775.000000;0.707822
9774.000000;0.707945
9773.000000;0.708181
9772.000000;0.708338
9771.000000;0.708228
9770.000000;0.707812
9769.000000;0.707193
9768.000000;0.706404
9767.000000;0.705368
9766.000000;0.704150
9765.000000;0.703080
9764.000000;0.702439
9763.000000;0.702152
9762.000000;0.701945
9761.000000;0.701705
9760.000000;0.701487
9759.000000;0.701245
9758.000000;0.700814
9757.000000;0.700203
9756.000000;0.699680
9755.000000;0.699443
9754.000000;0.699345
9753.000000;0.699086
9752.000000;0.698593
9751.000000;0.698050
9750.000000;0.697582
9749.000000;0.697069
9748.000000;0.696356
9747.000000;0.695540
9746.000000;0.694921
9745.000000;0.694661
9744.000000;0.694592
9743.000000;0.694396
9742.000000;0.693917
9741.000000;0.693233
9740.000000;0.692489
9739.000000;0.691787
9738.000000;0.691216
9737.000000;0.690864
9736.000000;0.690729
9735.000000;0.690670
9734.000000;0.690516
9733.000000;0.690201
9732.000000;0.689767
9731.000000;0.689309
9730.000000;0.688903
9729.000000;0.688542
9728.000000;0.688119
9727.000000;0.687538
9726.000000;0.686872
9725.000000;0.686302
9724.000000;0.685877
9723.000000;0.685429
9722.000000;0.684817
9721.000000;0.684147
9720.000000;0.683655
9719.000000;0.683415
9718.000000;0.683276
9717.000000;0.683040
9716.000000;0.682632
9715.000000;0.682133
9714.000000;0.681724
9713.000000;0.681570
9712.000000;0.681636
9711.000000;0.681658
9710.000000;0.681392
9709.000000;0.680870
9708.000000;0.680309
9707.000000;0.679788
9706.000000;0.679151
9705.000000;0.678264
9704.000000;0.677243
9703.000000;0.676369
9702.000000;0.675837
9701.000000;0.675620
9700.000000;0.675510
9699.000000;0.675277
9698.000000;0.674854
9697.000000;0.674378
9696.000000;0.674008
9695.000000;0.673698
9694.000000;0.673239
9693.000000;0.672518
9692.000000;0.671645
9691.000000;0.670797
9690.000000;0.670053
9689.000000;0.669425
9688.000000;0.668954
9687.000000;0.668681
9686.000000;0.668575
9685.000000;0.668560
9684.000000;0.668582
9683.000000;0.668611
9682.000000;0.668600
9681.000000;0.668462
9680.000000;0.668082
9679.000000;0.667369
9678.000000;0.666363
9677.000000;0.665278
9676.000000;0.664357
9675.000000;0.663649
9674.000000;0.663038
9673.000000;0.662478
9672.000000;0.662096
9671.000000;0.661981
9670.000000;0.661986
9669.000000;0.661847
9668.000000;0.661451
9667.000000;0.660906
9666.000000;0.660401
9665.000000;0.660065
9664.000000;0.659910
9663.000000;0.659794
9662.000000;0.659503
9661.000000;0.658945
9660.000000;0.658260
9659.000000;0.657673
9658.000000;0.657270
9657.000000;0.656975
9656.000000;0.656703
9655.000000;0.656438
9654.000000;0.656163
9653.000000;0.655811
9652.000000;0.655308
9651.000000;0.654643
9650.000000;0.653910
9649.000000;0.653301
9648.000000;0.653006
9647.000000;0.653032
9646.000000;0.653139
9645.000000;0.653019
9644.000000;0.652536
9643.000000;0.651756
9642.000000;0.650804
9641.000000;0.649800
9640.000000;0.648885
9639.000000;0.648216
9638.000000;0.647882
9637.000000;0.647879
9636.000000;0.648118
9635.000000;0.648408
9634.000000;0.648485
9633.000000;0.648192
9632.000000;0.647649
9631.000000;0.647120
9630.000000;0.646703
9629.000000;0.646240
9628.000000;0.645557
9627.000000;0.644699
9626.000000;0.643881
9625.000000;0.643277
9624.000000;0.642906
9623.000000;0.642668
9622.000000;0.642432
9621.000000;0.642121
9620.000000;0.641747
9619.000000;0.641371
9618.000000;0.641021
9617.000000;0.640688
9616.000000;0.640367
9615.000000;0.640057
9614.000000;0.639728
9613.000000;0.639354
9612.000000;0.638952
9611.000000;0.638549
9610.000000;0.638101
9609.000000;0.637548
9608.000000;0.636913
9607.000000;0.636273
9606.000000;0.635627
9605.000000;0.634922
9604.000000;0.634202
9603.000000;0.633622
9602.000000;0.633256
9601.000000;0.633019
9600.000000;0.632826
9599.000000;0.632725
9598.000000;0.632771
9597.000000;0.632875
9596.000000;0.632868
9595.000000;0.632655
9594.000000;0.632225
9593.000000;0.631578
9592.000000;0.630763
9591.000000;0.629945
9590.000000;0.629297
9589.000000;0.628848
9588.000000;0.628501
9587.000000;0.628172
9586.000000;0.627808
9585.000000;0.627326
9584.000000;0.626643
9583.000000;0.625818
9582.000000;0.625030
9581.000000;0.624397
9580.000000;0.623903
9579.000000;0.623499
9578.000000;0.623201
9577.000000;0.623008
9576.000000;0.622829
9575.000000;0.622534
9574.000000;0.622071
9573.000000;0.621504
9572.000000;0.620976
9571.000000;0.620641
9570.000000;0.620541
9569.000000;0.620516
9568.000000;0.620281
9567.000000;0.619703
9566.000000;0.618975
9565.000000;0.618417
9564.000000;0.618128
9563.000000;0.617908
9562.000000;0.617562
9561.000000;0.617183
9560.000000;0.617030
9559.000000;0.617138
9558.000000;0.617179
9557.000000;0.616779
9556.000000;0.615917
9555.000000;0.614899
9554.000000;0.613998
9553.000000;0.613237
9552.000000;0.612559
9551.000000;0.612034
9550.000000;0.611772
9549.000000;0.611714
9548.000000;0.611647
9547.000000;0.611433
9546.000000;0.611079
9545.000000;0.610599
9544.000000;0.609945
9543.000000;0.609145
9542.000000;0.608417
9541.000000;0.608023
9540.000000;0.608026
9539.000000;0.608219
9538.000000;0.608270
9537.000000;0.607947
9536.000000;0.607273
9535.000000;0.606528
9534.000000;0.606034
9533.000000;0.605880
9532.000000;0.605855
9531.000000;0.605689
9530.000000;0.605316
9529.000000;0.604867
9528.000000;0.604468
9527.000000;0.604136
9526.000000;0.603818
9525.000000;0.603448
9524.000000;0.602954
9523.000000;0.602308
9522.000000;0.601586
9521.000000;0.600920
9520.000000;0.600395
9519.000000;0.600033
9518.000000;0.599859
9517.000000;0.599867
9516.000000;0.599900
9515.000000;0.599693
9514.000000;0.599115
9513.000000;0.598331
9512.000000;0.597628
9511.000000;0.597133
9510.000000;0.596762
9509.000000;0.596422
9508.000000;0.596133
9507.000000;0.595962
9506.000000;0.595899
9505.000000;0.595848
9504.000000;0.595683
9503.000000;0.595301
9502.000000;0.594666
9501.000000;0.593867
9500.000000;0.593095
9499.000000;0.592523
9498.000000;0.592186
9497.000000;0.591977
9496.000000;0.591746
9495.000000;0.591398
9494.000000;0.590936
9493.000000;0.590427
9492.000000;0.589935
9491.000000;0.589492
9490.000000;0.589116
9489.000000;0.588808
9488.000000;0.588528
9487.000000;0.588173
9486.000000;0.587648
9485.000000;0.586973
9484.000000;0.586320
9483.000000;0.585897
9482.000000;0.585783
9481.000000;0.585822
9480.000000;0.585717
9479.000000;0.585284
9478.000000;0.584673
9477.000000;0.584251
9476.000000;0.584210
9475.000000;0.584327
9474.000000;0.584196
9473.000000;0.583662
9472.000000;0.582944
9471.000000;0.582318
9470.000000;0.581849
9469.000000;0.581450
9468.000000;0.581060
9467.000000;0.580654
9466.000000;0.580181
9465.000000;0.579642
9464.000000;0.579175
9463.000000;0.578923
9462.000000;0.578830
9461.000000;0.578670
9460.000000;0.578314
9459.000000;0.577840
9458.000000;0.577364
9457.000000;0.576892
9456.000000;0.576401
9455.000000;0.575968
9454.000000;0.575681
9453.000000;0.575461
9452.000000;0.575107
9451.000000;0.574528
9450.000000;0.573868
9449.000000;0.573347
9448.000000;0.573030
9447.000000;0.572791
9446.000000;0.572483
9445.000000;0.572091
9444.000000;0.571717
9443.000000;0.571446
9442.000000;0.571241
9441.000000;0.570964
9440.000000;0.570491
9439.000000;0.569817
9438.000000;0.569077
9437.000000;0.568457
9436.000000;0.568075
9435.000000;0.567911
9434.000000;0.567842
9433.000000;0.567723
9432.000000;0.567468
9431.000000;0.567068
9430.000000;0.566567
9429.000000;0.566018
9428.000000;0.565452
9427.000000;0.564911
9426.000000;0.564484
9425.000000;0.564261
9424.000000;0.564225
9423.000000;0.564204
9422.000000;0.564001
9421.000000;0.563558
9420.000000;0.562967
9419.000000;0.562330
9418.000000;0.561690
9417.000000;0.561109
9416.000000;0.560699
9415.000000;0.560524
9414.000000;0.560489
9413.000000;0.560393
9412.000000;0.560073
9411.000000;0.559492
9410.000000;0.558727
9409.000000;0.557948
9408.000000;0.557351
9407.000000;0.557050
9406.000000;0.557006
9405.000000;0.557101
9404.000000;0.557231
9403.000000;0.557286
9402.000000;0.557089
9401.000000;0.556507
9400.000000;0.555633
9399.000000;0.554787
9398.000000;0.554250
9397.000000;0.554021
9396.000000;0.553853
9395.000000;0.553521
9394.000000;0.553019
9393.000000;0.552527
9392.000000;0.552197
9391.000000;0.551997
9390.000000;0.551757
9389.000000;0.551357
9388.000000;0.550821
9387.000000;0.550243
9386.000000;0.549690
9385.000000;0.549207
9384.000000;0.548823
9383.000000;0.548498
9382.000000;0.548118
9381.000000;0.547666
9380.000000;0.547331
9379.000000;0.547305
9378.000000;0.547503
9377.000000;0.547615
9376.000000;0.547456
9375.000000;0.547113
9374.000000;0.546697
9373.000000;0.546135
9372.000000;0.545327
9371.000000;0.544402
9370.000000;0.543627
9369.000000;0.543114
9368.000000;0.542745
9367.000000;0.542373
9366.000000;0.542000
9365.000000;0.541711
9364.000000;0.541542
9363.000000;0.541425
9362.000000;0.541248
9361.000000;0.540955
9360.000000;0.540609
9359.000000;0.540327
9358.000000;0.540124
9357.000000;0.539864
9356.000000;0.539425
9355.000000;0.538877
9354.000000;0.538412
9353.000000;0.538129
9352.000000;0.537963
9351.000000;0.537797
9350.000000;0.537559
9349.000000;0.537211
9348.000000;0.536754
9347.000000;0.536281
9346.000000;0.535921
9345.000000;0.535693
9344.000000;0.535463
9343.000000;0.535098
9342.000000;0.534590
9341.000000;0.534023
9340.000000;0.533472
9339.000000;0.532998
9338.000000;0.532647
9337.000000;0.532399
9336.000000;0.532143
9335.000000;0.531766
9334.000000;0.531261
9333.000000;0.530716
9332.000000;0.530222
9331.000000;0.529807
9330.000000;0.529444
9329.000000;0.529079
9328.000000;0.528702
9327.000000;0.528409
9326.000000;0.528318
9325.000000;0.528403
9324.000000;0.528466
9323.000000;0.528333
9322.000000;0.528021
9321.000000;0.527619
9320.000000;0.527103
9319.000000;0.526376
9318.000000;0.525480
9317.000000;0.524638
9316.000000;0.524046
9315.000000;0.523718
9314.000000;0.523528
9313.000000;0.523338
9312.000000;0.523077
9311.000000;0.522767
9310.000000;0.522517
9309.000000;0.522405
9308.000000;0.522365
9307.000000;0.522272
9306.000000;0.522132
9305.000000;0.522058
9304.000000;0.522012
9303.000000;0.521735
9302.000000;0.521060
9301.000000;0.520189
9300.000000;0.519487
9299.000000;0.519065
9298.000000;0.518734
9297.000000;0.518363
9296.000000;0.518082
9295.000000;0.518036
9294.000000;0.518082
9293.000000;0.517890
9292.000000;0.517306
9291.000000;0.516527
9290.000000;0.515903
9289.000000;0.515621
9288.000000;0.515598
9287.000000;0.515612
9286.000000;0.515499
9285.000000;0.515224
9284.000000;0.514811
9283.000000;0.514290
9282.000000;0.513708
9281.000000;0.513162
9280.000000;0.512747
9279.000000;0.512468
9278.000000;0.512236
9277.000000;0.511943
9276.000000;0.511541
9275.000000;0.511068
9274.000000;0.510641
9273.000000;0.510400
9272.000000;0.510386
9271.000000;0.510474
9270.000000;0.510458
9269.000000;0.510208
9268.000000;0.509712
9267.000000;0.509011
9266.000000;0.508193
9265.000000;0.507433
9264.000000;0.506926
9263.000000;0.506712
9262.000000;0.506621
9261.000000;0.506431
9260.000000;0.506060
9259.000000;0.505594
9258.000000;0.505184
9257.000000;0.504923
9256.000000;0.504773
9255.000000;0.504571
9254.000000;0.504185
9253.000000;0.503681
9252.000000;0.503260
9251.000000;0.503000
9250.000000;0.502769
9249.000000;0.502452
9248.000000;0.502151
9247.000000;0.502027
9246.000000;0.502032
9245.000000;0.501943
9244.000000;0.501649
9243.000000;0.501249
9242.000000;0.500861
9241.000000;0.500465
9240.000000;0.499987
9239.000000;0.499444
9238.000000;0.498920
9237.000000;0.498474
9236.000000;0.498094
9235.000000;0.497733
9234.000000;0.497342
9233.000000;0.496918
9232.000000;0.496547
9231.000000;0.496338
9230.000000;0.496299
9229.000000;0.496295
9228.000000;0.496166
9227.000000;0.495860
9226.000000;0.495426
9225.000000;0.494930
9224.000000;0.494421
9223.000000;0.493964
9222.000000;0.493645
9221.000000;0.493520
9220.000000;0.493540
9219.000000;0.493525
9218.000000;0.493260
9217.000000;0.492673
9216.000000;0.491929
9215.000000;0.491308
9214.000000;0.490966
9213.000000;0.490830
9212.000000;0.490714
9211.000000;0.490482
9210.000000;0.490098
9209.000000;0.489630
9208.000000;0.489235
9207.000000;0.489068
9206.000000;0.489111
9205.000000;0.489093
9204.000000;0.488707
9203.000000;0.487903
9202.000000;0.486950
9201.000000;0.486175
9200.000000;0.485697
9199.000000;0.485411
9198.000000;0.485169
9197.000000;0.484903
9196.000000;0.484610
9195.000000;0.484280
9194.000000;0.483901
9193.000000;0.483511
9192.000000;0.483206
9191.000000;0.483050
9190.000000;0.482998
9189.000000;0.482911
9188.000000;0.482677
9187.000000;0.482300
9186.000000;0.481883
9185.000000;0.481530
9184.000000;0.481272
9183.000000;0.481069
9182.000000;0.480835
9181.000000;0.480486
9180.000000;0.479981
9179.000000;0.479371
9178.000000;0.478793
9177.000000;0.478409
9176.000000;0.478293
9175.000000;0.478365
9174.000000;0.478442
9173.000000;0.478366
9172.000000;0.478100
9171.000000;0.477722
9170.000000;0.477338
9169.000000;0.477006
9168.000000;0.476711
9167.000000;0.476392
9166.000000;0.476013
9165.000000;0.475610
9164.000000;0.475260
9163.000000;0.474996
9162.000000;0.474750
9161.000000;0.474422
9160.000000;0.473975
9159.000000;0.473441
9158.000000;0.472867
9157.000000;0.472300
9156.000000;0.471810
9155.000000;0.471454
9154.000000;0.471196
9153.000000;0.470920
9152.000000;0.470576
9151.000000;0.470269
9150.000000;0.470133
9149.000000;0.470154
9148.000000;0.470150
9147.000000;0.469943
9146.000000;0.469525
9145.000000;0.469032
9144.000000;0.468600
9143.000000;0.468254
9142.000000;0.467938
9141.000000;0.467613
9140.000000;0.467294
9139.000000;0.467010
9138.000000;0.466751
9137.000000;0.466477
9136.000000;0.466164
9135.000000;0.465793
9134.000000;0.465326
9133.000000;0.464745
9132.000000;0.464126
9131.000000;0.463608
9130.000000;0.463268
9129.000000;0.463053
9128.000000;0.462873
9127.000000;0.462703
9126.000000;0.462556
9125.000000;0.462397
9124.000000;0.462170
9123.000000;0.461899
9122.000000;0.461693
9121.000000;0.461600
9120.000000;0.461522
9119.000000;0.461321
9118.000000;0.460970
9117.000000;0.460574
9116.000000;0.460239
9115.000000;0.459979
9114.000000;0.459720
9113.000000;0.459380
9112.000000;0.458933
9111.000000;0.458430
9110.000000;0.457958
9109.000000;0.457571
9108.000000;0.457265
9107.000000;0.457011
9106.000000;0.456809
9105.000000;0.456664
9104.000000;0.456534
9103.000000;0.456347
9102.000000;0.456087
9101.000000;0.455814
9100.000000;0.455586
9099.000000;0.455393
9098.000000;0.455177
9097.000000;0.454892
9096.000000;0.454531
9095.000000;0.454125
9094.000000;0.453749
9093.000000;0.453472
9092.000000;0.453277
9091.000000;0.453049
9090.000000;0.452687
9089.000000;0.452211
9088.000000;0.451700
9087.000000;0.451183
9086.000000;0.450654
9085.000000;0.450170
9084.000000;0.449831
9083.000000;0.449658
9082.000000;0.449563
9081.000000;0.449467
9080.000000;0.449357
9079.000000;0.449209
9078.000000;0.448948
9077.000000;0.448552
9076.000000;0.448123
9075.000000;0.447794
9074.000000;0.447595
9073.000000;0.447473
9072.000000;0.447368
9071.000000;0.447217
9070.000000;0.446930
9069.000000;0.446478
9068.000000;0.445978
9067.000000;0.445596
9066.000000;0.445354
9065.000000;0.445126
9064.000000;0.444816
9063.000000;0.444445
9062.000000;0.444058
9061.000000;0.443629
9060.000000;0.443129
9059.000000;0.442633
9058.000000;0.442272
9057.000000;0.442096
9056.000000;0.442019
9055.000000;0.441893
9054.000000;0.441633
9053.000000;0.441271
