Criado como novo conjunto de dados;"Jao_teste_celulas.spp","9964.2 Secs"
cm-1;Abs
10000.000000;1.833307
9999.000000;1.833803
9998.000000;1.834297
9997.000000;1.834794
9996.000000;1.835289
9995.000000;1.835791
9994.000000;1.836278
9993.000000;1.836819
9992.000000;1.837791
9991.000000;1.839404
9990.000000;1.841471
9989.000000;1.843518
9988.000000;1.844609
9987.000000;1.843579
9986.000000;1.840234
9985.000000;1.836176
9984.000000;1.833838
9983.000000;1.834568
9982.000000;1.837570
9981.000000;1.840475
9980.000000;1.841083
9979.000000;1.839091
9978.000000;1.836398
9977.000000;1.835436
9976.000000;1.836951
9975.000000;1.839397
9974.000000;1.840526
9973.000000;1.839403
9972.000000;1.836743
9971.000000;1.833818
9970.000000;1.831557
9969.000000;1.830391
9968.000000;1.830294
9967.000000;1.830929
9966.000000;1.832152
9965.000000;1.834154
9964.000000;1.836593
9963.000000;1.837897
9962.000000;1.836332
9961.000000;1.831943
9960.000000;1.826782
9959.000000;1.823079
9958.000000;1.821833
9957.000000;1.823040
9956.000000;1.826196
9955.000000;1.829928
9954.000000;1.832006
9953.000000;1.831006
9952.000000;1.827919
9951.000000;1.825069
9950.000000;1.823426
9949.000000;1.821974
9948.000000;1.819825
9947.000000;1.817807
9946.000000;1.817191
9945.000000;1.817726
9944.000000;1.818006
9943.000000;1.817443
9942.000000;1.816746
9941.000000;1.816387
9940.000000;1.815733
9939.000000;1.814323
9938.000000;1.813112
9937.000000;1.813418
9936.000000;1.815102
9935.000000;1.816685
9934.000000;1.817016
9933.000000;1.816056
9932.000000;1.814141
9931.000000;1.811549
9930.000000;1.809251
9929.000000;1.808970
9928.000000;1.811448
9927.000000;1.814963
9926.000000;1.816513
9925.000000;1.814821
9924.000000;1.811417
9923.000000;1.808510
9922.000000;1.806845
9921.000000;1.806108
9920.000000;1.806332
9919.000000;1.807809
9918.000000;1.809983
9917.000000;1.811512
9916.000000;1.811624
9915.000000;1.810617
9914.000000;1.808864
9913.000000;1.806226
9912.000000;1.802866
9911.000000;1.799865
9910.000000;1.798314
9909.000000;1.798254
9908.000000;1.799140
9907.000000;1.800839
9906.000000;1.803309
9905.000000;1.805592
9904.000000;1.806277
9903.000000;1.805218
9902.000000;1.803896
9901.000000;1.803654
9900.000000;1.804257
9899.000000;1.804562
9898.000000;1.804064
9897.000000;1.803289
9896.000000;1.802938
9895.000000;1.803110
9894.000000;1.803162
9893.000000;1.802014
9892.000000;1.799020
9891.000000;1.794965
9890.000000;1.791671
9889.000000;1.790326
9888.000000;1.790694
9887.000000;1.792036
9886.000000;1.794139
9885.000000;1.796977
9884.000000;1.799771
9883.000000;1.801157
9882.000000;1.800421
9881.000000;1.798101
9880.000000;1.795333
9879.000000;1.793075
9878.000000;1.791938
9877.000000;1.792143
9876.000000;1.793349
9875.000000;1.794823
9874.000000;1.795919
9873.000000;1.796208
9872.000000;1.795347
9871.000000;1.793351
9870.000000;1.791094
9869.000000;1.789967
9868.000000;1.790630
9867.000000;1.792209
9866.000000;1.793084
9865.000000;1.792517
9864.000000;1.791286
9863.000000;1.790570
9862.000000;1.790401
9861.000000;1.789575
9860.000000;1.787267
9859.000000;1.784454
9858.000000;1.783191
9857.000000;1.784421
9856.000000;1.786884
9855.000000;1.788505
9854.000000;1.788540
9853.000000;1.787835
9852.000000;1.787303
9851.000000;1.786937
9850.000000;1.786394
9849.000000;1.785879
9848.000000;1.785830
9847.000000;1.785972
9846.000000;1.785233
9845.000000;1.782777
9844.000000;1.779022
9843.000000;1.775568
9842.000000;1.774047
9841.000000;1.774866
9840.000000;1.776920
9839.000000;1.778555
9838.000000;1.778849
9837.000000;1.777910
9836.000000;1.776189
9835.000000;1.773920
9834.000000;1.771320
9833.000000;1.768921
9832.000000;1.767474
9831.000000;1.767546
9830.000000;1.769161
9829.000000;1.771618
9828.000000;1.773753
9827.000000;1.774736
9826.000000;1.774635
9825.000000;1.773899
9824.000000;1.772453
9823.000000;1.769975
9822.000000;1.767203
9821.000000;1.765953
9820.000000;1.767054
9819.000000;1.768895
9818.000000;1.769023
9817.000000;1.767131
9816.000000;1.765350
9815.000000;1.765392
9814.000000;1.766554
9813.000000;1.766989
9812.000000;1.766022
9811.000000;1.764363
9810.000000;1.762683
9809.000000;1.761151
9808.000000;1.760095
9807.000000;1.759924
9806.000000;1.760163
9805.000000;1.759441
9804.000000;1.756929
9803.000000;1.753239
9802.000000;1.749616
9801.000000;1.746903
9800.000000;1.745592
9799.000000;1.746014
9798.000000;1.747737
9797.000000;1.749273
9796.000000;1.749293
9795.000000;1.748115
9794.000000;1.747356
9793.000000;1.748206
9792.000000;1.750543
9791.000000;1.753393
9790.000000;1.755565
9789.000000;1.756062
9788.000000;1.754716
9787.000000;1.752581
9786.000000;1.751027
9785.000000;1.750295
9784.000000;1.749552
9783.000000;1.748497
9782.000000;1.748088
9781.000000;1.749287
9780.000000;1.751665
9779.000000;1.753725
9778.000000;1.754259
9777.000000;1.753074
9776.000000;1.750897
9775.000000;1.748990
9774.000000;1.748395
9773.000000;1.749069
9772.000000;1.749893
9771.000000;1.749834
9770.000000;1.748840
9769.000000;1.747328
9768.000000;1.745349
9767.000000;1.742917
9766.000000;1.740694
9765.000000;1.739505
9764.000000;1.739351
9763.000000;1.739602
9762.000000;1.740076
9761.000000;1.741108
9760.000000;1.742425
9759.000000;1.742751
9758.000000;1.741074
9757.000000;1.737954
9756.000000;1.735160
9755.000000;1.734193
9754.000000;1.735329
9753.000000;1.737719
9752.000000;1.740095
9751.000000;1.741579
9750.000000;1.742137
9749.000000;1.742102
9748.000000;1.741336
9747.000000;1.739306
9746.000000;1.736238
9745.000000;1.733662
9744.000000;1.733172
9743.000000;1.734690
9742.000000;1.736434
9741.000000;1.736731
9740.000000;1.735624
9739.000000;1.734403
9738.000000;1.733925
9737.000000;1.733838
9736.000000;1.733332
9735.000000;1.732250
9734.000000;1.731258
9733.000000;1.731075
9732.000000;1.731793
9731.000000;1.732911
9730.000000;1.733666
9729.000000;1.733276
9728.000000;1.731286
9727.000000;1.728101
9726.000000;1.725111
9725.000000;1.723816
9724.000000;1.724581
9723.000000;1.726329
9722.000000;1.727612
9721.000000;1.727936
9720.000000;1.727926
9719.000000;1.728305
9718.000000;1.729069
9717.000000;1.729703
9716.000000;1.729855
9715.000000;1.729511
9714.000000;1.728637
9713.000000;1.727078
9712.000000;1.724997
9711.000000;1.723095
9710.000000;1.722130
9709.000000;1.722365
9708.000000;1.723602
9707.000000;1.725360
9706.000000;1.726679
9705.000000;1.726189
9704.000000;1.723273
9703.000000;1.719361
9702.000000;1.717095
9701.000000;1.717714
9700.000000;1.719780
9699.000000;1.720868
9698.000000;1.720144
9697.000000;1.718736
9696.000000;1.717823
9695.000000;1.717290
9694.000000;1.716446
9693.000000;1.715331
9692.000000;1.714735
9691.000000;1.715069
9690.000000;1.715813
9689.000000;1.716126
9688.000000;1.715683
9687.000000;1.714867
9686.000000;1.714137
9685.000000;1.713322
9684.000000;1.711813
9683.000000;1.709567
9682.000000;1.707550
9681.000000;1.706806
9680.000000;1.707145
9679.000000;1.707136
9678.000000;1.705686
9677.000000;1.703441
9676.000000;1.702218
9675.000000;1.703021
9674.000000;1.704839
9673.000000;1.705648
9672.000000;1.704701
9671.000000;1.703463
9670.000000;1.703851
9669.000000;1.705783
9668.000000;1.707056
9667.000000;1.705874
9666.000000;1.702921
9665.000000;1.700274
9664.000000;1.698866
9663.000000;1.698004
9662.000000;1.697177
9661.000000;1.697171
9660.000000;1.698835
9659.000000;1.701502
9658.000000;1.703423
9657.000000;1.703541
9656.000000;1.702127
9655.000000;1.699845
9654.000000;1.697163
9653.000000;1.694895
9652.000000;1.694344
9651.000000;1.696058
9650.000000;1.698653
9649.000000;1.699647
9648.000000;1.697865
9647.000000;1.694629
9646.000000;1.692299
9645.000000;1.692091
9644.000000;1.693518
9643.000000;1.695445
9642.000000;1.697102
9641.000000;1.698110
9640.000000;1.698115
9639.000000;1.696930
9638.000000;1.695007
9637.000000;1.693361
9636.000000;1.692884
9635.000000;1.693713
9634.000000;1.695168
9633.000000;1.696254
9632.000000;1.696212
9631.000000;1.694792
9630.000000;1.692274
9629.000000;1.689367
9628.000000;1.686979
9627.000000;1.685837
9626.000000;1.686067
9625.000000;1.687099
9624.000000;1.688047
9623.000000;1.688271
9622.000000;1.687673
9621.000000;1.686679
9620.000000;1.686022
9619.000000;1.686296
9618.000000;1.687354
9617.000000;1.688174
9616.000000;1.687689
9615.000000;1.685867
9614.000000;1.683721
9613.000000;1.682127
9612.000000;1.680980
9611.000000;1.679801
9610.000000;1.678815
9609.000000;1.678837
9608.000000;1.680047
9607.000000;1.681395
9606.000000;1.681501
9605.000000;1.679971
9604.000000;1.677644
9603.000000;1.675739
9602.000000;1.675015
9601.000000;1.675560
9600.000000;1.676922
9599.000000;1.678308
9598.000000;1.678976
9597.000000;1.678797
9596.000000;1.678381
9595.000000;1.678377
9594.000000;1.678669
9593.000000;1.678548
9592.000000;1.677713
9591.000000;1.676681
9590.000000;1.675918
9589.000000;1.675007
9588.000000;1.673297
9587.000000;1.671181
9586.000000;1.669984
9585.000000;1.670426
9584.000000;1.671746
9583.000000;1.672641
9582.000000;1.672586
9581.000000;1.671854
9580.000000;1.670862
9579.000000;1.670084
9578.000000;1.670103
9577.000000;1.670979
9576.000000;1.671685
9575.000000;1.670933
9574.000000;1.668633
9573.000000;1.665919
9572.000000;1.663803
9571.000000;1.662545
9570.000000;1.662332
9569.000000;1.663524
9568.000000;1.665777
9567.000000;1.667703
9566.000000;1.668151
9565.000000;1.667407
9564.000000;1.666405
9563.000000;1.665213
9562.000000;1.663264
9561.000000;1.660872
9560.000000;1.659432
9559.000000;1.659777
9558.000000;1.661142
9557.000000;1.662195
9556.000000;1.662581
9555.000000;1.662887
9554.000000;1.663404
9553.000000;1.663608
9552.000000;1.662888
9551.000000;1.661323
9550.000000;1.659588
9549.000000;1.658354
9548.000000;1.657753
9547.000000;1.657235
9546.000000;1.656059
9545.000000;1.654191
9544.000000;1.652567
9543.000000;1.652142
9542.000000;1.652778
9541.000000;1.653390
9540.000000;1.653187
9539.000000;1.652335
9538.000000;1.651334
9537.000000;1.650333
9536.000000;1.649415
9535.000000;1.649079
9534.000000;1.649841
9533.000000;1.651471
9532.000000;1.653078
9531.000000;1.653902
9530.000000;1.653829
9529.000000;1.653185
9528.000000;1.652366
9527.000000;1.651783
9526.000000;1.651787
9525.000000;1.652359
9524.000000;1.652991
9523.000000;1.653012
9522.000000;1.652052
9521.000000;1.650316
9520.000000;1.648578
9519.000000;1.647814
9518.000000;1.648494
9517.000000;1.650009
9516.000000;1.650923
9515.000000;1.650059
9514.000000;1.647555
9513.000000;1.644851
9512.000000;1.643461
9511.000000;1.643605
9510.000000;1.644022
9509.000000;1.643326
9508.000000;1.641558
9507.000000;1.639988
9506.000000;1.639413
9505.000000;1.639261
9504.000000;1.638650
9503.000000;1.637690
9502.000000;1.637073
9501.000000;1.636811
9500.000000;1.636260
9499.000000;1.635254
9498.000000;1.634431
9497.000000;1.634371
9496.000000;1.634980
9495.000000;1.635775
9494.000000;1.636276
9493.000000;1.636125
9492.000000;1.635428
9491.000000;1.634978
9490.000000;1.635502
9489.000000;1.636618
9488.000000;1.637115
9487.000000;1.636370
9486.000000;1.634844
9485.000000;1.633185
9484.000000;1.631753
9483.000000;1.631179
9482.000000;1.632206
9481.000000;1.634353
9480.000000;1.635664
9479.000000;1.634747
9478.000000;1.632525
9477.000000;1.631092
9476.000000;1.631395
9475.000000;1.632795
9474.000000;1.634306
9473.000000;1.635218
9472.000000;1.634780
9471.000000;1.632509
9470.000000;1.629100
9469.000000;1.626220
9468.000000;1.625136
9467.000000;1.625909
9466.000000;1.627828
9465.000000;1.629988
9464.000000;1.631400
9463.000000;1.631242
9462.000000;1.629388
9461.000000;1.626402
9460.000000;1.623081
9459.000000;1.620331
9458.000000;1.619192
9457.000000;1.620157
9456.000000;1.622411
9455.000000;1.624436
9454.000000;1.625629
9453.000000;1.626720
9452.000000;1.628273
9451.000000;1.629471
9450.000000;1.628929
9449.000000;1.626351
9448.000000;1.622853
9447.000000;1.619906
9446.000000;1.618406
9445.000000;1.618454
9444.000000;1.619401
9443.000000;1.620125
9442.000000;1.619798
9441.000000;1.618623
9440.000000;1.617616
9439.000000;1.617559
9438.000000;1.618278
9437.000000;1.618978
9436.000000;1.619054
9435.000000;1.618354
9434.000000;1.616813
9433.000000;1.614300
9432.000000;1.611075
9431.000000;1.608070
9430.000000;1.606250
9429.000000;1.605755
9428.000000;1.606093
9427.000000;1.607123
9426.000000;1.609212
9425.000000;1.612149
9424.000000;1.614544
9423.000000;1.614985
9422.000000;1.613508
9421.000000;1.611319
9420.000000;1.609261
9419.000000;1.607225
9418.000000;1.605017
9417.000000;1.603151
9416.000000;1.602549
9415.000000;1.603693
9414.000000;1.606082
9413.000000;1.608325
9412.000000;1.608913
9411.000000;1.607454
9410.000000;1.605192
9409.000000;1.603878
9408.000000;1.604135
9407.000000;1.605240
9406.000000;1.606312
9405.000000;1.607117
9404.000000;1.607677
9403.000000;1.607784
9402.000000;1.607280
9401.000000;1.606441
9400.000000;1.605690
9399.000000;1.605120
9398.000000;1.604601
9397.000000;1.604169
9396.000000;1.603959
9395.000000;1.603800
9394.000000;1.603164
9393.000000;1.601637
9392.000000;1.599418
9391.000000;1.597303
9390.000000;1.596136
9389.000000;1.596170
9388.000000;1.596898
9387.000000;1.597510
9386.000000;1.597427
9385.000000;1.596432
9384.000000;1.594658
9383.000000;1.592782
9382.000000;1.591949
9381.000000;1.592926
9380.000000;1.595206
9379.000000;1.597282
9378.000000;1.597989
9377.000000;1.597383
9376.000000;1.596308
9375.000000;1.595433
9374.000000;1.594860
9373.000000;1.594407
9372.000000;1.594046
9371.000000;1.594047
9370.000000;1.594643
9369.000000;1.595546
9368.000000;1.596042
9367.000000;1.595801
9366.000000;1.595331
9365.000000;1.595242
9364.000000;1.595259
9363.000000;1.594506
9362.000000;1.592706
9361.000000;1.590540
9360.000000;1.588765
9359.000000;1.587526
9358.000000;1.586685
9357.000000;1.586330
9356.000000;1.586609
9355.000000;1.587336
9354.000000;1.588038
9353.000000;1.588263
9352.000000;1.587720
9351.000000;1.586393
9350.000000;1.584699
9349.000000;1.583387
9348.000000;1.583073
9347.000000;1.583812
9346.000000;1.585033
9345.000000;1.585814
9344.000000;1.585498
9343.000000;1.584328
9342.000000;1.583310
9341.000000;1.583129
9340.000000;1.583385
9339.000000;1.583243
9338.000000;1.582548
9337.000000;1.581729
9336.000000;1.580846
9335.000000;1.579603
9334.000000;1.578336
9333.000000;1.578101
9332.000000;1.579371
9331.000000;1.581239
9330.000000;1.582316
9329.000000;1.582029
9328.000000;1.580739
9327.000000;1.579143
9326.000000;1.578004
9325.000000;1.577958
9324.000000;1.578969
9323.000000;1.580203
9322.000000;1.580853
9321.000000;1.580876
9320.000000;1.580598
9319.000000;1.579988
9318.000000;1.578815
9317.000000;1.577255
9316.000000;1.575820
9315.000000;1.574829
9314.000000;1.574294
9313.000000;1.574129
9312.000000;1.574080
9311.000000;1.573730
9310.000000;1.573048
9309.000000;1.572701
9308.000000;1.573235
9307.000000;1.574054
9306.000000;1.573815
9305.000000;1.572004
9304.000000;1.569650
9303.000000;1.568230
9302.000000;1.568164
9301.000000;1.568586
9300.000000;1.568375
9299.000000;1.567244
9298.000000;1.565813
9297.000000;1.564785
9296.000000;1.564254
9295.000000;1.563937
9294.000000;1.563831
9293.000000;1.564214
9292.000000;1.564950
9291.000000;1.565334
9290.000000;1.564957
9289.000000;1.564374
9288.000000;1.564439
9287.000000;1.565213
9286.000000;1.565940
9285.000000;1.565935
9284.000000;1.565071
9283.000000;1.563524
9282.000000;1.561651
9281.000000;1.560162
9280.000000;1.559826
9279.000000;1.560650
9278.000000;1.561612
9277.000000;1.561555
9276.000000;1.560309
9275.000000;1.558744
9274.000000;1.557828
9273.000000;1.557842
9272.000000;1.558480
9271.000000;1.559431
9270.000000;1.560575
9269.000000;1.561651
9268.000000;1.562042
9267.000000;1.561244
9266.000000;1.559538
9265.000000;1.557851
9264.000000;1.556853
9263.000000;1.556406
9262.000000;1.555930
9261.000000;1.555019
9260.000000;1.553646
9259.000000;1.552123
9258.000000;1.551104
9257.000000;1.551303
9256.000000;1.552795
9255.000000;1.554683
9254.000000;1.555817
9253.000000;1.555760
9252.000000;1.554898
9251.000000;1.553817
9250.000000;1.552843
9249.000000;1.552020
9248.000000;1.551183
9247.000000;1.550090
9246.000000;1.548737
9245.000000;1.547565
9244.000000;1.547172
9243.000000;1.547804
9242.000000;1.549222
9241.000000;1.550915
9240.000000;1.552283
9239.000000;1.552798
9238.000000;1.552311
9237.000000;1.551225
9236.000000;1.550156
9235.000000;1.549428
9234.000000;1.549025
9233.000000;1.548867
9232.000000;1.548836
9231.000000;1.548594
9230.000000;1.547720
9229.000000;1.546149
9228.000000;1.544351
9227.000000;1.543045
9226.000000;1.542802
9225.000000;1.543724
9224.000000;1.545252
9223.000000;1.546409
9222.000000;1.546543
9221.000000;1.545927
9220.000000;1.545431
9219.000000;1.545593
9218.000000;1.546181
9217.000000;1.546592
9216.000000;1.546426
9215.000000;1.545639
9214.000000;1.544384
9213.000000;1.542920
9212.000000;1.541616
9211.000000;1.540828
9210.000000;1.540680
9209.000000;1.540993
9208.000000;1.541419
9207.000000;1.541615
9206.000000;1.541296
9205.000000;1.540201
9204.000000;1.538253
9203.000000;1.535933
9202.000000;1.534264
9201.000000;1.534060
9200.000000;1.535124
9199.000000;1.536454
9198.000000;1.537277
9197.000000;1.537555
9196.000000;1.537403
9195.000000;1.536567
9194.000000;1.534864
9193.000000;1.532836
9192.000000;1.531460
9191.000000;1.531243
9190.000000;1.531807
9189.000000;1.532279
9188.000000;1.531970
9187.000000;1.530913
9186.000000;1.529977
9185.000000;1.530223
9184.000000;1.531848
9183.000000;1.533830
9182.000000;1.534822
9181.000000;1.534297
9180.000000;1.532651
9179.000000;1.530479
9178.000000;1.528228
9177.000000;1.526382
9176.000000;1.525459
9175.000000;1.525660
9174.000000;1.526702
9173.000000;1.528019
9172.000000;1.529040
9171.000000;1.529407
9170.000000;1.529163
9169.000000;1.528677
9168.000000;1.528219
9167.000000;1.527754
9166.000000;1.527278
9165.000000;1.527053
9164.000000;1.527213
9163.000000;1.527401
9162.000000;1.527173
9161.000000;1.526546
9160.000000;1.525779
9159.000000;1.524847
9158.000000;1.523626
9157.000000;1.522450
9156.000000;1.521945
9155.000000;1.522300
9154.000000;1.523102
9153.000000;1.523834
9152.000000;1.524160
9151.000000;1.523865
9150.000000;1.523089
9149.000000;1.522518
9148.000000;1.522687
9147.000000;1.523056
9146.000000;1.522441
9145.000000;1.520558
9144.000000;1.518499
9143.000000;1.517389
9142.000000;1.517179
9141.000000;1.517150
9140.000000;1.517082
9139.000000;1.517410
9138.000000;1.518464
9137.000000;1.520021
9136.000000;1.521471
9135.000000;1.522131
9134.000000;1.521597
9133.000000;1.520148
9132.000000;1.518684
9131.000000;1.517981
9130.000000;1.518054
9129.000000;1.518327
9128.000000;1.518227
9127.000000;1.517517
9126.000000;1.516357
9125.000000;1.515265
9124.000000;1.514749
9123.000000;1.514655
9122.000000;1.514125
9121.000000;1.512649
9120.000000;1.510952
9119.000000;1.510404
9118.000000;1.511643
9117.000000;1.514059
9116.000000;1.516432
9115.000000;1.517716
9114.000000;1.517392
9113.000000;1.515696
9112.000000;1.513648
9111.000000;1.512365
9110.000000;1.512010
9109.000000;1.511659
9108.000000;1.510447
9107.000000;1.508635
9106.000000;1.507232
9105.000000;1.506759
9104.000000;1.506767
9103.000000;1.506553
9102.000000;1.506020
9101.000000;1.505635
9100.000000;1.505741
9099.000000;1.506212
9098.000000;1.506699
9097.000000;1.506891
9096.000000;1.506490
9095.000000;1.505315
9094.000000;1.503744
9093.000000;1.502749
9092.000000;1.503082
9091.000000;1.504395
9090.000000;1.505454
9089.000000;1.505370
9088.000000;1.504415
9087.000000;1.503533
9086.000000;1.503329
9085.000000;1.503614
9084.000000;1.503648
9083.000000;1.502730
9082.000000;1.500836
9081.000000;1.498805
9080.000000;1.497645
9079.000000;1.497553
9078.000000;1.497846
9077.000000;1.497942
9076.000000;1.498076
9075.000000;1.498731
9074.000000;1.499739
9073.000000;1.500391
9072.000000;1.500281
9071.000000;1.499564
9070.000000;1.498455
9069.000000;1.496992
9068.000000;1.495400
9067.000000;1.494239
9066.000000;1.493858
9065.000000;1.493961
9064.000000;1.493959
9063.000000;1.493646
9062.000000;1.493303
9061.000000;1.493253
9060.000000;1.493545
9059.000000;1.494122
9058.000000;1.495073
9057.000000;1.496515
9056.000000;1.498188
9055.000000;1.499352
9054.000000;1.499322
9053.000000;1.498174
