Criado como novo conjunto de dados;"Jao_teste_celulas.spp","182.2 Secs"
cm-1;Abs
10000.000000;0.807110
9999.000000;0.806690
9998.000000;0.806270
9997.000000;0.805851
9996.000000;0.805433
9995.000000;0.805013
9994.000000;0.804597
9993.000000;0.804176
9992.000000;0.803766
9991.000000;0.803336
9990.000000;0.802946
9989.000000;0.802407
9988.000000;0.801809
9987.000000;0.801386
9986.000000;0.800914
9985.000000;0.800147
9984.000000;0.799091
9983.000000;0.798002
9982.000000;0.797079
9981.000000;0.796389
9980.000000;0.795991
9979.000000;0.795945
9978.000000;0.796184
9977.000000;0.796475
9976.000000;0.796580
9975.000000;0.796402
9974.000000;0.795949
9973.000000;0.795212
9972.000000;0.794155
9971.000000;0.792853
9970.000000;0.791585
9969.000000;0.790709
9968.000000;0.790377
9967.000000;0.790358
9966.000000;0.790246
9965.000000;0.789865
9964.000000;0.789431
9963.000000;0.789245
9962.000000;0.789316
9961.000000;0.789367
9960.000000;0.789197
9959.000000;0.788860
9958.000000;0.788462
9957.000000;0.787942
9956.000000;0.787153
9955.000000;0.786114
9954.000000;0.785059
9953.000000;0.784241
9952.000000;0.783747
9951.000000;0.783497
9950.000000;0.783347
9949.000000;0.783155
9948.000000;0.782806
9947.000000;0.782260
9946.000000;0.781566
9945.000000;0.780838
9944.000000;0.780199
9943.000000;0.779742
9942.000000;0.779508
9941.000000;0.779430
9940.000000;0.779290
9939.000000;0.778835
9938.000000;0.777995
9937.000000;0.776982
9936.000000;0.776100
9935.000000;0.775488
9934.000000;0.775111
9933.000000;0.774953
9932.000000;0.775055
9931.000000;0.775317
9930.000000;0.775421
9929.000000;0.775110
9928.000000;0.774483
9927.000000;0.773864
9926.000000;0.773401
9925.000000;0.772934
9924.000000;0.772283
9923.000000;0.771520
9922.000000;0.770870
9921.000000;0.770453
9920.000000;0.770204
9919.000000;0.769984
9918.000000;0.769687
9917.000000;0.769263
9916.000000;0.768737
9915.000000;0.768201
9914.000000;0.767717
9913.000000;0.767241
9912.000000;0.766717
9911.000000;0.766201
9910.000000;0.765815
9909.000000;0.765578
9908.000000;0.765394
9907.000000;0.765218
9906.000000;0.765101
9905.000000;0.764990
9904.000000;0.764585
9903.000000;0.763590
9902.000000;0.762099
9901.000000;0.760591
9900.000000;0.759494
9899.000000;0.758861
9898.000000;0.758487
9897.000000;0.758224
9896.000000;0.758071
9895.000000;0.758031
9894.000000;0.758003
9893.000000;0.757864
9892.000000;0.757579
9891.000000;0.757177
9890.000000;0.756656
9889.000000;0.755965
9888.000000;0.755098
9887.000000;0.754201
9886.000000;0.753540
9885.000000;0.753303
9884.000000;0.753407
9883.000000;0.753540
9882.000000;0.753400
9881.000000;0.752871
9880.000000;0.752011
9879.000000;0.751026
9878.000000;0.750229
9877.000000;0.749858
9876.000000;0.749770
9875.000000;0.749485
9874.000000;0.748701
9873.000000;0.747708
9872.000000;0.747072
9871.000000;0.746964
9870.000000;0.746988
9869.000000;0.746680
9868.000000;0.745980
9867.000000;0.745159
9866.000000;0.744496
9865.000000;0.744153
9864.000000;0.744158
9863.000000;0.744352
9862.000000;0.744388
9861.000000;0.743953
9860.000000;0.743014
9859.000000;0.741817
9858.000000;0.740710
9857.000000;0.739950
9856.000000;0.739586
9855.000000;0.739415
9854.000000;0.739129
9853.000000;0.738576
9852.000000;0.737873
9851.000000;0.737266
9850.000000;0.736926
9849.000000;0.736844
9848.000000;0.736821
9847.000000;0.736546
9846.000000;0.735840
9845.000000;0.734898
9844.000000;0.734172
9843.000000;0.733941
9842.000000;0.734089
9841.000000;0.734303
9840.000000;0.734354
9839.000000;0.734128
9838.000000;0.733587
9837.000000;0.732845
9836.000000;0.732127
9835.000000;0.731495
9834.000000;0.730764
9833.000000;0.729822
9832.000000;0.728910
9831.000000;0.728368
9830.000000;0.728195
9829.000000;0.728101
9828.000000;0.727926
9827.000000;0.727788
9826.000000;0.727784
9825.000000;0.727769
9824.000000;0.727537
9823.000000;0.727060
9822.000000;0.726476
9821.000000;0.725903
9820.000000;0.725346
9819.000000;0.724739
9818.000000;0.724046
9817.000000;0.723348
9816.000000;0.722806
9815.000000;0.722500
9814.000000;0.722318
9813.000000;0.722092
9812.000000;0.721786
9811.000000;0.721499
9810.000000;0.721284
9809.000000;0.721053
9808.000000;0.720661
9807.000000;0.720022
9806.000000;0.719173
9805.000000;0.718268
9804.000000;0.717471
9803.000000;0.716820
9802.000000;0.716231
9801.000000;0.715677
9800.000000;0.715244
9799.000000;0.714937
9798.000000;0.714572
9797.000000;0.714006
9796.000000;0.713384
9795.000000;0.712954
9794.000000;0.712683
9793.000000;0.712279
9792.000000;0.711615
9791.000000;0.710933
9790.000000;0.710550
9789.000000;0.710503
9788.000000;0.710553
9787.000000;0.710450
9786.000000;0.710092
9785.000000;0.709497
9784.000000;0.708719
9783.000000;0.707833
9782.000000;0.706991
9781.000000;0.706423
9780.000000;0.706245
9779.000000;0.706221
9778.000000;0.705883
9777.000000;0.705048
9776.000000;0.704119
9775.000000;0.703658
9774.000000;0.703710
9773.000000;0.703769
9772.000000;0.703430
9771.000000;0.702799
9770.000000;0.702214
9769.000000;0.701792
9768.000000;0.701435
9767.000000;0.701107
9766.000000;0.700871
9765.000000;0.700679
9764.000000;0.700343
9763.000000;0.699760
9762.000000;0.699076
9761.000000;0.698542
9760.000000;0.698257
9759.000000;0.698072
9758.000000;0.697731
9757.000000;0.697089
9756.000000;0.696211
9755.000000;0.695313
9754.000000;0.694629
9753.000000;0.694287
9752.000000;0.694200
9751.000000;0.694068
9750.000000;0.693615
9749.000000;0.692887
9748.000000;0.692255
9747.000000;0.692016
9746.000000;0.692065
9745.000000;0.692025
9744.000000;0.691648
9743.000000;0.690983
9742.000000;0.690217
9741.000000;0.689483
9740.000000;0.688834
9739.000000;0.688291
9738.000000;0.687882
9737.000000;0.687658
9736.000000;0.687628
9735.000000;0.687636
9734.000000;0.687430
9733.000000;0.686940
9732.000000;0.686392
9731.000000;0.685988
9730.000000;0.685570
9729.000000;0.684816
9728.000000;0.683690
9727.000000;0.682499
9726.000000;0.681534
9725.000000;0.680885
9724.000000;0.680599
9723.000000;0.680735
9722.000000;0.681142
9721.000000;0.681413
9720.000000;0.681221
9719.000000;0.680581
9718.000000;0.679699
9717.000000;0.678753
9716.000000;0.677914
9715.000000;0.677408
9714.000000;0.677332
9713.000000;0.677474
9712.000000;0.677477
9711.000000;0.677159
9710.000000;0.676595
9709.000000;0.675963
9708.000000;0.675419
9707.000000;0.675038
9706.000000;0.674740
9705.000000;0.674314
9704.000000;0.673632
9703.000000;0.672846
9702.000000;0.672252
9701.000000;0.671974
9700.000000;0.671839
9699.000000;0.671574
9698.000000;0.671079
9697.000000;0.670498
9696.000000;0.670044
9695.000000;0.669745
9694.000000;0.669388
9693.000000;0.668778
9692.000000;0.668022
9691.000000;0.667432
9690.000000;0.667118
9689.000000;0.666855
9688.000000;0.666436
9687.000000;0.665997
9686.000000;0.665808
9685.000000;0.665817
9684.000000;0.665657
9683.000000;0.665120
9682.000000;0.664434
9681.000000;0.663964
9680.000000;0.663773
9679.000000;0.663594
9678.000000;0.663187
9677.000000;0.662616
9676.000000;0.662130
9675.000000;0.661866
9674.000000;0.661720
9673.000000;0.661494
9672.000000;0.661107
9671.000000;0.660601
9670.000000;0.660006
9669.000000;0.659296
9668.000000;0.658518
9667.000000;0.657857
9666.000000;0.657473
9665.000000;0.657306
9664.000000;0.657109
9663.000000;0.656702
9662.000000;0.656112
9661.000000;0.655469
9660.000000;0.654848
9659.000000;0.654273
9658.000000;0.653811
9657.000000;0.653546
9656.000000;0.653424
9655.000000;0.653186
9654.000000;0.652587
9653.000000;0.651694
9652.000000;0.650896
9651.000000;0.650541
9650.000000;0.650604
9649.000000;0.650760
9648.000000;0.650733
9647.000000;0.650481
9646.000000;0.650074
9645.000000;0.649541
9644.000000;0.648914
9643.000000;0.648295
9642.000000;0.647770
9641.000000;0.647297
9640.000000;0.646777
9639.000000;0.646215
9638.000000;0.645717
9637.000000;0.645317
9636.000000;0.644915
9635.000000;0.644426
9634.000000;0.643937
9633.000000;0.643615
9632.000000;0.643485
9631.000000;0.643358
9630.000000;0.643047
9629.000000;0.642594
9628.000000;0.642228
9627.000000;0.642068
9626.000000;0.641938
9625.000000;0.641532
9624.000000;0.640746
9623.000000;0.639790
9622.000000;0.638980
9621.000000;0.638474
9620.000000;0.638226
9619.000000;0.638104
9618.000000;0.637997
9617.000000;0.637821
9616.000000;0.637516
9615.000000;0.637056
9614.000000;0.636474
9613.000000;0.635825
9612.000000;0.635150
9611.000000;0.634486
9610.000000;0.633913
9609.000000;0.633528
9608.000000;0.633323
9607.000000;0.633105
9606.000000;0.632625
9605.000000;0.631821
9604.000000;0.630908
9603.000000;0.630182
9602.000000;0.629779
9601.000000;0.629620
9600.000000;0.629534
9599.000000;0.629373
9598.000000;0.629048
9597.000000;0.628542
9596.000000;0.627922
9595.000000;0.627307
9594.000000;0.626783
9593.000000;0.626359
9592.000000;0.626002
9591.000000;0.625712
9590.000000;0.625539
9589.000000;0.625516
9588.000000;0.625570
9587.000000;0.625527
9586.000000;0.625254
9585.000000;0.624784
9584.000000;0.624247
9583.000000;0.623699
9582.000000;0.623085
9581.000000;0.622395
9580.000000;0.621735
9579.000000;0.621196
9578.000000;0.620727
9577.000000;0.620213
9576.000000;0.619624
9575.000000;0.619019
9574.000000;0.618459
9573.000000;0.617978
9572.000000;0.617601
9571.000000;0.617283
9570.000000;0.616884
9569.000000;0.616315
9568.000000;0.615706
9567.000000;0.615295
9566.000000;0.615154
9565.000000;0.615109
9564.000000;0.614955
9563.000000;0.614660
9562.000000;0.614298
9561.000000;0.613888
9560.000000;0.613360
9559.000000;0.612690
9558.000000;0.611976
9557.000000;0.611363
9556.000000;0.610892
9555.000000;0.610463
9554.000000;0.609988
9553.000000;0.609539
9552.000000;0.609282
9551.000000;0.609249
9550.000000;0.609244
9549.000000;0.609039
9548.000000;0.608572
9547.000000;0.607937
9546.000000;0.607267
9545.000000;0.606714
9544.000000;0.606434
9543.000000;0.606423
9542.000000;0.606423
9541.000000;0.606156
9540.000000;0.605638
9539.000000;0.605119
9538.000000;0.604708
9537.000000;0.604263
9536.000000;0.603683
9535.000000;0.603116
9534.000000;0.602753
9533.000000;0.602542
9532.000000;0.602248
9531.000000;0.601742
9530.000000;0.601113
9529.000000;0.600528
9528.000000;0.600087
9527.000000;0.599803
9526.000000;0.599615
9525.000000;0.599425
9524.000000;0.599158
9523.000000;0.598815
9522.000000;0.598423
9521.000000;0.597980
9520.000000;0.597473
9519.000000;0.596944
9518.000000;0.596468
9517.000000;0.596058
9516.000000;0.595643
9515.000000;0.595160
9514.000000;0.594628
9513.000000;0.594118
9512.000000;0.593682
9511.000000;0.593307
9510.000000;0.592964
9509.000000;0.592650
9508.000000;0.592379
9507.000000;0.592131
9506.000000;0.591827
9505.000000;0.591406
9504.000000;0.590916
9503.000000;0.590482
9502.000000;0.590160
9501.000000;0.589876
9500.000000;0.589539
9499.000000;0.589198
9498.000000;0.588993
9497.000000;0.588956
9496.000000;0.588916
9495.000000;0.588663
9494.000000;0.588166
9493.000000;0.587555
9492.000000;0.586929
9491.000000;0.586282
9490.000000;0.585631
9489.000000;0.585085
9488.000000;0.584707
9487.000000;0.584389
9486.000000;0.583966
9485.000000;0.583416
9484.000000;0.582832
9483.000000;0.582249
9482.000000;0.581652
9481.000000;0.581152
9480.000000;0.580958
9479.000000;0.581108
9478.000000;0.581340
9477.000000;0.581332
9476.000000;0.581011
9475.000000;0.580530
9474.000000;0.580043
9473.000000;0.579592
9472.000000;0.579151
9471.000000;0.578669
9470.000000;0.578116
9469.000000;0.577558
9468.000000;0.577142
9467.000000;0.576928
9466.000000;0.576787
9465.000000;0.576562
9464.000000;0.576262
9463.000000;0.575978
9462.000000;0.575695
9461.000000;0.575310
9460.000000;0.574825
9459.000000;0.574346
9458.000000;0.573889
9457.000000;0.573335
9456.000000;0.572626
9455.000000;0.571884
9454.000000;0.571276
9453.000000;0.570862
9452.000000;0.570610
9451.000000;0.570470
9450.000000;0.570370
9449.000000;0.570220
9448.000000;0.569976
9447.000000;0.569642
9446.000000;0.569177
9445.000000;0.568486
9444.000000;0.567594
9443.000000;0.566734
9442.000000;0.566164
9441.000000;0.565903
9440.000000;0.565724
9439.000000;0.565385
9438.000000;0.564816
9437.000000;0.564117
9436.000000;0.563443
9435.000000;0.562905
9434.000000;0.562528
9433.000000;0.562267
9432.000000;0.562078
9431.000000;0.561967
9430.000000;0.561921
9429.000000;0.561837
9428.000000;0.561572
9427.000000;0.561104
9426.000000;0.560583
9425.000000;0.560170
9424.000000;0.559882
9423.000000;0.559649
9422.000000;0.559470
9421.000000;0.559402
9420.000000;0.559385
9419.000000;0.559196
9418.000000;0.558683
9417.000000;0.557965
9416.000000;0.557318
9415.000000;0.556874
9414.000000;0.556544
9413.000000;0.556190
9412.000000;0.555775
9411.000000;0.555315
9410.000000;0.554827
9409.000000;0.554352
9408.000000;0.553969
9407.000000;0.553714
9406.000000;0.553536
9405.000000;0.553359
9404.000000;0.553141
9403.000000;0.552838
9402.000000;0.552393
9401.000000;0.551809
9400.000000;0.551172
9399.000000;0.550579
9398.000000;0.550078
9397.000000;0.549708
9396.000000;0.549511
9395.000000;0.549462
9394.000000;0.549445
9393.000000;0.549315
9392.000000;0.548950
9391.000000;0.548245
9390.000000;0.547218
9389.000000;0.546149
9388.000000;0.545459
9387.000000;0.545333
9386.000000;0.545534
9385.000000;0.545685
9384.000000;0.545636
9383.000000;0.545452
9382.000000;0.545166
9381.000000;0.544731
9380.000000;0.544166
9379.000000;0.543566
9378.000000;0.542994
9377.000000;0.542467
9376.000000;0.542030
9375.000000;0.541701
9374.000000;0.541357
9373.000000;0.540857
9372.000000;0.540302
9371.000000;0.539992
9370.000000;0.540054
9369.000000;0.540221
9368.000000;0.540089
9367.000000;0.539522
9366.000000;0.538740
9365.000000;0.538058
9364.000000;0.537616
9363.000000;0.537353
9362.000000;0.537152
9361.000000;0.536971
9360.000000;0.536817
9359.000000;0.536652
9358.000000;0.536378
9357.000000;0.535935
9356.000000;0.535375
9355.000000;0.534798
9354.000000;0.534277
9353.000000;0.533856
9352.000000;0.533573
9351.000000;0.533403
9350.000000;0.533247
9349.000000;0.533033
9348.000000;0.532772
9347.000000;0.532472
9346.000000;0.532068
9345.000000;0.531520
9344.000000;0.530917
9343.000000;0.530374
9342.000000;0.529885
9341.000000;0.529399
9340.000000;0.528976
9339.000000;0.528749
9338.000000;0.528705
9337.000000;0.528664
9336.000000;0.528477
9335.000000;0.528155
9334.000000;0.527783
9333.000000;0.527418
9332.000000;0.527088
9331.000000;0.526780
9330.000000;0.526400
9329.000000;0.525831
9328.000000;0.525098
9327.000000;0.524384
9326.000000;0.523852
9325.000000;0.523504
9324.000000;0.523236
9323.000000;0.522976
9322.000000;0.522722
9321.000000;0.522504
9320.000000;0.522337
9319.000000;0.522193
9318.000000;0.522002
9317.000000;0.521725
9316.000000;0.521410
9315.000000;0.521141
9314.000000;0.520936
9313.000000;0.520729
9312.000000;0.520440
9311.000000;0.520030
9310.000000;0.519497
9309.000000;0.518896
9308.000000;0.518349
9307.000000;0.517980
9306.000000;0.517837
9305.000000;0.517875
9304.000000;0.518009
9303.000000;0.518121
9302.000000;0.518052
9301.000000;0.517681
9300.000000;0.517015
9299.000000;0.516179
9298.000000;0.515346
9297.000000;0.514686
9296.000000;0.514291
9295.000000;0.514067
9294.000000;0.513749
9293.000000;0.513143
9292.000000;0.512353
9291.000000;0.511664
9290.000000;0.511222
9289.000000;0.510935
9288.000000;0.510667
9287.000000;0.510392
9286.000000;0.510129
9285.000000;0.509859
9284.000000;0.509550
9283.000000;0.509223
9282.000000;0.508938
9281.000000;0.508735
9280.000000;0.508606
9279.000000;0.508474
9278.000000;0.508224
9277.000000;0.507830
9276.000000;0.507417
9275.000000;0.507122
9274.000000;0.506888
9273.000000;0.506494
9272.000000;0.505836
9271.000000;0.505098
9270.000000;0.504608
9269.000000;0.504515
9268.000000;0.504640
9267.000000;0.504619
9266.000000;0.504242
9265.000000;0.503662
9264.000000;0.503234
9263.000000;0.503131
9262.000000;0.503182
9261.000000;0.503103
9260.000000;0.502792
9259.000000;0.502324
9258.000000;0.501796
9257.000000;0.501307
9256.000000;0.500975
9255.000000;0.500791
9254.000000;0.500523
9253.000000;0.499962
9252.000000;0.499245
9251.000000;0.498729
9250.000000;0.498546
9249.000000;0.498477
9248.000000;0.498291
9247.000000;0.497993
9246.000000;0.497680
9245.000000;0.497324
9244.000000;0.496853
9243.000000;0.496297
9242.000000;0.495746
9241.000000;0.495229
9240.000000;0.494739
9239.000000;0.494309
9238.000000;0.493961
9237.000000;0.493623
9236.000000;0.493187
9235.000000;0.492635
9234.000000;0.492098
9233.000000;0.491773
9232.000000;0.491779
9231.000000;0.492022
9230.000000;0.492229
9229.000000;0.492198
9228.000000;0.491971
9227.000000;0.491690
9226.000000;0.491326
9225.000000;0.490755
9224.000000;0.490061
9223.000000;0.489540
9222.000000;0.489309
9221.000000;0.489119
9220.000000;0.488680
9219.000000;0.488016
9218.000000;0.487377
9217.000000;0.486916
9216.000000;0.486611
9215.000000;0.486394
9214.000000;0.486194
9213.000000;0.485909
9212.000000;0.485496
9211.000000;0.485085
9210.000000;0.484861
9209.000000;0.484826
9208.000000;0.484783
9207.000000;0.484561
9206.000000;0.484180
9205.000000;0.483779
9204.000000;0.483445
9203.000000;0.483126
9202.000000;0.482723
9201.000000;0.482242
9200.000000;0.481852
9199.000000;0.481720
9198.000000;0.481785
9197.000000;0.481767
9196.000000;0.481443
9195.000000;0.480837
9194.000000;0.480113
9193.000000;0.479378
9192.000000;0.478684
9191.000000;0.478126
9190.000000;0.477798
9189.000000;0.477671
9188.000000;0.477590
9187.000000;0.477407
9186.000000;0.477068
9185.000000;0.476617
9184.000000;0.476166
9183.000000;0.475822
9182.000000;0.475579
9181.000000;0.475309
9180.000000;0.474923
9179.000000;0.474499
9178.000000;0.474191
9177.000000;0.474055
9176.000000;0.474022
9175.000000;0.473982
9174.000000;0.473834
9173.000000;0.473486
9172.000000;0.472918
9171.000000;0.472252
9170.000000;0.471686
9169.000000;0.471330
9168.000000;0.471142
9167.000000;0.471005
9166.000000;0.470826
9165.000000;0.470581
9164.000000;0.470328
9163.000000;0.470156
9162.000000;0.470068
9161.000000;0.469936
9160.000000;0.469649
9159.000000;0.469267
9158.000000;0.468961
9157.000000;0.468804
9156.000000;0.468699
9155.000000;0.468519
9154.000000;0.468231
9153.000000;0.467878
9152.000000;0.467496
9151.000000;0.467080
9150.000000;0.466600
9149.000000;0.466032
9148.000000;0.465405
9147.000000;0.464822
9146.000000;0.464389
9145.000000;0.464111
9144.000000;0.463887
9143.000000;0.463598
9142.000000;0.463210
9141.000000;0.462780
9140.000000;0.462435
9139.000000;0.462305
9138.000000;0.462421
9137.000000;0.462641
9136.000000;0.462710
9135.000000;0.462448
9134.000000;0.461870
9133.000000;0.461139
9132.000000;0.460435
9131.000000;0.459900
9130.000000;0.459612
9129.000000;0.459557
9128.000000;0.459593
9127.000000;0.459512
9126.000000;0.459183
9125.000000;0.458643
9124.000000;0.458042
9123.000000;0.457517
9122.000000;0.457128
9121.000000;0.456894
9120.000000;0.456819
9119.000000;0.456838
9118.000000;0.456801
9117.000000;0.456567
9116.000000;0.456155
9115.000000;0.455715
9114.000000;0.455351
9113.000000;0.455004
9112.000000;0.454552
9111.000000;0.453980
9110.000000;0.453414
9109.000000;0.453007
9108.000000;0.452805
9107.000000;0.452709
9106.000000;0.452555
9105.000000;0.452258
9104.000000;0.451907
9103.000000;0.451690
9102.000000;0.451679
9101.000000;0.451716
9100.000000;0.451556
9099.000000;0.451105
9098.000000;0.450483
9097.000000;0.449884
9096.000000;0.449422
9095.000000;0.449118
9094.000000;0.448932
9093.000000;0.448791
9092.000000;0.448615
9091.000000;0.448370
9090.000000;0.448059
9089.000000;0.447670
9088.000000;0.447185
9087.000000;0.446659
9086.000000;0.446234
9085.000000;0.446010
9084.000000;0.445906
9083.000000;0.445740
9082.000000;0.445435
9081.000000;0.445096
9080.000000;0.444854
9079.000000;0.444713
9078.000000;0.444588
9077.000000;0.444415
9076.000000;0.444191
9075.000000;0.443921
9074.000000;0.443610
9073.000000;0.443285
9072.000000;0.442947
9071.000000;0.442532
9070.000000;0.441992
9069.000000;0.441429
9068.000000;0.441064
9067.000000;0.441013
9066.000000;0.441152
9065.000000;0.441222
9064.000000;0.441055
9063.000000;0.440668
9062.000000;0.440198
9061.000000;0.439793
9060.000000;0.439507
9059.000000;0.439258
9058.000000;0.438899
9057.000000;0.438377
9056.000000;0.437809
9055.000000;0.437361
9054.000000;0.437066
9053.000000;0.436822
