Criado como novo conjunto de dados;"Jao_teste_celulas.spp","6723.5 Secs"
cm-1;Abs
10000.000000;1.268017
9999.000000;1.266390
9998.000000;1.264500
9997.000000;1.263216
9996.000000;1.262666
9995.000000;1.262183
9994.000000;1.261467
9993.000000;1.260777
9992.000000;1.260512
9991.000000;1.260619
9990.000000;1.260866
9989.000000;1.261170
9988.000000;1.261460
9987.000000;1.261416
9986.000000;1.260762
9985.000000;1.259727
9984.000000;1.258847
9983.000000;1.258325
9982.000000;1.257895
9981.000000;1.257328
9980.000000;1.256676
9979.000000;1.255910
9978.000000;1.254750
9977.000000;1.253158
9976.000000;1.251675
9975.000000;1.250919
9974.000000;1.250855
9973.000000;1.250937
9972.000000;1.250878
9971.000000;1.250874
9970.000000;1.250987
9969.000000;1.250751
9968.000000;1.249718
9967.000000;1.248155
9966.000000;1.246896
9965.000000;1.246539
9964.000000;1.246990
9963.000000;1.247753
9962.000000;1.248429
9961.000000;1.248889
9960.000000;1.249128
9959.000000;1.249110
9958.000000;1.248770
9957.000000;1.248097
9956.000000;1.247225
9955.000000;1.246457
9954.000000;1.246106
9953.000000;1.246207
9952.000000;1.246314
9951.000000;1.245758
9950.000000;1.244250
9949.000000;1.242180
9948.000000;1.240225
9947.000000;1.238753
9946.000000;1.237788
9945.000000;1.237407
9944.000000;1.237744
9943.000000;1.238512
9942.000000;1.238931
9941.000000;1.238500
9940.000000;1.237640
9939.000000;1.237200
9938.000000;1.237458
9937.000000;1.237906
9936.000000;1.237941
9935.000000;1.237405
9934.000000;1.236474
9933.000000;1.235391
9932.000000;1.234432
9931.000000;1.233830
9930.000000;1.233592
9929.000000;1.233541
9928.000000;1.233565
9927.000000;1.233613
9926.000000;1.233463
9925.000000;1.232814
9924.000000;1.231729
9923.000000;1.230681
9922.000000;1.229998
9921.000000;1.229555
9920.000000;1.229174
9919.000000;1.229007
9918.000000;1.229220
9917.000000;1.229541
9916.000000;1.229498
9915.000000;1.229026
9914.000000;1.228479
9913.000000;1.228058
9912.000000;1.227560
9911.000000;1.226775
9910.000000;1.225860
9909.000000;1.225137
9908.000000;1.224674
9907.000000;1.224194
9906.000000;1.223402
9905.000000;1.222311
9904.000000;1.221263
9903.000000;1.220691
9902.000000;1.220842
9901.000000;1.221641
9900.000000;1.222685
9899.000000;1.223372
9898.000000;1.223206
9897.000000;1.222194
9896.000000;1.220930
9895.000000;1.220086
9894.000000;1.219749
9893.000000;1.219389
9892.000000;1.218504
9891.000000;1.217141
9890.000000;1.215769
9889.000000;1.214837
9888.000000;1.214530
9887.000000;1.214781
9886.000000;1.215310
9885.000000;1.215753
9884.000000;1.215858
9883.000000;1.215541
9882.000000;1.214774
9881.000000;1.213633
9880.000000;1.212468
9879.000000;1.211749
9878.000000;1.211536
9877.000000;1.211319
9876.000000;1.210627
9875.000000;1.209650
9874.000000;1.208983
9873.000000;1.208850
9872.000000;1.208904
9871.000000;1.208772
9870.000000;1.208531
9869.000000;1.208537
9868.000000;1.208952
9867.000000;1.209593
9866.000000;1.210145
9865.000000;1.210422
9864.000000;1.210401
9863.000000;1.210087
9862.000000;1.209440
9861.000000;1.208477
9860.000000;1.207387
9859.000000;1.206421
9858.000000;1.205668
9857.000000;1.205044
9856.000000;1.204478
9855.000000;1.203953
9854.000000;1.203382
9853.000000;1.202656
9852.000000;1.201802
9851.000000;1.200907
9850.000000;1.199921
9849.000000;1.198854
9848.000000;1.198178
9847.000000;1.198569
9846.000000;1.200006
9845.000000;1.201485
9844.000000;1.201957
9843.000000;1.201298
9842.000000;1.200080
9841.000000;1.198793
9840.000000;1.197715
9839.000000;1.197175
9838.000000;1.197293
9837.000000;1.197534
9836.000000;1.197083
9835.000000;1.195760
9834.000000;1.194184
9833.000000;1.193048
9832.000000;1.192592
9831.000000;1.192727
9830.000000;1.193213
9829.000000;1.193658
9828.000000;1.193776
9827.000000;1.193714
9826.000000;1.193766
9825.000000;1.193751
9824.000000;1.193116
9823.000000;1.191759
9822.000000;1.190288
9821.000000;1.189287
9820.000000;1.188728
9819.000000;1.188290
9818.000000;1.187884
9817.000000;1.187622
9816.000000;1.187550
9815.000000;1.187634
9814.000000;1.187780
9813.000000;1.187710
9812.000000;1.187130
9811.000000;1.186215
9810.000000;1.185597
9809.000000;1.185627
9808.000000;1.185915
9807.000000;1.185827
9806.000000;1.185199
9805.000000;1.184335
9804.000000;1.183585
9803.000000;1.183180
9802.000000;1.183196
9801.000000;1.183327
9800.000000;1.182948
9799.000000;1.181782
9798.000000;1.180373
9797.000000;1.179539
9796.000000;1.179494
9795.000000;1.179781
9794.000000;1.179907
9793.000000;1.179663
9792.000000;1.178976
9791.000000;1.177930
9790.000000;1.176953
9789.000000;1.176549
9788.000000;1.176703
9787.000000;1.176820
9786.000000;1.176385
9785.000000;1.175471
9784.000000;1.174499
9783.000000;1.173718
9782.000000;1.173081
9781.000000;1.172462
9780.000000;1.171818
9779.000000;1.171189
9778.000000;1.170626
9777.000000;1.170161
9776.000000;1.169867
9775.000000;1.169901
9774.000000;1.170344
9773.000000;1.170951
9772.000000;1.171239
9771.000000;1.170936
9770.000000;1.170209
9769.000000;1.169332
9768.000000;1.168362
9767.000000;1.167368
9766.000000;1.166731
9765.000000;1.166796
9764.000000;1.167295
9763.000000;1.167479
9762.000000;1.166953
9761.000000;1.166115
9760.000000;1.165625
9759.000000;1.165658
9758.000000;1.165786
9757.000000;1.165485
9756.000000;1.164683
9755.000000;1.163850
9754.000000;1.163574
9753.000000;1.163948
9752.000000;1.164408
9751.000000;1.164258
9750.000000;1.163319
9749.000000;1.161981
9748.000000;1.160713
9747.000000;1.159726
9746.000000;1.159032
9745.000000;1.158592
9744.000000;1.158366
9743.000000;1.158372
9742.000000;1.158667
9741.000000;1.159136
9740.000000;1.159407
9739.000000;1.159206
9738.000000;1.158716
9737.000000;1.158310
9736.000000;1.158003
9735.000000;1.157487
9734.000000;1.156708
9733.000000;1.156014
9732.000000;1.155642
9731.000000;1.155419
9730.000000;1.155129
9729.000000;1.154838
9728.000000;1.154678
9727.000000;1.154570
9726.000000;1.154368
9725.000000;1.154043
9724.000000;1.153546
9723.000000;1.152746
9722.000000;1.151723
9721.000000;1.150829
9720.000000;1.150223
9719.000000;1.149598
9718.000000;1.148707
9717.000000;1.147889
9716.000000;1.147653
9715.000000;1.147862
9714.000000;1.147796
9713.000000;1.147074
9712.000000;1.146118
9711.000000;1.145572
9710.000000;1.145549
9709.000000;1.145659
9708.000000;1.145597
9707.000000;1.145473
9706.000000;1.145573
9705.000000;1.145911
9704.000000;1.146108
9703.000000;1.145742
9702.000000;1.144821
9701.000000;1.143793
9700.000000;1.143012
9699.000000;1.142349
9698.000000;1.141472
9697.000000;1.140392
9696.000000;1.139500
9695.000000;1.139091
9694.000000;1.139093
9693.000000;1.139258
9692.000000;1.139388
9691.000000;1.139293
9690.000000;1.138775
9689.000000;1.137836
9688.000000;1.136798
9687.000000;1.136030
9686.000000;1.135585
9685.000000;1.135194
9684.000000;1.134643
9683.000000;1.134057
9682.000000;1.133785
9681.000000;1.133982
9680.000000;1.134372
9679.000000;1.134489
9678.000000;1.134182
9677.000000;1.133773
9676.000000;1.133658
9675.000000;1.133831
9674.000000;1.133902
9673.000000;1.133526
9672.000000;1.132689
9671.000000;1.131625
9670.000000;1.130595
9669.000000;1.129731
9668.000000;1.128949
9667.000000;1.128043
9666.000000;1.126974
9665.000000;1.126064
9664.000000;1.125720
9663.000000;1.125960
9662.000000;1.126317
9661.000000;1.126256
9660.000000;1.125597
9659.000000;1.124572
9658.000000;1.123617
9657.000000;1.123138
9656.000000;1.123296
9655.000000;1.123903
9654.000000;1.124619
9653.000000;1.125241
9652.000000;1.125698
9651.000000;1.125796
9650.000000;1.125257
9649.000000;1.124101
9648.000000;1.122808
9647.000000;1.121926
9646.000000;1.121608
9645.000000;1.121581
9644.000000;1.121428
9643.000000;1.120844
9642.000000;1.119813
9641.000000;1.118692
9640.000000;1.117962
9639.000000;1.117752
9638.000000;1.117735
9637.000000;1.117589
9636.000000;1.117388
9635.000000;1.117354
9634.000000;1.117405
9633.000000;1.117242
9632.000000;1.116793
9631.000000;1.116259
9630.000000;1.115714
9629.000000;1.114973
9628.000000;1.113943
9627.000000;1.112879
9626.000000;1.112137
9625.000000;1.111798
9624.000000;1.111644
9623.000000;1.111419
9622.000000;1.110991
9621.000000;1.110357
9620.000000;1.109618
9619.000000;1.108948
9618.000000;1.108486
9617.000000;1.108232
9616.000000;1.108029
9615.000000;1.107684
9614.000000;1.107125
9613.000000;1.106468
9612.000000;1.105926
9611.000000;1.105654
9610.000000;1.105682
9609.000000;1.105965
9608.000000;1.106387
9607.000000;1.106709
9606.000000;1.106639
9605.000000;1.106098
9604.000000;1.105377
9603.000000;1.104920
9602.000000;1.104948
9601.000000;1.105296
9600.000000;1.105551
9599.000000;1.105306
9598.000000;1.104441
9597.000000;1.103282
9596.000000;1.102385
9595.000000;1.102020
9594.000000;1.101897
9593.000000;1.101545
9592.000000;1.100893
9591.000000;1.100337
9590.000000;1.100287
9589.000000;1.100776
9588.000000;1.101462
9587.000000;1.101852
9586.000000;1.101579
9585.000000;1.100684
9584.000000;1.099610
9583.000000;1.098740
9582.000000;1.097979
9581.000000;1.097009
9580.000000;1.095919
9579.000000;1.095262
9578.000000;1.095376
9577.000000;1.095920
9576.000000;1.096258
9575.000000;1.096118
9574.000000;1.095697
9573.000000;1.095287
9572.000000;1.095006
9571.000000;1.094808
9570.000000;1.094586
9569.000000;1.094273
9568.000000;1.093918
9567.000000;1.093604
9566.000000;1.093233
9565.000000;1.092544
9564.000000;1.091478
9563.000000;1.090386
9562.000000;1.089700
9561.000000;1.089491
9560.000000;1.089486
9559.000000;1.089440
9558.000000;1.089299
9557.000000;1.089057
9556.000000;1.088655
9555.000000;1.088114
9554.000000;1.087612
9553.000000;1.087342
9552.000000;1.087297
9551.000000;1.087243
9550.000000;1.086933
9549.000000;1.086368
9548.000000;1.085837
9547.000000;1.085630
9546.000000;1.085711
9545.000000;1.085765
9544.000000;1.085562
9543.000000;1.085169
9542.000000;1.084764
9541.000000;1.084411
9540.000000;1.084074
9539.000000;1.083701
9538.000000;1.083169
9537.000000;1.082324
9536.000000;1.081221
9535.000000;1.080216
9534.000000;1.079609
9533.000000;1.079317
9532.000000;1.079068
9531.000000;1.078841
9530.000000;1.078861
9529.000000;1.079170
9528.000000;1.079434
9527.000000;1.079282
9526.000000;1.078691
9525.000000;1.077953
9524.000000;1.077342
9523.000000;1.076902
9522.000000;1.076470
9521.000000;1.075879
9520.000000;1.075145
9519.000000;1.074454
9518.000000;1.073937
9517.000000;1.073502
9516.000000;1.072973
9515.000000;1.072345
9514.000000;1.071777
9513.000000;1.071362
9512.000000;1.071009
9511.000000;1.070613
9510.000000;1.070250
9509.000000;1.070128
9508.000000;1.070313
9507.000000;1.070522
9506.000000;1.070270
9505.000000;1.069324
9504.000000;1.068029
9503.000000;1.067039
9502.000000;1.066705
9501.000000;1.066830
9500.000000;1.067060
9499.000000;1.067278
9498.000000;1.067483
9497.000000;1.067533
9496.000000;1.067289
9495.000000;1.066866
9494.000000;1.066437
9493.000000;1.065915
9492.000000;1.065163
9491.000000;1.064438
9490.000000;1.064205
9489.000000;1.064447
9488.000000;1.064537
9487.000000;1.064010
9486.000000;1.063142
9485.000000;1.062555
9484.000000;1.062475
9483.000000;1.062644
9482.000000;1.062739
9481.000000;1.062603
9480.000000;1.062155
9479.000000;1.061395
9478.000000;1.060523
9477.000000;1.059837
9476.000000;1.059440
9475.000000;1.059162
9474.000000;1.058787
9473.000000;1.058254
9472.000000;1.057629
9471.000000;1.056993
9470.000000;1.056408
9469.000000;1.055912
9468.000000;1.055498
9467.000000;1.055165
9466.000000;1.054970
9465.000000;1.054955
9464.000000;1.054982
9463.000000;1.054760
9462.000000;1.054141
9461.000000;1.053368
9460.000000;1.052907
9459.000000;1.052977
9458.000000;1.053304
9457.000000;1.053405
9456.000000;1.053099
9455.000000;1.052632
9454.000000;1.052338
9453.000000;1.052287
9452.000000;1.052337
9451.000000;1.052375
9450.000000;1.052378
9449.000000;1.052329
9448.000000;1.052186
9447.000000;1.051923
9446.000000;1.051470
9445.000000;1.050709
9444.000000;1.049655
9443.000000;1.048589
9442.000000;1.047789
9441.000000;1.047167
9440.000000;1.046412
9439.000000;1.045529
9438.000000;1.044984
9437.000000;1.045147
9436.000000;1.045774
9435.000000;1.046230
9434.000000;1.046151
9433.000000;1.045713
9432.000000;1.045306
9431.000000;1.045105
9430.000000;1.044970
9429.000000;1.044658
9428.000000;1.044066
9427.000000;1.043334
9426.000000;1.042705
9425.000000;1.042280
9424.000000;1.041935
9423.000000;1.041471
9422.000000;1.040818
9421.000000;1.040061
9420.000000;1.039373
9419.000000;1.038943
9418.000000;1.038878
9417.000000;1.039072
9416.000000;1.039208
9415.000000;1.038965
9414.000000;1.038269
9413.000000;1.037340
9412.000000;1.036536
9411.000000;1.036149
9410.000000;1.036240
9409.000000;1.036613
9408.000000;1.036971
9407.000000;1.037126
9406.000000;1.037044
9405.000000;1.036725
9404.000000;1.036168
9403.000000;1.035475
9402.000000;1.034860
9401.000000;1.034484
9400.000000;1.034347
9399.000000;1.034362
9398.000000;1.034417
9397.000000;1.034346
9396.000000;1.033985
9395.000000;1.033370
9394.000000;1.032750
9393.000000;1.032304
9392.000000;1.031933
9391.000000;1.031460
9390.000000;1.030887
9389.000000;1.030310
9388.000000;1.029717
9387.000000;1.029040
9386.000000;1.028351
9385.000000;1.027792
9384.000000;1.027354
9383.000000;1.026915
9382.000000;1.026492
9381.000000;1.026229
9380.000000;1.026108
9379.000000;1.025868
9378.000000;1.025341
9377.000000;1.024678
9376.000000;1.024147
9375.000000;1.023826
9374.000000;1.023651
9373.000000;1.023620
9372.000000;1.023796
9371.000000;1.024116
9370.000000;1.024360
9369.000000;1.024317
9368.000000;1.023918
9367.000000;1.023197
9366.000000;1.022273
9365.000000;1.021382
9364.000000;1.020802
9363.000000;1.020622
9362.000000;1.020645
9361.000000;1.020590
9360.000000;1.020366
9359.000000;1.020065
9358.000000;1.019742
9357.000000;1.019347
9356.000000;1.018886
9355.000000;1.018487
9354.000000;1.018244
9353.000000;1.018086
9352.000000;1.017893
9351.000000;1.017644
9350.000000;1.017346
9349.000000;1.016906
9348.000000;1.016244
9347.000000;1.015492
9346.000000;1.014907
9345.000000;1.014574
9344.000000;1.014376
9343.000000;1.014247
9342.000000;1.014272
9341.000000;1.014468
9340.000000;1.014610
9339.000000;1.014435
9338.000000;1.013897
9337.000000;1.013145
9336.000000;1.012366
9335.000000;1.011774
9334.000000;1.011599
9333.000000;1.011881
9332.000000;1.012299
9331.000000;1.012414
9330.000000;1.012099
9329.000000;1.011608
9328.000000;1.011236
9327.000000;1.011041
9326.000000;1.010880
9325.000000;1.010553
9324.000000;1.009877
9323.000000;1.008825
9322.000000;1.007707
9321.000000;1.007029
9320.000000;1.007017
9319.000000;1.007323
9318.000000;1.007374
9317.000000;1.006982
9316.000000;1.006477
9315.000000;1.006210
9314.000000;1.006130
9313.000000;1.005932
9312.000000;1.005490
9311.000000;1.005002
9310.000000;1.004752
9309.000000;1.004863
9308.000000;1.005266
9307.000000;1.005741
9306.000000;1.005959
9305.000000;1.005654
9304.000000;1.004874
9303.000000;1.003991
9302.000000;1.003367
9301.000000;1.003046
9300.000000;1.002830
9299.000000;1.002584
9298.000000;1.002376
9297.000000;1.002334
9296.000000;1.002440
9295.000000;1.002482
9294.000000;1.002199
9293.000000;1.001513
9292.000000;1.000646
9291.000000;0.999894
9290.000000;0.999240
9289.000000;0.998378
9288.000000;0.997219
9287.000000;0.996197
9286.000000;0.995816
9285.000000;0.996033
9284.000000;0.996341
9283.000000;0.996420
9282.000000;0.996396
9281.000000;0.996471
9280.000000;0.996597
9279.000000;0.996638
9278.000000;0.996573
9277.000000;0.996397
9276.000000;0.996059
9275.000000;0.995606
9274.000000;0.995168
9273.000000;0.994681
9272.000000;0.993891
9271.000000;0.992831
9270.000000;0.992022
9269.000000;0.991918
9268.000000;0.992314
9267.000000;0.992599
9266.000000;0.992490
9265.000000;0.992195
9264.000000;0.991923
9263.000000;0.991586
9262.000000;0.991053
9261.000000;0.990432
9260.000000;0.989952
9259.000000;0.989731
9258.000000;0.989724
9257.000000;0.989796
9256.000000;0.989790
9255.000000;0.989606
9254.000000;0.989253
9253.000000;0.988786
9252.000000;0.988221
9251.000000;0.987583
9250.000000;0.987007
9249.000000;0.986653
9248.000000;0.986544
9247.000000;0.986563
9246.000000;0.986571
9245.000000;0.986425
9244.000000;0.985964
9243.000000;0.985132
9242.000000;0.984113
9241.000000;0.983212
9240.000000;0.982610
9239.000000;0.982293
9238.000000;0.982186
9237.000000;0.982217
9236.000000;0.982286
9235.000000;0.982322
9234.000000;0.982377
9233.000000;0.982532
9232.000000;0.982719
9231.000000;0.982771
9230.000000;0.982619
9229.000000;0.982287
9228.000000;0.981745
9227.000000;0.980975
9226.000000;0.980151
9225.000000;0.979555
9224.000000;0.979250
9223.000000;0.979042
9222.000000;0.978782
9221.000000;0.978501
9220.000000;0.978200
9219.000000;0.977755
9218.000000;0.977162
9217.000000;0.976644
9216.000000;0.976365
9215.000000;0.976216
9214.000000;0.976068
9213.000000;0.976051
9212.000000;0.976321
9211.000000;0.976661
9210.000000;0.976594
9209.000000;0.975925
9208.000000;0.974961
9207.000000;0.974109
9206.000000;0.973481
9205.000000;0.972974
9204.000000;0.972575
9203.000000;0.972380
9202.000000;0.972365
9201.000000;0.972321
9200.000000;0.972098
9199.000000;0.971827
9198.000000;0.971781
9197.000000;0.972055
9196.000000;0.972452
9195.000000;0.972703
9194.000000;0.972706
9193.000000;0.972499
9192.000000;0.972091
9191.000000;0.971437
9190.000000;0.970581
9189.000000;0.969726
9188.000000;0.969117
9187.000000;0.968845
9186.000000;0.968748
9185.000000;0.968501
9184.000000;0.967887
9183.000000;0.967024
9182.000000;0.966293
9181.000000;0.965956
9180.000000;0.965905
9179.000000;0.965821
9178.000000;0.965536
9177.000000;0.965148
9176.000000;0.964824
9175.000000;0.964618
9174.000000;0.964483
9173.000000;0.964362
9172.000000;0.964221
9171.000000;0.964077
9170.000000;0.963996
9169.000000;0.964009
9168.000000;0.964048
9167.000000;0.964011
9166.000000;0.963847
9165.000000;0.963523
9164.000000;0.962974
9163.000000;0.962219
9162.000000;0.961455
9161.000000;0.960895
9160.000000;0.960526
9159.000000;0.960174
9158.000000;0.959783
9157.000000;0.959473
9156.000000;0.959299
9155.000000;0.959139
9154.000000;0.958888
9153.000000;0.958612
9152.000000;0.958425
9151.000000;0.958312
9150.000000;0.958170
9149.000000;0.957930
9148.000000;0.957565
9147.000000;0.957089
9146.000000;0.956609
9145.000000;0.956298
9144.000000;0.956247
9143.000000;0.956357
9142.000000;0.956446
9141.000000;0.956404
9140.000000;0.956215
9139.000000;0.955927
9138.000000;0.955637
9137.000000;0.955422
9136.000000;0.955236
9135.000000;0.954939
9134.000000;0.954466
9133.000000;0.953899
9132.000000;0.953329
9131.000000;0.952759
9130.000000;0.952199
9129.000000;0.951764
9128.000000;0.951574
9127.000000;0.951614
9126.000000;0.951741
9125.000000;0.951799
9124.000000;0.951685
9123.000000;0.951363
9122.000000;0.950869
9121.000000;0.950268
9120.000000;0.949623
9119.000000;0.949060
9118.000000;0.948807
9117.000000;0.948989
9116.000000;0.949393
9115.000000;0.949590
9114.000000;0.949386
9113.000000;0.948982
9112.000000;0.948618
9111.000000;0.948254
9110.000000;0.947733
9109.000000;0.947097
9108.000000;0.946518
9107.000000;0.946036
9106.000000;0.945571
9105.000000;0.945166
9104.000000;0.944989
9103.000000;0.945082
9102.000000;0.945274
9101.000000;0.945356
9100.000000;0.945254
9099.000000;0.944985
9098.000000;0.944573
9097.000000;0.944061
9096.000000;0.943525
9095.000000;0.943061
9094.000000;0.942766
9093.000000;0.942718
9092.000000;0.942877
9091.000000;0.943052
9090.000000;0.943047
9089.000000;0.942833
9088.000000;0.942517
9087.000000;0.942172
9086.000000;0.941804
9085.000000;0.941469
9084.000000;0.941264
9083.000000;0.941157
9082.000000;0.940937
9081.000000;0.940411
9080.000000;0.939609
9079.000000;0.938741
9078.000000;0.938009
9077.000000;0.937491
9076.000000;0.937167
9075.000000;0.936969
9074.000000;0.936798
9073.000000;0.936556
9072.000000;0.936222
9071.000000;0.935884
9070.000000;0.935681
9069.000000;0.935660
9068.000000;0.935708
9067.000000;0.935629
9066.000000;0.935299
9065.000000;0.934754
9064.000000;0.934160
9063.000000;0.933746
9062.000000;0.933676
9061.000000;0.933900
9060.000000;0.934135
9059.000000;0.934120
9058.000000;0.933907
9057.000000;0.933785
9056.000000;0.933881
9055.000000;0.933965
9054.000000;0.933717
9053.000000;0.933106
