Criado como novo conjunto de dados;"Jao_teste_celulas.spp","10264.3 Secs"
cm-1;Abs
10000.000000;1.955811
9999.000000;1.958282
9998.000000;1.959244
9997.000000;1.959343
9996.000000;1.959434
9995.000000;1.959399
9994.000000;1.958870
9993.000000;1.957894
9992.000000;1.956512
9991.000000;1.954600
9990.000000;1.952249
9989.000000;1.949634
9988.000000;1.946768
9987.000000;1.943969
9986.000000;1.942259
9985.000000;1.942617
9984.000000;1.944742
9983.000000;1.946954
9982.000000;1.947727
9981.000000;1.947289
9980.000000;1.947344
9979.000000;1.949277
9978.000000;1.952718
9977.000000;1.955903
9976.000000;1.957511
9975.000000;1.957803
9974.000000;1.957572
9973.000000;1.956602
9972.000000;1.954172
9971.000000;1.950702
9970.000000;1.947557
9969.000000;1.945298
9968.000000;1.943346
9967.000000;1.941656
9966.000000;1.941266
9965.000000;1.942431
9964.000000;1.943669
9963.000000;1.943729
9962.000000;1.943333
9961.000000;1.943673
9960.000000;1.944093
9959.000000;1.942962
9958.000000;1.940419
9957.000000;1.938158
9956.000000;1.936785
9955.000000;1.935365
9954.000000;1.933466
9953.000000;1.932070
9952.000000;1.932081
9951.000000;1.933090
9950.000000;1.933976
9949.000000;1.933882
9948.000000;1.932525
9947.000000;1.930437
9946.000000;1.928929
9945.000000;1.928883
9944.000000;1.929467
9943.000000;1.928988
9942.000000;1.927311
9941.000000;1.926360
9940.000000;1.927742
9939.000000;1.930915
9938.000000;1.934062
9937.000000;1.935795
9936.000000;1.935396
9935.000000;1.932486
9934.000000;1.927571
9933.000000;1.922352
9932.000000;1.918464
9931.000000;1.916215
9930.000000;1.915097
9929.000000;1.915035
9928.000000;1.916391
9927.000000;1.918921
9926.000000;1.921474
9925.000000;1.922869
9924.000000;1.922723
9923.000000;1.921426
9922.000000;1.919667
9921.000000;1.918070
9920.000000;1.917182
9919.000000;1.917612
9918.000000;1.919731
9917.000000;1.922913
9916.000000;1.925394
9915.000000;1.925744
9914.000000;1.924447
9913.000000;1.923027
9912.000000;1.921747
9911.000000;1.919480
9910.000000;1.916165
9909.000000;1.913853
9908.000000;1.914229
9907.000000;1.916071
9906.000000;1.916327
9905.000000;1.913548
9904.000000;1.909219
9903.000000;1.905895
9902.000000;1.905185
9901.000000;1.907225
9900.000000;1.910777
9899.000000;1.913578
9898.000000;1.913682
9897.000000;1.911053
9896.000000;1.907360
9895.000000;1.904324
9894.000000;1.902908
9893.000000;1.903593
9892.000000;1.906217
9891.000000;1.909472
9890.000000;1.911594
9889.000000;1.912056
9888.000000;1.911993
9887.000000;1.912394
9886.000000;1.912699
9885.000000;1.911883
9884.000000;1.910190
9883.000000;1.908851
9882.000000;1.908420
9881.000000;1.908279
9880.000000;1.907691
9879.000000;1.906686
9878.000000;1.905772
9877.000000;1.905121
9876.000000;1.904362
9875.000000;1.903260
9874.000000;1.902536
9873.000000;1.903607
9872.000000;1.906985
9871.000000;1.910877
9870.000000;1.912076
9869.000000;1.909103
9868.000000;1.904003
9867.000000;1.900293
9866.000000;1.899643
9865.000000;1.900875
9864.000000;1.901701
9863.000000;1.901002
9862.000000;1.899366
9861.000000;1.897830
9860.000000;1.896561
9859.000000;1.894880
9858.000000;1.892494
9857.000000;1.890352
9856.000000;1.889740
9855.000000;1.890667
9854.000000;1.891852
9853.000000;1.892500
9852.000000;1.893196
9851.000000;1.894469
9850.000000;1.895294
9849.000000;1.894193
9848.000000;1.891615
9847.000000;1.889897
9846.000000;1.890406
9845.000000;1.891694
9844.000000;1.891203
9843.000000;1.888396
9842.000000;1.885409
9841.000000;1.884722
9840.000000;1.886888
9839.000000;1.890444
9838.000000;1.893398
9837.000000;1.894498
9836.000000;1.893465
9835.000000;1.890773
9834.000000;1.887487
9833.000000;1.884914
9832.000000;1.883950
9831.000000;1.884418
9830.000000;1.885169
9829.000000;1.885197
9828.000000;1.884579
9827.000000;1.884335
9826.000000;1.885595
9825.000000;1.888696
9824.000000;1.892460
9823.000000;1.894244
9822.000000;1.891789
9821.000000;1.885832
9820.000000;1.880062
9819.000000;1.877613
9818.000000;1.878089
9817.000000;1.878624
9816.000000;1.877645
9815.000000;1.876488
9814.000000;1.876881
9813.000000;1.878248
9812.000000;1.878646
9811.000000;1.877605
9810.000000;1.876721
9809.000000;1.877536
9808.000000;1.879773
9807.000000;1.881626
9806.000000;1.881293
9805.000000;1.878438
9804.000000;1.874575
9803.000000;1.871859
9802.000000;1.871248
9801.000000;1.871959
9800.000000;1.872747
9799.000000;1.873217
9798.000000;1.873479
9797.000000;1.873166
9796.000000;1.871790
9795.000000;1.869977
9794.000000;1.869143
9793.000000;1.869696
9792.000000;1.870505
9791.000000;1.870380
9790.000000;1.869549
9789.000000;1.869146
9788.000000;1.869424
9787.000000;1.869319
9786.000000;1.867869
9785.000000;1.865570
9784.000000;1.864024
9783.000000;1.864449
9782.000000;1.866693
9781.000000;1.869593
9780.000000;1.872057
9779.000000;1.873722
9778.000000;1.874587
9777.000000;1.874388
9776.000000;1.872809
9775.000000;1.870127
9774.000000;1.867222
9773.000000;1.864865
9772.000000;1.863188
9771.000000;1.861873
9770.000000;1.860677
9769.000000;1.859735
9768.000000;1.859484
9767.000000;1.860270
9766.000000;1.861820
9765.000000;1.863145
9764.000000;1.863276
9763.000000;1.862100
9762.000000;1.860193
9761.000000;1.857887
9760.000000;1.855031
9759.000000;1.851879
9758.000000;1.849557
9757.000000;1.849042
9756.000000;1.850000
9755.000000;1.851127
9754.000000;1.851494
9753.000000;1.851118
9752.000000;1.850332
9751.000000;1.849210
9750.000000;1.847756
9749.000000;1.846205
9748.000000;1.844956
9747.000000;1.844416
9746.000000;1.844950
9745.000000;1.846704
9744.000000;1.849313
9743.000000;1.852071
9742.000000;1.854513
9741.000000;1.856539
9740.000000;1.857838
9739.000000;1.857720
9738.000000;1.855930
9737.000000;1.853240
9736.000000;1.850650
9735.000000;1.848313
9734.000000;1.845886
9733.000000;1.843689
9732.000000;1.842587
9731.000000;1.842554
9730.000000;1.842405
9729.000000;1.841540
9728.000000;1.841197
9727.000000;1.843115
9726.000000;1.847105
9725.000000;1.850789
9724.000000;1.851987
9723.000000;1.850730
9722.000000;1.848673
9721.000000;1.847081
9720.000000;1.845809
9719.000000;1.843837
9718.000000;1.840510
9717.000000;1.836607
9716.000000;1.834284
9715.000000;1.835505
9714.000000;1.840073
9713.000000;1.845097
9712.000000;1.846969
9711.000000;1.844387
9710.000000;1.839252
9709.000000;1.834689
9708.000000;1.832546
9707.000000;1.832537
9706.000000;1.833066
9705.000000;1.832809
9704.000000;1.831896
9703.000000;1.831616
9702.000000;1.832790
9701.000000;1.834543
9700.000000;1.835028
9699.000000;1.833386
9698.000000;1.830574
9697.000000;1.828114
9696.000000;1.826648
9695.000000;1.826006
9694.000000;1.826145
9693.000000;1.827256
9692.000000;1.828995
9691.000000;1.830302
9690.000000;1.830442
9689.000000;1.829869
9688.000000;1.829551
9687.000000;1.829593
9686.000000;1.829150
9685.000000;1.827791
9684.000000;1.826356
9683.000000;1.825973
9682.000000;1.826507
9681.000000;1.826470
9680.000000;1.824582
9679.000000;1.821025
9678.000000;1.817175
9677.000000;1.814665
9676.000000;1.814477
9675.000000;1.816253
9674.000000;1.818465
9673.000000;1.819660
9672.000000;1.819806
9671.000000;1.820037
9670.000000;1.820919
9669.000000;1.821502
9668.000000;1.820414
9667.000000;1.817575
9666.000000;1.814446
9665.000000;1.812809
9664.000000;1.813491
9663.000000;1.815710
9662.000000;1.817323
9661.000000;1.816457
9660.000000;1.813599
9659.000000;1.811477
9658.000000;1.812077
9657.000000;1.814173
9656.000000;1.814652
9655.000000;1.812243
9654.000000;1.808827
9653.000000;1.806831
9652.000000;1.806700
9651.000000;1.807423
9650.000000;1.808322
9649.000000;1.809300
9648.000000;1.809947
9647.000000;1.809655
9646.000000;1.808743
9645.000000;1.808445
9644.000000;1.809355
9643.000000;1.810555
9642.000000;1.810729
9641.000000;1.809728
9640.000000;1.808474
9639.000000;1.807541
9638.000000;1.806535
9637.000000;1.804994
9636.000000;1.803282
9635.000000;1.802228
9634.000000;1.802294
9633.000000;1.803511
9632.000000;1.805854
9631.000000;1.809045
9630.000000;1.811978
9629.000000;1.812983
9628.000000;1.811152
9627.000000;1.807211
9626.000000;1.802830
9625.000000;1.799468
9624.000000;1.797924
9623.000000;1.798142
9622.000000;1.798932
9621.000000;1.798580
9620.000000;1.796618
9619.000000;1.794580
9618.000000;1.794168
9617.000000;1.795036
9616.000000;1.795292
9615.000000;1.794041
9614.000000;1.792368
9613.000000;1.791695
9612.000000;1.792308
9611.000000;1.793768
9610.000000;1.795612
9609.000000;1.796996
9608.000000;1.796629
9607.000000;1.794148
9606.000000;1.791103
9605.000000;1.789676
9604.000000;1.790576
9603.000000;1.792611
9602.000000;1.794115
9601.000000;1.794375
9600.000000;1.793718
9599.000000;1.792778
9598.000000;1.791864
9597.000000;1.790802
9596.000000;1.789402
9595.000000;1.788209
9594.000000;1.788306
9593.000000;1.790041
9592.000000;1.792388
9591.000000;1.793928
9590.000000;1.794083
9589.000000;1.793049
9588.000000;1.791204
9587.000000;1.789259
9586.000000;1.788425
9585.000000;1.789369
9584.000000;1.791041
9583.000000;1.791428
9582.000000;1.789702
9581.000000;1.786907
9580.000000;1.784451
9579.000000;1.782785
9578.000000;1.781673
9577.000000;1.781034
9576.000000;1.781066
9575.000000;1.781710
9574.000000;1.782386
9573.000000;1.782339
9572.000000;1.781226
9571.000000;1.779474
9570.000000;1.777962
9569.000000;1.777153
9568.000000;1.776646
9567.000000;1.775835
9566.000000;1.774835
9565.000000;1.774386
9564.000000;1.774912
9563.000000;1.776031
9562.000000;1.777012
9561.000000;1.777441
9560.000000;1.777489
9559.000000;1.777734
9558.000000;1.778715
9557.000000;1.780272
9556.000000;1.781306
9555.000000;1.780688
9554.000000;1.778603
9553.000000;1.776487
9552.000000;1.775459
9551.000000;1.775253
9550.000000;1.774915
9549.000000;1.774140
9548.000000;1.773557
9547.000000;1.773863
9546.000000;1.775028
9545.000000;1.776226
9544.000000;1.776353
9543.000000;1.774687
9542.000000;1.771322
9541.000000;1.767245
9540.000000;1.764008
9539.000000;1.762869
9538.000000;1.763907
9537.000000;1.765970
9536.000000;1.767560
9535.000000;1.767956
9534.000000;1.767572
9533.000000;1.767176
9532.000000;1.767098
9531.000000;1.767374
9530.000000;1.768057
9529.000000;1.768880
9528.000000;1.768927
9527.000000;1.767304
9526.000000;1.764201
9525.000000;1.760881
9524.000000;1.758633
9523.000000;1.758128
9522.000000;1.759445
9521.000000;1.761937
9520.000000;1.764154
9519.000000;1.764768
9518.000000;1.763867
9517.000000;1.762700
9516.000000;1.762066
9515.000000;1.761526
9514.000000;1.760292
9513.000000;1.758318
9512.000000;1.756236
9511.000000;1.754642
9510.000000;1.753753
9509.000000;1.753403
9508.000000;1.753153
9507.000000;1.752724
9506.000000;1.752359
9505.000000;1.752339
9504.000000;1.752246
9503.000000;1.751469
9502.000000;1.750429
9501.000000;1.750334
9500.000000;1.751288
9499.000000;1.751581
9498.000000;1.749708
9497.000000;1.746453
9496.000000;1.744054
9495.000000;1.743844
9494.000000;1.745447
9493.000000;1.747716
9492.000000;1.749548
9491.000000;1.750048
9490.000000;1.748972
9489.000000;1.747265
9488.000000;1.746395
9487.000000;1.746850
9486.000000;1.747756
9485.000000;1.748084
9484.000000;1.747709
9483.000000;1.747111
9482.000000;1.746513
9481.000000;1.745670
9480.000000;1.744271
9479.000000;1.742334
9478.000000;1.740367
9477.000000;1.739135
9476.000000;1.739009
9475.000000;1.739476
9474.000000;1.739650
9473.000000;1.739371
9472.000000;1.739469
9471.000000;1.740806
9470.000000;1.743274
9469.000000;1.745784
9468.000000;1.747095
9467.000000;1.746746
9466.000000;1.745479
9465.000000;1.744623
9464.000000;1.744751
9463.000000;1.745029
9462.000000;1.744252
9461.000000;1.742416
9460.000000;1.740693
9459.000000;1.739790
9458.000000;1.739078
9457.000000;1.737715
9456.000000;1.736013
9455.000000;1.735091
9454.000000;1.735527
9453.000000;1.736876
9452.000000;1.738271
9451.000000;1.739005
9450.000000;1.738633
9449.000000;1.737096
9448.000000;1.734953
9447.000000;1.733211
9446.000000;1.732712
9445.000000;1.733611
9444.000000;1.735320
9443.000000;1.736885
9442.000000;1.737536
9441.000000;1.737132
9440.000000;1.736140
9439.000000;1.735131
9438.000000;1.734342
9437.000000;1.733616
9436.000000;1.732550
9435.000000;1.730795
9434.000000;1.728501
9433.000000;1.726519
9432.000000;1.725880
9431.000000;1.726901
9430.000000;1.728886
9429.000000;1.730869
9428.000000;1.732428
9427.000000;1.733497
9426.000000;1.733706
9425.000000;1.732542
9424.000000;1.730251
9423.000000;1.727877
9422.000000;1.726097
9421.000000;1.724540
9420.000000;1.722653
9419.000000;1.720900
9418.000000;1.720474
9417.000000;1.721907
9416.000000;1.724421
9415.000000;1.726640
9414.000000;1.727536
9413.000000;1.726737
9412.000000;1.724642
9411.000000;1.722584
9410.000000;1.722160
9409.000000;1.723620
9408.000000;1.725129
9407.000000;1.724386
9406.000000;1.721119
9405.000000;1.717416
9404.000000;1.715574
9403.000000;1.716285
9402.000000;1.718736
9401.000000;1.721548
9400.000000;1.723356
9399.000000;1.723336
9398.000000;1.721861
9397.000000;1.720269
9396.000000;1.719447
9395.000000;1.718917
9394.000000;1.717709
9393.000000;1.715746
9392.000000;1.713707
9391.000000;1.711949
9390.000000;1.710397
9389.000000;1.709309
9388.000000;1.709114
9387.000000;1.709455
9386.000000;1.709344
9385.000000;1.708573
9384.000000;1.708170
9383.000000;1.708875
9382.000000;1.709819
9381.000000;1.709391
9380.000000;1.707202
9379.000000;1.704607
9378.000000;1.703352
9377.000000;1.704164
9376.000000;1.706482
9375.000000;1.709045
9374.000000;1.710726
9373.000000;1.711200
9372.000000;1.711034
9371.000000;1.710934
9370.000000;1.710898
9369.000000;1.710237
9368.000000;1.708347
9367.000000;1.705510
9366.000000;1.702917
9365.000000;1.701811
9364.000000;1.702443
9363.000000;1.703844
9362.000000;1.704857
9361.000000;1.705329
9360.000000;1.705944
9359.000000;1.706856
9358.000000;1.707121
9357.000000;1.705781
9356.000000;1.703125
9355.000000;1.700513
9354.000000;1.699184
9353.000000;1.699497
9352.000000;1.700857
9351.000000;1.701949
9350.000000;1.701552
9349.000000;1.699848
9348.000000;1.698639
9347.000000;1.699530
9346.000000;1.701921
9345.000000;1.703404
9344.000000;1.702341
9343.000000;1.699534
9342.000000;1.697067
9341.000000;1.696137
9340.000000;1.696405
9339.000000;1.696836
9338.000000;1.696513
9337.000000;1.694944
9336.000000;1.692357
9335.000000;1.689836
9334.000000;1.688747
9333.000000;1.689725
9332.000000;1.692265
9331.000000;1.695221
9330.000000;1.697601
9329.000000;1.698929
9328.000000;1.699147
9327.000000;1.698421
9326.000000;1.697021
9325.000000;1.695224
9324.000000;1.693309
9323.000000;1.691674
9322.000000;1.690800
9321.000000;1.690905
9320.000000;1.691550
9319.000000;1.691795
9318.000000;1.690975
9317.000000;1.689366
9316.000000;1.687948
9315.000000;1.687413
9314.000000;1.687604
9313.000000;1.687910
9312.000000;1.687862
9311.000000;1.687197
9310.000000;1.685695
9309.000000;1.683434
9308.000000;1.681134
9307.000000;1.679772
9306.000000;1.679728
9305.000000;1.680521
9304.000000;1.681451
9303.000000;1.682219
9302.000000;1.682846
9301.000000;1.683384
9300.000000;1.684005
9299.000000;1.685106
9298.000000;1.686880
9297.000000;1.688755
9296.000000;1.689614
9295.000000;1.688762
9294.000000;1.686654
9293.000000;1.684506
9292.000000;1.683182
9291.000000;1.682551
9290.000000;1.681914
9289.000000;1.680935
9288.000000;1.680024
9287.000000;1.679674
9286.000000;1.679612
9285.000000;1.678995
9284.000000;1.677624
9283.000000;1.676529
9282.000000;1.676832
9281.000000;1.678218
9280.000000;1.679087
9279.000000;1.678407
9278.000000;1.676928
9277.000000;1.676110
9276.000000;1.676323
9275.000000;1.676683
9274.000000;1.676322
9273.000000;1.675172
9272.000000;1.673570
9271.000000;1.671915
9270.000000;1.670910
9269.000000;1.671337
9268.000000;1.673101
9267.000000;1.675016
9266.000000;1.676033
9265.000000;1.676328
9264.000000;1.676601
9263.000000;1.676768
9262.000000;1.676213
9261.000000;1.675025
9260.000000;1.673921
9259.000000;1.672968
9258.000000;1.671437
9257.000000;1.669178
9256.000000;1.667158
9255.000000;1.666171
9254.000000;1.665841
9253.000000;1.665422
9252.000000;1.664897
9251.000000;1.664558
9250.000000;1.664134
9249.000000;1.663332
9248.000000;1.662796
9247.000000;1.663480
9246.000000;1.665231
9245.000000;1.666799
9244.000000;1.667245
9243.000000;1.666631
9242.000000;1.665392
9241.000000;1.663993
9240.000000;1.663317
9239.000000;1.664419
9238.000000;1.667240
9237.000000;1.670104
9236.000000;1.671120
9235.000000;1.669906
9234.000000;1.667610
9233.000000;1.665637
9232.000000;1.664725
9231.000000;1.664776
9230.000000;1.665027
9229.000000;1.664625
9228.000000;1.663485
9227.000000;1.662406
9226.000000;1.662139
9225.000000;1.662580
9224.000000;1.663047
9223.000000;1.663061
9222.000000;1.662590
9221.000000;1.661781
9220.000000;1.660841
9219.000000;1.660010
9218.000000;1.659358
9217.000000;1.658660
9216.000000;1.657696
9215.000000;1.656600
9214.000000;1.655772
9213.000000;1.655569
9212.000000;1.656160
9211.000000;1.657342
9210.000000;1.658335
9209.000000;1.658194
9208.000000;1.656748
9207.000000;1.654881
9206.000000;1.653607
9205.000000;1.653121
9204.000000;1.653023
9203.000000;1.653123
9202.000000;1.653544
9201.000000;1.654179
9200.000000;1.654534
9199.000000;1.654191
9198.000000;1.653126
9197.000000;1.651645
9196.000000;1.650384
9195.000000;1.650159
9194.000000;1.651188
9193.000000;1.652440
9192.000000;1.652388
9191.000000;1.650653
9190.000000;1.648430
9189.000000;1.647061
9188.000000;1.646705
9187.000000;1.646648
9186.000000;1.646428
9185.000000;1.646162
9184.000000;1.646024
9183.000000;1.645932
9182.000000;1.645810
9181.000000;1.645792
9180.000000;1.646021
9179.000000;1.646375
9178.000000;1.646503
9177.000000;1.646107
9176.000000;1.645205
9175.000000;1.644205
9174.000000;1.643702
9173.000000;1.644073
9172.000000;1.645154
9171.000000;1.646231
9170.000000;1.646385
9169.000000;1.645085
9168.000000;1.642694
9167.000000;1.640355
9166.000000;1.639114
9165.000000;1.639061
9164.000000;1.639400
9163.000000;1.639347
9162.000000;1.638749
9161.000000;1.637831
9160.000000;1.636737
9159.000000;1.635574
9158.000000;1.634624
9157.000000;1.634082
9156.000000;1.633609
9155.000000;1.632583
9154.000000;1.630941
9153.000000;1.629519
9152.000000;1.629426
9151.000000;1.631139
9150.000000;1.634148
9149.000000;1.637257
9148.000000;1.639255
9147.000000;1.639606
9146.000000;1.638737
9145.000000;1.637567
9144.000000;1.636647
9143.000000;1.635785
9142.000000;1.634552
9141.000000;1.633034
9140.000000;1.631931
9139.000000;1.631893
9138.000000;1.632818
9137.000000;1.633790
9136.000000;1.633744
9135.000000;1.632336
9134.000000;1.630306
9133.000000;1.628936
9132.000000;1.629015
9131.000000;1.630192
9130.000000;1.631295
9129.000000;1.631290
9128.000000;1.630006
9127.000000;1.628103
9126.000000;1.626519
9125.000000;1.625932
9124.000000;1.626456
9123.000000;1.627492
9122.000000;1.627990
9121.000000;1.627282
9120.000000;1.625702
9119.000000;1.624326
9118.000000;1.624057
9117.000000;1.624939
9116.000000;1.626303
9115.000000;1.627427
9114.000000;1.627914
9113.000000;1.627569
9112.000000;1.626342
9111.000000;1.624593
9110.000000;1.623189
9109.000000;1.622900
9108.000000;1.623590
9107.000000;1.624289
9106.000000;1.624231
9105.000000;1.623600
9104.000000;1.622946
9103.000000;1.622178
9102.000000;1.620761
9101.000000;1.618925
9100.000000;1.617946
9099.000000;1.618773
9098.000000;1.620757
9097.000000;1.622286
9096.000000;1.622575
9095.000000;1.622258
9094.000000;1.622184
9093.000000;1.622313
9092.000000;1.622110
9091.000000;1.621497
9090.000000;1.620894
9089.000000;1.620455
9088.000000;1.619782
9087.000000;1.618551
9086.000000;1.617098
9085.000000;1.616122
9084.000000;1.615925
9083.000000;1.616147
9082.000000;1.616330
9081.000000;1.616514
9080.000000;1.617021
9079.000000;1.617757
9078.000000;1.618113
9077.000000;1.617688
9076.000000;1.616709
9075.000000;1.615462
9074.000000;1.613719
9073.000000;1.611338
9072.000000;1.609199
9071.000000;1.608725
9070.000000;1.610277
9069.000000;1.612577
9068.000000;1.614045
9067.000000;1.614274
9066.000000;1.613813
9065.000000;1.613072
9064.000000;1.612179
9063.000000;1.611562
9062.000000;1.611773
9061.000000;1.612626
9060.000000;1.613198
9059.000000;1.612998
9058.000000;1.612667
9057.000000;1.613190
9056.000000;1.614666
9055.000000;1.616101
9054.000000;1.616309
9053.000000;1.614937
