Criado como novo conjunto de dados;"Jao_teste_celulas.spp","2582.3 Secs"
cm-1;Abs
10000.000000;0.921262
9999.000000;0.920919
9998.000000;0.920813
9997.000000;0.920712
9996.000000;0.920190
9995.000000;0.919253
9994.000000;0.918381
9993.000000;0.918101
9992.000000;0.918386
9991.000000;0.918653
9990.000000;0.918257
9989.000000;0.917098
9988.000000;0.915728
9987.000000;0.914818
9986.000000;0.914532
9985.000000;0.914457
9984.000000;0.914113
9983.000000;0.913437
9982.000000;0.912751
9981.000000;0.912403
9980.000000;0.912478
9979.000000;0.912730
9978.000000;0.912714
9977.000000;0.912107
9976.000000;0.911027
9975.000000;0.909964
9974.000000;0.909320
9973.000000;0.909064
9972.000000;0.908886
9971.000000;0.908598
9970.000000;0.908245
9969.000000;0.907865
9968.000000;0.907322
9967.000000;0.906479
9966.000000;0.905461
9965.000000;0.904629
9964.000000;0.904214
9963.000000;0.904041
9962.000000;0.903682
9961.000000;0.902944
9960.000000;0.902100
9959.000000;0.901563
9958.000000;0.901395
9957.000000;0.901252
9956.000000;0.900817
9955.000000;0.900169
9954.000000;0.899642
9953.000000;0.899430
9952.000000;0.899382
9951.000000;0.899197
9950.000000;0.898751
9949.000000;0.898243
9948.000000;0.897971
9947.000000;0.897981
9946.000000;0.897988
9945.000000;0.897721
9944.000000;0.897236
9943.000000;0.896760
9942.000000;0.896309
9941.000000;0.895690
9940.000000;0.894896
9939.000000;0.894247
9938.000000;0.894026
9937.000000;0.894115
9936.000000;0.894140
9935.000000;0.893865
9934.000000;0.893334
9933.000000;0.892709
9932.000000;0.892116
9931.000000;0.891595
9930.000000;0.891064
9929.000000;0.890324
9928.000000;0.889251
9927.000000;0.887993
9926.000000;0.886919
9925.000000;0.886343
9924.000000;0.886306
9923.000000;0.886568
9922.000000;0.886759
9921.000000;0.886583
9920.000000;0.885974
9919.000000;0.885113
9918.000000;0.884255
9917.000000;0.883524
9916.000000;0.882871
9915.000000;0.882218
9914.000000;0.881590
9913.000000;0.881091
9912.000000;0.880794
9911.000000;0.880660
9910.000000;0.880601
9909.000000;0.880585
9908.000000;0.880639
9907.000000;0.880699
9906.000000;0.880549
9905.000000;0.880003
9904.000000;0.879140
9903.000000;0.878262
9902.000000;0.877594
9901.000000;0.877096
9900.000000;0.876584
9899.000000;0.875962
9898.000000;0.875309
9897.000000;0.874739
9896.000000;0.874229
9895.000000;0.873594
9894.000000;0.872690
9893.000000;0.871641
9892.000000;0.870775
9891.000000;0.870269
9890.000000;0.869931
9889.000000;0.869465
9888.000000;0.868876
9887.000000;0.868466
9886.000000;0.868471
9885.000000;0.868838
9884.000000;0.869328
9883.000000;0.869629
9882.000000;0.869415
9881.000000;0.868564
9880.000000;0.867426
9879.000000;0.866624
9878.000000;0.866424
9877.000000;0.866465
9876.000000;0.866223
9875.000000;0.865618
9874.000000;0.864965
9873.000000;0.864491
9872.000000;0.864100
9871.000000;0.863592
9870.000000;0.862894
9869.000000;0.862085
9868.000000;0.861315
9867.000000;0.860730
9866.000000;0.860377
9865.000000;0.860152
9864.000000;0.859887
9863.000000;0.859497
9862.000000;0.859030
9861.000000;0.858615
9860.000000;0.858368
9859.000000;0.858248
9858.000000;0.857968
9857.000000;0.857224
9856.000000;0.856113
9855.000000;0.855197
9854.000000;0.854992
9853.000000;0.855419
9852.000000;0.855905
9851.000000;0.855965
9850.000000;0.855567
9849.000000;0.854984
9848.000000;0.854466
9847.000000;0.854093
9846.000000;0.853776
9845.000000;0.853319
9844.000000;0.852542
9843.000000;0.851432
9842.000000;0.850184
9841.000000;0.849137
9840.000000;0.848607
9839.000000;0.848670
9838.000000;0.849022
9837.000000;0.849138
9836.000000;0.848710
9835.000000;0.847905
9834.000000;0.847130
9833.000000;0.846612
9832.000000;0.846289
9831.000000;0.846019
9830.000000;0.845726
9829.000000;0.845373
9828.000000;0.844947
9827.000000;0.844482
9826.000000;0.844025
9825.000000;0.843569
9824.000000;0.843096
9823.000000;0.842654
9822.000000;0.842304
9821.000000;0.842009
9820.000000;0.841669
9819.000000;0.841276
9818.000000;0.840929
9817.000000;0.840684
9816.000000;0.840439
9815.000000;0.839992
9814.000000;0.839209
9813.000000;0.838185
9812.000000;0.837270
9811.000000;0.836825
9810.000000;0.836862
9809.000000;0.836997
9808.000000;0.836840
9807.000000;0.836345
9806.000000;0.835714
9805.000000;0.835078
9804.000000;0.834429
9803.000000;0.833768
9802.000000;0.833123
9801.000000;0.832469
9800.000000;0.831823
9799.000000;0.831361
9798.000000;0.831251
9797.000000;0.831365
9796.000000;0.831364
9795.000000;0.831059
9794.000000;0.830525
9793.000000;0.829849
9792.000000;0.829031
9791.000000;0.828213
9790.000000;0.827736
9789.000000;0.827755
9788.000000;0.827912
9787.000000;0.827616
9786.000000;0.826652
9785.000000;0.825400
9784.000000;0.824455
9783.000000;0.824085
9782.000000;0.824044
9781.000000;0.823854
9780.000000;0.823263
9779.000000;0.822451
9778.000000;0.821790
9777.000000;0.821437
9776.000000;0.821206
9775.000000;0.820832
9774.000000;0.820284
9773.000000;0.819760
9772.000000;0.819416
9771.000000;0.819148
9770.000000;0.818681
9769.000000;0.817936
9768.000000;0.817231
9767.000000;0.816992
9766.000000;0.817197
9765.000000;0.817300
9764.000000;0.816841
9763.000000;0.815986
9762.000000;0.815278
9761.000000;0.814964
9760.000000;0.814856
9759.000000;0.814743
9758.000000;0.814615
9757.000000;0.814436
9756.000000;0.814027
9755.000000;0.813317
9754.000000;0.812502
9753.000000;0.811799
9752.000000;0.811218
9751.000000;0.810697
9750.000000;0.810270
9749.000000;0.809950
9748.000000;0.809588
9747.000000;0.809058
9746.000000;0.808443
9745.000000;0.807903
9744.000000;0.807437
9743.000000;0.806944
9742.000000;0.806454
9741.000000;0.806133
9740.000000;0.806056
9739.000000;0.806092
9738.000000;0.805996
9737.000000;0.805590
9736.000000;0.804923
9735.000000;0.804284
9734.000000;0.803949
9733.000000;0.803853
9732.000000;0.803641
9731.000000;0.803111
9730.000000;0.802434
9729.000000;0.801811
9728.000000;0.801125
9727.000000;0.800168
9726.000000;0.799101
9725.000000;0.798375
9724.000000;0.798191
9723.000000;0.798257
9722.000000;0.798128
9721.000000;0.797623
9720.000000;0.796884
9719.000000;0.796167
9718.000000;0.795659
9717.000000;0.795369
9716.000000;0.795134
9715.000000;0.794776
9714.000000;0.794286
9713.000000;0.793772
9712.000000;0.793252
9711.000000;0.792625
9710.000000;0.791880
9709.000000;0.791205
9708.000000;0.790817
9707.000000;0.790734
9706.000000;0.790766
9705.000000;0.790681
9704.000000;0.790352
9703.000000;0.789819
9702.000000;0.789259
9701.000000;0.788857
9700.000000;0.788652
9699.000000;0.788495
9698.000000;0.788178
9697.000000;0.787600
9696.000000;0.786843
9695.000000;0.786113
9694.000000;0.785599
9693.000000;0.785343
9692.000000;0.785227
9691.000000;0.785089
9690.000000;0.784805
9689.000000;0.784290
9688.000000;0.783491
9687.000000;0.782476
9686.000000;0.781468
9685.000000;0.780722
9684.000000;0.780328
9683.000000;0.780179
9682.000000;0.780085
9681.000000;0.779889
9680.000000;0.779522
9679.000000;0.779034
9678.000000;0.778568
9677.000000;0.778243
9676.000000;0.778044
9675.000000;0.777862
9674.000000;0.777592
9673.000000;0.777180
9672.000000;0.776626
9671.000000;0.776009
9670.000000;0.775461
9669.000000;0.775020
9668.000000;0.774575
9667.000000;0.774031
9666.000000;0.773481
9665.000000;0.773081
9664.000000;0.772801
9663.000000;0.772464
9662.000000;0.772017
9661.000000;0.771580
9660.000000;0.771165
9659.000000;0.770562
9658.000000;0.769664
9657.000000;0.768761
9656.000000;0.768308
9655.000000;0.768396
9654.000000;0.768627
9653.000000;0.768565
9652.000000;0.768185
9651.000000;0.767775
9650.000000;0.767500
9649.000000;0.767215
9648.000000;0.766703
9647.000000;0.765958
9646.000000;0.765139
9645.000000;0.764345
9644.000000;0.763601
9643.000000;0.763017
9642.000000;0.762776
9641.000000;0.762874
9640.000000;0.762992
9639.000000;0.762802
9638.000000;0.762321
9637.000000;0.761831
9636.000000;0.761499
9635.000000;0.761220
9634.000000;0.760847
9633.000000;0.760376
9632.000000;0.759847
9631.000000;0.759202
9630.000000;0.758407
9629.000000;0.757606
9628.000000;0.757023
9627.000000;0.756719
9626.000000;0.756558
9625.000000;0.756378
9624.000000;0.756111
9623.000000;0.755734
9622.000000;0.755228
9621.000000;0.754628
9620.000000;0.754031
9619.000000;0.753496
9618.000000;0.753021
9617.000000;0.752635
9616.000000;0.752429
9615.000000;0.752394
9614.000000;0.752335
9613.000000;0.752071
9612.000000;0.751660
9611.000000;0.751275
9610.000000;0.750860
9609.000000;0.750145
9608.000000;0.749070
9607.000000;0.748044
9606.000000;0.747606
9605.000000;0.747883
9604.000000;0.748505
9603.000000;0.748939
9602.000000;0.748811
9601.000000;0.748018
9600.000000;0.746770
9599.000000;0.745540
9598.000000;0.744734
9597.000000;0.744344
9596.000000;0.744033
9595.000000;0.743573
9594.000000;0.743037
9593.000000;0.742530
9592.000000;0.741993
9591.000000;0.741410
9590.000000;0.741005
9589.000000;0.741000
9588.000000;0.741273
9587.000000;0.741441
9586.000000;0.741268
9585.000000;0.740805
9584.000000;0.740207
9583.000000;0.739590
9582.000000;0.739066
9581.000000;0.738717
9580.000000;0.738455
9579.000000;0.738051
9578.000000;0.737385
9577.000000;0.736593
9576.000000;0.735905
9575.000000;0.735415
9574.000000;0.735045
9573.000000;0.734682
9572.000000;0.734288
9571.000000;0.733907
9570.000000;0.733608
9569.000000;0.733426
9568.000000;0.733321
9567.000000;0.733198
9566.000000;0.732933
9565.000000;0.732414
9564.000000;0.731640
9563.000000;0.730824
9562.000000;0.730302
9561.000000;0.730231
9560.000000;0.730405
9559.000000;0.730431
9558.000000;0.730093
9557.000000;0.729476
9556.000000;0.728817
9555.000000;0.728309
9554.000000;0.728002
9553.000000;0.727774
9552.000000;0.727414
9551.000000;0.726859
9550.000000;0.726308
9549.000000;0.725981
9548.000000;0.725771
9547.000000;0.725316
9546.000000;0.724442
9545.000000;0.723403
9544.000000;0.722614
9543.000000;0.722252
9542.000000;0.722178
9541.000000;0.722127
9540.000000;0.721882
9539.000000;0.721362
9538.000000;0.720669
9537.000000;0.720013
9536.000000;0.719528
9535.000000;0.719155
9534.000000;0.718771
9533.000000;0.718380
9532.000000;0.718103
9531.000000;0.717996
9530.000000;0.717957
9529.000000;0.717848
9528.000000;0.717630
9527.000000;0.717347
9526.000000;0.716996
9525.000000;0.716485
9524.000000;0.715773
9523.000000;0.715025
9522.000000;0.714504
9521.000000;0.714292
9520.000000;0.714176
9519.000000;0.713904
9518.000000;0.713492
9517.000000;0.713155
9516.000000;0.712960
9515.000000;0.712706
9514.000000;0.712202
9513.000000;0.711530
9512.000000;0.710959
9511.000000;0.710641
9510.000000;0.710499
9509.000000;0.710353
9508.000000;0.710099
9507.000000;0.709744
9506.000000;0.709332
9505.000000;0.708856
9504.000000;0.708259
9503.000000;0.707541
9502.000000;0.706818
9501.000000;0.706231
9500.000000;0.705817
9499.000000;0.705506
9498.000000;0.705256
9497.000000;0.705092
9496.000000;0.705025
9495.000000;0.704978
9494.000000;0.704833
9493.000000;0.704488
9492.000000;0.703885
9491.000000;0.703059
9490.000000;0.702179
9489.000000;0.701462
9488.000000;0.700974
9487.000000;0.700590
9486.000000;0.700168
9485.000000;0.699736
9484.000000;0.699422
9483.000000;0.699282
9482.000000;0.699240
9481.000000;0.699173
9480.000000;0.699001
9479.000000;0.698695
9478.000000;0.698269
9477.000000;0.697764
9476.000000;0.697240
9475.000000;0.696775
9474.000000;0.696446
9473.000000;0.696232
9472.000000;0.695971
9471.000000;0.695496
9470.000000;0.694858
9469.000000;0.694313
9468.000000;0.694025
9467.000000;0.693863
9466.000000;0.693576
9465.000000;0.693097
9464.000000;0.692569
9463.000000;0.692105
9462.000000;0.691669
9461.000000;0.691222
9460.000000;0.690845
9459.000000;0.690625
9458.000000;0.690503
9457.000000;0.690335
9456.000000;0.690076
9455.000000;0.689794
9454.000000;0.689485
9453.000000;0.689015
9452.000000;0.688307
9451.000000;0.687521
9450.000000;0.686910
9449.000000;0.686518
9448.000000;0.686160
9447.000000;0.685711
9446.000000;0.685274
9445.000000;0.684960
9444.000000;0.684659
9443.000000;0.684200
9442.000000;0.683645
9441.000000;0.683226
9440.000000;0.683003
9439.000000;0.682789
9438.000000;0.682450
9437.000000;0.682077
9436.000000;0.681775
9435.000000;0.681448
9434.000000;0.680959
9433.000000;0.680402
9432.000000;0.680030
9431.000000;0.679928
9430.000000;0.679902
9429.000000;0.679705
9428.000000;0.679267
9427.000000;0.678680
9426.000000;0.678066
9425.000000;0.677512
9424.000000;0.677062
9423.000000;0.676707
9422.000000;0.676373
9421.000000;0.675983
9420.000000;0.675533
9419.000000;0.675086
9418.000000;0.674706
9417.000000;0.674403
9416.000000;0.674160
9415.000000;0.673962
9414.000000;0.673779
9413.000000;0.673529
9412.000000;0.673146
9411.000000;0.672682
9410.000000;0.672282
9409.000000;0.671999
9408.000000;0.671714
9407.000000;0.671303
9406.000000;0.670828
9405.000000;0.670444
9404.000000;0.670151
9403.000000;0.669764
9402.000000;0.669155
9401.000000;0.668416
9400.000000;0.667744
9399.000000;0.667246
9398.000000;0.666895
9397.000000;0.666601
9396.000000;0.666281
9395.000000;0.665895
9394.000000;0.665472
9393.000000;0.665052
9392.000000;0.664635
9391.000000;0.664214
9390.000000;0.663853
9389.000000;0.663623
9388.000000;0.663454
9387.000000;0.663145
9386.000000;0.662598
9385.000000;0.661954
9384.000000;0.661455
9383.000000;0.661212
9382.000000;0.661148
9381.000000;0.661077
9380.000000;0.660833
9379.000000;0.660400
9378.000000;0.659968
9377.000000;0.659748
9376.000000;0.659699
9375.000000;0.659526
9374.000000;0.659032
9373.000000;0.658352
9372.000000;0.657755
9371.000000;0.657317
9370.000000;0.656930
9369.000000;0.656534
9368.000000;0.656183
9367.000000;0.655912
9366.000000;0.655661
9365.000000;0.655385
9364.000000;0.655110
9363.000000;0.654885
9362.000000;0.654719
9361.000000;0.654586
9360.000000;0.654435
9359.000000;0.654196
9358.000000;0.653821
9357.000000;0.653314
9356.000000;0.652703
9355.000000;0.652046
9354.000000;0.651476
9353.000000;0.651151
9352.000000;0.651056
9351.000000;0.650925
9350.000000;0.650514
9349.000000;0.649891
9348.000000;0.649345
9347.000000;0.649005
9346.000000;0.648717
9345.000000;0.648313
9344.000000;0.647848
9343.000000;0.647473
9342.000000;0.647203
9341.000000;0.646928
9340.000000;0.646620
9339.000000;0.646386
9338.000000;0.646262
9337.000000;0.646058
9336.000000;0.645511
9335.000000;0.644628
9334.000000;0.643776
9333.000000;0.643348
9332.000000;0.643326
9331.000000;0.643302
9330.000000;0.642940
9329.000000;0.642337
9328.000000;0.641827
9327.000000;0.641548
9326.000000;0.641328
9325.000000;0.640949
9324.000000;0.640403
9323.000000;0.639841
9322.000000;0.639386
9321.000000;0.639038
9320.000000;0.638708
9319.000000;0.638314
9318.000000;0.637882
9317.000000;0.637553
9316.000000;0.637454
9315.000000;0.637536
9314.000000;0.637597
9313.000000;0.637474
9312.000000;0.637172
9311.000000;0.636819
9310.000000;0.636516
9309.000000;0.636263
9308.000000;0.635987
9307.000000;0.635630
9306.000000;0.635226
9305.000000;0.634881
9304.000000;0.634676
9303.000000;0.634558
9302.000000;0.634347
9301.000000;0.633856
9300.000000;0.633027
9299.000000;0.632020
9298.000000;0.631153
9297.000000;0.630706
9296.000000;0.630701
9295.000000;0.630898
9294.000000;0.631010
9293.000000;0.630897
9292.000000;0.630571
9291.000000;0.630114
9290.000000;0.629650
9289.000000;0.629285
9288.000000;0.628968
9287.000000;0.628488
9286.000000;0.627712
9285.000000;0.626804
9284.000000;0.626087
9283.000000;0.625712
9282.000000;0.625551
9281.000000;0.625386
9280.000000;0.625108
9279.000000;0.624731
9278.000000;0.624338
9277.000000;0.624042
9276.000000;0.623919
9275.000000;0.623921
9274.000000;0.623905
9273.000000;0.623752
9272.000000;0.623424
9271.000000;0.622935
9270.000000;0.622352
9269.000000;0.621793
9268.000000;0.621347
9267.000000;0.620982
9266.000000;0.620593
9265.000000;0.620165
9264.000000;0.619793
9263.000000;0.619569
9262.000000;0.619505
9261.000000;0.619547
9260.000000;0.619580
9259.000000;0.619422
9258.000000;0.618959
9257.000000;0.618292
9256.000000;0.617669
9255.000000;0.617219
9254.000000;0.616872
9253.000000;0.616545
9252.000000;0.616292
9251.000000;0.616190
9250.000000;0.616186
9249.000000;0.616138
9248.000000;0.615952
9247.000000;0.615601
9246.000000;0.615103
9245.000000;0.614539
9244.000000;0.614060
9243.000000;0.613759
9242.000000;0.613567
9241.000000;0.613317
9240.000000;0.612895
9239.000000;0.612316
9238.000000;0.611665
9237.000000;0.611041
9236.000000;0.610501
9235.000000;0.610046
9234.000000;0.609664
9233.000000;0.609402
9232.000000;0.609335
9231.000000;0.609421
9230.000000;0.609479
9229.000000;0.609357
9228.000000;0.609086
9227.000000;0.608797
9226.000000;0.608535
9225.000000;0.608245
9224.000000;0.607882
9223.000000;0.607462
9222.000000;0.606999
9221.000000;0.606484
9220.000000;0.605929
9219.000000;0.605385
9218.000000;0.604899
9217.000000;0.604498
9216.000000;0.604206
9215.000000;0.604032
9214.000000;0.603930
9213.000000;0.603811
9212.000000;0.603616
9211.000000;0.603334
9210.000000;0.602970
9209.000000;0.602513
9208.000000;0.601963
9207.000000;0.601377
9206.000000;0.600864
9205.000000;0.600521
9204.000000;0.600351
9203.000000;0.600232
9202.000000;0.600006
9201.000000;0.599628
9200.000000;0.599214
9199.000000;0.598916
9198.000000;0.598762
9197.000000;0.598650
9196.000000;0.598444
9195.000000;0.598071
9194.000000;0.597556
9193.000000;0.597037
9192.000000;0.596718
9191.000000;0.596688
9190.000000;0.596765
9189.000000;0.596608
9188.000000;0.596063
9187.000000;0.595356
9186.000000;0.594844
9185.000000;0.594627
9184.000000;0.594481
9183.000000;0.594172
9182.000000;0.593718
9181.000000;0.593276
9180.000000;0.592896
9179.000000;0.592487
9178.000000;0.591976
9177.000000;0.591396
9176.000000;0.590823
9175.000000;0.590343
9174.000000;0.590071
9173.000000;0.590061
9172.000000;0.590160
9171.000000;0.590085
9170.000000;0.589721
9169.000000;0.589240
9168.000000;0.588850
9167.000000;0.588551
9166.000000;0.588231
9165.000000;0.587892
9164.000000;0.587602
9163.000000;0.587299
9162.000000;0.586839
9161.000000;0.586256
9160.000000;0.585782
9159.000000;0.585562
9158.000000;0.585498
9157.000000;0.585415
9156.000000;0.585277
9155.000000;0.585122
9154.000000;0.584917
9153.000000;0.584583
9152.000000;0.584127
9151.000000;0.583658
9150.000000;0.583269
9149.000000;0.582969
9148.000000;0.582715
9147.000000;0.582459
9146.000000;0.582192
9145.000000;0.581941
9144.000000;0.581710
9143.000000;0.581435
9142.000000;0.581030
9141.000000;0.580486
9140.000000;0.579877
9139.000000;0.579281
9138.000000;0.578769
9137.000000;0.578473
9136.000000;0.578501
9135.000000;0.578755
9134.000000;0.578930
9133.000000;0.578802
9132.000000;0.578434
9131.000000;0.578044
9130.000000;0.577737
9129.000000;0.577457
9128.000000;0.577134
9127.000000;0.576751
9126.000000;0.576312
9125.000000;0.575840
9124.000000;0.575414
9123.000000;0.575112
9122.000000;0.574922
9121.000000;0.574753
9120.000000;0.574536
9119.000000;0.574251
9118.000000;0.573892
9117.000000;0.573470
9116.000000;0.573054
9115.000000;0.572733
9114.000000;0.572497
9113.000000;0.572234
9112.000000;0.571835
9111.000000;0.571313
9110.000000;0.570790
9109.000000;0.570418
9108.000000;0.570267
9107.000000;0.570262
9106.000000;0.570214
9105.000000;0.569975
9104.000000;0.569565
9103.000000;0.569134
9102.000000;0.568814
9101.000000;0.568615
9100.000000;0.568439
9099.000000;0.568152
9098.000000;0.567673
9097.000000;0.567055
9096.000000;0.566457
9095.000000;0.566016
9094.000000;0.565728
9093.000000;0.565506
9092.000000;0.565314
9091.000000;0.565182
9090.000000;0.565105
9089.000000;0.565005
9088.000000;0.564809
9087.000000;0.564531
9086.000000;0.564236
9085.000000;0.563973
9084.000000;0.563735
9083.000000;0.563462
9082.000000;0.563085
9081.000000;0.562605
9080.000000;0.562137
9079.000000;0.561826
9078.000000;0.561713
9077.000000;0.561678
9076.000000;0.561544
9075.000000;0.561231
9074.000000;0.560817
9073.000000;0.560453
9072.000000;0.560196
9071.000000;0.559943
9070.000000;0.559570
9069.000000;0.559130
9068.000000;0.558814
9067.000000;0.558672
9066.000000;0.558485
9065.000000;0.558020
9064.000000;0.557361
9063.000000;0.556845
9062.000000;0.556674
9061.000000;0.556723
9060.000000;0.556748
9059.000000;0.556649
9058.000000;0.556466
9057.000000;0.556216
9056.000000;0.555882
9055.000000;0.555493
9054.000000;0.555118
9053.000000;0.554761
