Criado como novo conjunto de dados;"Jao_teste_celulas.spp","7203.6 Secs"
cm-1;Abs
10000.000000;1.403605
9999.000000;1.404502
9998.000000;1.405467
9997.000000;1.405977
9996.000000;1.405938
9995.000000;1.405455
9994.000000;1.404357
9993.000000;1.402660
9992.000000;1.400776
9991.000000;1.399310
9990.000000;1.398544
9989.000000;1.398444
9988.000000;1.398791
9987.000000;1.399098
9986.000000;1.398659
9985.000000;1.397163
9984.000000;1.395219
9983.000000;1.393930
9982.000000;1.393870
9981.000000;1.394654
9980.000000;1.395405
9979.000000;1.395474
9978.000000;1.394780
9977.000000;1.393753
9976.000000;1.393012
9975.000000;1.392879
9974.000000;1.393105
9973.000000;1.393156
9972.000000;1.392705
9971.000000;1.391762
9970.000000;1.390541
9969.000000;1.389447
9968.000000;1.389025
9967.000000;1.389504
9966.000000;1.390353
9965.000000;1.390639
9964.000000;1.389993
9963.000000;1.388931
9962.000000;1.388074
9961.000000;1.387370
9960.000000;1.386323
9959.000000;1.384884
9958.000000;1.383801
9957.000000;1.383992
9956.000000;1.385600
9955.000000;1.387694
9954.000000;1.388952
9953.000000;1.388748
9952.000000;1.387556
9951.000000;1.386276
9950.000000;1.385344
9949.000000;1.384591
9948.000000;1.383764
9947.000000;1.382857
9946.000000;1.381977
9945.000000;1.381213
9944.000000;1.380733
9943.000000;1.380741
9942.000000;1.381167
9941.000000;1.381557
9940.000000;1.381388
9939.000000;1.380452
9938.000000;1.378929
9937.000000;1.377246
9936.000000;1.375928
9935.000000;1.375338
9934.000000;1.375400
9933.000000;1.375622
9932.000000;1.375528
9931.000000;1.375069
9930.000000;1.374606
9929.000000;1.374534
9928.000000;1.374942
9927.000000;1.375507
9926.000000;1.375689
9925.000000;1.375096
9924.000000;1.373762
9923.000000;1.372037
9922.000000;1.370300
9921.000000;1.368867
9920.000000;1.368044
9919.000000;1.367969
9918.000000;1.368339
9917.000000;1.368500
9916.000000;1.367963
9915.000000;1.366772
9914.000000;1.365356
9913.000000;1.364182
9912.000000;1.363531
9911.000000;1.363364
9910.000000;1.363336
9909.000000;1.363108
9908.000000;1.362741
9907.000000;1.362654
9906.000000;1.363122
9905.000000;1.363967
9904.000000;1.364757
9903.000000;1.365098
9902.000000;1.364769
9901.000000;1.363851
9900.000000;1.362800
9899.000000;1.362116
9898.000000;1.361790
9897.000000;1.361329
9896.000000;1.360484
9895.000000;1.359599
9894.000000;1.359016
9893.000000;1.358547
9892.000000;1.357959
9891.000000;1.357621
9890.000000;1.358040
9889.000000;1.358841
9888.000000;1.358955
9887.000000;1.357998
9886.000000;1.356846
9885.000000;1.356449
9884.000000;1.356547
9883.000000;1.356095
9882.000000;1.354764
9881.000000;1.353432
9880.000000;1.353086
9879.000000;1.353671
9878.000000;1.354179
9877.000000;1.353661
9876.000000;1.352008
9875.000000;1.349919
9874.000000;1.348330
9873.000000;1.347809
9872.000000;1.348287
9871.000000;1.349245
9870.000000;1.350130
9869.000000;1.350622
9868.000000;1.350591
9867.000000;1.350010
9866.000000;1.349045
9865.000000;1.348051
9864.000000;1.347276
9863.000000;1.346583
9862.000000;1.345701
9861.000000;1.344747
9860.000000;1.344251
9859.000000;1.344505
9858.000000;1.345091
9857.000000;1.345266
9856.000000;1.344724
9855.000000;1.343796
9854.000000;1.342965
9853.000000;1.342425
9852.000000;1.342076
9851.000000;1.341728
9850.000000;1.341290
9849.000000;1.340935
9848.000000;1.341049
9847.000000;1.341785
9846.000000;1.342624
9845.000000;1.342699
9844.000000;1.341693
9843.000000;1.340201
9842.000000;1.339025
9841.000000;1.338375
9840.000000;1.337938
9839.000000;1.337486
9838.000000;1.337039
9837.000000;1.336555
9836.000000;1.335870
9835.000000;1.334989
9834.000000;1.334138
9833.000000;1.333435
9832.000000;1.332781
9831.000000;1.332176
9830.000000;1.331889
9829.000000;1.332101
9828.000000;1.332500
9827.000000;1.332468
9826.000000;1.331721
9825.000000;1.330605
9824.000000;1.329723
9823.000000;1.329345
9822.000000;1.329241
9821.000000;1.329039
9820.000000;1.328661
9819.000000;1.328346
9818.000000;1.328300
9817.000000;1.328431
9816.000000;1.328460
9815.000000;1.328217
9814.000000;1.327740
9813.000000;1.327173
9812.000000;1.326663
9811.000000;1.326296
9810.000000;1.325972
9809.000000;1.325371
9808.000000;1.324260
9807.000000;1.322877
9806.000000;1.321820
9805.000000;1.321450
9804.000000;1.321510
9803.000000;1.321432
9802.000000;1.320950
9801.000000;1.320253
9800.000000;1.319633
9799.000000;1.319214
9798.000000;1.319032
9797.000000;1.319125
9796.000000;1.319355
9795.000000;1.319292
9794.000000;1.318555
9793.000000;1.317277
9792.000000;1.316081
9791.000000;1.315523
9790.000000;1.315674
9789.000000;1.316221
9788.000000;1.316797
9787.000000;1.317083
9786.000000;1.316823
9785.000000;1.316013
9784.000000;1.315049
9783.000000;1.314421
9782.000000;1.314173
9781.000000;1.313884
9780.000000;1.313248
9779.000000;1.312484
9778.000000;1.312014
9777.000000;1.311879
9776.000000;1.311680
9775.000000;1.311029
9774.000000;1.309916
9773.000000;1.308673
9772.000000;1.307716
9771.000000;1.307289
9770.000000;1.307327
9769.000000;1.307516
9768.000000;1.307543
9767.000000;1.307273
9766.000000;1.306699
9765.000000;1.305915
9764.000000;1.305237
9763.000000;1.305117
9762.000000;1.305632
9761.000000;1.306151
9760.000000;1.305838
9759.000000;1.304562
9758.000000;1.303014
9757.000000;1.301862
9756.000000;1.301104
9755.000000;1.300413
9754.000000;1.299826
9753.000000;1.299737
9752.000000;1.300294
9751.000000;1.301069
9750.000000;1.301392
9749.000000;1.300934
9748.000000;1.299957
9747.000000;1.299045
9746.000000;1.298516
9745.000000;1.298034
9744.000000;1.296939
9743.000000;1.295102
9742.000000;1.293348
9741.000000;1.292777
9740.000000;1.293690
9739.000000;1.295286
9738.000000;1.296368
9737.000000;1.296226
9736.000000;1.294945
9735.000000;1.293184
9734.000000;1.291820
9733.000000;1.291533
9732.000000;1.292369
9731.000000;1.293636
9730.000000;1.294395
9729.000000;1.294194
9728.000000;1.293355
9727.000000;1.292541
9726.000000;1.292066
9725.000000;1.291627
9724.000000;1.290714
9723.000000;1.289285
9722.000000;1.287927
9721.000000;1.287211
9720.000000;1.287004
9719.000000;1.286642
9718.000000;1.285834
9717.000000;1.285091
9716.000000;1.285058
9715.000000;1.285633
9714.000000;1.286065
9713.000000;1.285872
9712.000000;1.285341
9711.000000;1.285025
9710.000000;1.285060
9709.000000;1.285179
9708.000000;1.285189
9707.000000;1.285097
9706.000000;1.284779
9705.000000;1.283876
9704.000000;1.282267
9703.000000;1.280500
9702.000000;1.279490
9701.000000;1.279689
9700.000000;1.280590
9699.000000;1.281132
9698.000000;1.280648
9697.000000;1.279443
9696.000000;1.278433
9695.000000;1.278216
9694.000000;1.278498
9693.000000;1.278483
9692.000000;1.277838
9691.000000;1.277118
9690.000000;1.277078
9689.000000;1.277659
9688.000000;1.277971
9687.000000;1.277374
9686.000000;1.276275
9685.000000;1.275573
9684.000000;1.275547
9683.000000;1.275690
9682.000000;1.275521
9681.000000;1.275047
9680.000000;1.274323
9679.000000;1.273103
9678.000000;1.271340
9677.000000;1.269717
9676.000000;1.269148
9675.000000;1.269818
9674.000000;1.271042
9673.000000;1.272012
9672.000000;1.272362
9671.000000;1.272087
9670.000000;1.271364
9669.000000;1.270594
9668.000000;1.270205
9667.000000;1.270179
9666.000000;1.270015
9665.000000;1.269362
9664.000000;1.268442
9663.000000;1.267618
9662.000000;1.266836
9661.000000;1.265833
9660.000000;1.264727
9659.000000;1.263984
9658.000000;1.263874
9657.000000;1.264255
9656.000000;1.264853
9655.000000;1.265403
9654.000000;1.265524
9653.000000;1.264854
9652.000000;1.263527
9651.000000;1.262254
9650.000000;1.261662
9649.000000;1.261637
9648.000000;1.261460
9647.000000;1.260565
9646.000000;1.259106
9645.000000;1.257829
9644.000000;1.257435
9643.000000;1.258000
9642.000000;1.258923
9641.000000;1.259446
9640.000000;1.259210
9639.000000;1.258278
9638.000000;1.256857
9637.000000;1.255269
9636.000000;1.254097
9635.000000;1.253908
9634.000000;1.254633
9633.000000;1.255453
9632.000000;1.255534
9631.000000;1.254747
9630.000000;1.253552
9629.000000;1.252420
9628.000000;1.251586
9627.000000;1.251135
9626.000000;1.250993
9625.000000;1.250933
9624.000000;1.250846
9623.000000;1.250878
9622.000000;1.251078
9621.000000;1.251066
9620.000000;1.250395
9619.000000;1.249188
9618.000000;1.248053
9617.000000;1.247373
9616.000000;1.247063
9615.000000;1.247010
9614.000000;1.247290
9613.000000;1.247769
9612.000000;1.247897
9611.000000;1.247264
9610.000000;1.246119
9609.000000;1.245029
9608.000000;1.244236
9607.000000;1.243659
9606.000000;1.243305
9605.000000;1.243244
9604.000000;1.243251
9603.000000;1.242925
9602.000000;1.242249
9601.000000;1.241723
9600.000000;1.241768
9599.000000;1.242243
9598.000000;1.242661
9597.000000;1.242666
9596.000000;1.242161
9595.000000;1.241191
9594.000000;1.239952
9593.000000;1.238806
9592.000000;1.238057
9591.000000;1.237718
9590.000000;1.237615
9589.000000;1.237679
9588.000000;1.237973
9587.000000;1.238486
9586.000000;1.239018
9585.000000;1.239263
9584.000000;1.238897
9583.000000;1.237667
9582.000000;1.235655
9581.000000;1.233528
9580.000000;1.232277
9579.000000;1.232409
9578.000000;1.233425
9577.000000;1.234234
9576.000000;1.234197
9575.000000;1.233630
9574.000000;1.233230
9573.000000;1.233195
9572.000000;1.233119
9571.000000;1.232663
9570.000000;1.232065
9569.000000;1.231826
9568.000000;1.232042
9567.000000;1.232202
9566.000000;1.231671
9565.000000;1.230292
9564.000000;1.228558
9563.000000;1.227228
9562.000000;1.226740
9561.000000;1.226889
9560.000000;1.227060
9559.000000;1.226821
9558.000000;1.226284
9557.000000;1.225884
9556.000000;1.225918
9555.000000;1.226389
9554.000000;1.227125
9553.000000;1.227833
9552.000000;1.228091
9551.000000;1.227582
9550.000000;1.226455
9549.000000;1.225249
9548.000000;1.224359
9547.000000;1.223744
9546.000000;1.223224
9545.000000;1.222802
9544.000000;1.222477
9543.000000;1.221964
9542.000000;1.220983
9541.000000;1.219785
9540.000000;1.219034
9539.000000;1.219063
9538.000000;1.219508
9537.000000;1.219801
9536.000000;1.219821
9535.000000;1.219834
9534.000000;1.219941
9533.000000;1.219917
9532.000000;1.219589
9531.000000;1.219064
9530.000000;1.218481
9529.000000;1.217742
9528.000000;1.216692
9527.000000;1.215505
9526.000000;1.214702
9525.000000;1.214681
9524.000000;1.215287
9523.000000;1.215927
9522.000000;1.216108
9521.000000;1.215852
9520.000000;1.215565
9519.000000;1.215545
9518.000000;1.215648
9517.000000;1.215437
9516.000000;1.214618
9515.000000;1.213302
9514.000000;1.211872
9513.000000;1.210629
9512.000000;1.209576
9511.000000;1.208535
9510.000000;1.207417
9509.000000;1.206386
9508.000000;1.205748
9507.000000;1.205716
9506.000000;1.206232
9505.000000;1.206964
9504.000000;1.207479
9503.000000;1.207486
9502.000000;1.206997
9501.000000;1.206274
9500.000000;1.205589
9499.000000;1.205014
9498.000000;1.204476
9497.000000;1.203989
9496.000000;1.203741
9495.000000;1.203903
9494.000000;1.204348
9493.000000;1.204648
9492.000000;1.204388
9491.000000;1.203514
9490.000000;1.202369
9489.000000;1.201407
9488.000000;1.200894
9487.000000;1.200798
9486.000000;1.200859
9485.000000;1.200735
9484.000000;1.200198
9483.000000;1.199302
9482.000000;1.198336
9481.000000;1.197575
9480.000000;1.197077
9479.000000;1.196763
9478.000000;1.196624
9477.000000;1.196715
9476.000000;1.196950
9475.000000;1.197029
9474.000000;1.196648
9473.000000;1.195751
9472.000000;1.194582
9471.000000;1.193566
9470.000000;1.193140
9469.000000;1.193534
9468.000000;1.194569
9467.000000;1.195709
9466.000000;1.196379
9465.000000;1.196291
9464.000000;1.195508
9463.000000;1.194347
9462.000000;1.193258
9461.000000;1.192626
9460.000000;1.192516
9459.000000;1.192632
9458.000000;1.192638
9457.000000;1.192457
9456.000000;1.192155
9455.000000;1.191695
9454.000000;1.191022
9453.000000;1.190291
9452.000000;1.189746
9451.000000;1.189366
9450.000000;1.188916
9449.000000;1.188423
9448.000000;1.188314
9447.000000;1.188835
9446.000000;1.189517
9445.000000;1.189499
9444.000000;1.188406
9443.000000;1.186708
9442.000000;1.185204
9441.000000;1.184326
9440.000000;1.183954
9439.000000;1.183693
9438.000000;1.183210
9437.000000;1.182432
9436.000000;1.181595
9435.000000;1.181105
9434.000000;1.181242
9433.000000;1.181921
9432.000000;1.182719
9431.000000;1.183117
9430.000000;1.182769
9429.000000;1.181672
9428.000000;1.180215
9427.000000;1.179033
9426.000000;1.178601
9425.000000;1.178858
9424.000000;1.179241
9423.000000;1.179164
9422.000000;1.178480
9421.000000;1.177459
9420.000000;1.176470
9419.000000;1.175784
9418.000000;1.175555
9417.000000;1.175768
9416.000000;1.176175
9415.000000;1.176468
9414.000000;1.176542
9413.000000;1.176463
9412.000000;1.176189
9411.000000;1.175562
9410.000000;1.174637
9409.000000;1.173759
9408.000000;1.173174
9407.000000;1.172762
9406.000000;1.172347
9405.000000;1.172048
9404.000000;1.172033
9403.000000;1.172115
9402.000000;1.171933
9401.000000;1.171492
9400.000000;1.171197
9399.000000;1.171280
9398.000000;1.171486
9397.000000;1.171397
9396.000000;1.170844
9395.000000;1.169979
9394.000000;1.169171
9393.000000;1.168833
9392.000000;1.169059
9391.000000;1.169328
9390.000000;1.168886
9389.000000;1.167609
9388.000000;1.166264
9387.000000;1.165661
9386.000000;1.165786
9385.000000;1.165975
9384.000000;1.165721
9383.000000;1.165040
9382.000000;1.164255
9381.000000;1.163736
9380.000000;1.163741
9379.000000;1.164146
9378.000000;1.164340
9377.000000;1.163723
9376.000000;1.162387
9375.000000;1.161081
9374.000000;1.160452
9373.000000;1.160521
9372.000000;1.160890
9371.000000;1.161199
9370.000000;1.161258
9369.000000;1.160972
9368.000000;1.160387
9367.000000;1.159781
9366.000000;1.159532
9365.000000;1.159789
9364.000000;1.160289
9363.000000;1.160572
9362.000000;1.160393
9361.000000;1.159908
9360.000000;1.159364
9359.000000;1.158704
9358.000000;1.157719
9357.000000;1.156628
9356.000000;1.156136
9355.000000;1.156603
9354.000000;1.157353
9353.000000;1.157230
9352.000000;1.155861
9351.000000;1.154013
9350.000000;1.152662
9349.000000;1.152115
9348.000000;1.152099
9347.000000;1.152279
9346.000000;1.152404
9345.000000;1.152248
9344.000000;1.151794
9343.000000;1.151361
9342.000000;1.151271
9341.000000;1.151445
9340.000000;1.151558
9339.000000;1.151500
9338.000000;1.151413
9337.000000;1.151294
9336.000000;1.150904
9335.000000;1.150163
9334.000000;1.149405
9333.000000;1.149049
9332.000000;1.149123
9331.000000;1.149227
9330.000000;1.148914
9329.000000;1.148052
9328.000000;1.146885
9327.000000;1.145830
9326.000000;1.145184
9325.000000;1.144942
9324.000000;1.144837
9323.000000;1.144545
9322.000000;1.143915
9321.000000;1.143115
9320.000000;1.142598
9319.000000;1.142767
9318.000000;1.143520
9317.000000;1.144156
9316.000000;1.143938
9315.000000;1.142825
9314.000000;1.141504
9313.000000;1.140686
9312.000000;1.140520
9311.000000;1.140737
9310.000000;1.141092
9309.000000;1.141490
9308.000000;1.141811
9307.000000;1.141886
9306.000000;1.141669
9305.000000;1.141285
9304.000000;1.140873
9303.000000;1.140506
9302.000000;1.140281
9301.000000;1.140276
9300.000000;1.140370
9299.000000;1.140251
9298.000000;1.139707
9297.000000;1.138819
9296.000000;1.137796
9295.000000;1.136765
9294.000000;1.135861
9293.000000;1.135332
9292.000000;1.135324
9291.000000;1.135616
9290.000000;1.135779
9289.000000;1.135619
9288.000000;1.135305
9287.000000;1.135053
9286.000000;1.134890
9285.000000;1.134760
9284.000000;1.134668
9283.000000;1.134612
9282.000000;1.134538
9281.000000;1.134439
9280.000000;1.134352
9279.000000;1.134184
9278.000000;1.133730
9277.000000;1.132978
9276.000000;1.132235
9275.000000;1.131771
9274.000000;1.131509
9273.000000;1.131221
9272.000000;1.130879
9271.000000;1.130555
9270.000000;1.130117
9269.000000;1.129360
9268.000000;1.128436
9267.000000;1.127822
9266.000000;1.127731
9265.000000;1.127824
9264.000000;1.127655
9263.000000;1.127232
9262.000000;1.126978
9261.000000;1.127222
9260.000000;1.127838
9259.000000;1.128310
9258.000000;1.128098
9257.000000;1.127062
9256.000000;1.125613
9255.000000;1.124397
9254.000000;1.123750
9253.000000;1.123538
9252.000000;1.123500
9251.000000;1.123534
9250.000000;1.123571
9249.000000;1.123395
9248.000000;1.122864
9247.000000;1.122225
9246.000000;1.121967
9245.000000;1.122311
9244.000000;1.122973
9243.000000;1.123428
9242.000000;1.123291
9241.000000;1.122475
9240.000000;1.121201
9239.000000;1.119927
9238.000000;1.119118
9237.000000;1.118901
9236.000000;1.118965
9235.000000;1.118862
9234.000000;1.118439
9233.000000;1.117944
9232.000000;1.117703
9231.000000;1.117725
9230.000000;1.117654
9229.000000;1.117141
9228.000000;1.116252
9227.000000;1.115414
9226.000000;1.114962
9225.000000;1.114850
9224.000000;1.114847
9223.000000;1.114868
9222.000000;1.114920
9221.000000;1.114824
9220.000000;1.114240
9219.000000;1.113108
9218.000000;1.111906
9217.000000;1.111312
9216.000000;1.111598
9215.000000;1.112373
9214.000000;1.112913
9213.000000;1.112768
9212.000000;1.112100
9211.000000;1.111417
9210.000000;1.111001
9209.000000;1.110637
9208.000000;1.109979
9207.000000;1.109056
9206.000000;1.108268
9205.000000;1.107941
9204.000000;1.108060
9203.000000;1.108408
9202.000000;1.108762
9201.000000;1.108902
9200.000000;1.108689
9199.000000;1.108264
9198.000000;1.107971
9197.000000;1.107888
9196.000000;1.107626
9195.000000;1.106839
9194.000000;1.105810
9193.000000;1.105202
9192.000000;1.105263
9191.000000;1.105556
9190.000000;1.105530
9189.000000;1.105087
9188.000000;1.104459
9187.000000;1.103788
9186.000000;1.103073
9185.000000;1.102413
9184.000000;1.102048
9183.000000;1.102109
9182.000000;1.102427
9181.000000;1.102613
9180.000000;1.102322
9179.000000;1.101528
9178.000000;1.100616
9177.000000;1.100105
9176.000000;1.100149
9175.000000;1.100362
9174.000000;1.100220
9173.000000;1.099625
9172.000000;1.098946
9171.000000;1.098595
9170.000000;1.098685
9169.000000;1.099103
9168.000000;1.099673
9167.000000;1.100152
9166.000000;1.100225
9165.000000;1.099742
9164.000000;1.098919
9163.000000;1.098155
9162.000000;1.097619
9161.000000;1.097110
9160.000000;1.096421
9159.000000;1.095710
9158.000000;1.095359
9157.000000;1.095440
9156.000000;1.095525
9155.000000;1.095163
9154.000000;1.094451
9153.000000;1.093917
9152.000000;1.093872
9151.000000;1.094087
9150.000000;1.094146
9149.000000;1.093903
9148.000000;1.093462
9147.000000;1.092941
9146.000000;1.092481
9145.000000;1.092319
9144.000000;1.092539
9143.000000;1.092805
9142.000000;1.092660
9141.000000;1.092104
9140.000000;1.091589
9139.000000;1.091374
9138.000000;1.091163
9137.000000;1.090547
9136.000000;1.089567
9135.000000;1.088665
9134.000000;1.088213
9133.000000;1.088271
9132.000000;1.088669
9131.000000;1.089101
9130.000000;1.089222
9129.000000;1.088852
9128.000000;1.088087
9127.000000;1.087134
9126.000000;1.086149
9125.000000;1.085336
9124.000000;1.084997
9123.000000;1.085219
9122.000000;1.085593
9121.000000;1.085561
9120.000000;1.085051
9119.000000;1.084506
9118.000000;1.084206
9117.000000;1.083872
9116.000000;1.083109
9115.000000;1.082014
9114.000000;1.081123
9113.000000;1.080832
9112.000000;1.081065
9111.000000;1.081445
9110.000000;1.081617
9109.000000;1.081417
9108.000000;1.080900
9107.000000;1.080310
9106.000000;1.079929
9105.000000;1.079912
9104.000000;1.080243
9103.000000;1.080823
9102.000000;1.081488
9101.000000;1.081963
9100.000000;1.081963
9099.000000;1.081453
9098.000000;1.080759
9097.000000;1.080284
9096.000000;1.080126
9095.000000;1.080047
9094.000000;1.079817
9093.000000;1.079464
9092.000000;1.079131
9091.000000;1.078795
9090.000000;1.078296
9089.000000;1.077636
9088.000000;1.077052
9087.000000;1.076713
9086.000000;1.076449
9085.000000;1.075937
9084.000000;1.075110
9083.000000;1.074291
9082.000000;1.073890
9081.000000;1.074017
9080.000000;1.074357
9079.000000;1.074404
9078.000000;1.073858
9077.000000;1.072878
9076.000000;1.071980
9075.000000;1.071644
9074.000000;1.071969
9073.000000;1.072626
9072.000000;1.073082
9071.000000;1.072915
9070.000000;1.072080
9069.000000;1.070986
9068.000000;1.070231
9067.000000;1.070116
9066.000000;1.070375
9065.000000;1.070462
9064.000000;1.070110
9063.000000;1.069528
9062.000000;1.069092
9061.000000;1.068967
9060.000000;1.069057
9059.000000;1.069157
9058.000000;1.069058
9057.000000;1.068597
9056.000000;1.067759
9055.000000;1.066754
9054.000000;1.065912
9053.000000;1.065463
