Criado como novo conjunto de dados;"Jao_teste_celulas.spp","4382.5 Secs"
cm-1;Abs
10000.000000;0.835214
9999.000000;0.834316
9998.000000;0.833197
9997.000000;0.832105
9996.000000;0.831241
9995.000000;0.830559
9994.000000;0.830044
9993.000000;0.829756
9992.000000;0.829745
9991.000000;0.829825
9990.000000;0.829706
9989.000000;0.829290
9988.000000;0.828761
9987.000000;0.828364
9986.000000;0.828191
9985.000000;0.828196
9984.000000;0.828269
9983.000000;0.828210
9982.000000;0.827752
9981.000000;0.826781
9980.000000;0.825521
9979.000000;0.824405
9978.000000;0.823723
9977.000000;0.823427
9976.000000;0.823199
9975.000000;0.822689
9974.000000;0.821781
9973.000000;0.820771
9972.000000;0.820197
9971.000000;0.820347
9970.000000;0.820927
9969.000000;0.821316
9968.000000;0.821172
9967.000000;0.820649
9966.000000;0.820039
9965.000000;0.819398
9964.000000;0.818624
9963.000000;0.817739
9962.000000;0.816925
9961.000000;0.816324
9960.000000;0.815898
9959.000000;0.815525
9958.000000;0.815165
9957.000000;0.814921
9956.000000;0.814917
9955.000000;0.815067
9954.000000;0.815021
9953.000000;0.814458
9952.000000;0.813460
9951.000000;0.812487
9950.000000;0.811928
9949.000000;0.811761
9948.000000;0.811704
9947.000000;0.811540
9946.000000;0.811217
9945.000000;0.810752
9944.000000;0.810228
9943.000000;0.809816
9942.000000;0.809628
9941.000000;0.809550
9940.000000;0.809335
9939.000000;0.808890
9938.000000;0.808339
9937.000000;0.807809
9936.000000;0.807262
9935.000000;0.806600
9934.000000;0.805854
9933.000000;0.805203
9932.000000;0.804814
9931.000000;0.804687
9930.000000;0.804665
9929.000000;0.804585
9928.000000;0.804419
9927.000000;0.804231
9926.000000;0.804017
9925.000000;0.803647
9924.000000;0.803021
9923.000000;0.802212
9922.000000;0.801420
9921.000000;0.800819
9920.000000;0.800494
9919.000000;0.800443
9918.000000;0.800532
9917.000000;0.800481
9916.000000;0.800022
9915.000000;0.799110
9914.000000;0.797966
9913.000000;0.796914
9912.000000;0.796202
9911.000000;0.795910
9910.000000;0.795892
9909.000000;0.795822
9908.000000;0.795412
9907.000000;0.794654
9906.000000;0.793817
9905.000000;0.793188
9904.000000;0.792833
9903.000000;0.792615
9902.000000;0.792359
9901.000000;0.791993
9900.000000;0.791580
9899.000000;0.791226
9898.000000;0.790948
9897.000000;0.790642
9896.000000;0.790222
9895.000000;0.789788
9894.000000;0.789565
9893.000000;0.789636
9892.000000;0.789747
9891.000000;0.789468
9890.000000;0.788595
9889.000000;0.787416
9888.000000;0.786518
9887.000000;0.786284
9886.000000;0.786558
9885.000000;0.786805
9884.000000;0.786604
9883.000000;0.785966
9882.000000;0.785224
9881.000000;0.784699
9880.000000;0.784474
9879.000000;0.784381
9878.000000;0.784154
9877.000000;0.783651
9876.000000;0.782969
9875.000000;0.782323
9874.000000;0.781831
9873.000000;0.781489
9872.000000;0.781320
9871.000000;0.781337
9870.000000;0.781327
9869.000000;0.780905
9868.000000;0.779945
9867.000000;0.778788
9866.000000;0.777842
9865.000000;0.777127
9864.000000;0.776451
9863.000000;0.775887
9862.000000;0.775749
9861.000000;0.776062
9860.000000;0.776376
9859.000000;0.776219
9858.000000;0.775560
9857.000000;0.774723
9856.000000;0.774017
9855.000000;0.773527
9854.000000;0.773144
9853.000000;0.772652
9852.000000;0.771933
9851.000000;0.771155
9850.000000;0.770670
9849.000000;0.770633
9848.000000;0.770823
9847.000000;0.770910
9846.000000;0.770762
9845.000000;0.770402
9844.000000;0.769841
9843.000000;0.769117
9842.000000;0.768382
9841.000000;0.767773
9840.000000;0.767256
9839.000000;0.766742
9838.000000;0.766284
9837.000000;0.766015
9836.000000;0.765920
9835.000000;0.765845
9834.000000;0.765672
9833.000000;0.765353
9832.000000;0.764814
9831.000000;0.764053
9830.000000;0.763301
9829.000000;0.762854
9828.000000;0.762686
9827.000000;0.762441
9826.000000;0.761926
9825.000000;0.761402
9824.000000;0.761213
9823.000000;0.761268
9822.000000;0.761111
9821.000000;0.760483
9820.000000;0.759607
9819.000000;0.758862
9818.000000;0.758352
9817.000000;0.757863
9816.000000;0.757183
9815.000000;0.756345
9814.000000;0.755601
9813.000000;0.755175
9812.000000;0.755060
9811.000000;0.755020
9810.000000;0.754802
9809.000000;0.754370
9808.000000;0.753927
9807.000000;0.753702
9806.000000;0.753727
9805.000000;0.753825
9804.000000;0.753787
9803.000000;0.753528
9802.000000;0.753099
9801.000000;0.752584
9800.000000;0.752031
9799.000000;0.751450
9798.000000;0.750827
9797.000000;0.750149
9796.000000;0.749448
9795.000000;0.748849
9794.000000;0.748513
9793.000000;0.748473
9792.000000;0.748515
9791.000000;0.748295
9790.000000;0.747618
9789.000000;0.746608
9788.000000;0.745583
9787.000000;0.744809
9786.000000;0.744352
9785.000000;0.744121
9784.000000;0.743971
9783.000000;0.743781
9782.000000;0.743509
9781.000000;0.743190
9780.000000;0.742874
9779.000000;0.742568
9778.000000;0.742245
9777.000000;0.741889
9776.000000;0.741482
9775.000000;0.740973
9774.000000;0.740331
9773.000000;0.739658
9772.000000;0.739175
9771.000000;0.739009
9770.000000;0.739016
9769.000000;0.738874
9768.000000;0.738388
9767.000000;0.737656
9766.000000;0.736939
9765.000000;0.736405
9764.000000;0.736020
9763.000000;0.735663
9762.000000;0.735303
9761.000000;0.735014
9760.000000;0.734832
9759.000000;0.734651
9758.000000;0.734322
9757.000000;0.733862
9756.000000;0.733468
9755.000000;0.733263
9754.000000;0.733109
9753.000000;0.732754
9752.000000;0.732152
9751.000000;0.731526
9750.000000;0.731102
9749.000000;0.730845
9748.000000;0.730515
9747.000000;0.729933
9746.000000;0.729163
9745.000000;0.728443
9744.000000;0.727963
9743.000000;0.727707
9742.000000;0.727512
9741.000000;0.727266
9740.000000;0.727018
9739.000000;0.726821
9738.000000;0.726537
9737.000000;0.725947
9736.000000;0.725070
9735.000000;0.724254
9734.000000;0.723849
9733.000000;0.723853
9732.000000;0.723952
9731.000000;0.723847
9730.000000;0.723462
9729.000000;0.722882
9728.000000;0.722231
9727.000000;0.721623
9726.000000;0.721140
9725.000000;0.720789
9724.000000;0.720510
9723.000000;0.720239
9722.000000;0.719954
9721.000000;0.719652
9720.000000;0.719322
9719.000000;0.718967
9718.000000;0.718614
9717.000000;0.718283
9716.000000;0.717959
9715.000000;0.717591
9714.000000;0.717123
9713.000000;0.716534
9712.000000;0.715866
9711.000000;0.715217
9710.000000;0.714680
9709.000000;0.714278
9708.000000;0.713983
9707.000000;0.713756
9706.000000;0.713564
9705.000000;0.713356
9704.000000;0.713071
9703.000000;0.712656
9702.000000;0.712089
9701.000000;0.711398
9700.000000;0.710693
9699.000000;0.710158
9698.000000;0.709938
9697.000000;0.710020
9696.000000;0.710208
9695.000000;0.710219
9694.000000;0.709848
9693.000000;0.709112
9692.000000;0.708257
9691.000000;0.707566
9690.000000;0.707128
9689.000000;0.706823
9688.000000;0.706524
9687.000000;0.706242
9686.000000;0.706014
9685.000000;0.705756
9684.000000;0.705324
9683.000000;0.704707
9682.000000;0.704060
9681.000000;0.703564
9680.000000;0.703305
9679.000000;0.703262
9678.000000;0.703303
9677.000000;0.703207
9676.000000;0.702815
9675.000000;0.702210
9674.000000;0.701642
9673.000000;0.701255
9672.000000;0.700952
9671.000000;0.700567
9670.000000;0.700074
9669.000000;0.699574
9668.000000;0.699138
9667.000000;0.698759
9666.000000;0.698404
9665.000000;0.698056
9664.000000;0.697698
9663.000000;0.697299
9662.000000;0.696815
9661.000000;0.696201
9660.000000;0.695479
9659.000000;0.694810
9658.000000;0.694430
9657.000000;0.694421
9656.000000;0.694583
9655.000000;0.694603
9654.000000;0.694358
9653.000000;0.694004
9652.000000;0.693755
9651.000000;0.693644
9650.000000;0.693519
9649.000000;0.693196
9648.000000;0.692599
9647.000000;0.691794
9646.000000;0.690940
9645.000000;0.690187
9644.000000;0.689588
9643.000000;0.689095
9642.000000;0.688671
9641.000000;0.688354
9640.000000;0.688184
9639.000000;0.688079
9638.000000;0.687859
9637.000000;0.687420
9636.000000;0.686836
9635.000000;0.686249
9634.000000;0.685690
9633.000000;0.685127
9632.000000;0.684636
9631.000000;0.684382
9630.000000;0.684363
9629.000000;0.684292
9628.000000;0.683875
9627.000000;0.683174
9626.000000;0.682555
9625.000000;0.682264
9624.000000;0.682197
9623.000000;0.682124
9622.000000;0.682010
9621.000000;0.681969
9620.000000;0.681980
9619.000000;0.681789
9618.000000;0.681164
9617.000000;0.680163
9616.000000;0.679098
9615.000000;0.678277
9614.000000;0.677821
9613.000000;0.677674
9612.000000;0.677718
9611.000000;0.677825
9610.000000;0.677857
9609.000000;0.677692
9608.000000;0.677313
9607.000000;0.676844
9606.000000;0.676443
9605.000000;0.676124
9604.000000;0.675738
9603.000000;0.675157
9602.000000;0.674448
9601.000000;0.673837
9600.000000;0.673472
9599.000000;0.673283
9598.000000;0.673072
9597.000000;0.672718
9596.000000;0.672260
9595.000000;0.671782
9594.000000;0.671308
9593.000000;0.670827
9592.000000;0.670380
9591.000000;0.670036
9590.000000;0.669773
9589.000000;0.669469
9588.000000;0.669055
9587.000000;0.668618
9586.000000;0.668289
9585.000000;0.668086
9584.000000;0.667917
9583.000000;0.667716
9582.000000;0.667471
9581.000000;0.667122
9580.000000;0.666555
9579.000000;0.665757
9578.000000;0.664923
9577.000000;0.664302
9576.000000;0.663971
9575.000000;0.663800
9574.000000;0.663631
9573.000000;0.663396
9572.000000;0.663056
9571.000000;0.662519
9570.000000;0.661723
9569.000000;0.660799
9568.000000;0.660067
9567.000000;0.659788
9566.000000;0.659914
9565.000000;0.660119
9564.000000;0.660083
9563.000000;0.659738
9562.000000;0.659230
9561.000000;0.658724
9560.000000;0.658288
9559.000000;0.657924
9558.000000;0.657590
9557.000000;0.657211
9556.000000;0.656760
9555.000000;0.656335
9554.000000;0.656078
9553.000000;0.655965
9552.000000;0.655780
9551.000000;0.655379
9550.000000;0.654890
9549.000000;0.654557
9548.000000;0.654401
9547.000000;0.654171
9546.000000;0.653644
9545.000000;0.652909
9544.000000;0.652281
9543.000000;0.651978
9542.000000;0.651933
9541.000000;0.651873
9540.000000;0.651573
9539.000000;0.651033
9538.000000;0.650441
9537.000000;0.649960
9536.000000;0.649561
9535.000000;0.649092
9534.000000;0.648500
9533.000000;0.647928
9532.000000;0.647539
9531.000000;0.647311
9530.000000;0.647079
9529.000000;0.646768
9528.000000;0.646466
9527.000000;0.646246
9526.000000;0.645980
9525.000000;0.645469
9524.000000;0.644718
9523.000000;0.643985
9522.000000;0.643518
9521.000000;0.643315
9520.000000;0.643167
9519.000000;0.642886
9518.000000;0.642451
9517.000000;0.641970
9516.000000;0.641589
9515.000000;0.641412
9514.000000;0.641448
9513.000000;0.641591
9512.000000;0.641677
9511.000000;0.641563
9510.000000;0.641180
9509.000000;0.640542
9508.000000;0.639768
9507.000000;0.639068
9506.000000;0.638629
9505.000000;0.638478
9504.000000;0.638479
9503.000000;0.638460
9502.000000;0.638331
9501.000000;0.638107
9500.000000;0.637863
9499.000000;0.637660
9498.000000;0.637466
9497.000000;0.637146
9496.000000;0.636591
9495.000000;0.635860
9494.000000;0.635135
9493.000000;0.634537
9492.000000;0.634057
9491.000000;0.633664
9490.000000;0.633367
9489.000000;0.633128
9488.000000;0.632816
9487.000000;0.632362
9486.000000;0.631909
9485.000000;0.631673
9484.000000;0.631667
9483.000000;0.631642
9482.000000;0.631344
9481.000000;0.630767
9480.000000;0.630142
9479.000000;0.629706
9478.000000;0.629499
9477.000000;0.629366
9476.000000;0.629137
9475.000000;0.628806
9474.000000;0.628512
9473.000000;0.628315
9472.000000;0.628060
9471.000000;0.627531
9470.000000;0.626726
9469.000000;0.625896
9468.000000;0.625288
9467.000000;0.624914
9466.000000;0.624605
9465.000000;0.624231
9464.000000;0.623827
9463.000000;0.623500
9462.000000;0.623294
9461.000000;0.623139
9460.000000;0.622914
9459.000000;0.622546
9458.000000;0.622060
9457.000000;0.621557
9456.000000;0.621144
9455.000000;0.620860
9454.000000;0.620649
9453.000000;0.620386
9452.000000;0.619980
9451.000000;0.619458
9450.000000;0.618954
9449.000000;0.618579
9448.000000;0.618338
9447.000000;0.618170
9446.000000;0.618041
9445.000000;0.617932
9444.000000;0.617780
9443.000000;0.617508
9442.000000;0.617126
9441.000000;0.616745
9440.000000;0.616456
9439.000000;0.616235
9438.000000;0.615978
9437.000000;0.615601
9436.000000;0.615085
9435.000000;0.614472
9434.000000;0.613862
9433.000000;0.613357
9432.000000;0.612978
9431.000000;0.612631
9430.000000;0.612206
9429.000000;0.611711
9428.000000;0.611277
9427.000000;0.611049
9426.000000;0.611069
9425.000000;0.611251
9424.000000;0.611428
9423.000000;0.611419
9422.000000;0.611116
9421.000000;0.610546
9420.000000;0.609854
9419.000000;0.609206
9418.000000;0.608681
9417.000000;0.608256
9416.000000;0.607856
9415.000000;0.607440
9414.000000;0.607022
9413.000000;0.606655
9412.000000;0.606394
9411.000000;0.606268
9410.000000;0.606262
9409.000000;0.606300
9408.000000;0.606266
9407.000000;0.606074
9406.000000;0.605715
9405.000000;0.605243
9404.000000;0.604712
9403.000000;0.604174
9402.000000;0.603701
9401.000000;0.603366
9400.000000;0.603165
9399.000000;0.602981
9398.000000;0.602664
9397.000000;0.602182
9396.000000;0.601666
9395.000000;0.601301
9394.000000;0.601143
9393.000000;0.601066
9392.000000;0.600902
9391.000000;0.600621
9390.000000;0.600310
9389.000000;0.600008
9388.000000;0.599644
9387.000000;0.599177
9386.000000;0.598700
9385.000000;0.598319
9384.000000;0.598008
9383.000000;0.597677
9382.000000;0.597355
9381.000000;0.597144
9380.000000;0.597015
9379.000000;0.596808
9378.000000;0.596469
9377.000000;0.596130
9376.000000;0.595878
9375.000000;0.595579
9374.000000;0.595058
9373.000000;0.594387
9372.000000;0.593823
9371.000000;0.593505
9370.000000;0.593339
9369.000000;0.593167
9368.000000;0.592941
9367.000000;0.592688
9366.000000;0.592410
9365.000000;0.592051
9364.000000;0.591536
9363.000000;0.590850
9362.000000;0.590106
9361.000000;0.589523
9360.000000;0.589243
9359.000000;0.589185
9358.000000;0.589135
9357.000000;0.588958
9356.000000;0.588655
9355.000000;0.588255
9354.000000;0.587788
9353.000000;0.587380
9352.000000;0.587190
9351.000000;0.587168
9350.000000;0.587021
9349.000000;0.586557
9348.000000;0.585993
9347.000000;0.585740
9346.000000;0.585903
9345.000000;0.586136
9344.000000;0.586029
9343.000000;0.585538
9342.000000;0.584929
9341.000000;0.584404
9340.000000;0.583918
9339.000000;0.583355
9338.000000;0.582760
9337.000000;0.582307
9336.000000;0.582066
9335.000000;0.581910
9334.000000;0.581670
9333.000000;0.581327
9332.000000;0.580988
9331.000000;0.580722
9330.000000;0.580487
9329.000000;0.580223
9328.000000;0.579931
9327.000000;0.579650
9326.000000;0.579387
9325.000000;0.579111
9324.000000;0.578766
9323.000000;0.578317
9322.000000;0.577823
9321.000000;0.577458
9320.000000;0.577348
9319.000000;0.577366
9318.000000;0.577175
9317.000000;0.576577
9316.000000;0.575766
9315.000000;0.575121
9314.000000;0.574801
9313.000000;0.574646
9312.000000;0.574442
9311.000000;0.574172
9310.000000;0.573954
9309.000000;0.573836
9308.000000;0.573739
9307.000000;0.573548
9306.000000;0.573201
9305.000000;0.572725
9304.000000;0.572235
9303.000000;0.571867
9302.000000;0.571660
9301.000000;0.571522
9300.000000;0.571353
9299.000000;0.571175
9298.000000;0.571082
9297.000000;0.571048
9296.000000;0.570900
9295.000000;0.570489
9294.000000;0.569876
9293.000000;0.569268
9292.000000;0.568825
9291.000000;0.568556
9290.000000;0.568385
9289.000000;0.568241
9288.000000;0.568066
9287.000000;0.567808
9286.000000;0.567463
9285.000000;0.567076
9284.000000;0.566680
9283.000000;0.566226
9282.000000;0.565642
9281.000000;0.564970
9280.000000;0.564388
9279.000000;0.564073
9278.000000;0.564016
9277.000000;0.564005
9276.000000;0.563808
9275.000000;0.563381
9274.000000;0.562895
9273.000000;0.562537
9272.000000;0.562302
9271.000000;0.562032
9270.000000;0.561646
9269.000000;0.561249
9268.000000;0.560959
9267.000000;0.560695
9266.000000;0.560270
9265.000000;0.559672
9264.000000;0.559140
9263.000000;0.558903
9262.000000;0.558926
9261.000000;0.558975
9260.000000;0.558882
9259.000000;0.558666
9258.000000;0.558431
9257.000000;0.558218
9256.000000;0.557971
9255.000000;0.557618
9254.000000;0.557149
9253.000000;0.556645
9252.000000;0.556221
9251.000000;0.555925
9250.000000;0.555699
9249.000000;0.555450
9248.000000;0.555153
9247.000000;0.554869
9246.000000;0.554680
9245.000000;0.554593
9244.000000;0.554501
9243.000000;0.554240
9242.000000;0.553736
9241.000000;0.553075
9240.000000;0.552435
9239.000000;0.551927
9238.000000;0.551573
9237.000000;0.551382
9236.000000;0.551362
9235.000000;0.551439
9234.000000;0.551461
9233.000000;0.551357
9232.000000;0.551207
9231.000000;0.551097
9230.000000;0.550962
9229.000000;0.550651
9228.000000;0.550118
9227.000000;0.549463
9226.000000;0.548819
9225.000000;0.548267
9224.000000;0.547827
9223.000000;0.547450
9222.000000;0.547056
9221.000000;0.546638
9220.000000;0.546305
9219.000000;0.546115
9218.000000;0.545910
9217.000000;0.545452
9216.000000;0.544752
9215.000000;0.544140
9214.000000;0.543954
9213.000000;0.544224
9212.000000;0.544674
9211.000000;0.544961
9210.000000;0.544887
9209.000000;0.544474
9208.000000;0.543896
9207.000000;0.543311
9206.000000;0.542732
9205.000000;0.542095
9204.000000;0.541463
9203.000000;0.541048
9202.000000;0.540975
9201.000000;0.541102
9200.000000;0.541149
9199.000000;0.540963
9198.000000;0.540609
9197.000000;0.540241
9196.000000;0.539966
9195.000000;0.539807
9194.000000;0.539689
9193.000000;0.539487
9192.000000;0.539134
9191.000000;0.538697
9190.000000;0.538310
9189.000000;0.538040
9188.000000;0.537867
9187.000000;0.537758
9186.000000;0.537695
9185.000000;0.537609
9184.000000;0.537385
9183.000000;0.536977
9182.000000;0.536494
9181.000000;0.536103
9180.000000;0.535870
9179.000000;0.535720
9178.000000;0.535543
9177.000000;0.535304
9176.000000;0.535032
9175.000000;0.534735
9174.000000;0.534381
9173.000000;0.533985
9172.000000;0.533650
9171.000000;0.533477
9170.000000;0.533428
9169.000000;0.533341
9168.000000;0.533083
9167.000000;0.532668
9166.000000;0.532219
9165.000000;0.531826
9164.000000;0.531489
9163.000000;0.531159
9162.000000;0.530831
9161.000000;0.530571
9160.000000;0.530436
9159.000000;0.530388
9158.000000;0.530302
9157.000000;0.530082
9156.000000;0.529733
9155.000000;0.529279
9154.000000;0.528679
9153.000000;0.527910
9152.000000;0.527117
9151.000000;0.526565
9150.000000;0.526399
9149.000000;0.526498
9148.000000;0.526622
9147.000000;0.526630
9146.000000;0.526526
9145.000000;0.526364
9144.000000;0.526176
9143.000000;0.525960
9142.000000;0.525674
9141.000000;0.525266
9140.000000;0.524765
9139.000000;0.524295
9138.000000;0.523946
9137.000000;0.523677
9136.000000;0.523399
9135.000000;0.523126
9134.000000;0.522936
9133.000000;0.522808
9132.000000;0.522592
9131.000000;0.522197
9130.000000;0.521717
9129.000000;0.521321
9128.000000;0.521077
9127.000000;0.520921
9126.000000;0.520758
9125.000000;0.520530
9124.000000;0.520205
9123.000000;0.519779
9122.000000;0.519319
9121.000000;0.518959
9120.000000;0.518803
9119.000000;0.518825
9118.000000;0.518888
9117.000000;0.518856
9116.000000;0.518693
9115.000000;0.518452
9114.000000;0.518190
9113.000000;0.517927
9112.000000;0.517659
9111.000000;0.517378
9110.000000;0.517058
9109.000000;0.516661
9108.000000;0.516178
9107.000000;0.515658
9106.000000;0.515179
9105.000000;0.514798
9104.000000;0.514524
9103.000000;0.514303
9102.000000;0.514051
9101.000000;0.513722
9100.000000;0.513366
9099.000000;0.513068
9098.000000;0.512835
9097.000000;0.512578
9096.000000;0.512226
9095.000000;0.511824
9094.000000;0.511478
9093.000000;0.511235
9092.000000;0.511064
9091.000000;0.510909
9090.000000;0.510726
9089.000000;0.510504
9088.000000;0.510271
9087.000000;0.510053
9086.000000;0.509803
9085.000000;0.509423
9084.000000;0.508914
9083.000000;0.508431
9082.000000;0.508126
9081.000000;0.507982
9080.000000;0.507870
9079.000000;0.507740
9078.000000;0.507648
9077.000000;0.507608
9076.000000;0.507553
9075.000000;0.507447
9074.000000;0.507329
9073.000000;0.507179
9072.000000;0.506856
9071.000000;0.506266
9070.000000;0.505559
9069.000000;0.505046
9068.000000;0.504907
9067.000000;0.505014
9066.000000;0.505060
9065.000000;0.504829
9064.000000;0.504341
9063.000000;0.503783
9062.000000;0.503327
9061.000000;0.503033
9060.000000;0.502870
9059.000000;0.502771
9058.000000;0.502649
9057.000000;0.502410
9056.000000;0.502044
9055.000000;0.501659
9054.000000;0.501380
9053.000000;0.501178
