Criado como novo conjunto de dados;"Jao_teste_celulas.spp","10324.0 Secs"
cm-1;Abs
10000.000000;1.964078
9999.000000;1.966427
9998.000000;1.969515
9997.000000;1.971624
9996.000000;1.971386
9995.000000;1.968646
9994.000000;1.964264
9993.000000;1.960532
9992.000000;1.959469
9991.000000;1.961316
9990.000000;1.964468
9989.000000;1.967251
9988.000000;1.968847
9987.000000;1.968602
9986.000000;1.965642
9985.000000;1.960274
9984.000000;1.954975
9983.000000;1.952585
9982.000000;1.953579
9981.000000;1.955793
9980.000000;1.956892
9979.000000;1.956660
9978.000000;1.956592
9977.000000;1.957709
9976.000000;1.959381
9975.000000;1.960058
9974.000000;1.958718
9973.000000;1.955519
9972.000000;1.951371
9971.000000;1.947406
9970.000000;1.944886
9969.000000;1.945013
9968.000000;1.948357
9967.000000;1.954096
9966.000000;1.959986
9965.000000;1.963770
9964.000000;1.964727
9963.000000;1.963481
9962.000000;1.960731
9961.000000;1.957053
9960.000000;1.953654
9959.000000;1.952162
9958.000000;1.953048
9957.000000;1.954750
9956.000000;1.955319
9955.000000;1.954599
9954.000000;1.953713
9953.000000;1.953262
9952.000000;1.953251
9951.000000;1.954032
9950.000000;1.955860
9949.000000;1.957497
9948.000000;1.956776
9947.000000;1.953339
9946.000000;1.949594
9945.000000;1.948005
9944.000000;1.948342
9943.000000;1.948450
9942.000000;1.947172
9941.000000;1.945392
9940.000000;1.944283
9939.000000;1.943848
9938.000000;1.943497
9937.000000;1.942996
9936.000000;1.942232
9935.000000;1.940834
9934.000000;1.938820
9933.000000;1.937110
9932.000000;1.936438
9931.000000;1.935923
9930.000000;1.933823
9929.000000;1.930070
9928.000000;1.927028
9927.000000;1.927057
9926.000000;1.929867
9925.000000;1.932919
9924.000000;1.934382
9923.000000;1.934949
9922.000000;1.936345
9921.000000;1.938846
9920.000000;1.941023
9919.000000;1.941563
9918.000000;1.940378
9917.000000;1.937800
9916.000000;1.933904
9915.000000;1.929450
9914.000000;1.926461
9913.000000;1.926487
9912.000000;1.928442
9911.000000;1.929326
9910.000000;1.927561
9909.000000;1.924658
9908.000000;1.922875
9907.000000;1.922408
9906.000000;1.921970
9905.000000;1.921388
9904.000000;1.922098
9903.000000;1.924910
9902.000000;1.928458
9901.000000;1.930440
9900.000000;1.929878
9899.000000;1.927663
9898.000000;1.925165
9897.000000;1.923041
9896.000000;1.921465
9895.000000;1.920833
9894.000000;1.921624
9893.000000;1.923540
9892.000000;1.925363
9891.000000;1.926082
9890.000000;1.925854
9889.000000;1.925358
9888.000000;1.924486
9887.000000;1.922412
9886.000000;1.919096
9885.000000;1.915856
9884.000000;1.913968
9883.000000;1.913291
9882.000000;1.912723
9881.000000;1.911657
9880.000000;1.910488
9879.000000;1.909894
9878.000000;1.910294
9877.000000;1.911855
9876.000000;1.914266
9875.000000;1.916604
9874.000000;1.917792
9873.000000;1.917105
9872.000000;1.914288
9871.000000;1.909782
9870.000000;1.905108
9869.000000;1.902311
9868.000000;1.902368
9867.000000;1.904309
9866.000000;1.906393
9865.000000;1.907944
9864.000000;1.909418
9863.000000;1.910906
9862.000000;1.911468
9861.000000;1.910137
9860.000000;1.906913
9859.000000;1.902636
9858.000000;1.898455
9857.000000;1.895588
9856.000000;1.895003
9855.000000;1.896889
9854.000000;1.900503
9853.000000;1.904558
9852.000000;1.907742
9851.000000;1.909250
9850.000000;1.909246
9849.000000;1.908606
9848.000000;1.907956
9847.000000;1.907221
9846.000000;1.906189
9845.000000;1.904887
9844.000000;1.902991
9843.000000;1.899795
9842.000000;1.895736
9841.000000;1.893033
9840.000000;1.893477
9839.000000;1.896035
9838.000000;1.897879
9837.000000;1.897897
9836.000000;1.897635
9835.000000;1.898172
9834.000000;1.897945
9833.000000;1.895006
9832.000000;1.890330
9831.000000;1.887111
9830.000000;1.887121
9829.000000;1.888980
9828.000000;1.889942
9827.000000;1.888574
9826.000000;1.885538
9825.000000;1.882380
9824.000000;1.880136
9823.000000;1.879192
9822.000000;1.880001
9821.000000;1.883079
9820.000000;1.887771
9819.000000;1.891654
9818.000000;1.892456
9817.000000;1.890691
9816.000000;1.889151
9815.000000;1.889484
9814.000000;1.890373
9813.000000;1.889610
9812.000000;1.887018
9811.000000;1.884291
9810.000000;1.882627
9809.000000;1.881845
9808.000000;1.881701
9807.000000;1.882747
9806.000000;1.885228
9805.000000;1.887778
9804.000000;1.888082
9803.000000;1.885086
9802.000000;1.880365
9801.000000;1.877094
9800.000000;1.877459
9799.000000;1.880770
9798.000000;1.883990
9797.000000;1.884342
9796.000000;1.881535
9795.000000;1.877556
9794.000000;1.874797
9793.000000;1.874523
9792.000000;1.876402
9791.000000;1.878944
9790.000000;1.880661
9789.000000;1.881113
9788.000000;1.880738
9787.000000;1.879782
9786.000000;1.878025
9785.000000;1.875672
9784.000000;1.873636
9783.000000;1.872485
9782.000000;1.871792
9781.000000;1.870910
9780.000000;1.869902
9779.000000;1.869104
9778.000000;1.868253
9777.000000;1.866906
9776.000000;1.865240
9775.000000;1.863810
9774.000000;1.862946
9773.000000;1.862929
9772.000000;1.864439
9771.000000;1.867926
9770.000000;1.872366
9769.000000;1.875486
9768.000000;1.875799
9767.000000;1.874024
9766.000000;1.872169
9765.000000;1.871652
9764.000000;1.872393
9763.000000;1.873115
9762.000000;1.872242
9761.000000;1.868962
9760.000000;1.863961
9759.000000;1.859121
9758.000000;1.856249
9757.000000;1.855877
9756.000000;1.856986
9755.000000;1.857851
9754.000000;1.857516
9753.000000;1.856614
9752.000000;1.856496
9751.000000;1.857540
9750.000000;1.858764
9749.000000;1.859195
9748.000000;1.859097
9747.000000;1.859287
9746.000000;1.859739
9745.000000;1.859764
9744.000000;1.859191
9743.000000;1.858579
9742.000000;1.858322
9741.000000;1.858162
9740.000000;1.857580
9739.000000;1.856121
9738.000000;1.853503
9737.000000;1.850137
9736.000000;1.847525
9735.000000;1.847229
9734.000000;1.849171
9733.000000;1.851712
9732.000000;1.853542
9731.000000;1.854654
9730.000000;1.855248
9729.000000;1.854635
9728.000000;1.852099
9727.000000;1.848188
9726.000000;1.844252
9725.000000;1.841229
9724.000000;1.839615
9723.000000;1.839965
9722.000000;1.842314
9721.000000;1.845199
9720.000000;1.846484
9719.000000;1.845803
9718.000000;1.845155
9717.000000;1.846348
9716.000000;1.848755
9715.000000;1.850274
9714.000000;1.849922
9713.000000;1.848503
9712.000000;1.846904
9711.000000;1.844905
9710.000000;1.842071
9709.000000;1.838946
9708.000000;1.836655
9707.000000;1.835697
9706.000000;1.835797
9705.000000;1.836700
9704.000000;1.838330
9703.000000;1.840093
9702.000000;1.840800
9701.000000;1.839737
9700.000000;1.837487
9699.000000;1.835321
9698.000000;1.834032
9697.000000;1.833802
9696.000000;1.834976
9695.000000;1.838171
9694.000000;1.843167
9693.000000;1.848041
9692.000000;1.850121
9691.000000;1.848166
9690.000000;1.843360
9689.000000;1.838102
9688.000000;1.834130
9687.000000;1.831816
9686.000000;1.830684
9685.000000;1.829972
9684.000000;1.828839
9683.000000;1.826813
9682.000000;1.824347
9681.000000;1.822624
9680.000000;1.822660
9679.000000;1.824632
9678.000000;1.827986
9677.000000;1.831745
9676.000000;1.834514
9675.000000;1.834920
9674.000000;1.832884
9673.000000;1.830094
9672.000000;1.828342
9671.000000;1.827688
9670.000000;1.827105
9669.000000;1.826621
9668.000000;1.827455
9667.000000;1.829750
9666.000000;1.831543
9665.000000;1.830982
9664.000000;1.828625
9663.000000;1.826278
9662.000000;1.824398
9661.000000;1.822149
9660.000000;1.819626
9659.000000;1.818354
9658.000000;1.819151
9657.000000;1.820748
9656.000000;1.821206
9655.000000;1.820030
9654.000000;1.818289
9653.000000;1.817209
9652.000000;1.817341
9651.000000;1.818565
9650.000000;1.820093
9649.000000;1.820715
9648.000000;1.819795
9647.000000;1.817951
9646.000000;1.816255
9645.000000;1.814846
9644.000000;1.812876
9643.000000;1.809986
9642.000000;1.807360
9641.000000;1.806814
9640.000000;1.808877
9639.000000;1.812040
9638.000000;1.814069
9637.000000;1.814155
9636.000000;1.813474
9635.000000;1.813452
9634.000000;1.813883
9633.000000;1.813261
9632.000000;1.810834
9631.000000;1.807617
9630.000000;1.805140
9629.000000;1.803896
9628.000000;1.803441
9627.000000;1.803517
9626.000000;1.804385
9625.000000;1.806048
9624.000000;1.807734
9623.000000;1.808505
9622.000000;1.808121
9621.000000;1.807028
9620.000000;1.805700
9619.000000;1.804435
9618.000000;1.803683
9617.000000;1.803954
9616.000000;1.805092
9615.000000;1.805999
9614.000000;1.805491
9613.000000;1.803404
9612.000000;1.800692
9611.000000;1.798663
9610.000000;1.798258
9609.000000;1.799685
9608.000000;1.802223
9607.000000;1.804578
9606.000000;1.805868
9605.000000;1.806178
9604.000000;1.805735
9603.000000;1.803901
9602.000000;1.800018
9601.000000;1.795269
9600.000000;1.792324
9599.000000;1.792530
9598.000000;1.794350
9597.000000;1.795353
9596.000000;1.795068
9595.000000;1.794888
9594.000000;1.795721
9593.000000;1.797123
9592.000000;1.798528
9591.000000;1.799716
9590.000000;1.799953
9589.000000;1.798302
9588.000000;1.795340
9587.000000;1.793248
9586.000000;1.793410
9585.000000;1.794774
9584.000000;1.795191
9583.000000;1.793780
9582.000000;1.791318
9581.000000;1.789017
9580.000000;1.787862
9579.000000;1.788541
9578.000000;1.790862
9577.000000;1.793294
9576.000000;1.794041
9575.000000;1.792855
9574.000000;1.791234
9573.000000;1.790669
9572.000000;1.791138
9571.000000;1.791361
9570.000000;1.790158
9569.000000;1.787455
9568.000000;1.784249
9567.000000;1.781785
9566.000000;1.780763
9565.000000;1.781167
9564.000000;1.782524
9563.000000;1.784007
9562.000000;1.784560
9561.000000;1.783656
9560.000000;1.782109
9559.000000;1.781528
9558.000000;1.782608
9557.000000;1.784382
9556.000000;1.785428
9555.000000;1.785358
9554.000000;1.784650
9553.000000;1.783686
9552.000000;1.782742
9551.000000;1.782353
9550.000000;1.782770
9549.000000;1.783187
9548.000000;1.782344
9547.000000;1.780004
9546.000000;1.777221
9545.000000;1.775177
9544.000000;1.774345
9543.000000;1.774631
9542.000000;1.775493
9541.000000;1.775866
9540.000000;1.774773
9539.000000;1.772405
9538.000000;1.769992
9537.000000;1.768464
9536.000000;1.767894
9535.000000;1.768160
9534.000000;1.769320
9533.000000;1.770987
9532.000000;1.772028
9531.000000;1.771491
9530.000000;1.769553
9529.000000;1.767236
9528.000000;1.765603
9527.000000;1.765423
9526.000000;1.767067
9525.000000;1.770074
9524.000000;1.772968
9523.000000;1.774207
9522.000000;1.773506
9521.000000;1.771929
9520.000000;1.770728
9519.000000;1.770283
9518.000000;1.769964
9517.000000;1.768763
9516.000000;1.766299
9515.000000;1.763382
9514.000000;1.761498
9513.000000;1.761527
9512.000000;1.762835
9511.000000;1.763814
9510.000000;1.763388
9509.000000;1.761924
9508.000000;1.760728
9507.000000;1.760672
9506.000000;1.761350
9505.000000;1.761515
9504.000000;1.760416
9503.000000;1.758673
9502.000000;1.757526
9501.000000;1.757272
9500.000000;1.756871
9499.000000;1.755314
9498.000000;1.752967
9497.000000;1.751173
9496.000000;1.750832
9495.000000;1.751790
9494.000000;1.753287
9493.000000;1.754538
9492.000000;1.755001
9491.000000;1.754541
9490.000000;1.753444
9489.000000;1.752067
9488.000000;1.750654
9487.000000;1.749679
9486.000000;1.749940
9485.000000;1.751705
9484.000000;1.753915
9483.000000;1.754912
9482.000000;1.754158
9481.000000;1.752770
9480.000000;1.752108
9479.000000;1.752254
9478.000000;1.752279
9477.000000;1.751703
9476.000000;1.751149
9475.000000;1.751508
9474.000000;1.752905
9473.000000;1.754594
9472.000000;1.755612
9471.000000;1.755434
9470.000000;1.754089
9469.000000;1.751951
9468.000000;1.749639
9467.000000;1.747844
9466.000000;1.746717
9465.000000;1.745526
9464.000000;1.743485
9463.000000;1.740895
9462.000000;1.739035
9461.000000;1.738683
9460.000000;1.739013
9459.000000;1.738418
9458.000000;1.736443
9457.000000;1.734485
9456.000000;1.734498
9455.000000;1.737279
9454.000000;1.741856
9453.000000;1.746048
9452.000000;1.747828
9451.000000;1.746803
9450.000000;1.744437
9449.000000;1.742574
9448.000000;1.741813
9447.000000;1.741440
9446.000000;1.740685
9445.000000;1.739521
9444.000000;1.738232
9443.000000;1.736884
9442.000000;1.735638
9441.000000;1.735105
9440.000000;1.735725
9439.000000;1.736987
9438.000000;1.737844
9437.000000;1.737876
9436.000000;1.737487
9435.000000;1.736992
9434.000000;1.736142
9433.000000;1.734724
9432.000000;1.733073
9431.000000;1.731674
9430.000000;1.730636
9429.000000;1.729932
9428.000000;1.729883
9427.000000;1.730892
9426.000000;1.732672
9425.000000;1.734151
9424.000000;1.734341
9423.000000;1.733176
9422.000000;1.731457
9421.000000;1.730085
9420.000000;1.729332
9419.000000;1.728685
9418.000000;1.727351
9417.000000;1.725083
9416.000000;1.722720
9415.000000;1.721790
9414.000000;1.723259
9413.000000;1.726465
9412.000000;1.729385
9411.000000;1.730252
9410.000000;1.729031
9409.000000;1.727092
9408.000000;1.725547
9407.000000;1.724315
9406.000000;1.722869
9405.000000;1.721407
9404.000000;1.720720
9403.000000;1.720996
9402.000000;1.721409
9401.000000;1.721127
9400.000000;1.720290
9399.000000;1.719667
9398.000000;1.719629
9397.000000;1.719851
9396.000000;1.719917
9395.000000;1.719836
9394.000000;1.719953
9393.000000;1.720629
9392.000000;1.721850
9391.000000;1.722813
9390.000000;1.722244
9389.000000;1.719865
9388.000000;1.717347
9387.000000;1.716853
9386.000000;1.718412
9385.000000;1.719554
9384.000000;1.718153
9383.000000;1.714984
9382.000000;1.712550
9381.000000;1.712058
9380.000000;1.712649
9379.000000;1.713145
9378.000000;1.713320
9377.000000;1.713282
9376.000000;1.712820
9375.000000;1.711942
9374.000000;1.711238
9373.000000;1.711077
9372.000000;1.711056
9371.000000;1.710771
9370.000000;1.710573
9369.000000;1.710729
9368.000000;1.710396
9367.000000;1.708523
9366.000000;1.705550
9365.000000;1.703285
9364.000000;1.703080
9363.000000;1.704690
9362.000000;1.706864
9361.000000;1.708436
9360.000000;1.708739
9359.000000;1.707652
9358.000000;1.705656
9357.000000;1.703569
9356.000000;1.701936
9355.000000;1.700769
9354.000000;1.699913
9353.000000;1.699370
9352.000000;1.699111
9351.000000;1.698857
9350.000000;1.698427
9349.000000;1.698140
9348.000000;1.698463
9347.000000;1.699322
9346.000000;1.700048
9345.000000;1.700059
9344.000000;1.699474
9343.000000;1.699037
9342.000000;1.699361
9341.000000;1.700215
9340.000000;1.700608
9339.000000;1.699737
9338.000000;1.697891
9337.000000;1.696256
9336.000000;1.695825
9335.000000;1.696648
9334.000000;1.698013
9333.000000;1.699077
9332.000000;1.699182
9331.000000;1.697899
9330.000000;1.695301
9329.000000;1.692287
9328.000000;1.690230
9327.000000;1.689986
9326.000000;1.691241
9325.000000;1.692947
9324.000000;1.694325
9323.000000;1.695260
9322.000000;1.695757
9321.000000;1.695493
9320.000000;1.694336
9319.000000;1.692925
9318.000000;1.692170
9317.000000;1.692168
9316.000000;1.692051
9315.000000;1.691120
9314.000000;1.689730
9313.000000;1.688729
9312.000000;1.688472
9311.000000;1.688764
9310.000000;1.689333
9309.000000;1.689926
9308.000000;1.690163
9307.000000;1.689785
9306.000000;1.689086
9305.000000;1.688691
9304.000000;1.688896
9303.000000;1.689489
9302.000000;1.690110
9301.000000;1.690460
9300.000000;1.690263
9299.000000;1.689453
9298.000000;1.688393
9297.000000;1.687381
9296.000000;1.685982
9295.000000;1.683588
9294.000000;1.680773
9293.000000;1.679244
9292.000000;1.679992
9291.000000;1.682067
9290.000000;1.683718
9289.000000;1.684348
9288.000000;1.684590
9287.000000;1.684724
9286.000000;1.684080
9285.000000;1.682179
9284.000000;1.679692
9283.000000;1.677766
9282.000000;1.676838
9281.000000;1.676555
9280.000000;1.676664
9279.000000;1.677426
9278.000000;1.678905
9277.000000;1.680112
9276.000000;1.679375
9275.000000;1.675894
9274.000000;1.670877
9273.000000;1.666927
9272.000000;1.666113
9271.000000;1.668478
9270.000000;1.672251
9269.000000;1.675332
9268.000000;1.676727
9267.000000;1.676844
9266.000000;1.676705
9265.000000;1.676914
9264.000000;1.677214
9263.000000;1.676876
9262.000000;1.675505
9261.000000;1.673449
9260.000000;1.671465
9259.000000;1.670053
9258.000000;1.669149
9257.000000;1.668379
9256.000000;1.667576
9255.000000;1.667117
9254.000000;1.667647
9253.000000;1.669265
9252.000000;1.671045
9251.000000;1.671675
9250.000000;1.670777
9249.000000;1.669338
9248.000000;1.668636
9247.000000;1.668976
9246.000000;1.669650
9245.000000;1.669868
9244.000000;1.669369
9243.000000;1.668243
9242.000000;1.666662
9241.000000;1.664956
9240.000000;1.663592
9239.000000;1.662868
9238.000000;1.662846
9237.000000;1.663646
9236.000000;1.665444
9235.000000;1.667849
9234.000000;1.669509
9233.000000;1.669045
9232.000000;1.666603
9231.000000;1.663898
9230.000000;1.662438
9229.000000;1.662097
9228.000000;1.661660
9227.000000;1.660417
9226.000000;1.658735
9225.000000;1.657322
9224.000000;1.656631
9223.000000;1.657030
9222.000000;1.658759
9221.000000;1.661224
9220.000000;1.662834
9219.000000;1.662280
9218.000000;1.659942
9217.000000;1.657552
9216.000000;1.656464
9215.000000;1.656608
9214.000000;1.657045
9213.000000;1.657114
9212.000000;1.656870
9211.000000;1.656692
9210.000000;1.656678
9209.000000;1.656394
9208.000000;1.655226
9207.000000;1.653085
9206.000000;1.650665
9205.000000;1.648878
9204.000000;1.648148
9203.000000;1.648405
9202.000000;1.649421
9201.000000;1.650707
9200.000000;1.651325
9199.000000;1.650530
9198.000000;1.648780
9197.000000;1.647511
9196.000000;1.647640
9195.000000;1.648696
9194.000000;1.649667
9193.000000;1.650308
9192.000000;1.651172
9191.000000;1.652511
9190.000000;1.653643
9189.000000;1.653519
9188.000000;1.651774
9187.000000;1.649250
9186.000000;1.647527
9185.000000;1.647709
9184.000000;1.649511
9183.000000;1.651583
9182.000000;1.652757
9181.000000;1.652909
9180.000000;1.652673
9179.000000;1.652617
9178.000000;1.652841
9177.000000;1.653072
9176.000000;1.652901
9175.000000;1.652036
9174.000000;1.650468
9173.000000;1.648412
9172.000000;1.646161
9171.000000;1.644142
9170.000000;1.642955
9169.000000;1.642969
9168.000000;1.643823
9167.000000;1.644640
9166.000000;1.644828
9165.000000;1.644330
9164.000000;1.643155
9163.000000;1.641222
9162.000000;1.638930
9161.000000;1.637340
9160.000000;1.637334
9159.000000;1.638702
9158.000000;1.640258
9157.000000;1.640683
9156.000000;1.639286
9155.000000;1.636483
9154.000000;1.633793
9153.000000;1.632875
9152.000000;1.634162
9151.000000;1.636538
9150.000000;1.638548
9149.000000;1.639639
9148.000000;1.640007
9147.000000;1.639823
9146.000000;1.639218
9145.000000;1.638555
9144.000000;1.638011
9143.000000;1.637143
9142.000000;1.635590
9141.000000;1.634053
9140.000000;1.633893
9139.000000;1.635662
9138.000000;1.638398
9137.000000;1.640317
9136.000000;1.640072
9135.000000;1.637632
9134.000000;1.634433
9133.000000;1.632419
9132.000000;1.632280
9131.000000;1.632712
9130.000000;1.632008
9129.000000;1.630252
9128.000000;1.629096
9127.000000;1.629448
9126.000000;1.630339
9125.000000;1.630260
9124.000000;1.628845
9123.000000;1.626840
9122.000000;1.625145
9121.000000;1.624414
9120.000000;1.624965
9119.000000;1.626415
9118.000000;1.627725
9117.000000;1.628101
9116.000000;1.627621
9115.000000;1.626715
9114.000000;1.625517
9113.000000;1.624215
9112.000000;1.623519
9111.000000;1.624053
9110.000000;1.625479
9109.000000;1.626823
9108.000000;1.627552
9107.000000;1.627778
9106.000000;1.627536
9105.000000;1.626577
9104.000000;1.625004
9103.000000;1.623465
9102.000000;1.622499
9101.000000;1.622022
9100.000000;1.621560
9099.000000;1.620696
9098.000000;1.619274
9097.000000;1.617628
9096.000000;1.616706
9095.000000;1.617455
9094.000000;1.619676
9093.000000;1.621826
9092.000000;1.622424
9091.000000;1.621500
9090.000000;1.620162
9089.000000;1.618918
9088.000000;1.617165
9087.000000;1.614508
9086.000000;1.611931
9085.000000;1.611054
9084.000000;1.612362
9083.000000;1.614648
9082.000000;1.616315
9081.000000;1.616800
9080.000000;1.616478
9079.000000;1.615578
9078.000000;1.613885
9077.000000;1.611462
9076.000000;1.609055
9075.000000;1.607443
9074.000000;1.606721
9073.000000;1.606536
9072.000000;1.606770
9071.000000;1.607605
9070.000000;1.608975
9069.000000;1.610317
9068.000000;1.610975
9067.000000;1.610697
9066.000000;1.609694
9065.000000;1.608404
9064.000000;1.607307
9063.000000;1.606870
9062.000000;1.607426
9061.000000;1.608961
9060.000000;1.610972
9059.000000;1.612513
9058.000000;1.612577
9057.000000;1.610787
9056.000000;1.607899
9055.000000;1.605432
9054.000000;1.604559
9053.000000;1.605236
