Criado como novo conjunto de dados;"Jao_teste_celulas.spp","8043.5 Secs"
cm-1;Abs
10000.000000;1.492884
9999.000000;1.493678
9998.000000;1.495033
9997.000000;1.495921
9996.000000;1.495820
9995.000000;1.495119
9994.000000;1.494627
9993.000000;1.494899
9992.000000;1.495929
9991.000000;1.497118
9990.000000;1.497463
9989.000000;1.496148
9988.000000;1.493307
9987.000000;1.490129
9986.000000;1.487973
9985.000000;1.487306
9984.000000;1.487502
9983.000000;1.487592
9982.000000;1.487117
9981.000000;1.486291
9980.000000;1.485510
9979.000000;1.484962
9978.000000;1.484732
9977.000000;1.485002
9976.000000;1.485817
9975.000000;1.486664
9974.000000;1.486682
9973.000000;1.485616
9972.000000;1.484281
9971.000000;1.483677
9970.000000;1.483826
9969.000000;1.483857
9968.000000;1.483213
9967.000000;1.482343
9966.000000;1.481951
9965.000000;1.481975
9964.000000;1.481743
9963.000000;1.480983
9962.000000;1.480193
9961.000000;1.479870
9960.000000;1.479779
9959.000000;1.479293
9958.000000;1.478312
9957.000000;1.477477
9956.000000;1.477396
9955.000000;1.477929
9954.000000;1.478400
9953.000000;1.478305
9952.000000;1.477586
9951.000000;1.476336
9950.000000;1.474657
9949.000000;1.472954
9948.000000;1.472062
9947.000000;1.472615
9946.000000;1.474200
9945.000000;1.475375
9944.000000;1.474762
9943.000000;1.472242
9942.000000;1.469069
9941.000000;1.466853
9940.000000;1.466439
9939.000000;1.467536
9938.000000;1.469119
9937.000000;1.470121
9936.000000;1.469977
9935.000000;1.468858
9934.000000;1.467551
9933.000000;1.466900
9932.000000;1.467093
9931.000000;1.467460
9930.000000;1.467124
9929.000000;1.465893
9928.000000;1.464344
9927.000000;1.463100
9926.000000;1.462289
9925.000000;1.461741
9924.000000;1.461376
9923.000000;1.461173
9922.000000;1.461005
9921.000000;1.460779
9920.000000;1.460568
9919.000000;1.460427
9918.000000;1.460220
9917.000000;1.459810
9916.000000;1.459270
9915.000000;1.458720
9914.000000;1.458115
9913.000000;1.457410
9912.000000;1.456799
9911.000000;1.456531
9910.000000;1.456599
9909.000000;1.456844
9908.000000;1.457191
9907.000000;1.457487
9906.000000;1.457326
9905.000000;1.456546
9904.000000;1.455799
9903.000000;1.456046
9902.000000;1.457321
9901.000000;1.458431
9900.000000;1.458177
9899.000000;1.456600
9898.000000;1.454737
9897.000000;1.453412
9896.000000;1.452581
9895.000000;1.451692
9894.000000;1.450398
9893.000000;1.448963
9892.000000;1.448101
9891.000000;1.448334
9890.000000;1.449440
9889.000000;1.450601
9888.000000;1.451061
9887.000000;1.450576
9886.000000;1.449373
9885.000000;1.447976
9884.000000;1.447091
9883.000000;1.447204
9882.000000;1.448011
9881.000000;1.448534
9880.000000;1.448121
9879.000000;1.447136
9878.000000;1.446395
9877.000000;1.446236
9876.000000;1.446368
9875.000000;1.446266
9874.000000;1.445433
9873.000000;1.443647
9872.000000;1.441339
9871.000000;1.439530
9870.000000;1.438986
9869.000000;1.439502
9868.000000;1.440250
9867.000000;1.440618
9866.000000;1.440462
9865.000000;1.439848
9864.000000;1.439078
9863.000000;1.438780
9862.000000;1.439341
9861.000000;1.440162
9860.000000;1.440034
9859.000000;1.438451
9858.000000;1.436193
9857.000000;1.434488
9856.000000;1.433937
9855.000000;1.434342
9854.000000;1.435124
9853.000000;1.435700
9852.000000;1.435751
9851.000000;1.435436
9850.000000;1.435169
9849.000000;1.435061
9848.000000;1.434785
9847.000000;1.434039
9846.000000;1.432898
9845.000000;1.431646
9844.000000;1.430504
9843.000000;1.429578
9842.000000;1.428791
9841.000000;1.427846
9840.000000;1.426601
9839.000000;1.425524
9838.000000;1.425334
9837.000000;1.426007
9836.000000;1.426559
9835.000000;1.426166
9834.000000;1.425136
9833.000000;1.424389
9832.000000;1.424358
9831.000000;1.424849
9830.000000;1.425611
9829.000000;1.426493
9828.000000;1.427163
9827.000000;1.427245
9826.000000;1.426768
9825.000000;1.426086
9824.000000;1.425290
9823.000000;1.424093
9822.000000;1.422381
9821.000000;1.420515
9820.000000;1.418952
9819.000000;1.417827
9818.000000;1.417065
9817.000000;1.416710
9816.000000;1.416946
9815.000000;1.417845
9814.000000;1.419168
9813.000000;1.420407
9812.000000;1.421046
9811.000000;1.420921
9810.000000;1.420339
9809.000000;1.419682
9808.000000;1.418936
9807.000000;1.417802
9806.000000;1.416288
9805.000000;1.414959
9804.000000;1.414471
9803.000000;1.414952
9802.000000;1.415865
9801.000000;1.416401
9800.000000;1.415981
9799.000000;1.414602
9798.000000;1.412839
9797.000000;1.411442
9796.000000;1.410796
9795.000000;1.410677
9794.000000;1.410491
9793.000000;1.409783
9792.000000;1.408622
9791.000000;1.407580
9790.000000;1.407277
9789.000000;1.407821
9788.000000;1.408655
9787.000000;1.408994
9786.000000;1.408482
9785.000000;1.407389
9784.000000;1.406268
9783.000000;1.405570
9782.000000;1.405505
9781.000000;1.405918
9780.000000;1.406179
9779.000000;1.405486
9778.000000;1.403624
9777.000000;1.401373
9776.000000;1.399902
9775.000000;1.399739
9774.000000;1.400429
9773.000000;1.401152
9772.000000;1.401461
9771.000000;1.401347
9770.000000;1.400880
9769.000000;1.400132
9768.000000;1.399392
9767.000000;1.399090
9766.000000;1.399328
9765.000000;1.399698
9764.000000;1.399817
9763.000000;1.399839
9762.000000;1.400110
9761.000000;1.400412
9760.000000;1.400037
9759.000000;1.398795
9758.000000;1.397529
9757.000000;1.397184
9756.000000;1.397565
9755.000000;1.397475
9754.000000;1.396144
9753.000000;1.394165
9752.000000;1.392829
9751.000000;1.392793
9750.000000;1.393630
9749.000000;1.394475
9748.000000;1.394854
9747.000000;1.394915
9746.000000;1.395066
9745.000000;1.395403
9744.000000;1.395429
9743.000000;1.394377
9742.000000;1.392055
9741.000000;1.389347
9740.000000;1.387595
9739.000000;1.387331
9738.000000;1.387768
9737.000000;1.387706
9736.000000;1.386875
9735.000000;1.386129
9734.000000;1.386331
9733.000000;1.387329
9732.000000;1.388125
9731.000000;1.387836
9730.000000;1.386355
9729.000000;1.384267
9728.000000;1.382392
9727.000000;1.381320
9726.000000;1.381188
9725.000000;1.381747
9724.000000;1.382594
9723.000000;1.383345
9722.000000;1.383713
9721.000000;1.383622
9720.000000;1.383320
9719.000000;1.383159
9718.000000;1.383079
9717.000000;1.382513
9716.000000;1.381042
9715.000000;1.379052
9714.000000;1.377477
9713.000000;1.376977
9712.000000;1.377530
9711.000000;1.378635
9710.000000;1.379578
9709.000000;1.379655
9708.000000;1.378639
9707.000000;1.377154
9706.000000;1.376179
9705.000000;1.376031
9704.000000;1.376126
9703.000000;1.375833
9702.000000;1.375169
9701.000000;1.374477
9700.000000;1.373889
9699.000000;1.373482
9698.000000;1.373556
9697.000000;1.374237
9696.000000;1.374966
9695.000000;1.374888
9694.000000;1.373736
9693.000000;1.372056
9692.000000;1.370630
9691.000000;1.369934
9690.000000;1.370006
9689.000000;1.370424
9688.000000;1.370472
9687.000000;1.369723
9686.000000;1.368549
9685.000000;1.367729
9684.000000;1.367501
9683.000000;1.367243
9682.000000;1.366190
9681.000000;1.364315
9680.000000;1.362472
9679.000000;1.361765
9678.000000;1.362668
9677.000000;1.364512
9676.000000;1.365890
9675.000000;1.365920
9674.000000;1.365072
9673.000000;1.364426
9672.000000;1.364316
9671.000000;1.364158
9670.000000;1.363505
9669.000000;1.362612
9668.000000;1.361785
9667.000000;1.360869
9666.000000;1.359763
9665.000000;1.358920
9664.000000;1.358732
9663.000000;1.358754
9662.000000;1.358117
9661.000000;1.356655
9660.000000;1.355073
9659.000000;1.354031
9658.000000;1.353622
9657.000000;1.353786
9656.000000;1.354596
9655.000000;1.355811
9654.000000;1.356596
9653.000000;1.356236
9652.000000;1.355034
9651.000000;1.354107
9650.000000;1.354224
9649.000000;1.355093
9648.000000;1.355782
9647.000000;1.355639
9646.000000;1.354727
9645.000000;1.353585
9644.000000;1.352743
9643.000000;1.352395
9642.000000;1.352353
9641.000000;1.352235
9640.000000;1.351776
9639.000000;1.351004
9638.000000;1.350138
9637.000000;1.349444
9636.000000;1.349205
9635.000000;1.349658
9634.000000;1.350717
9633.000000;1.351735
9632.000000;1.351817
9631.000000;1.350543
9630.000000;1.348315
9629.000000;1.345974
9628.000000;1.344215
9627.000000;1.343360
9626.000000;1.343375
9625.000000;1.343860
9624.000000;1.344210
9623.000000;1.344089
9622.000000;1.343732
9621.000000;1.343568
9620.000000;1.343617
9619.000000;1.343519
9618.000000;1.343097
9617.000000;1.342508
9616.000000;1.341806
9615.000000;1.340737
9614.000000;1.339204
9613.000000;1.337707
9612.000000;1.337019
9611.000000;1.337454
9610.000000;1.338567
9609.000000;1.339507
9608.000000;1.339605
9607.000000;1.338775
9606.000000;1.337519
9605.000000;1.336509
9604.000000;1.336042
9603.000000;1.335865
9602.000000;1.335527
9601.000000;1.334825
9600.000000;1.333885
9599.000000;1.332985
9598.000000;1.332414
9597.000000;1.332369
9596.000000;1.332782
9595.000000;1.333259
9594.000000;1.333333
9593.000000;1.332834
9592.000000;1.332002
9591.000000;1.331269
9590.000000;1.330947
9589.000000;1.330990
9588.000000;1.330973
9587.000000;1.330427
9586.000000;1.329334
9585.000000;1.328209
9584.000000;1.327622
9583.000000;1.327713
9582.000000;1.328177
9581.000000;1.328573
9580.000000;1.328518
9579.000000;1.327801
9578.000000;1.326583
9577.000000;1.325444
9576.000000;1.324931
9575.000000;1.324985
9574.000000;1.324992
9573.000000;1.324495
9572.000000;1.323672
9571.000000;1.322949
9570.000000;1.322377
9569.000000;1.321621
9568.000000;1.320528
9567.000000;1.319449
9566.000000;1.318886
9565.000000;1.318950
9564.000000;1.319342
9563.000000;1.319765
9562.000000;1.320187
9561.000000;1.320626
9560.000000;1.320860
9559.000000;1.320571
9558.000000;1.319766
9557.000000;1.318865
9556.000000;1.318298
9555.000000;1.318096
9554.000000;1.317949
9553.000000;1.317571
9552.000000;1.316939
9551.000000;1.316215
9550.000000;1.315568
9549.000000;1.315042
9548.000000;1.314532
9547.000000;1.313902
9546.000000;1.313169
9545.000000;1.312527
9544.000000;1.312159
9543.000000;1.312105
9542.000000;1.312330
9541.000000;1.312738
9540.000000;1.313019
9539.000000;1.312726
9538.000000;1.311755
9537.000000;1.310636
9536.000000;1.309996
9535.000000;1.309760
9534.000000;1.309211
9533.000000;1.307986
9532.000000;1.306667
9531.000000;1.306148
9530.000000;1.306655
9529.000000;1.307666
9528.000000;1.308547
9527.000000;1.308927
9526.000000;1.308562
9525.000000;1.307392
9524.000000;1.305894
9523.000000;1.304980
9522.000000;1.305173
9521.000000;1.306000
9520.000000;1.306416
9519.000000;1.305847
9518.000000;1.304659
9517.000000;1.303662
9516.000000;1.303328
9515.000000;1.303470
9514.000000;1.303510
9513.000000;1.303054
9512.000000;1.302284
9511.000000;1.301759
9510.000000;1.301764
9509.000000;1.301950
9508.000000;1.301759
9507.000000;1.301135
9506.000000;1.300563
9505.000000;1.300396
9504.000000;1.300399
9503.000000;1.300119
9502.000000;1.299476
9501.000000;1.298799
9500.000000;1.298378
9499.000000;1.298208
9498.000000;1.298097
9497.000000;1.297804
9496.000000;1.297063
9495.000000;1.295732
9494.000000;1.294078
9493.000000;1.292793
9492.000000;1.292458
9491.000000;1.292934
9490.000000;1.293384
9489.000000;1.293101
9488.000000;1.292283
9487.000000;1.291820
9486.000000;1.292269
9485.000000;1.293262
9484.000000;1.294005
9483.000000;1.294119
9482.000000;1.293707
9481.000000;1.292817
9480.000000;1.291394
9479.000000;1.289820
9478.000000;1.288938
9477.000000;1.289172
9476.000000;1.289896
9475.000000;1.290080
9474.000000;1.289421
9473.000000;1.288500
9472.000000;1.287909
9471.000000;1.287668
9470.000000;1.287497
9469.000000;1.287257
9468.000000;1.286949
9467.000000;1.286581
9466.000000;1.286205
9465.000000;1.285924
9464.000000;1.285730
9463.000000;1.285482
9462.000000;1.285144
9461.000000;1.284901
9460.000000;1.284902
9459.000000;1.285026
9458.000000;1.284998
9457.000000;1.284657
9456.000000;1.284036
9455.000000;1.283286
9454.000000;1.282581
9453.000000;1.281951
9452.000000;1.281199
9451.000000;1.280169
9450.000000;1.279168
9449.000000;1.278825
9448.000000;1.279334
9447.000000;1.280025
9446.000000;1.279994
9445.000000;1.279073
9444.000000;1.277906
9443.000000;1.277107
9442.000000;1.276639
9441.000000;1.276063
9440.000000;1.275186
9439.000000;1.274344
9438.000000;1.274105
9437.000000;1.274729
9436.000000;1.275832
9435.000000;1.276577
9434.000000;1.276318
9433.000000;1.275103
9432.000000;1.273500
9431.000000;1.272053
9430.000000;1.271054
9429.000000;1.270678
9428.000000;1.270974
9427.000000;1.271629
9426.000000;1.272040
9425.000000;1.271847
9424.000000;1.271272
9423.000000;1.270738
9422.000000;1.270318
9421.000000;1.269784
9420.000000;1.269076
9419.000000;1.268414
9418.000000;1.267934
9417.000000;1.267497
9416.000000;1.267021
9415.000000;1.266755
9414.000000;1.267006
9413.000000;1.267676
9412.000000;1.268282
9411.000000;1.268408
9410.000000;1.268019
9409.000000;1.267401
9408.000000;1.266983
9407.000000;1.267163
9406.000000;1.267990
9405.000000;1.268884
9404.000000;1.268952
9403.000000;1.267834
9402.000000;1.266114
9401.000000;1.264636
9400.000000;1.263592
9399.000000;1.262601
9398.000000;1.261537
9397.000000;1.260830
9396.000000;1.260785
9395.000000;1.260991
9394.000000;1.260778
9393.000000;1.260067
9392.000000;1.259353
9391.000000;1.258894
9390.000000;1.258374
9389.000000;1.257506
9388.000000;1.256592
9387.000000;1.256187
9386.000000;1.256374
9385.000000;1.256670
9384.000000;1.256626
9383.000000;1.256277
9382.000000;1.255930
9381.000000;1.255760
9380.000000;1.255743
9379.000000;1.255803
9378.000000;1.255838
9377.000000;1.255674
9376.000000;1.255194
9375.000000;1.254526
9374.000000;1.253966
9373.000000;1.253645
9372.000000;1.253403
9371.000000;1.253051
9370.000000;1.252644
9369.000000;1.252349
9368.000000;1.252136
9367.000000;1.251787
9366.000000;1.251194
9365.000000;1.250542
9364.000000;1.250104
9363.000000;1.249935
9362.000000;1.249835
9361.000000;1.249578
9360.000000;1.249127
9359.000000;1.248630
9358.000000;1.248262
9357.000000;1.248045
9356.000000;1.247823
9355.000000;1.247416
9354.000000;1.246836
9353.000000;1.246336
9352.000000;1.246200
9351.000000;1.246458
9350.000000;1.246845
9349.000000;1.247061
9348.000000;1.247075
9347.000000;1.247051
9346.000000;1.246972
9345.000000;1.246473
9344.000000;1.245211
9343.000000;1.243405
9342.000000;1.241801
9341.000000;1.241020
9340.000000;1.241018
9339.000000;1.241234
9338.000000;1.241177
9337.000000;1.240805
9336.000000;1.240412
9335.000000;1.240297
9334.000000;1.240532
9333.000000;1.240911
9332.000000;1.241111
9331.000000;1.240934
9330.000000;1.240372
9329.000000;1.239435
9328.000000;1.238084
9327.000000;1.236487
9326.000000;1.235201
9325.000000;1.234805
9324.000000;1.235306
9323.000000;1.236114
9322.000000;1.236725
9321.000000;1.237183
9320.000000;1.237700
9319.000000;1.238067
9318.000000;1.237777
9317.000000;1.236723
9316.000000;1.235451
9315.000000;1.234616
9314.000000;1.234362
9313.000000;1.234344
9312.000000;1.234200
9311.000000;1.233829
9310.000000;1.233287
9309.000000;1.232622
9308.000000;1.231852
9307.000000;1.231039
9306.000000;1.230336
9305.000000;1.229977
9304.000000;1.230141
9303.000000;1.230698
9302.000000;1.231125
9301.000000;1.230878
9300.000000;1.229965
9299.000000;1.228996
9298.000000;1.228549
9297.000000;1.228587
9296.000000;1.228647
9295.000000;1.228496
9294.000000;1.228343
9293.000000;1.228389
9292.000000;1.228478
9291.000000;1.228349
9290.000000;1.228050
9289.000000;1.227849
9288.000000;1.227817
9287.000000;1.227723
9286.000000;1.227357
9285.000000;1.226787
9284.000000;1.226206
9283.000000;1.225648
9282.000000;1.225003
9281.000000;1.224302
9280.000000;1.223869
9279.000000;1.224047
9278.000000;1.224753
9277.000000;1.225439
9276.000000;1.225599
9275.000000;1.225203
9274.000000;1.224521
9273.000000;1.223677
9272.000000;1.222676
9271.000000;1.221791
9270.000000;1.221471
9269.000000;1.221689
9268.000000;1.221748
9267.000000;1.221035
9266.000000;1.219736
9265.000000;1.218494
9264.000000;1.217597
9263.000000;1.216906
9262.000000;1.216436
9261.000000;1.216458
9260.000000;1.216935
9259.000000;1.217320
9258.000000;1.217139
9257.000000;1.216500
9256.000000;1.215823
9255.000000;1.215316
9254.000000;1.214918
9253.000000;1.214571
9252.000000;1.214298
9251.000000;1.214117
9250.000000;1.214068
9249.000000;1.214233
9248.000000;1.214609
9247.000000;1.215001
9246.000000;1.215169
9245.000000;1.214986
9244.000000;1.214389
9243.000000;1.213338
9242.000000;1.212001
9241.000000;1.210880
9240.000000;1.210501
9239.000000;1.210919
9238.000000;1.211637
9237.000000;1.212030
9236.000000;1.211840
9235.000000;1.211290
9234.000000;1.210832
9233.000000;1.210796
9232.000000;1.211175
9231.000000;1.211651
9230.000000;1.211765
9229.000000;1.211140
9228.000000;1.209704
9227.000000;1.207894
9226.000000;1.206533
9225.000000;1.206257
9224.000000;1.206915
9223.000000;1.207676
9222.000000;1.207815
9221.000000;1.207321
9220.000000;1.206701
9219.000000;1.206366
9218.000000;1.206327
9217.000000;1.206302
9216.000000;1.205940
9215.000000;1.205059
9214.000000;1.203865
9213.000000;1.202883
9212.000000;1.202541
9211.000000;1.202805
9210.000000;1.203268
9209.000000;1.203513
9208.000000;1.203321
9207.000000;1.202704
9206.000000;1.201886
9205.000000;1.201173
9204.000000;1.200689
9203.000000;1.200296
9202.000000;1.199885
9201.000000;1.199586
9200.000000;1.199530
9199.000000;1.199558
9198.000000;1.199388
9197.000000;1.199020
9196.000000;1.198713
9195.000000;1.198593
9194.000000;1.198462
9193.000000;1.198022
9192.000000;1.197135
9191.000000;1.195922
9190.000000;1.194765
9189.000000;1.194129
9188.000000;1.194155
9187.000000;1.194444
9186.000000;1.194487
9185.000000;1.194276
9184.000000;1.194246
9183.000000;1.194581
9182.000000;1.194914
9181.000000;1.194814
9180.000000;1.194279
9179.000000;1.193583
9178.000000;1.192881
9177.000000;1.192180
9176.000000;1.191518
9175.000000;1.190941
9174.000000;1.190453
9173.000000;1.190170
9172.000000;1.190363
9171.000000;1.191094
9170.000000;1.191903
9169.000000;1.192162
9168.000000;1.191726
9167.000000;1.190996
9166.000000;1.190366
9165.000000;1.189844
9164.000000;1.189232
9163.000000;1.188419
9162.000000;1.187425
9161.000000;1.186381
9160.000000;1.185614
9159.000000;1.185531
9158.000000;1.186174
9157.000000;1.186987
9156.000000;1.187213
9155.000000;1.186595
9154.000000;1.185585
9153.000000;1.184881
9152.000000;1.184835
9151.000000;1.185273
9150.000000;1.185691
9149.000000;1.185614
9148.000000;1.184912
9147.000000;1.183882
9146.000000;1.183002
9145.000000;1.182534
9144.000000;1.182413
9143.000000;1.182516
9142.000000;1.182877
9141.000000;1.183531
9140.000000;1.184217
9139.000000;1.184496
9138.000000;1.184214
9137.000000;1.183704
9136.000000;1.183401
9135.000000;1.183356
9134.000000;1.183211
9133.000000;1.182556
9132.000000;1.181235
9131.000000;1.179469
9130.000000;1.177869
9129.000000;1.177212
9128.000000;1.177859
9127.000000;1.179269
9126.000000;1.180320
9125.000000;1.180311
9124.000000;1.179531
9123.000000;1.178705
9122.000000;1.178099
9121.000000;1.177445
9120.000000;1.176595
9119.000000;1.175834
9118.000000;1.175482
9117.000000;1.175476
9116.000000;1.175555
9115.000000;1.175630
9114.000000;1.175758
9113.000000;1.175863
9112.000000;1.175716
9111.000000;1.175198
9110.000000;1.174411
9109.000000;1.173556
9108.000000;1.172837
9107.000000;1.172466
9106.000000;1.172544
9105.000000;1.172877
9104.000000;1.173052
9103.000000;1.172838
9102.000000;1.172429
9101.000000;1.172222
9100.000000;1.172398
9099.000000;1.172772
9098.000000;1.172956
9097.000000;1.172600
9096.000000;1.171617
9095.000000;1.170317
9094.000000;1.169290
9093.000000;1.169002
9092.000000;1.169431
9091.000000;1.170100
9090.000000;1.170435
9089.000000;1.170114
9088.000000;1.169218
9087.000000;1.168203
9086.000000;1.167644
9085.000000;1.167766
9084.000000;1.168156
9083.000000;1.168114
9082.000000;1.167370
9081.000000;1.166341
9080.000000;1.165596
9079.000000;1.165238
9078.000000;1.164953
9077.000000;1.164544
9076.000000;1.164185
9075.000000;1.164149
9074.000000;1.164431
9073.000000;1.164731
9072.000000;1.164677
9071.000000;1.164067
9070.000000;1.162990
9069.000000;1.161814
9068.000000;1.160978
9067.000000;1.160662
9066.000000;1.160640
9065.000000;1.160505
9064.000000;1.160058
9063.000000;1.159461
9062.000000;1.159035
9061.000000;1.158955
9060.000000;1.159135
9059.000000;1.159349
9058.000000;1.159415
9057.000000;1.159289
9056.000000;1.159029
9055.000000;1.158702
9054.000000;1.158322
9053.000000;1.157863
