Criado como novo conjunto de dados;"Jao_teste_celulas.spp","11224.5 Secs"
cm-1;Abs
10000.000000;1.953289
9999.000000;1.948232
9998.000000;1.943247
9997.000000;1.938298
9996.000000;1.933441
9995.000000;1.928555
9994.000000;1.924044
9993.000000;1.922004
9992.000000;1.923357
9991.000000;1.926474
9990.000000;1.929093
9989.000000;1.929730
9988.000000;1.928191
9987.000000;1.925307
9986.000000;1.922266
9985.000000;1.919954
9984.000000;1.918776
9983.000000;1.918657
9982.000000;1.918996
9981.000000;1.919040
9980.000000;1.918690
9979.000000;1.918682
9978.000000;1.919617
9977.000000;1.921229
9976.000000;1.923061
9975.000000;1.925277
9974.000000;1.927899
9973.000000;1.929557
9972.000000;1.928267
9971.000000;1.923815
9970.000000;1.918276
9969.000000;1.913735
9968.000000;1.910677
9967.000000;1.908921
9966.000000;1.908784
9965.000000;1.910471
9964.000000;1.912984
9963.000000;1.914586
9962.000000;1.914397
9961.000000;1.913192
9960.000000;1.912649
9959.000000;1.913939
9958.000000;1.916680
9957.000000;1.919031
9956.000000;1.919379
9955.000000;1.918199
9954.000000;1.917628
9953.000000;1.918907
9952.000000;1.920900
9951.000000;1.921471
9950.000000;1.919716
9949.000000;1.916339
9948.000000;1.912336
9947.000000;1.908322
9946.000000;1.905138
9945.000000;1.904010
9944.000000;1.905524
9943.000000;1.908821
9942.000000;1.911927
9941.000000;1.912761
9940.000000;1.910419
9939.000000;1.906080
9938.000000;1.902396
9937.000000;1.901426
9936.000000;1.902812
9935.000000;1.904092
9934.000000;1.903303
9933.000000;1.901206
9932.000000;1.900446
9931.000000;1.902567
9930.000000;1.906149
9929.000000;1.908020
9928.000000;1.906545
9927.000000;1.903514
9926.000000;1.902312
9925.000000;1.904287
9924.000000;1.907108
9923.000000;1.906722
9922.000000;1.901071
9921.000000;1.892018
9920.000000;1.883925
9919.000000;1.880665
9918.000000;1.883253
9917.000000;1.889126
9916.000000;1.893830
9915.000000;1.894604
9914.000000;1.892588
9913.000000;1.891094
9912.000000;1.892089
9911.000000;1.894816
9910.000000;1.897278
9909.000000;1.898327
9908.000000;1.898394
9907.000000;1.898700
9906.000000;1.899940
9905.000000;1.901440
9904.000000;1.901478
9903.000000;1.898947
9902.000000;1.894778
9901.000000;1.891067
9900.000000;1.888856
9899.000000;1.887539
9898.000000;1.886534
9897.000000;1.886477
9896.000000;1.887965
9895.000000;1.889965
9894.000000;1.890667
9893.000000;1.889697
9892.000000;1.888345
9891.000000;1.887580
9890.000000;1.887000
9889.000000;1.886166
9888.000000;1.885832
9887.000000;1.886763
9886.000000;1.887992
9885.000000;1.887490
9884.000000;1.884649
9883.000000;1.881098
9882.000000;1.878701
9881.000000;1.877617
9880.000000;1.876806
9879.000000;1.875744
9878.000000;1.874929
9877.000000;1.875006
9876.000000;1.876159
9875.000000;1.878251
9874.000000;1.880776
9873.000000;1.882608
9872.000000;1.882641
9871.000000;1.881091
9870.000000;1.879484
9869.000000;1.878849
9868.000000;1.878456
9867.000000;1.877005
9866.000000;1.874712
9865.000000;1.873249
9864.000000;1.873621
9863.000000;1.874810
9862.000000;1.874658
9861.000000;1.871832
9860.000000;1.866919
9859.000000;1.861961
9858.000000;1.859102
9857.000000;1.859294
9856.000000;1.861830
9855.000000;1.865191
9854.000000;1.868366
9853.000000;1.870903
9852.000000;1.872033
9851.000000;1.870836
9850.000000;1.867593
9849.000000;1.864176
9848.000000;1.862379
9847.000000;1.862257
9846.000000;1.862658
9845.000000;1.862951
9844.000000;1.863387
9843.000000;1.863964
9842.000000;1.863995
9841.000000;1.863138
9840.000000;1.862145
9839.000000;1.862018
9838.000000;1.862736
9837.000000;1.863318
9836.000000;1.862968
9835.000000;1.861645
9834.000000;1.859668
9833.000000;1.857387
9832.000000;1.855319
9831.000000;1.854179
9830.000000;1.854492
9829.000000;1.856218
9828.000000;1.858735
9827.000000;1.861062
9826.000000;1.862237
9825.000000;1.861912
9824.000000;1.860700
9823.000000;1.859538
9822.000000;1.858601
9821.000000;1.857291
9820.000000;1.855450
9819.000000;1.854112
9818.000000;1.854559
9817.000000;1.856772
9816.000000;1.859330
9815.000000;1.860869
9814.000000;1.861127
9813.000000;1.860585
9812.000000;1.859695
9811.000000;1.858716
9810.000000;1.857832
9809.000000;1.857001
9808.000000;1.855891
9807.000000;1.854262
9806.000000;1.852278
9805.000000;1.850200
9804.000000;1.848083
9803.000000;1.846130
9802.000000;1.844976
9801.000000;1.845163
9800.000000;1.846500
9799.000000;1.848163
9798.000000;1.849462
9797.000000;1.850358
9796.000000;1.851000
9795.000000;1.851026
9794.000000;1.849874
9793.000000;1.847507
9792.000000;1.844531
9791.000000;1.841902
9790.000000;1.840525
9789.000000;1.840783
9788.000000;1.842262
9787.000000;1.843961
9786.000000;1.844951
9785.000000;1.844849
9784.000000;1.843739
9783.000000;1.842014
9782.000000;1.840361
9781.000000;1.839469
9780.000000;1.839483
9779.000000;1.839798
9778.000000;1.839523
9777.000000;1.838234
9776.000000;1.836164
9775.000000;1.833777
9774.000000;1.831436
9773.000000;1.829552
9772.000000;1.828750
9771.000000;1.829561
9770.000000;1.831822
9769.000000;1.834524
9768.000000;1.836421
9767.000000;1.836927
9766.000000;1.836378
9765.000000;1.835289
9764.000000;1.833817
9763.000000;1.832392
9762.000000;1.832043
9761.000000;1.833204
9760.000000;1.834500
9759.000000;1.833573
9758.000000;1.829665
9757.000000;1.824897
9756.000000;1.822297
9755.000000;1.822836
9754.000000;1.824858
9753.000000;1.826273
9752.000000;1.826668
9751.000000;1.826878
9750.000000;1.827218
9749.000000;1.827172
9748.000000;1.826717
9747.000000;1.826991
9746.000000;1.828920
9745.000000;1.831427
9744.000000;1.831819
9743.000000;1.828543
9742.000000;1.823191
9741.000000;1.819112
9740.000000;1.818221
9739.000000;1.819671
9738.000000;1.821436
9737.000000;1.822558
9736.000000;1.823383
9735.000000;1.824050
9734.000000;1.823817
9733.000000;1.822258
9732.000000;1.820304
9731.000000;1.819362
9730.000000;1.819812
9729.000000;1.820882
9728.000000;1.821764
9727.000000;1.822261
9726.000000;1.822356
9725.000000;1.821907
9724.000000;1.821107
9723.000000;1.820658
9722.000000;1.820902
9721.000000;1.821054
9720.000000;1.819940
9719.000000;1.817492
9718.000000;1.814952
9717.000000;1.813539
9716.000000;1.813486
9715.000000;1.814496
9714.000000;1.816437
9713.000000;1.819080
9712.000000;1.821418
9711.000000;1.821906
9710.000000;1.819767
9709.000000;1.815863
9708.000000;1.812086
9707.000000;1.809958
9706.000000;1.809678
9705.000000;1.810136
9704.000000;1.809892
9703.000000;1.808382
9702.000000;1.806087
9701.000000;1.803540
9700.000000;1.800700
9699.000000;1.797732
9698.000000;1.795963
9697.000000;1.797097
9696.000000;1.801185
9695.000000;1.805949
9694.000000;1.808632
9693.000000;1.808278
9692.000000;1.805808
9691.000000;1.802579
9690.000000;1.799714
9689.000000;1.798321
9688.000000;1.799127
9687.000000;1.801594
9686.000000;1.804087
9685.000000;1.805274
9684.000000;1.804930
9683.000000;1.803395
9682.000000;1.801075
9681.000000;1.798612
9680.000000;1.796655
9679.000000;1.794995
9678.000000;1.792728
9677.000000;1.789853
9676.000000;1.787867
9675.000000;1.787877
9674.000000;1.788717
9673.000000;1.788075
9672.000000;1.785450
9671.000000;1.782875
9670.000000;1.782531
9669.000000;1.784532
9668.000000;1.787297
9667.000000;1.789369
9666.000000;1.790489
9665.000000;1.791392
9664.000000;1.792857
9663.000000;1.794695
9662.000000;1.795765
9661.000000;1.795364
9660.000000;1.794435
9659.000000;1.794811
9658.000000;1.797038
9657.000000;1.799503
9656.000000;1.800189
9655.000000;1.798689
9654.000000;1.796037
9653.000000;1.793301
9652.000000;1.790873
9651.000000;1.788690
9650.000000;1.786580
9649.000000;1.784569
9648.000000;1.783141
9647.000000;1.782804
9646.000000;1.783125
9645.000000;1.782878
9644.000000;1.781719
9643.000000;1.780932
9642.000000;1.781689
9641.000000;1.783274
9640.000000;1.784077
9639.000000;1.783853
9638.000000;1.783713
9637.000000;1.784077
9636.000000;1.784197
9635.000000;1.783827
9634.000000;1.783713
9633.000000;1.783830
9632.000000;1.782691
9631.000000;1.779517
9630.000000;1.776114
9629.000000;1.775260
9628.000000;1.777703
9627.000000;1.781552
9626.000000;1.784331
9625.000000;1.784924
9624.000000;1.783666
9623.000000;1.781550
9622.000000;1.779551
9621.000000;1.778082
9620.000000;1.777008
9619.000000;1.776246
9618.000000;1.776041
9617.000000;1.776336
9616.000000;1.776440
9615.000000;1.775847
9614.000000;1.774985
9613.000000;1.774578
9612.000000;1.774623
9611.000000;1.774655
9610.000000;1.774567
9609.000000;1.774289
9608.000000;1.773137
9607.000000;1.770687
9606.000000;1.768130
9605.000000;1.767523
9604.000000;1.769378
9603.000000;1.771863
9602.000000;1.772888
9601.000000;1.772220
9600.000000;1.770936
9599.000000;1.769669
9598.000000;1.768304
9597.000000;1.767016
9596.000000;1.766631
9595.000000;1.767611
9594.000000;1.769022
9593.000000;1.768952
9592.000000;1.766267
9591.000000;1.762055
9590.000000;1.758996
9589.000000;1.758912
9588.000000;1.761011
9587.000000;1.762804
9586.000000;1.762789
9585.000000;1.761783
9584.000000;1.761447
9583.000000;1.762154
9582.000000;1.762843
9581.000000;1.762607
9580.000000;1.761773
9579.000000;1.761248
9578.000000;1.761250
9577.000000;1.761078
9576.000000;1.759992
9575.000000;1.758007
9574.000000;1.755872
9573.000000;1.754433
9572.000000;1.754107
9571.000000;1.754828
9570.000000;1.756135
9569.000000;1.757186
9568.000000;1.756975
9567.000000;1.755032
9566.000000;1.751971
9565.000000;1.749069
9564.000000;1.747246
9563.000000;1.746672
9562.000000;1.747219
9561.000000;1.748751
9560.000000;1.750819
9559.000000;1.752562
9558.000000;1.753337
9557.000000;1.753202
9556.000000;1.752552
9555.000000;1.751536
9554.000000;1.750190
9553.000000;1.748895
9552.000000;1.748241
9551.000000;1.748446
9550.000000;1.749081
9549.000000;1.749304
9548.000000;1.748459
9547.000000;1.746719
9546.000000;1.745158
9545.000000;1.744837
9544.000000;1.745721
9543.000000;1.746777
9542.000000;1.747213
9541.000000;1.747214
9540.000000;1.747258
9539.000000;1.747351
9538.000000;1.747369
9537.000000;1.747579
9536.000000;1.748129
9535.000000;1.748357
9534.000000;1.747399
9533.000000;1.745378
9532.000000;1.743243
9531.000000;1.741495
9530.000000;1.739798
9529.000000;1.737962
9528.000000;1.736628
9527.000000;1.736521
9526.000000;1.737522
9525.000000;1.738875
9524.000000;1.739949
9523.000000;1.740477
9522.000000;1.740258
9521.000000;1.739079
9520.000000;1.737057
9519.000000;1.734935
9518.000000;1.733804
9517.000000;1.734212
9516.000000;1.735427
9515.000000;1.735902
9514.000000;1.734796
9513.000000;1.732848
9512.000000;1.731384
9511.000000;1.730752
9510.000000;1.730210
9509.000000;1.729165
9508.000000;1.727921
9507.000000;1.727138
9506.000000;1.726998
9505.000000;1.727029
9504.000000;1.726418
9503.000000;1.724672
9502.000000;1.722467
9501.000000;1.721607
9500.000000;1.723343
9499.000000;1.726530
9498.000000;1.728268
9497.000000;1.726964
9496.000000;1.724041
9495.000000;1.722103
9494.000000;1.722303
9493.000000;1.724013
9492.000000;1.726167
9491.000000;1.727975
9490.000000;1.728850
9489.000000;1.728764
9488.000000;1.728633
9487.000000;1.729414
9486.000000;1.730736
9485.000000;1.731198
9484.000000;1.730046
9483.000000;1.727693
9482.000000;1.724693
9481.000000;1.721327
9480.000000;1.718442
9479.000000;1.717559
9478.000000;1.719330
9477.000000;1.722314
9476.000000;1.724011
9475.000000;1.723094
9474.000000;1.720329
9473.000000;1.717599
9472.000000;1.716468
9471.000000;1.717371
9470.000000;1.719479
9469.000000;1.721304
9468.000000;1.721791
9467.000000;1.720908
9466.000000;1.719147
9465.000000;1.716858
9464.000000;1.714340
9463.000000;1.712207
9462.000000;1.711076
9461.000000;1.710937
9460.000000;1.711168
9459.000000;1.711152
9458.000000;1.710682
9457.000000;1.709903
9456.000000;1.709225
9455.000000;1.709206
9454.000000;1.710182
9453.000000;1.711880
9452.000000;1.713562
9451.000000;1.714539
9450.000000;1.714478
9449.000000;1.713464
9448.000000;1.712047
9447.000000;1.710998
9446.000000;1.710572
9445.000000;1.710035
9444.000000;1.708516
9443.000000;1.706325
9442.000000;1.704748
9441.000000;1.704520
9440.000000;1.704939
9439.000000;1.704710
9438.000000;1.703520
9437.000000;1.702358
9436.000000;1.702269
9435.000000;1.703131
9434.000000;1.703698
9433.000000;1.702825
9432.000000;1.700714
9431.000000;1.698918
9430.000000;1.698935
9429.000000;1.700686
9428.000000;1.702532
9427.000000;1.702924
9426.000000;1.701919
9425.000000;1.700888
9424.000000;1.701006
9423.000000;1.702321
9422.000000;1.703926
9421.000000;1.704542
9420.000000;1.703185
9419.000000;1.699998
9418.000000;1.696539
9417.000000;1.694697
9416.000000;1.694983
9415.000000;1.696114
9414.000000;1.696468
9413.000000;1.695721
9412.000000;1.694753
9411.000000;1.694345
9410.000000;1.694659
9409.000000;1.695749
9408.000000;1.697683
9407.000000;1.699776
9406.000000;1.700422
9405.000000;1.698477
9404.000000;1.694694
9403.000000;1.691227
9402.000000;1.689743
9401.000000;1.690320
9400.000000;1.691943
9399.000000;1.693605
9398.000000;1.694907
9397.000000;1.695927
9396.000000;1.696726
9395.000000;1.696935
9394.000000;1.695791
9393.000000;1.692950
9392.000000;1.689294
9391.000000;1.686555
9390.000000;1.685918
9389.000000;1.687149
9388.000000;1.689043
9387.000000;1.690436
9386.000000;1.690728
9385.000000;1.689849
9384.000000;1.688196
9383.000000;1.686533
9382.000000;1.685642
9381.000000;1.685908
9380.000000;1.687072
9379.000000;1.688171
9378.000000;1.687857
9377.000000;1.685469
9376.000000;1.682106
9375.000000;1.680022
9374.000000;1.680398
9373.000000;1.681969
9372.000000;1.682406
9371.000000;1.680973
9370.000000;1.679032
9369.000000;1.677975
9368.000000;1.677700
9367.000000;1.677416
9366.000000;1.677007
9365.000000;1.676833
9364.000000;1.676758
9363.000000;1.676353
9362.000000;1.675894
9361.000000;1.676186
9360.000000;1.677160
9359.000000;1.677421
9358.000000;1.675754
9357.000000;1.672778
9356.000000;1.670487
9355.000000;1.670266
9354.000000;1.671783
9353.000000;1.673722
9352.000000;1.675156
9351.000000;1.676034
9350.000000;1.676674
9349.000000;1.677192
9348.000000;1.677379
9347.000000;1.676866
9346.000000;1.675425
9345.000000;1.673320
9344.000000;1.671345
9343.000000;1.670298
9342.000000;1.670321
9341.000000;1.670850
9340.000000;1.671180
9339.000000;1.670945
9338.000000;1.670123
9337.000000;1.668952
9336.000000;1.667946
9335.000000;1.667621
9334.000000;1.667913
9333.000000;1.668061
9332.000000;1.667399
9331.000000;1.666187
9330.000000;1.665335
9329.000000;1.665466
9328.000000;1.666497
9327.000000;1.667896
9326.000000;1.668978
9325.000000;1.669130
9324.000000;1.668197
9323.000000;1.666683
9322.000000;1.665332
9321.000000;1.664564
9320.000000;1.664515
9319.000000;1.665322
9318.000000;1.666750
9317.000000;1.667678
9316.000000;1.666828
9315.000000;1.664352
9314.000000;1.662042
9313.000000;1.661497
9312.000000;1.662402
9311.000000;1.662973
9310.000000;1.661935
9309.000000;1.659798
9308.000000;1.658245
9307.000000;1.658508
9306.000000;1.660195
9305.000000;1.661513
9304.000000;1.660933
9303.000000;1.658807
9302.000000;1.657051
9301.000000;1.657160
9300.000000;1.658808
9299.000000;1.660501
9298.000000;1.661131
9297.000000;1.660432
9296.000000;1.658449
9295.000000;1.655528
9294.000000;1.652762
9293.000000;1.651558
9292.000000;1.652295
9291.000000;1.653778
9290.000000;1.654325
9289.000000;1.653250
9288.000000;1.651160
9287.000000;1.649149
9286.000000;1.648069
9285.000000;1.648254
9284.000000;1.649409
9283.000000;1.650769
9282.000000;1.651703
9281.000000;1.652231
9280.000000;1.652676
9279.000000;1.652810
9278.000000;1.651775
9277.000000;1.649180
9276.000000;1.646014
9275.000000;1.643992
9274.000000;1.643994
9273.000000;1.645387
9272.000000;1.646860
9271.000000;1.647609
9270.000000;1.647572
9269.000000;1.646976
9268.000000;1.646187
9267.000000;1.645805
9266.000000;1.646258
9265.000000;1.647117
9264.000000;1.647288
9263.000000;1.646171
9262.000000;1.644376
9261.000000;1.643118
9260.000000;1.643205
9259.000000;1.644705
9258.000000;1.647135
9257.000000;1.649507
9256.000000;1.650537
9255.000000;1.649477
9254.000000;1.646852
9253.000000;1.644023
9252.000000;1.642002
9251.000000;1.640897
9250.000000;1.640308
9249.000000;1.639900
9248.000000;1.639552
9247.000000;1.639310
9246.000000;1.639323
9245.000000;1.639709
9244.000000;1.640374
9243.000000;1.641034
9242.000000;1.641385
9241.000000;1.641202
9240.000000;1.640346
9239.000000;1.638889
9238.000000;1.637122
9237.000000;1.635282
9236.000000;1.633434
9235.000000;1.631884
9234.000000;1.631396
9233.000000;1.632534
9232.000000;1.634720
9231.000000;1.636385
9230.000000;1.636317
9229.000000;1.634725
9228.000000;1.632863
9227.000000;1.631891
9226.000000;1.632235
9225.000000;1.633572
9224.000000;1.635035
9223.000000;1.635593
9222.000000;1.634721
9221.000000;1.632844
9220.000000;1.630946
9219.000000;1.629696
9218.000000;1.629067
9217.000000;1.628768
9216.000000;1.628748
9215.000000;1.629041
9214.000000;1.629290
9213.000000;1.628894
9212.000000;1.627834
9211.000000;1.627008
9210.000000;1.627265
9209.000000;1.628236
9208.000000;1.628624
9207.000000;1.627762
9206.000000;1.626333
9205.000000;1.625255
9204.000000;1.624454
9203.000000;1.623317
9202.000000;1.622034
9201.000000;1.621671
9200.000000;1.622712
9199.000000;1.624148
9198.000000;1.624422
9197.000000;1.623184
9196.000000;1.621756
9195.000000;1.621805
9194.000000;1.623625
9193.000000;1.625783
9192.000000;1.626552
9191.000000;1.625640
9190.000000;1.624200
9189.000000;1.623173
9188.000000;1.622267
9187.000000;1.620829
9186.000000;1.619151
9185.000000;1.618209
9184.000000;1.618340
9183.000000;1.618895
9182.000000;1.619166
9181.000000;1.619107
9180.000000;1.619042
9179.000000;1.619118
9178.000000;1.619146
9177.000000;1.618722
9176.000000;1.617508
9175.000000;1.615795
9174.000000;1.614671
9173.000000;1.615065
9172.000000;1.616570
9171.000000;1.617719
9170.000000;1.617579
9169.000000;1.616532
9168.000000;1.615366
9167.000000;1.614352
9166.000000;1.613519
9165.000000;1.613054
9164.000000;1.612938
9163.000000;1.612710
9162.000000;1.612131
9161.000000;1.611667
9160.000000;1.611766
9159.000000;1.612054
9158.000000;1.611789
9157.000000;1.610756
9156.000000;1.609198
9155.000000;1.607274
9154.000000;1.605270
9153.000000;1.604034
9152.000000;1.604379
9151.000000;1.606028
9150.000000;1.607735
9149.000000;1.608563
9148.000000;1.608582
9147.000000;1.608335
9146.000000;1.608181
9145.000000;1.608242
9144.000000;1.608447
9143.000000;1.608445
9142.000000;1.607866
9141.000000;1.606807
9140.000000;1.605706
9139.000000;1.604746
9138.000000;1.603814
9137.000000;1.603061
9136.000000;1.602908
9135.000000;1.603311
9134.000000;1.603501
9133.000000;1.602785
9132.000000;1.601356
9131.000000;1.600128
9130.000000;1.600047
9129.000000;1.601558
9128.000000;1.604280
9127.000000;1.606946
9126.000000;1.608078
9125.000000;1.607153
9124.000000;1.605027
9123.000000;1.603072
9122.000000;1.602140
9121.000000;1.602299
9120.000000;1.602971
9119.000000;1.603133
9118.000000;1.601996
9117.000000;1.599923
9116.000000;1.598270
9115.000000;1.597955
9114.000000;1.598479
9113.000000;1.598704
9112.000000;1.598231
9111.000000;1.597501
9110.000000;1.596884
9109.000000;1.596388
9108.000000;1.596113
9107.000000;1.596296
9106.000000;1.596804
9105.000000;1.597148
9104.000000;1.597162
9103.000000;1.597192
9102.000000;1.597397
9101.000000;1.597325
9100.000000;1.596535
9099.000000;1.595277
9098.000000;1.594165
9097.000000;1.593400
9096.000000;1.592682
9095.000000;1.591774
9094.000000;1.590768
9093.000000;1.589867
9092.000000;1.589178
9091.000000;1.588770
9090.000000;1.588719
9089.000000;1.588932
9088.000000;1.589065
9087.000000;1.588782
9086.000000;1.588125
9085.000000;1.587528
9084.000000;1.587400
9083.000000;1.587725
9082.000000;1.588162
9081.000000;1.588497
9080.000000;1.588815
9079.000000;1.589136
9078.000000;1.589096
9077.000000;1.588258
9076.000000;1.586729
9075.000000;1.585269
9074.000000;1.584678
9073.000000;1.585137
9072.000000;1.586115
9071.000000;1.586819
9070.000000;1.586779
9069.000000;1.586157
9068.000000;1.585529
9067.000000;1.585289
9066.000000;1.585323
9065.000000;1.585291
9064.000000;1.585163
9063.000000;1.585307
9062.000000;1.586022
9061.000000;1.587137
9060.000000;1.588149
9059.000000;1.588640
9058.000000;1.588511
9057.000000;1.587883
9056.000000;1.586865
9055.000000;1.585408
9054.000000;1.583453
9053.000000;1.581318
