Criado como novo conjunto de dados;"Jao_teste_celulas.spp","7623.9 Secs"
cm-1;Abs
10000.000000;1.440903
9999.000000;1.440068
9998.000000;1.439235
9997.000000;1.438403
9996.000000;1.437573
9995.000000;1.436744
9994.000000;1.435919
9993.000000;1.435089
9992.000000;1.434277
9991.000000;1.433105
9990.000000;1.432091
9989.000000;1.431605
9988.000000;1.431408
9987.000000;1.431011
9986.000000;1.430226
9985.000000;1.429332
9984.000000;1.428726
9983.000000;1.428498
9982.000000;1.428291
9981.000000;1.427515
9980.000000;1.425860
9979.000000;1.423761
9978.000000;1.422246
9977.000000;1.422081
9976.000000;1.422997
9975.000000;1.423920
9974.000000;1.423996
9973.000000;1.423195
9972.000000;1.421901
9971.000000;1.420359
9970.000000;1.418816
9969.000000;1.417876
9968.000000;1.418158
9967.000000;1.419549
9966.000000;1.421176
9965.000000;1.422249
9964.000000;1.422657
9963.000000;1.422595
9962.000000;1.421957
9961.000000;1.420448
9960.000000;1.418192
9959.000000;1.415926
9958.000000;1.414498
9957.000000;1.414284
9956.000000;1.415002
9955.000000;1.415926
9954.000000;1.416309
9953.000000;1.415789
9952.000000;1.414528
9951.000000;1.413022
9950.000000;1.411802
9949.000000;1.411211
9948.000000;1.411282
9947.000000;1.411742
9946.000000;1.412253
9945.000000;1.412709
9944.000000;1.413134
9943.000000;1.413248
9942.000000;1.412436
9941.000000;1.410466
9940.000000;1.408047
9939.000000;1.406233
9938.000000;1.405265
9937.000000;1.404388
9936.000000;1.403012
9935.000000;1.401667
9934.000000;1.401414
9933.000000;1.402470
9932.000000;1.403848
9931.000000;1.404427
9930.000000;1.404039
9929.000000;1.403375
9928.000000;1.403105
9927.000000;1.403323
9926.000000;1.403665
9925.000000;1.403729
9924.000000;1.403435
9923.000000;1.403135
9922.000000;1.403249
9921.000000;1.403643
9920.000000;1.403579
9919.000000;1.402585
9918.000000;1.401283
9917.000000;1.400922
9916.000000;1.401965
9915.000000;1.403444
9914.000000;1.403834
9913.000000;1.402421
9912.000000;1.399747
9911.000000;1.396992
9910.000000;1.395113
9909.000000;1.394297
9908.000000;1.393930
9907.000000;1.393241
9906.000000;1.392229
9905.000000;1.391743
9904.000000;1.392343
9903.000000;1.393303
9902.000000;1.393207
9901.000000;1.391586
9900.000000;1.389533
9899.000000;1.388536
9898.000000;1.389016
9897.000000;1.390157
9896.000000;1.390923
9895.000000;1.391036
9894.000000;1.390984
9893.000000;1.391265
9892.000000;1.391688
9891.000000;1.391526
9890.000000;1.390452
9889.000000;1.389104
9888.000000;1.388441
9887.000000;1.388644
9886.000000;1.388953
9885.000000;1.388641
9884.000000;1.387846
9883.000000;1.387293
9882.000000;1.387406
9881.000000;1.387866
9880.000000;1.387932
9879.000000;1.387137
9878.000000;1.385778
9877.000000;1.384695
9876.000000;1.384383
9875.000000;1.384359
9874.000000;1.383631
9873.000000;1.381828
9872.000000;1.379561
9871.000000;1.377658
9870.000000;1.376410
9869.000000;1.375678
9868.000000;1.375334
9867.000000;1.375278
9866.000000;1.375322
9865.000000;1.375386
9864.000000;1.375673
9863.000000;1.376299
9862.000000;1.376878
9861.000000;1.376846
9860.000000;1.376215
9859.000000;1.375699
9858.000000;1.375957
9857.000000;1.376829
9856.000000;1.377396
9855.000000;1.376777
9854.000000;1.374906
9853.000000;1.372583
9852.000000;1.370743
9851.000000;1.369697
9850.000000;1.369114
9849.000000;1.368633
9848.000000;1.368239
9847.000000;1.368002
9846.000000;1.367808
9845.000000;1.367574
9844.000000;1.367486
9843.000000;1.367686
9842.000000;1.367891
9841.000000;1.367714
9840.000000;1.367288
9839.000000;1.367141
9838.000000;1.367372
9837.000000;1.367385
9836.000000;1.366648
9835.000000;1.365485
9834.000000;1.364830
9833.000000;1.365273
9832.000000;1.366481
9831.000000;1.367489
9830.000000;1.367500
9829.000000;1.366489
9828.000000;1.365146
9827.000000;1.364245
9826.000000;1.364041
9825.000000;1.364167
9824.000000;1.364027
9823.000000;1.363265
9822.000000;1.361916
9821.000000;1.360331
9820.000000;1.359003
9819.000000;1.358309
9818.000000;1.358187
9817.000000;1.358123
9816.000000;1.357609
9815.000000;1.356643
9814.000000;1.355662
9813.000000;1.354960
9812.000000;1.354355
9811.000000;1.353565
9810.000000;1.352751
9809.000000;1.352349
9808.000000;1.352410
9807.000000;1.352458
9806.000000;1.352175
9805.000000;1.351940
9804.000000;1.352380
9803.000000;1.353507
9802.000000;1.354586
9801.000000;1.354815
9800.000000;1.353894
9799.000000;1.352034
9798.000000;1.349779
9797.000000;1.347878
9796.000000;1.346939
9795.000000;1.346956
9794.000000;1.347355
9793.000000;1.347626
9792.000000;1.347733
9791.000000;1.347844
9790.000000;1.347961
9789.000000;1.347996
9788.000000;1.347912
9787.000000;1.347595
9786.000000;1.346835
9785.000000;1.345700
9784.000000;1.344667
9783.000000;1.344139
9782.000000;1.343963
9781.000000;1.343692
9780.000000;1.343183
9779.000000;1.342635
9778.000000;1.342142
9777.000000;1.341564
9776.000000;1.340803
9775.000000;1.339924
9774.000000;1.339011
9773.000000;1.338183
9772.000000;1.337691
9771.000000;1.337717
9770.000000;1.338029
9769.000000;1.338125
9768.000000;1.337786
9767.000000;1.337261
9766.000000;1.336853
9765.000000;1.336560
9764.000000;1.336236
9763.000000;1.335863
9762.000000;1.335488
9761.000000;1.335004
9760.000000;1.334183
9759.000000;1.332962
9758.000000;1.331662
9757.000000;1.330837
9756.000000;1.330839
9755.000000;1.331468
9754.000000;1.332105
9753.000000;1.332241
9752.000000;1.331817
9751.000000;1.331059
9750.000000;1.330214
9749.000000;1.329558
9748.000000;1.329339
9747.000000;1.329418
9746.000000;1.329181
9745.000000;1.328219
9744.000000;1.326958
9743.000000;1.326208
9742.000000;1.326100
9741.000000;1.325933
9740.000000;1.325175
9739.000000;1.324215
9738.000000;1.323874
9737.000000;1.324423
9736.000000;1.325347
9735.000000;1.325880
9734.000000;1.325595
9733.000000;1.324625
9732.000000;1.323518
9731.000000;1.322858
9730.000000;1.322828
9729.000000;1.323075
9728.000000;1.322981
9727.000000;1.322102
9726.000000;1.320498
9725.000000;1.318817
9724.000000;1.317964
9723.000000;1.318384
9722.000000;1.319581
9721.000000;1.320546
9720.000000;1.320717
9719.000000;1.320304
9718.000000;1.319663
9717.000000;1.318771
9716.000000;1.317523
9715.000000;1.316183
9714.000000;1.315225
9713.000000;1.314890
9712.000000;1.315123
9711.000000;1.315762
9710.000000;1.316513
9709.000000;1.316850
9708.000000;1.316330
9707.000000;1.315101
9706.000000;1.313868
9705.000000;1.313275
9704.000000;1.313379
9703.000000;1.313698
9702.000000;1.313652
9701.000000;1.313024
9700.000000;1.312114
9699.000000;1.311464
9698.000000;1.311326
9697.000000;1.311421
9696.000000;1.311244
9695.000000;1.310555
9694.000000;1.309486
9693.000000;1.308289
9692.000000;1.307179
9691.000000;1.306347
9690.000000;1.305914
9689.000000;1.305839
9688.000000;1.305971
9687.000000;1.306203
9686.000000;1.306459
9685.000000;1.306568
9684.000000;1.306331
9683.000000;1.305754
9682.000000;1.305097
9681.000000;1.304619
9680.000000;1.304357
9679.000000;1.304175
9678.000000;1.303915
9677.000000;1.303455
9676.000000;1.302708
9675.000000;1.301712
9674.000000;1.300679
9673.000000;1.299858
9672.000000;1.299299
9671.000000;1.298798
9670.000000;1.298183
9669.000000;1.297602
9668.000000;1.297423
9667.000000;1.297759
9666.000000;1.298241
9665.000000;1.298368
9664.000000;1.298029
9663.000000;1.297514
9662.000000;1.297088
9661.000000;1.296776
9660.000000;1.296545
9659.000000;1.296426
9658.000000;1.296345
9657.000000;1.296040
9656.000000;1.295276
9655.000000;1.294031
9654.000000;1.292429
9653.000000;1.290717
9652.000000;1.289404
9651.000000;1.289067
9650.000000;1.289717
9649.000000;1.290565
9648.000000;1.290716
9647.000000;1.289988
9646.000000;1.288795
9645.000000;1.287485
9644.000000;1.286237
9643.000000;1.285404
9642.000000;1.285352
9641.000000;1.285850
9640.000000;1.286130
9639.000000;1.285738
9638.000000;1.284966
9637.000000;1.284295
9636.000000;1.283865
9635.000000;1.283708
9634.000000;1.284048
9633.000000;1.284930
9632.000000;1.285822
9631.000000;1.286038
9630.000000;1.285477
9629.000000;1.284593
9628.000000;1.283764
9627.000000;1.283019
9626.000000;1.282294
9625.000000;1.281572
9624.000000;1.280801
9623.000000;1.279994
9622.000000;1.279425
9621.000000;1.279420
9620.000000;1.279884
9619.000000;1.280296
9618.000000;1.280239
9617.000000;1.279743
9616.000000;1.279098
9615.000000;1.278570
9614.000000;1.278327
9613.000000;1.278346
9612.000000;1.278339
9611.000000;1.278014
9610.000000;1.277476
9609.000000;1.277045
9608.000000;1.276625
9607.000000;1.275664
9606.000000;1.273948
9605.000000;1.272102
9604.000000;1.271013
9603.000000;1.270978
9602.000000;1.271629
9601.000000;1.272479
9600.000000;1.273183
9599.000000;1.273382
9598.000000;1.272744
9597.000000;1.271351
9596.000000;1.269825
9595.000000;1.268920
9594.000000;1.269016
9593.000000;1.269907
9592.000000;1.270942
9591.000000;1.271403
9590.000000;1.270950
9589.000000;1.269808
9588.000000;1.268538
9587.000000;1.267667
9586.000000;1.267496
9585.000000;1.268011
9584.000000;1.268780
9583.000000;1.269066
9582.000000;1.268332
9581.000000;1.266679
9580.000000;1.264674
9579.000000;1.262869
9578.000000;1.261608
9577.000000;1.261106
9576.000000;1.261335
9575.000000;1.261817
9574.000000;1.261921
9573.000000;1.261515
9572.000000;1.261094
9571.000000;1.261118
9570.000000;1.261472
9569.000000;1.261733
9568.000000;1.261702
9567.000000;1.261434
9566.000000;1.260910
9565.000000;1.260058
9564.000000;1.259067
9563.000000;1.258356
9562.000000;1.258124
9561.000000;1.258146
9560.000000;1.258121
9559.000000;1.258067
9558.000000;1.258186
9557.000000;1.258460
9556.000000;1.258567
9555.000000;1.258207
9554.000000;1.257352
9553.000000;1.256155
9552.000000;1.254769
9551.000000;1.253322
9550.000000;1.251934
9549.000000;1.250629
9548.000000;1.249369
9547.000000;1.248319
9546.000000;1.247913
9545.000000;1.248382
9544.000000;1.249261
9543.000000;1.249706
9542.000000;1.249371
9541.000000;1.248695
9540.000000;1.248250
9539.000000;1.248146
9538.000000;1.248239
9537.000000;1.248521
9536.000000;1.248926
9535.000000;1.249006
9534.000000;1.248288
9533.000000;1.246911
9532.000000;1.245512
9531.000000;1.244496
9530.000000;1.243778
9529.000000;1.243206
9528.000000;1.242887
9527.000000;1.243015
9526.000000;1.243643
9525.000000;1.244669
9524.000000;1.245747
9523.000000;1.246230
9522.000000;1.245633
9521.000000;1.244284
9520.000000;1.243103
9519.000000;1.242569
9518.000000;1.242273
9517.000000;1.241699
9516.000000;1.241021
9515.000000;1.240747
9514.000000;1.240856
9513.000000;1.240779
9512.000000;1.240114
9511.000000;1.238991
9510.000000;1.237794
9509.000000;1.236916
9508.000000;1.236729
9507.000000;1.237356
9506.000000;1.238351
9505.000000;1.238898
9504.000000;1.238540
9503.000000;1.237547
9502.000000;1.236470
9501.000000;1.235594
9500.000000;1.234968
9499.000000;1.234713
9498.000000;1.234917
9497.000000;1.235235
9496.000000;1.234969
9495.000000;1.233813
9494.000000;1.232417
9493.000000;1.231895
9492.000000;1.232694
9491.000000;1.234086
9490.000000;1.234899
9489.000000;1.234625
9488.000000;1.233655
9487.000000;1.232599
9486.000000;1.231737
9485.000000;1.231100
9484.000000;1.230683
9483.000000;1.230361
9482.000000;1.229845
9481.000000;1.229004
9480.000000;1.228131
9479.000000;1.227649
9478.000000;1.227617
9477.000000;1.227671
9476.000000;1.227412
9475.000000;1.226793
9474.000000;1.226172
9473.000000;1.226020
9472.000000;1.226466
9471.000000;1.227060
9470.000000;1.227124
9469.000000;1.226414
9468.000000;1.225309
9467.000000;1.224336
9466.000000;1.223704
9465.000000;1.223388
9464.000000;1.223319
9463.000000;1.223276
9462.000000;1.222869
9461.000000;1.221957
9460.000000;1.220955
9459.000000;1.220387
9458.000000;1.220275
9457.000000;1.220253
9456.000000;1.220151
9455.000000;1.220103
9454.000000;1.220139
9453.000000;1.220059
9452.000000;1.219785
9451.000000;1.219520
9450.000000;1.219429
9449.000000;1.219364
9448.000000;1.219032
9447.000000;1.218269
9446.000000;1.217103
9445.000000;1.215730
9444.000000;1.214440
9443.000000;1.213425
9442.000000;1.212626
9441.000000;1.211904
9440.000000;1.211328
9439.000000;1.211105
9438.000000;1.211266
9437.000000;1.211675
9436.000000;1.212271
9435.000000;1.213008
9434.000000;1.213551
9433.000000;1.213378
9432.000000;1.212365
9431.000000;1.211022
9430.000000;1.209960
9429.000000;1.209318
9428.000000;1.208854
9427.000000;1.208403
9426.000000;1.208050
9425.000000;1.207944
9424.000000;1.208088
9423.000000;1.208299
9422.000000;1.208343
9421.000000;1.208180
9420.000000;1.208041
9419.000000;1.208125
9418.000000;1.208259
9417.000000;1.208063
9416.000000;1.207450
9415.000000;1.206680
9414.000000;1.205900
9413.000000;1.204977
9412.000000;1.203924
9411.000000;1.203107
9410.000000;1.202770
9409.000000;1.202622
9408.000000;1.202257
9407.000000;1.201794
9406.000000;1.201728
9405.000000;1.202193
9404.000000;1.202713
9403.000000;1.202745
9402.000000;1.202231
9401.000000;1.201561
9400.000000;1.201151
9399.000000;1.201075
9398.000000;1.200979
9397.000000;1.200366
9396.000000;1.199113
9395.000000;1.197690
9394.000000;1.196707
9393.000000;1.196282
9392.000000;1.196006
9391.000000;1.195481
9390.000000;1.194696
9389.000000;1.193895
9388.000000;1.193313
9387.000000;1.193131
9386.000000;1.193458
9385.000000;1.194162
9384.000000;1.194838
9383.000000;1.195091
9382.000000;1.194837
9381.000000;1.194302
9380.000000;1.193796
9379.000000;1.193511
9378.000000;1.193395
9377.000000;1.193115
9376.000000;1.192268
9375.000000;1.190859
9374.000000;1.189535
9373.000000;1.189140
9372.000000;1.189913
9371.000000;1.191220
9370.000000;1.192161
9369.000000;1.192329
9368.000000;1.191897
9367.000000;1.191122
9366.000000;1.190063
9365.000000;1.188797
9364.000000;1.187626
9363.000000;1.186864
9362.000000;1.186558
9361.000000;1.186578
9360.000000;1.186865
9359.000000;1.187367
9358.000000;1.187805
9357.000000;1.187759
9356.000000;1.187054
9355.000000;1.185939
9354.000000;1.184818
9353.000000;1.183980
9352.000000;1.183603
9351.000000;1.183765
9350.000000;1.184256
9349.000000;1.184523
9348.000000;1.184082
9347.000000;1.183044
9346.000000;1.182081
9345.000000;1.181764
9344.000000;1.181990
9343.000000;1.182090
9342.000000;1.181505
9341.000000;1.180339
9340.000000;1.179241
9339.000000;1.178762
9338.000000;1.178881
9337.000000;1.179148
9336.000000;1.179167
9335.000000;1.178868
9334.000000;1.178382
9333.000000;1.177872
9332.000000;1.177499
9331.000000;1.177396
9330.000000;1.177549
9329.000000;1.177785
9328.000000;1.177929
9327.000000;1.177891
9326.000000;1.177589
9325.000000;1.176906
9324.000000;1.175858
9323.000000;1.174711
9322.000000;1.173829
9321.000000;1.173400
9320.000000;1.173337
9319.000000;1.173365
9318.000000;1.173184
9317.000000;1.172644
9316.000000;1.171845
9315.000000;1.171000
9314.000000;1.170248
9313.000000;1.169705
9312.000000;1.169636
9311.000000;1.170249
9310.000000;1.171211
9309.000000;1.171670
9308.000000;1.171075
9307.000000;1.169836
9306.000000;1.168920
9305.000000;1.168910
9304.000000;1.169644
9303.000000;1.170587
9302.000000;1.171201
9301.000000;1.171063
9300.000000;1.170088
9299.000000;1.168761
9298.000000;1.167797
9297.000000;1.167361
9296.000000;1.166878
9295.000000;1.165790
9294.000000;1.164285
9293.000000;1.163069
9292.000000;1.162565
9291.000000;1.162600
9290.000000;1.162793
9289.000000;1.162962
9288.000000;1.163110
9287.000000;1.163208
9286.000000;1.163166
9285.000000;1.162968
9284.000000;1.162747
9283.000000;1.162699
9282.000000;1.162881
9281.000000;1.163088
9280.000000;1.163025
9279.000000;1.162654
9278.000000;1.162254
9277.000000;1.162033
9276.000000;1.161770
9275.000000;1.161018
9274.000000;1.159715
9273.000000;1.158400
9272.000000;1.157697
9271.000000;1.157648
9270.000000;1.157690
9269.000000;1.157331
9268.000000;1.156734
9267.000000;1.156485
9266.000000;1.156821
9265.000000;1.157246
9264.000000;1.157072
9263.000000;1.156254
9262.000000;1.155430
9261.000000;1.155156
9260.000000;1.155348
9259.000000;1.155578
9258.000000;1.155667
9257.000000;1.155706
9256.000000;1.155610
9255.000000;1.155049
9254.000000;1.153931
9253.000000;1.152683
9252.000000;1.151836
9251.000000;1.151455
9250.000000;1.151191
9249.000000;1.150837
9248.000000;1.150587
9247.000000;1.150668
9246.000000;1.150913
9245.000000;1.150901
9244.000000;1.150480
9243.000000;1.149947
9242.000000;1.149635
9241.000000;1.149485
9240.000000;1.149169
9239.000000;1.148535
9238.000000;1.147764
9237.000000;1.147108
9236.000000;1.146673
9235.000000;1.146506
9234.000000;1.146692
9233.000000;1.147177
9232.000000;1.147613
9231.000000;1.147609
9230.000000;1.147129
9229.000000;1.146470
9228.000000;1.145845
9227.000000;1.145173
9226.000000;1.144356
9225.000000;1.143585
9224.000000;1.143169
9223.000000;1.143135
9222.000000;1.143175
9221.000000;1.143011
9220.000000;1.142668
9219.000000;1.142350
9218.000000;1.142163
9217.000000;1.142066
9216.000000;1.142018
9215.000000;1.142049
9214.000000;1.142182
9213.000000;1.142342
9212.000000;1.142359
9211.000000;1.142042
9210.000000;1.141293
9209.000000;1.140183
9208.000000;1.138923
9207.000000;1.137725
9206.000000;1.136723
9205.000000;1.136051
9204.000000;1.135888
9203.000000;1.136293
9202.000000;1.137026
9201.000000;1.137674
9200.000000;1.138008
9199.000000;1.138090
9198.000000;1.137992
9197.000000;1.137600
9196.000000;1.136834
9195.000000;1.135954
9194.000000;1.135389
9193.000000;1.135268
9192.000000;1.135302
9191.000000;1.135148
9190.000000;1.134742
9189.000000;1.134216
9188.000000;1.133669
9187.000000;1.133158
9186.000000;1.132778
9185.000000;1.132576
9184.000000;1.132416
9183.000000;1.132053
9182.000000;1.131369
9181.000000;1.130458
9180.000000;1.129543
9179.000000;1.128913
9178.000000;1.128855
9177.000000;1.129442
9176.000000;1.130321
9175.000000;1.130878
9174.000000;1.130748
9173.000000;1.130097
9172.000000;1.129318
9171.000000;1.128567
9170.000000;1.127722
9169.000000;1.126732
9168.000000;1.125809
9167.000000;1.125231
9166.000000;1.125083
9165.000000;1.125253
9164.000000;1.125547
9163.000000;1.125738
9162.000000;1.125590
9161.000000;1.125023
9160.000000;1.124291
9159.000000;1.123865
9158.000000;1.124039
9157.000000;1.124658
9156.000000;1.125232
9155.000000;1.125322
9154.000000;1.124858
9153.000000;1.124153
9152.000000;1.123624
9151.000000;1.123424
9150.000000;1.123287
9149.000000;1.122784
9148.000000;1.121803
9147.000000;1.120731
9146.000000;1.120086
9145.000000;1.120045
9144.000000;1.120380
9143.000000;1.120793
9142.000000;1.121154
9141.000000;1.121403
9140.000000;1.121403
9139.000000;1.121033
9138.000000;1.120349
9137.000000;1.119541
9136.000000;1.118760
9135.000000;1.118052
9134.000000;1.117463
9133.000000;1.117077
9132.000000;1.116898
9131.000000;1.116760
9130.000000;1.116427
9129.000000;1.115862
9128.000000;1.115369
9127.000000;1.115339
9126.000000;1.115785
9125.000000;1.116182
9124.000000;1.115925
9123.000000;1.114978
9122.000000;1.113907
9121.000000;1.113255
9120.000000;1.113035
9119.000000;1.112924
9118.000000;1.112748
9117.000000;1.112562
9116.000000;1.112371
9115.000000;1.112061
9114.000000;1.111614
9113.000000;1.111158
9112.000000;1.110747
9111.000000;1.110278
9110.000000;1.109742
9109.000000;1.109373
9108.000000;1.109371
9107.000000;1.109546
9106.000000;1.109433
9105.000000;1.108801
9104.000000;1.107941
9103.000000;1.107372
9102.000000;1.107322
9101.000000;1.107565
9100.000000;1.107764
9099.000000;1.107889
9098.000000;1.108154
9097.000000;1.108552
9096.000000;1.108632
9095.000000;1.107949
9094.000000;1.106666
9093.000000;1.105475
9092.000000;1.104911
9091.000000;1.104909
9090.000000;1.105086
9089.000000;1.105248
9088.000000;1.105457
9087.000000;1.105710
9086.000000;1.105780
9085.000000;1.105410
9084.000000;1.104591
9083.000000;1.103613
9082.000000;1.102868
9081.000000;1.102555
9080.000000;1.102522
9079.000000;1.102386
9078.000000;1.101866
9077.000000;1.101005
9076.000000;1.100081
9075.000000;1.099390
9074.000000;1.099094
9073.000000;1.099190
9072.000000;1.099515
9071.000000;1.099849
9070.000000;1.100068
9069.000000;1.100180
9068.000000;1.100186
9067.000000;1.100008
9066.000000;1.099582
9065.000000;1.098990
9064.000000;1.098431
9063.000000;1.098091
9062.000000;1.098006
9061.000000;1.097983
9060.000000;1.097671
9059.000000;1.096903
9058.000000;1.095999
9057.000000;1.095542
9056.000000;1.095731
9055.000000;1.096107
9054.000000;1.096066
9053.000000;1.095516
