Criado como novo conjunto de dados;"Jao_teste_celulas.spp","7743.4 Secs"
cm-1;Abs
10000.000000;1.440073
9999.000000;1.439462
9998.000000;1.438545
9997.000000;1.437651
9996.000000;1.437374
9995.000000;1.437867
9994.000000;1.438891
9993.000000;1.439959
9992.000000;1.440450
9991.000000;1.439835
9990.000000;1.438337
9989.000000;1.437011
9988.000000;1.436714
9987.000000;1.437136
9986.000000;1.437152
9985.000000;1.436010
9984.000000;1.433868
9983.000000;1.431394
9982.000000;1.429384
9981.000000;1.428592
9980.000000;1.429210
9979.000000;1.430384
9978.000000;1.430816
9977.000000;1.430105
9976.000000;1.429105
9975.000000;1.428802
9974.000000;1.429276
9973.000000;1.429946
9972.000000;1.430391
9971.000000;1.430571
9970.000000;1.430478
9969.000000;1.429977
9968.000000;1.428942
9967.000000;1.427372
9966.000000;1.425472
9965.000000;1.423731
9964.000000;1.422700
9963.000000;1.422553
9962.000000;1.423034
9961.000000;1.423819
9960.000000;1.424614
9959.000000;1.424897
9958.000000;1.424133
9957.000000;1.422583
9956.000000;1.421359
9955.000000;1.421180
9954.000000;1.421395
9953.000000;1.420777
9952.000000;1.419112
9951.000000;1.417433
9950.000000;1.416746
9949.000000;1.417110
9948.000000;1.417943
9947.000000;1.418722
9946.000000;1.419204
9945.000000;1.419363
9944.000000;1.419361
9943.000000;1.419360
9942.000000;1.419224
9941.000000;1.418578
9940.000000;1.417284
9939.000000;1.415676
9938.000000;1.414273
9937.000000;1.413432
9936.000000;1.413284
9935.000000;1.413709
9934.000000;1.414259
9933.000000;1.414365
9932.000000;1.413829
9931.000000;1.412994
9930.000000;1.412333
9929.000000;1.412016
9928.000000;1.411927
9927.000000;1.411821
9926.000000;1.411353
9925.000000;1.410243
9924.000000;1.408730
9923.000000;1.407680
9922.000000;1.407875
9921.000000;1.409139
9920.000000;1.410378
9919.000000;1.410531
9918.000000;1.409369
9917.000000;1.407408
9916.000000;1.405311
9915.000000;1.403514
9914.000000;1.402218
9913.000000;1.401474
9912.000000;1.401230
9911.000000;1.401370
9910.000000;1.401754
9909.000000;1.402151
9908.000000;1.402222
9907.000000;1.401714
9906.000000;1.400763
9905.000000;1.399874
9904.000000;1.399432
9903.000000;1.399292
9902.000000;1.399032
9901.000000;1.398600
9900.000000;1.398424
9899.000000;1.398771
9898.000000;1.399226
9897.000000;1.399072
9896.000000;1.398098
9895.000000;1.396717
9894.000000;1.395414
9893.000000;1.394455
9892.000000;1.394081
9891.000000;1.394457
9890.000000;1.395239
9889.000000;1.395574
9888.000000;1.394889
9887.000000;1.393520
9886.000000;1.392243
9885.000000;1.391335
9884.000000;1.390452
9883.000000;1.389360
9882.000000;1.388391
9881.000000;1.388065
9880.000000;1.388478
9879.000000;1.389228
9878.000000;1.389801
9877.000000;1.389930
9876.000000;1.389625
9875.000000;1.388952
9874.000000;1.387856
9873.000000;1.386291
9872.000000;1.384555
9871.000000;1.383308
9870.000000;1.383052
9869.000000;1.383609
9868.000000;1.384243
9867.000000;1.384301
9866.000000;1.383683
9865.000000;1.382781
9864.000000;1.382161
9863.000000;1.382175
9862.000000;1.382583
9861.000000;1.382619
9860.000000;1.381771
9859.000000;1.380501
9858.000000;1.379775
9857.000000;1.379847
9856.000000;1.379978
9855.000000;1.379594
9854.000000;1.379173
9853.000000;1.379479
9852.000000;1.380287
9851.000000;1.380572
9850.000000;1.379877
9849.000000;1.378847
9848.000000;1.378270
9847.000000;1.378196
9846.000000;1.378203
9845.000000;1.378067
9844.000000;1.377830
9843.000000;1.377502
9842.000000;1.377039
9841.000000;1.376511
9840.000000;1.376046
9839.000000;1.375675
9838.000000;1.375369
9837.000000;1.375072
9836.000000;1.374598
9835.000000;1.373711
9834.000000;1.372502
9833.000000;1.371452
9832.000000;1.370886
9831.000000;1.370556
9830.000000;1.370023
9829.000000;1.369318
9828.000000;1.368882
9827.000000;1.368878
9826.000000;1.368916
9825.000000;1.368506
9824.000000;1.367547
9823.000000;1.366345
9822.000000;1.365326
9821.000000;1.364787
9820.000000;1.364729
9819.000000;1.364859
9818.000000;1.364897
9817.000000;1.364899
9816.000000;1.365109
9815.000000;1.365474
9814.000000;1.365542
9813.000000;1.364962
9812.000000;1.363919
9811.000000;1.362927
9810.000000;1.362304
9809.000000;1.361976
9808.000000;1.361670
9807.000000;1.361109
9806.000000;1.360113
9805.000000;1.358713
9804.000000;1.357242
9803.000000;1.356218
9802.000000;1.356009
9801.000000;1.356608
9800.000000;1.357708
9799.000000;1.358887
9798.000000;1.359670
9797.000000;1.359556
9796.000000;1.358292
9795.000000;1.356271
9794.000000;1.354476
9793.000000;1.353724
9792.000000;1.353920
9791.000000;1.354205
9790.000000;1.353875
9789.000000;1.353063
9788.000000;1.352458
9787.000000;1.352575
9786.000000;1.353359
9785.000000;1.354278
9784.000000;1.354631
9783.000000;1.353976
9782.000000;1.352505
9781.000000;1.350939
9780.000000;1.349897
9779.000000;1.349442
9778.000000;1.349317
9777.000000;1.349357
9776.000000;1.349429
9775.000000;1.349183
9774.000000;1.348283
9773.000000;1.346872
9772.000000;1.345469
9771.000000;1.344451
9770.000000;1.343926
9769.000000;1.344055
9768.000000;1.344999
9767.000000;1.346395
9766.000000;1.347253
9765.000000;1.346763
9764.000000;1.345046
9763.000000;1.342928
9762.000000;1.341136
9761.000000;1.339891
9760.000000;1.339077
9759.000000;1.338500
9758.000000;1.337980
9757.000000;1.337395
9756.000000;1.336712
9755.000000;1.336004
9754.000000;1.335453
9753.000000;1.335243
9752.000000;1.335337
9751.000000;1.335472
9750.000000;1.335555
9749.000000;1.335949
9748.000000;1.337020
9747.000000;1.338399
9746.000000;1.339145
9745.000000;1.338853
9744.000000;1.338199
9743.000000;1.338004
9742.000000;1.338095
9741.000000;1.337586
9740.000000;1.336136
9739.000000;1.334405
9738.000000;1.333175
9737.000000;1.332465
9736.000000;1.331698
9735.000000;1.330485
9734.000000;1.329065
9733.000000;1.328042
9732.000000;1.327824
9731.000000;1.328235
9730.000000;1.328621
9729.000000;1.328385
9728.000000;1.327502
9727.000000;1.326494
9726.000000;1.325923
9725.000000;1.325925
9724.000000;1.326143
9723.000000;1.326065
9722.000000;1.325489
9721.000000;1.324756
9720.000000;1.324439
9719.000000;1.324735
9718.000000;1.325275
9717.000000;1.325592
9716.000000;1.325611
9715.000000;1.325477
9714.000000;1.325101
9713.000000;1.324263
9712.000000;1.323148
9711.000000;1.322325
9710.000000;1.322023
9709.000000;1.321732
9708.000000;1.320809
9707.000000;1.319321
9706.000000;1.317990
9705.000000;1.317380
9704.000000;1.317402
9703.000000;1.317641
9702.000000;1.317874
9701.000000;1.318092
9700.000000;1.318133
9699.000000;1.317601
9698.000000;1.316309
9697.000000;1.314656
9696.000000;1.313390
9695.000000;1.312969
9694.000000;1.313241
9693.000000;1.313735
9692.000000;1.314089
9691.000000;1.314180
9690.000000;1.314024
9689.000000;1.313740
9688.000000;1.313516
9687.000000;1.313413
9686.000000;1.313238
9685.000000;1.312755
9684.000000;1.312009
9683.000000;1.311267
9682.000000;1.310672
9681.000000;1.310148
9680.000000;1.309666
9679.000000;1.309396
9678.000000;1.309480
9677.000000;1.309796
9676.000000;1.310053
9675.000000;1.310034
9674.000000;1.309675
9673.000000;1.309044
9672.000000;1.308381
9671.000000;1.308018
9670.000000;1.308078
9669.000000;1.308255
9668.000000;1.308076
9667.000000;1.307405
9666.000000;1.306533
9665.000000;1.305787
9664.000000;1.305208
9663.000000;1.304711
9662.000000;1.304355
9661.000000;1.304291
9660.000000;1.304493
9659.000000;1.304686
9658.000000;1.304523
9657.000000;1.303750
9656.000000;1.302294
9655.000000;1.300427
9654.000000;1.298802
9653.000000;1.298039
9652.000000;1.298131
9651.000000;1.298423
9650.000000;1.298348
9649.000000;1.298031
9648.000000;1.297937
9647.000000;1.298038
9646.000000;1.297730
9645.000000;1.296633
9644.000000;1.295153
9643.000000;1.294075
9642.000000;1.293787
9641.000000;1.294076
9640.000000;1.294496
9639.000000;1.294714
9638.000000;1.294561
9637.000000;1.294000
9636.000000;1.293114
9635.000000;1.292080
9634.000000;1.291145
9633.000000;1.290619
9632.000000;1.290669
9631.000000;1.291012
9630.000000;1.290964
9629.000000;1.290054
9628.000000;1.288565
9627.000000;1.287278
9626.000000;1.286729
9625.000000;1.286856
9624.000000;1.287304
9623.000000;1.287787
9622.000000;1.288096
9621.000000;1.287986
9620.000000;1.287318
9619.000000;1.286282
9618.000000;1.285343
9617.000000;1.284923
9616.000000;1.285093
9615.000000;1.285475
9614.000000;1.285493
9613.000000;1.284920
9612.000000;1.284185
9611.000000;1.283962
9610.000000;1.284336
9609.000000;1.284563
9608.000000;1.283882
9607.000000;1.282464
9606.000000;1.281284
9605.000000;1.281072
9604.000000;1.281647
9603.000000;1.282310
9602.000000;1.282629
9601.000000;1.282646
9600.000000;1.282468
9599.000000;1.281951
9598.000000;1.280901
9597.000000;1.279437
9596.000000;1.278043
9595.000000;1.277247
9594.000000;1.277188
9593.000000;1.277420
9592.000000;1.277187
9591.000000;1.276086
9590.000000;1.274562
9589.000000;1.273599
9588.000000;1.273802
9587.000000;1.274803
9586.000000;1.275623
9585.000000;1.275577
9584.000000;1.274765
9583.000000;1.273763
9582.000000;1.273014
9581.000000;1.272519
9580.000000;1.271957
9579.000000;1.271075
9578.000000;1.269991
9577.000000;1.269121
9576.000000;1.268740
9575.000000;1.268658
9574.000000;1.268467
9573.000000;1.268072
9572.000000;1.267775
9571.000000;1.267815
9570.000000;1.268031
9569.000000;1.268067
9568.000000;1.267764
9567.000000;1.267187
9566.000000;1.266423
9565.000000;1.265531
9564.000000;1.264678
9563.000000;1.264134
9562.000000;1.264050
9561.000000;1.264244
9560.000000;1.264258
9559.000000;1.263693
9558.000000;1.262613
9557.000000;1.261609
9556.000000;1.261317
9555.000000;1.261758
9554.000000;1.262236
9553.000000;1.262027
9552.000000;1.261124
9551.000000;1.260190
9550.000000;1.259837
9549.000000;1.260077
9548.000000;1.260464
9547.000000;1.260570
9546.000000;1.260264
9545.000000;1.259652
9544.000000;1.258877
9543.000000;1.258041
9542.000000;1.257270
9541.000000;1.256738
9540.000000;1.256547
9539.000000;1.256592
9538.000000;1.256599
9537.000000;1.256311
9536.000000;1.255625
9535.000000;1.254638
9534.000000;1.253661
9533.000000;1.253125
9532.000000;1.253283
9531.000000;1.253934
9530.000000;1.254502
9529.000000;1.254460
9528.000000;1.253681
9527.000000;1.252474
9526.000000;1.251377
9525.000000;1.250854
9524.000000;1.250915
9523.000000;1.251010
9522.000000;1.250516
9521.000000;1.249434
9520.000000;1.248376
9519.000000;1.247810
9518.000000;1.247588
9517.000000;1.247348
9516.000000;1.247065
9515.000000;1.246939
9514.000000;1.246970
9513.000000;1.246984
9512.000000;1.246962
9511.000000;1.247057
9510.000000;1.247282
9509.000000;1.247424
9508.000000;1.247245
9507.000000;1.246646
9506.000000;1.245712
9505.000000;1.244803
9504.000000;1.244429
9503.000000;1.244719
9502.000000;1.245089
9501.000000;1.244767
9500.000000;1.243677
9499.000000;1.242491
9498.000000;1.241796
9497.000000;1.241534
9496.000000;1.241324
9495.000000;1.240943
9494.000000;1.240362
9493.000000;1.239606
9492.000000;1.238891
9491.000000;1.238684
9490.000000;1.239306
9489.000000;1.240501
9488.000000;1.241571
9487.000000;1.241904
9486.000000;1.241308
9485.000000;1.239932
9484.000000;1.238108
9483.000000;1.236266
9482.000000;1.234827
9481.000000;1.234038
9480.000000;1.233888
9479.000000;1.234156
9478.000000;1.234543
9477.000000;1.234802
9476.000000;1.234819
9475.000000;1.234582
9474.000000;1.234128
9473.000000;1.233546
9472.000000;1.232977
9471.000000;1.232513
9470.000000;1.232116
9469.000000;1.231718
9468.000000;1.231374
9467.000000;1.231156
9466.000000;1.230916
9465.000000;1.230359
9464.000000;1.229428
9463.000000;1.228484
9462.000000;1.227974
9461.000000;1.227988
9460.000000;1.228193
9459.000000;1.228145
9458.000000;1.227673
9457.000000;1.227033
9456.000000;1.226667
9455.000000;1.226720
9454.000000;1.226778
9453.000000;1.226278
9452.000000;1.225201
9451.000000;1.224178
9450.000000;1.223812
9449.000000;1.224089
9448.000000;1.224534
9447.000000;1.224746
9446.000000;1.224617
9445.000000;1.224172
9444.000000;1.223479
9443.000000;1.222703
9442.000000;1.222036
9441.000000;1.221533
9440.000000;1.221147
9439.000000;1.220929
9438.000000;1.221017
9437.000000;1.221325
9436.000000;1.221369
9435.000000;1.220600
9434.000000;1.218975
9433.000000;1.217150
9432.000000;1.216008
9431.000000;1.215946
9430.000000;1.216634
9429.000000;1.217458
9428.000000;1.218111
9427.000000;1.218673
9426.000000;1.219177
9425.000000;1.219316
9424.000000;1.218703
9423.000000;1.217313
9422.000000;1.215588
9421.000000;1.214095
9420.000000;1.213149
9419.000000;1.212723
9418.000000;1.212677
9417.000000;1.212997
9416.000000;1.213730
9415.000000;1.214663
9414.000000;1.215257
9413.000000;1.215095
9412.000000;1.214339
9411.000000;1.213486
9410.000000;1.212694
9409.000000;1.211621
9408.000000;1.210035
9407.000000;1.208281
9406.000000;1.206943
9405.000000;1.206209
9404.000000;1.205798
9403.000000;1.205445
9402.000000;1.205223
9401.000000;1.205334
9400.000000;1.205731
9399.000000;1.206079
9398.000000;1.206088
9397.000000;1.205788
9396.000000;1.205427
9395.000000;1.205110
9394.000000;1.204751
9393.000000;1.204423
9392.000000;1.204491
9391.000000;1.205090
9390.000000;1.205587
9389.000000;1.205053
9388.000000;1.203383
9387.000000;1.201546
9386.000000;1.200547
9385.000000;1.200485
9384.000000;1.200846
9383.000000;1.201314
9382.000000;1.201821
9381.000000;1.202060
9380.000000;1.201596
9379.000000;1.200511
9378.000000;1.199494
9377.000000;1.199122
9376.000000;1.199362
9375.000000;1.199828
9374.000000;1.200212
9373.000000;1.200298
9372.000000;1.199864
9371.000000;1.198862
9370.000000;1.197543
9369.000000;1.196225
9368.000000;1.195052
9367.000000;1.194134
9366.000000;1.193762
9365.000000;1.194179
9364.000000;1.195115
9363.000000;1.195813
9362.000000;1.195674
9361.000000;1.194803
9360.000000;1.193824
9359.000000;1.193226
9358.000000;1.192990
9357.000000;1.192814
9356.000000;1.192511
9355.000000;1.192106
9354.000000;1.191649
9353.000000;1.191114
9352.000000;1.190495
9351.000000;1.189873
9350.000000;1.189334
9349.000000;1.188912
9348.000000;1.188636
9347.000000;1.188541
9346.000000;1.188560
9345.000000;1.188545
9344.000000;1.188451
9343.000000;1.188381
9342.000000;1.188339
9341.000000;1.188127
9340.000000;1.187662
9339.000000;1.187245
9338.000000;1.187245
9337.000000;1.187554
9336.000000;1.187615
9335.000000;1.187066
9334.000000;1.186149
9333.000000;1.185382
9332.000000;1.184982
9331.000000;1.184734
9330.000000;1.184371
9329.000000;1.183927
9328.000000;1.183691
9327.000000;1.183833
9326.000000;1.184132
9325.000000;1.184163
9324.000000;1.183762
9323.000000;1.183171
9322.000000;1.182689
9321.000000;1.182355
9320.000000;1.182105
9319.000000;1.182015
9318.000000;1.182127
9317.000000;1.182150
9316.000000;1.181659
9315.000000;1.180574
9314.000000;1.179213
9313.000000;1.177914
9312.000000;1.176879
9311.000000;1.176317
9310.000000;1.176346
9309.000000;1.176687
9308.000000;1.176817
9307.000000;1.176611
9306.000000;1.176509
9305.000000;1.176857
9304.000000;1.177383
9303.000000;1.177572
9302.000000;1.177304
9301.000000;1.176810
9300.000000;1.176217
9299.000000;1.175522
9298.000000;1.174898
9297.000000;1.174636
9296.000000;1.174764
9295.000000;1.174998
9294.000000;1.175051
9293.000000;1.174789
9292.000000;1.174139
9291.000000;1.173163
9290.000000;1.172220
9289.000000;1.171736
9288.000000;1.171698
9287.000000;1.171593
9286.000000;1.170994
9285.000000;1.170056
9284.000000;1.169287
9283.000000;1.169003
9282.000000;1.169141
9281.000000;1.169505
9280.000000;1.169969
9279.000000;1.170438
9278.000000;1.170733
9277.000000;1.170596
9276.000000;1.169861
9275.000000;1.168658
9274.000000;1.167436
9273.000000;1.166693
9272.000000;1.166622
9271.000000;1.166987
9270.000000;1.167351
9269.000000;1.167400
9268.000000;1.167065
9267.000000;1.166424
9266.000000;1.165591
9265.000000;1.164727
9264.000000;1.164076
9263.000000;1.163833
9262.000000;1.163879
9261.000000;1.163743
9260.000000;1.163037
9259.000000;1.161966
9258.000000;1.161213
9257.000000;1.161186
9256.000000;1.161544
9255.000000;1.161612
9254.000000;1.161150
9253.000000;1.160510
9252.000000;1.160078
9251.000000;1.159839
9250.000000;1.159521
9249.000000;1.158967
9248.000000;1.158267
9247.000000;1.157632
9246.000000;1.157254
9245.000000;1.157204
9244.000000;1.157399
9243.000000;1.157661
9242.000000;1.157816
9241.000000;1.157732
9240.000000;1.157321
9239.000000;1.156620
9238.000000;1.155837
9237.000000;1.155209
9236.000000;1.154808
9235.000000;1.154566
9234.000000;1.154439
9233.000000;1.154392
9232.000000;1.154290
9231.000000;1.153983
9230.000000;1.153542
9229.000000;1.153183
9228.000000;1.152907
9227.000000;1.152411
9226.000000;1.151511
9225.000000;1.150471
9224.000000;1.149762
9223.000000;1.149571
9222.000000;1.149718
9221.000000;1.149931
9220.000000;1.150060
9219.000000;1.150049
9218.000000;1.149881
9217.000000;1.149568
9216.000000;1.149138
9215.000000;1.148630
9214.000000;1.148157
9213.000000;1.147882
9212.000000;1.147806
9211.000000;1.147634
9210.000000;1.147051
9209.000000;1.146123
9208.000000;1.145285
9207.000000;1.144866
9206.000000;1.144747
9205.000000;1.144587
9204.000000;1.144290
9203.000000;1.144138
9202.000000;1.144451
9201.000000;1.145209
9200.000000;1.146044
9199.000000;1.146544
9198.000000;1.146509
9197.000000;1.145940
9196.000000;1.144921
9195.000000;1.143610
9194.000000;1.142289
9193.000000;1.141246
9192.000000;1.140550
9191.000000;1.140008
9190.000000;1.139418
9189.000000;1.138811
9188.000000;1.138391
9187.000000;1.138303
9186.000000;1.138492
9185.000000;1.138757
9184.000000;1.138875
9183.000000;1.138716
9182.000000;1.138329
9181.000000;1.137896
9180.000000;1.137550
9179.000000;1.137263
9178.000000;1.136961
9177.000000;1.136741
9176.000000;1.136859
9175.000000;1.137479
9174.000000;1.138432
9173.000000;1.139255
9172.000000;1.139476
9171.000000;1.138917
9170.000000;1.137773
9169.000000;1.136423
9168.000000;1.135163
9167.000000;1.134139
9166.000000;1.133442
9165.000000;1.133140
9164.000000;1.133177
9163.000000;1.133321
9162.000000;1.133297
9161.000000;1.132973
9160.000000;1.132400
9159.000000;1.131730
9158.000000;1.131096
9157.000000;1.130503
9156.000000;1.129826
9155.000000;1.129026
9154.000000;1.128375
9153.000000;1.128332
9152.000000;1.129053
9151.000000;1.130124
9150.000000;1.130874
9149.000000;1.130912
9148.000000;1.130328
9147.000000;1.129502
9146.000000;1.128856
9145.000000;1.128683
9144.000000;1.128955
9143.000000;1.129283
9142.000000;1.129218
9141.000000;1.128642
9140.000000;1.127774
9139.000000;1.126871
9138.000000;1.126075
9137.000000;1.125503
9136.000000;1.125256
9135.000000;1.125244
9134.000000;1.125190
9133.000000;1.124890
9132.000000;1.124444
9131.000000;1.124142
9130.000000;1.124189
9129.000000;1.124506
9128.000000;1.124749
9127.000000;1.124550
9126.000000;1.123854
9125.000000;1.122990
9124.000000;1.122292
9123.000000;1.121710
9122.000000;1.120949
9121.000000;1.119969
9120.000000;1.119117
9119.000000;1.118756
9118.000000;1.118970
9117.000000;1.119635
9116.000000;1.120553
9115.000000;1.121396
9114.000000;1.121791
9113.000000;1.121608
9112.000000;1.121040
9111.000000;1.120286
9110.000000;1.119380
9109.000000;1.118454
9108.000000;1.117890
9107.000000;1.117911
9106.000000;1.118173
9105.000000;1.118083
9104.000000;1.117474
9103.000000;1.116702
9102.000000;1.116123
9101.000000;1.115770
9100.000000;1.115564
9099.000000;1.115528
9098.000000;1.115663
9097.000000;1.115782
9096.000000;1.115649
9095.000000;1.115219
9094.000000;1.114671
9093.000000;1.114237
9092.000000;1.113996
9091.000000;1.113802
9090.000000;1.113469
9089.000000;1.113099
9088.000000;1.113083
9087.000000;1.113617
9086.000000;1.114319
9085.000000;1.114569
9084.000000;1.114175
9083.000000;1.113457
9082.000000;1.112682
9081.000000;1.111791
9080.000000;1.110763
9079.000000;1.109879
9078.000000;1.109384
9077.000000;1.109149
9076.000000;1.108913
9075.000000;1.108678
9074.000000;1.108615
9073.000000;1.108718
9072.000000;1.108813
9071.000000;1.108801
9070.000000;1.108615
9069.000000;1.108022
9068.000000;1.106831
9067.000000;1.105341
9066.000000;1.104269
9065.000000;1.104067
9064.000000;1.104501
9063.000000;1.104998
9062.000000;1.105236
9061.000000;1.105267
9060.000000;1.105239
9059.000000;1.105232
9058.000000;1.105291
9057.000000;1.105397
9056.000000;1.105367
9055.000000;1.104953
9054.000000;1.104114
9053.000000;1.103120
