Criado como novo conjunto de dados;"Jao_teste_celulas.spp","10684.1 Secs"
cm-1;Abs
10000.000000;1.964371
9999.000000;1.965952
9998.000000;1.966694
9997.000000;1.965571
9996.000000;1.963587
9995.000000;1.962920
9994.000000;1.964435
9993.000000;1.966751
9992.000000;1.967838
9991.000000;1.967257
9990.000000;1.966233
9989.000000;1.966095
9988.000000;1.967294
9987.000000;1.969540
9986.000000;1.971884
9985.000000;1.972738
9984.000000;1.970824
9983.000000;1.966572
9982.000000;1.962019
9981.000000;1.958944
9980.000000;1.957477
9979.000000;1.956575
9978.000000;1.955389
9977.000000;1.953918
9976.000000;1.952753
9975.000000;1.952573
9974.000000;1.953503
9973.000000;1.954772
9972.000000;1.955371
9971.000000;1.955295
9970.000000;1.955682
9969.000000;1.957190
9968.000000;1.958616
9967.000000;1.957883
9966.000000;1.954371
9965.000000;1.949643
9964.000000;1.945830
9963.000000;1.944096
9962.000000;1.944715
9961.000000;1.947590
9960.000000;1.951902
9959.000000;1.955721
9958.000000;1.957022
9957.000000;1.955554
9956.000000;1.953028
9955.000000;1.951051
9954.000000;1.949610
9953.000000;1.947982
9952.000000;1.946328
9951.000000;1.945485
9950.000000;1.945312
9949.000000;1.944321
9948.000000;1.941716
9947.000000;1.939094
9946.000000;1.939038
9945.000000;1.942101
9944.000000;1.945711
9943.000000;1.946418
9942.000000;1.943247
9941.000000;1.938307
9940.000000;1.934372
9939.000000;1.932591
9938.000000;1.932433
9937.000000;1.933090
9936.000000;1.934289
9935.000000;1.935914
9934.000000;1.937530
9933.000000;1.938724
9932.000000;1.939511
9931.000000;1.939752
9930.000000;1.938486
9929.000000;1.934836
9928.000000;1.929700
9927.000000;1.925517
9926.000000;1.923878
9925.000000;1.924019
9924.000000;1.924116
9923.000000;1.923563
9922.000000;1.923180
9921.000000;1.923501
9920.000000;1.923919
9919.000000;1.923719
9918.000000;1.923203
9917.000000;1.923396
9916.000000;1.924986
9915.000000;1.927658
9914.000000;1.930114
9913.000000;1.930778
9912.000000;1.929279
9911.000000;1.927311
9910.000000;1.927065
9909.000000;1.928913
9908.000000;1.931390
9907.000000;1.933217
9906.000000;1.934360
9905.000000;1.934875
9904.000000;1.933909
9903.000000;1.930863
9902.000000;1.926876
9901.000000;1.924026
9900.000000;1.923176
9899.000000;1.923279
9898.000000;1.922905
9897.000000;1.921965
9896.000000;1.921573
9895.000000;1.922580
9894.000000;1.924558
9893.000000;1.926169
9892.000000;1.926574
9891.000000;1.926363
9890.000000;1.926732
9889.000000;1.927787
9888.000000;1.928158
9887.000000;1.926585
9886.000000;1.923519
9885.000000;1.920621
9884.000000;1.918921
9883.000000;1.917989
9882.000000;1.916929
9881.000000;1.915689
9880.000000;1.915049
9879.000000;1.915440
9878.000000;1.916161
9877.000000;1.916048
9876.000000;1.914865
9875.000000;1.913648
9874.000000;1.913443
9873.000000;1.914089
9872.000000;1.914678
9871.000000;1.914846
9870.000000;1.914884
9869.000000;1.914692
9868.000000;1.913598
9867.000000;1.911514
9866.000000;1.909548
9865.000000;1.909053
9864.000000;1.910412
9863.000000;1.912823
9862.000000;1.914696
9861.000000;1.914157
9860.000000;1.910230
9859.000000;1.904237
9858.000000;1.899256
9857.000000;1.897471
9856.000000;1.898510
9855.000000;1.900660
9854.000000;1.902990
9853.000000;1.905426
9852.000000;1.907328
9851.000000;1.907403
9850.000000;1.905305
9849.000000;1.902345
9848.000000;1.900236
9847.000000;1.899792
9846.000000;1.900775
9845.000000;1.901900
9844.000000;1.900974
9843.000000;1.896563
9842.000000;1.890155
9841.000000;1.885577
9840.000000;1.885524
9839.000000;1.889089
9838.000000;1.893006
9837.000000;1.894984
9836.000000;1.895208
9835.000000;1.894861
9834.000000;1.894579
9833.000000;1.894776
9832.000000;1.896304
9831.000000;1.899677
9830.000000;1.903840
9829.000000;1.906578
9828.000000;1.906402
9827.000000;1.903592
9826.000000;1.899377
9825.000000;1.894853
9824.000000;1.890942
9823.000000;1.888536
9822.000000;1.887840
9821.000000;1.887900
9820.000000;1.887618
9819.000000;1.887207
9818.000000;1.887841
9817.000000;1.889774
9816.000000;1.891667
9815.000000;1.892192
9814.000000;1.891582
9813.000000;1.890854
9812.000000;1.890085
9811.000000;1.888387
9810.000000;1.885453
9809.000000;1.882300
9808.000000;1.880309
9807.000000;1.880043
9806.000000;1.881106
9805.000000;1.882804
9804.000000;1.884713
9803.000000;1.886689
9802.000000;1.888407
9801.000000;1.889109
9800.000000;1.888136
9799.000000;1.885687
9798.000000;1.882730
9797.000000;1.880158
9796.000000;1.878410
9795.000000;1.877799
9794.000000;1.878372
9793.000000;1.879291
9792.000000;1.879277
9791.000000;1.878054
9790.000000;1.876732
9789.000000;1.876350
9788.000000;1.876690
9787.000000;1.876978
9786.000000;1.877021
9785.000000;1.876980
9784.000000;1.876694
9783.000000;1.876149
9782.000000;1.876080
9781.000000;1.877048
9780.000000;1.878258
9779.000000;1.878357
9778.000000;1.877218
9777.000000;1.875857
9776.000000;1.874749
9775.000000;1.873512
9774.000000;1.872152
9773.000000;1.871218
9772.000000;1.870572
9771.000000;1.869281
9770.000000;1.867080
9769.000000;1.864922
9768.000000;1.863638
9767.000000;1.863030
9766.000000;1.862687
9765.000000;1.862732
9764.000000;1.863349
9763.000000;1.864328
9762.000000;1.865535
9761.000000;1.867267
9760.000000;1.869374
9759.000000;1.870449
9758.000000;1.869008
9757.000000;1.865290
9756.000000;1.861025
9755.000000;1.857818
9754.000000;1.856399
9753.000000;1.856932
9752.000000;1.859095
9751.000000;1.861889
9750.000000;1.864103
9749.000000;1.865259
9748.000000;1.865828
9747.000000;1.866418
9746.000000;1.866850
9745.000000;1.866039
9744.000000;1.862985
9743.000000;1.858209
9742.000000;1.853968
9741.000000;1.852362
9740.000000;1.853177
9739.000000;1.854168
9738.000000;1.853769
9737.000000;1.852795
9736.000000;1.852992
9735.000000;1.854832
9734.000000;1.857487
9733.000000;1.860088
9732.000000;1.861970
9731.000000;1.862317
9730.000000;1.860959
9729.000000;1.859203
9728.000000;1.858439
9727.000000;1.858032
9726.000000;1.855983
9725.000000;1.851918
9724.000000;1.848066
9723.000000;1.846693
9722.000000;1.847711
9721.000000;1.849342
9720.000000;1.850169
9719.000000;1.849725
9718.000000;1.847866
9717.000000;1.844736
9716.000000;1.841127
9715.000000;1.837993
9714.000000;1.835634
9713.000000;1.834022
9712.000000;1.833758
9711.000000;1.835831
9710.000000;1.840206
9709.000000;1.845211
9708.000000;1.848679
9707.000000;1.849570
9706.000000;1.848396
9705.000000;1.846383
9704.000000;1.844465
9703.000000;1.842870
9702.000000;1.841456
9701.000000;1.840382
9700.000000;1.840210
9699.000000;1.841033
9698.000000;1.841721
9697.000000;1.840800
9696.000000;1.838330
9695.000000;1.836134
9694.000000;1.835681
9693.000000;1.836384
9692.000000;1.836627
9691.000000;1.835978
9690.000000;1.835409
9689.000000;1.835487
9688.000000;1.835513
9687.000000;1.834824
9686.000000;1.834039
9685.000000;1.834316
9684.000000;1.835785
9683.000000;1.837281
9682.000000;1.837390
9681.000000;1.835453
9680.000000;1.831999
9679.000000;1.828722
9678.000000;1.827599
9677.000000;1.829146
9676.000000;1.831427
9675.000000;1.831517
9674.000000;1.828505
9673.000000;1.824560
9672.000000;1.822744
9671.000000;1.824311
9670.000000;1.828007
9669.000000;1.831371
9668.000000;1.832642
9667.000000;1.831878
9666.000000;1.830584
9665.000000;1.830118
9664.000000;1.830301
9663.000000;1.829795
9662.000000;1.828025
9661.000000;1.826309
9660.000000;1.826492
9659.000000;1.828600
9658.000000;1.830443
9657.000000;1.829770
9656.000000;1.826545
9655.000000;1.822816
9654.000000;1.820686
9653.000000;1.820784
9652.000000;1.822274
9651.000000;1.823764
9650.000000;1.824321
9649.000000;1.824063
9648.000000;1.823830
9647.000000;1.823973
9646.000000;1.823512
9645.000000;1.821024
9644.000000;1.816605
9643.000000;1.812329
9642.000000;1.810346
9641.000000;1.810951
9640.000000;1.812876
9639.000000;1.814924
9638.000000;1.816649
9637.000000;1.817728
9636.000000;1.817748
9635.000000;1.816918
9634.000000;1.816140
9633.000000;1.815889
9632.000000;1.815681
9631.000000;1.815006
9630.000000;1.814139
9629.000000;1.813573
9628.000000;1.813136
9627.000000;1.812304
9626.000000;1.811055
9625.000000;1.809746
9624.000000;1.808532
9623.000000;1.807575
9622.000000;1.807445
9621.000000;1.808560
9620.000000;1.810294
9619.000000;1.811277
9618.000000;1.810815
9617.000000;1.809717
9616.000000;1.809440
9615.000000;1.810554
9614.000000;1.811992
9613.000000;1.811760
9612.000000;1.808875
9611.000000;1.804864
9610.000000;1.802646
9609.000000;1.803616
9608.000000;1.806220
9607.000000;1.807736
9606.000000;1.807085
9605.000000;1.805131
9604.000000;1.802704
9603.000000;1.799770
9602.000000;1.796720
9601.000000;1.795195
9600.000000;1.796690
9599.000000;1.800704
9598.000000;1.804791
9597.000000;1.806489
9596.000000;1.805231
9595.000000;1.802572
9594.000000;1.800626
9593.000000;1.800108
9592.000000;1.799861
9591.000000;1.798404
9590.000000;1.795754
9589.000000;1.793242
9588.000000;1.791801
9587.000000;1.791301
9586.000000;1.791549
9585.000000;1.792868
9584.000000;1.795230
9583.000000;1.797586
9582.000000;1.798706
9581.000000;1.798318
9580.000000;1.796928
9579.000000;1.795025
9578.000000;1.793045
9577.000000;1.791682
9576.000000;1.791489
9575.000000;1.792182
9574.000000;1.792831
9573.000000;1.792788
9572.000000;1.792107
9571.000000;1.791179
9570.000000;1.790269
9569.000000;1.789432
9568.000000;1.788651
9567.000000;1.787979
9566.000000;1.787606
9565.000000;1.787659
9564.000000;1.787815
9563.000000;1.787311
9562.000000;1.785657
9561.000000;1.783422
9560.000000;1.782055
9559.000000;1.782622
9558.000000;1.784567
9557.000000;1.785906
9556.000000;1.785172
9555.000000;1.783199
9554.000000;1.782349
9553.000000;1.783752
9552.000000;1.785962
9551.000000;1.786735
9550.000000;1.785606
9549.000000;1.783922
9548.000000;1.782805
9547.000000;1.782242
9546.000000;1.782025
9545.000000;1.782361
9544.000000;1.783225
9543.000000;1.784005
9542.000000;1.784227
9541.000000;1.784017
9540.000000;1.783569
9539.000000;1.782848
9538.000000;1.782047
9537.000000;1.781624
9536.000000;1.781609
9535.000000;1.781526
9534.000000;1.781228
9533.000000;1.781039
9532.000000;1.780806
9531.000000;1.779812
9530.000000;1.778121
9529.000000;1.776986
9528.000000;1.777160
9527.000000;1.777654
9526.000000;1.777137
9525.000000;1.775901
9524.000000;1.775279
9523.000000;1.775477
9522.000000;1.775205
9521.000000;1.773536
9520.000000;1.771219
9519.000000;1.769748
9518.000000;1.769704
9517.000000;1.770340
9516.000000;1.770587
9515.000000;1.770267
9514.000000;1.770167
9513.000000;1.770816
9512.000000;1.771507
9511.000000;1.771063
9510.000000;1.769468
9509.000000;1.767828
9508.000000;1.766616
9507.000000;1.765087
9506.000000;1.762929
9505.000000;1.761384
9504.000000;1.761764
9503.000000;1.763595
9502.000000;1.765251
9501.000000;1.765992
9500.000000;1.766314
9499.000000;1.766625
9498.000000;1.766738
9497.000000;1.766499
9496.000000;1.765850
9495.000000;1.764343
9494.000000;1.761634
9493.000000;1.758594
9492.000000;1.756983
9491.000000;1.757588
9490.000000;1.759310
9489.000000;1.760460
9488.000000;1.760489
9487.000000;1.760117
9486.000000;1.760128
9485.000000;1.760390
9484.000000;1.759953
9483.000000;1.758014
9482.000000;1.754904
9481.000000;1.752068
9480.000000;1.750918
9479.000000;1.751813
9478.000000;1.754156
9477.000000;1.757008
9476.000000;1.759206
9475.000000;1.759449
9474.000000;1.757258
9473.000000;1.753810
9472.000000;1.751052
9471.000000;1.750046
9470.000000;1.750593
9469.000000;1.751995
9468.000000;1.753457
9467.000000;1.754190
9466.000000;1.754138
9465.000000;1.754404
9464.000000;1.755805
9463.000000;1.756974
9462.000000;1.755240
9461.000000;1.749963
9460.000000;1.743819
9459.000000;1.740076
9458.000000;1.739570
9457.000000;1.740749
9456.000000;1.741775
9455.000000;1.741955
9454.000000;1.741633
9453.000000;1.741505
9452.000000;1.742008
9451.000000;1.742963
9450.000000;1.743846
9449.000000;1.744487
9448.000000;1.745095
9447.000000;1.745550
9446.000000;1.745369
9445.000000;1.744694
9444.000000;1.744488
9443.000000;1.745103
9442.000000;1.745303
9441.000000;1.743592
9440.000000;1.740213
9439.000000;1.736974
9438.000000;1.735352
9437.000000;1.735594
9436.000000;1.737351
9435.000000;1.740127
9434.000000;1.742889
9433.000000;1.744207
9432.000000;1.743492
9431.000000;1.741685
9430.000000;1.740134
9429.000000;1.739146
9428.000000;1.738120
9427.000000;1.736825
9426.000000;1.735820
9425.000000;1.735437
9424.000000;1.734976
9423.000000;1.733473
9422.000000;1.731072
9421.000000;1.729000
9420.000000;1.728115
9419.000000;1.728022
9418.000000;1.727883
9417.000000;1.727628
9416.000000;1.727881
9415.000000;1.728939
9414.000000;1.730435
9413.000000;1.731978
9412.000000;1.733547
9411.000000;1.735095
9410.000000;1.736237
9409.000000;1.736537
9408.000000;1.735757
9407.000000;1.733728
9406.000000;1.730414
9405.000000;1.726466
9404.000000;1.723362
9403.000000;1.722480
9402.000000;1.723996
9401.000000;1.726772
9400.000000;1.729196
9399.000000;1.730221
9398.000000;1.729935
9397.000000;1.729275
9396.000000;1.729049
9395.000000;1.729107
9394.000000;1.728547
9393.000000;1.726749
9392.000000;1.724031
9391.000000;1.721308
9390.000000;1.719463
9389.000000;1.719012
9388.000000;1.719840
9387.000000;1.721017
9386.000000;1.721372
9385.000000;1.720662
9384.000000;1.719859
9383.000000;1.719924
9382.000000;1.720713
9381.000000;1.721490
9380.000000;1.722099
9379.000000;1.722931
9378.000000;1.723831
9377.000000;1.723809
9376.000000;1.722132
9375.000000;1.719282
9374.000000;1.716541
9373.000000;1.714878
9372.000000;1.714434
9371.000000;1.714792
9370.000000;1.715417
9369.000000;1.715853
9368.000000;1.715808
9367.000000;1.715288
9366.000000;1.714696
9365.000000;1.714632
9364.000000;1.715379
9363.000000;1.716554
9362.000000;1.717345
9361.000000;1.717111
9360.000000;1.715816
9359.000000;1.714032
9358.000000;1.712623
9357.000000;1.712208
9356.000000;1.712581
9355.000000;1.712761
9354.000000;1.711968
9353.000000;1.710590
9352.000000;1.709836
9351.000000;1.710444
9350.000000;1.712039
9349.000000;1.713701
9348.000000;1.714657
9347.000000;1.714357
9346.000000;1.712541
9345.000000;1.709716
9344.000000;1.707199
9343.000000;1.706226
9342.000000;1.707031
9341.000000;1.708902
9340.000000;1.710816
9339.000000;1.711786
9338.000000;1.711154
9337.000000;1.709175
9336.000000;1.706984
9335.000000;1.705484
9334.000000;1.704485
9333.000000;1.703327
9332.000000;1.702018
9331.000000;1.701128
9330.000000;1.700808
9329.000000;1.700654
9328.000000;1.700547
9327.000000;1.700901
9326.000000;1.701857
9325.000000;1.702759
9324.000000;1.702785
9323.000000;1.701757
9322.000000;1.700170
9321.000000;1.698787
9320.000000;1.698330
9319.000000;1.699034
9318.000000;1.700173
9317.000000;1.700354
9316.000000;1.698781
9315.000000;1.696191
9314.000000;1.694218
9313.000000;1.693859
9312.000000;1.694733
9311.000000;1.695689
9310.000000;1.696031
9309.000000;1.696202
9308.000000;1.697246
9307.000000;1.699516
9306.000000;1.701993
9305.000000;1.703086
9304.000000;1.702094
9303.000000;1.699678
9302.000000;1.697032
9301.000000;1.694961
9300.000000;1.693785
9299.000000;1.693583
9298.000000;1.694130
9297.000000;1.694778
9296.000000;1.694802
9295.000000;1.693960
9294.000000;1.692637
9293.000000;1.691462
9292.000000;1.690883
9291.000000;1.690930
9290.000000;1.691178
9289.000000;1.690982
9288.000000;1.689972
9287.000000;1.688411
9286.000000;1.687096
9285.000000;1.686819
9284.000000;1.687718
9283.000000;1.688975
9282.000000;1.689342
9281.000000;1.688284
9280.000000;1.686544
9279.000000;1.685286
9278.000000;1.684773
9277.000000;1.684267
9276.000000;1.683143
9275.000000;1.681582
9274.000000;1.680082
9273.000000;1.678906
9272.000000;1.678278
9271.000000;1.678528
9270.000000;1.679571
9269.000000;1.680639
9268.000000;1.681092
9267.000000;1.681176
9266.000000;1.681452
9265.000000;1.681774
9264.000000;1.681463
9263.000000;1.680368
9262.000000;1.679070
9261.000000;1.678014
9260.000000;1.677126
9259.000000;1.676498
9258.000000;1.676722
9257.000000;1.678094
9256.000000;1.679967
9255.000000;1.681379
9254.000000;1.682032
9253.000000;1.682154
9252.000000;1.681683
9251.000000;1.680305
9250.000000;1.678353
9249.000000;1.677006
9248.000000;1.677126
9247.000000;1.678160
9246.000000;1.678691
9245.000000;1.678027
9244.000000;1.676820
9243.000000;1.676051
9242.000000;1.675853
9241.000000;1.675666
9240.000000;1.675299
9239.000000;1.675230
9238.000000;1.675685
9237.000000;1.675940
9236.000000;1.675031
9235.000000;1.673025
9234.000000;1.671086
9233.000000;1.670255
9232.000000;1.670580
9231.000000;1.671449
9230.000000;1.672363
9229.000000;1.673124
9228.000000;1.673488
9227.000000;1.673019
9226.000000;1.671449
9225.000000;1.669112
9224.000000;1.666831
9223.000000;1.665244
9222.000000;1.664247
9221.000000;1.663327
9220.000000;1.662476
9219.000000;1.662425
9218.000000;1.663617
9217.000000;1.665229
9216.000000;1.665784
9215.000000;1.664786
9214.000000;1.663258
9213.000000;1.662459
9212.000000;1.662581
9211.000000;1.662977
9210.000000;1.663157
9209.000000;1.663042
9208.000000;1.662581
9207.000000;1.661722
9206.000000;1.660695
9205.000000;1.659902
9204.000000;1.659398
9203.000000;1.658818
9202.000000;1.658050
9201.000000;1.657687
9200.000000;1.658432
9199.000000;1.660236
9198.000000;1.662265
9197.000000;1.663571
9196.000000;1.663683
9195.000000;1.662732
9194.000000;1.661252
9193.000000;1.659879
9192.000000;1.659002
9191.000000;1.658537
9190.000000;1.658085
9189.000000;1.657465
9188.000000;1.657024
9187.000000;1.657241
9186.000000;1.658039
9185.000000;1.658738
9184.000000;1.658797
9183.000000;1.658369
9182.000000;1.657876
9181.000000;1.657318
9180.000000;1.656431
9179.000000;1.655341
9178.000000;1.654532
9177.000000;1.654097
9176.000000;1.653562
9175.000000;1.652696
9174.000000;1.652023
9173.000000;1.652172
9172.000000;1.652977
9171.000000;1.653475
9170.000000;1.652692
9169.000000;1.650378
9168.000000;1.647309
9167.000000;1.644994
9166.000000;1.644612
9165.000000;1.645877
9164.000000;1.647265
9163.000000;1.647792
9162.000000;1.648172
9161.000000;1.649645
9160.000000;1.652015
9159.000000;1.653575
9158.000000;1.653014
9157.000000;1.650766
9156.000000;1.648326
9155.000000;1.646810
9154.000000;1.646437
9153.000000;1.646789
9152.000000;1.647207
9151.000000;1.647210
9150.000000;1.646726
9149.000000;1.645802
9148.000000;1.644251
9147.000000;1.642001
9146.000000;1.639748
9145.000000;1.638665
9144.000000;1.639205
9143.000000;1.640543
9142.000000;1.641442
9141.000000;1.641427
9140.000000;1.640898
9139.000000;1.640474
9138.000000;1.640511
9137.000000;1.640998
9136.000000;1.641644
9135.000000;1.642199
9134.000000;1.642739
9133.000000;1.643376
9132.000000;1.643715
9131.000000;1.643092
9130.000000;1.641582
9129.000000;1.640232
9128.000000;1.639962
9127.000000;1.640665
9126.000000;1.641628
9125.000000;1.642337
9124.000000;1.642493
9123.000000;1.641745
9122.000000;1.640141
9121.000000;1.638541
9120.000000;1.637841
9119.000000;1.637882
9118.000000;1.637763
9117.000000;1.637171
9116.000000;1.636699
9115.000000;1.636786
9114.000000;1.637092
9113.000000;1.637255
9112.000000;1.637641
9111.000000;1.638733
9110.000000;1.640075
9109.000000;1.640391
9108.000000;1.638851
9107.000000;1.635999
9106.000000;1.633321
9105.000000;1.631977
9104.000000;1.631955
9103.000000;1.632282
9102.000000;1.631994
9101.000000;1.630927
9100.000000;1.629610
9099.000000;1.628603
9098.000000;1.628168
9097.000000;1.628386
9096.000000;1.629181
9095.000000;1.630146
9094.000000;1.630710
9093.000000;1.630744
9092.000000;1.630779
9091.000000;1.631412
9090.000000;1.632589
9089.000000;1.633598
9088.000000;1.633674
9087.000000;1.632558
9086.000000;1.630668
9085.000000;1.628858
9084.000000;1.627850
9083.000000;1.627672
9082.000000;1.627698
9081.000000;1.627415
9080.000000;1.627028
9079.000000;1.627058
9078.000000;1.627526
9077.000000;1.627846
9076.000000;1.627534
9075.000000;1.626756
9074.000000;1.626014
9073.000000;1.625526
9072.000000;1.625221
9071.000000;1.625011
9070.000000;1.624799
9069.000000;1.624478
9068.000000;1.624243
9067.000000;1.624598
9066.000000;1.625641
9065.000000;1.626466
9064.000000;1.625898
9063.000000;1.623934
9062.000000;1.621831
9061.000000;1.620613
9060.000000;1.620122
9059.000000;1.619814
9058.000000;1.619753
9057.000000;1.620176
9056.000000;1.620651
9055.000000;1.620535
9054.000000;1.620027
9053.000000;1.619832
