Criado como novo conjunto de dados;"Jao_teste_celulas.spp","4202.6 Secs"
cm-1;Abs
10000.000000;0.810219
9999.000000;0.810030
9998.000000;0.809838
9997.000000;0.809651
9996.000000;0.809455
9995.000000;0.809278
9994.000000;0.809045
9993.000000;0.808634
9992.000000;0.808277
9991.000000;0.808105
9990.000000;0.807898
9989.000000;0.807300
9988.000000;0.806350
9987.000000;0.805510
9986.000000;0.805123
9985.000000;0.805030
9984.000000;0.804869
9983.000000;0.804570
9982.000000;0.804319
9981.000000;0.804101
9980.000000;0.803629
9979.000000;0.802788
9978.000000;0.801921
9977.000000;0.801474
9976.000000;0.801485
9975.000000;0.801558
9974.000000;0.801291
9973.000000;0.800613
9972.000000;0.799727
9971.000000;0.798889
9970.000000;0.798249
9969.000000;0.797815
9968.000000;0.797493
9967.000000;0.797193
9966.000000;0.796889
9965.000000;0.796574
9964.000000;0.796157
9963.000000;0.795524
9962.000000;0.794730
9961.000000;0.794052
9960.000000;0.793775
9959.000000;0.793908
9958.000000;0.794133
9957.000000;0.794059
9956.000000;0.793542
9955.000000;0.792779
9954.000000;0.792137
9953.000000;0.791885
9952.000000;0.792051
9951.000000;0.792440
9950.000000;0.792721
9949.000000;0.792564
9948.000000;0.791813
9947.000000;0.790620
9946.000000;0.789378
9945.000000;0.788450
9944.000000;0.787927
9943.000000;0.787675
9942.000000;0.787544
9941.000000;0.787489
9940.000000;0.787473
9939.000000;0.787375
9938.000000;0.787081
9937.000000;0.786625
9936.000000;0.786174
9935.000000;0.785822
9934.000000;0.785449
9933.000000;0.784828
9932.000000;0.783888
9931.000000;0.782825
9930.000000;0.781929
9929.000000;0.781327
9928.000000;0.780950
9927.000000;0.780725
9926.000000;0.780679
9925.000000;0.780803
9924.000000;0.780922
9923.000000;0.780811
9922.000000;0.780458
9921.000000;0.780082
9920.000000;0.779874
9919.000000;0.779777
9918.000000;0.779554
9917.000000;0.779035
9916.000000;0.778294
9915.000000;0.777613
9914.000000;0.777289
9913.000000;0.777358
9912.000000;0.777500
9911.000000;0.777260
9910.000000;0.776456
9909.000000;0.775345
9908.000000;0.774386
9907.000000;0.773860
9906.000000;0.773739
9905.000000;0.773780
9904.000000;0.773700
9903.000000;0.773327
9902.000000;0.772711
9901.000000;0.772094
9900.000000;0.771693
9899.000000;0.771508
9898.000000;0.771363
9897.000000;0.771111
9896.000000;0.770735
9895.000000;0.770300
9894.000000;0.769867
9893.000000;0.769462
9892.000000;0.769043
9891.000000;0.768502
9890.000000;0.767767
9889.000000;0.766936
9888.000000;0.766247
9887.000000;0.765877
9886.000000;0.765793
9885.000000;0.765807
9884.000000;0.765713
9883.000000;0.765363
9882.000000;0.764702
9881.000000;0.763831
9880.000000;0.763046
9879.000000;0.762699
9878.000000;0.762896
9877.000000;0.763325
9876.000000;0.763461
9875.000000;0.763024
9874.000000;0.762226
9873.000000;0.761500
9872.000000;0.761028
9871.000000;0.760624
9870.000000;0.760040
9869.000000;0.759244
9868.000000;0.758395
9867.000000;0.757692
9866.000000;0.757319
9865.000000;0.757375
9864.000000;0.757688
9863.000000;0.757827
9862.000000;0.757490
9861.000000;0.756827
9860.000000;0.756236
9859.000000;0.755886
9858.000000;0.755621
9857.000000;0.755278
9856.000000;0.754858
9855.000000;0.754363
9854.000000;0.753715
9853.000000;0.752943
9852.000000;0.752269
9851.000000;0.751843
9850.000000;0.751530
9849.000000;0.751113
9848.000000;0.750599
9847.000000;0.750167
9846.000000;0.749887
9845.000000;0.749646
9844.000000;0.749351
9843.000000;0.749053
9842.000000;0.748844
9841.000000;0.748692
9840.000000;0.748414
9839.000000;0.747822
9838.000000;0.746935
9837.000000;0.746081
9836.000000;0.745651
9835.000000;0.745686
9834.000000;0.745799
9833.000000;0.745592
9832.000000;0.745082
9831.000000;0.744581
9830.000000;0.744237
9829.000000;0.743894
9828.000000;0.743393
9827.000000;0.742817
9826.000000;0.742365
9825.000000;0.742110
9824.000000;0.741959
9823.000000;0.741769
9822.000000;0.741438
9821.000000;0.740940
9820.000000;0.740338
9819.000000;0.739718
9818.000000;0.739082
9817.000000;0.738348
9816.000000;0.737513
9815.000000;0.736760
9814.000000;0.736352
9813.000000;0.736396
9812.000000;0.736732
9811.000000;0.737024
9810.000000;0.736980
9809.000000;0.736530
9808.000000;0.735845
9807.000000;0.735179
9806.000000;0.734683
9805.000000;0.734333
9804.000000;0.733984
9803.000000;0.733480
9802.000000;0.732746
9801.000000;0.731862
9800.000000;0.731065
9799.000000;0.730627
9798.000000;0.730665
9797.000000;0.731031
9796.000000;0.731375
9795.000000;0.731361
9794.000000;0.730903
9793.000000;0.730205
9792.000000;0.729562
9791.000000;0.729093
9790.000000;0.728709
9789.000000;0.728316
9788.000000;0.727949
9787.000000;0.727662
9786.000000;0.727376
9785.000000;0.726945
9784.000000;0.726327
9783.000000;0.725626
9782.000000;0.724984
9781.000000;0.724519
9780.000000;0.724301
9779.000000;0.724267
9778.000000;0.724217
9777.000000;0.723997
9776.000000;0.723673
9775.000000;0.723426
9774.000000;0.723283
9773.000000;0.723094
9772.000000;0.722765
9771.000000;0.722379
9770.000000;0.722038
9769.000000;0.721721
9768.000000;0.721350
9767.000000;0.720902
9766.000000;0.720386
9765.000000;0.719804
9764.000000;0.719209
9763.000000;0.718715
9762.000000;0.718370
9761.000000;0.718090
9760.000000;0.717783
9759.000000;0.717473
9758.000000;0.717207
9757.000000;0.716912
9756.000000;0.716449
9755.000000;0.715800
9754.000000;0.715089
9753.000000;0.714431
9752.000000;0.713832
9751.000000;0.713253
9750.000000;0.712694
9749.000000;0.712205
9748.000000;0.711836
9747.000000;0.711575
9746.000000;0.711358
9745.000000;0.711135
9744.000000;0.710946
9743.000000;0.710863
9742.000000;0.710847
9741.000000;0.710729
9740.000000;0.710384
9739.000000;0.709856
9738.000000;0.709283
9737.000000;0.708766
9736.000000;0.708369
9735.000000;0.708149
9734.000000;0.708045
9733.000000;0.707822
9732.000000;0.707302
9731.000000;0.706652
9730.000000;0.706253
9729.000000;0.706229
9728.000000;0.706243
9727.000000;0.705887
9726.000000;0.705148
9725.000000;0.704354
9724.000000;0.703750
9723.000000;0.703280
9722.000000;0.702806
9721.000000;0.702345
9720.000000;0.702010
9719.000000;0.701814
9718.000000;0.701661
9717.000000;0.701498
9716.000000;0.701368
9715.000000;0.701294
9714.000000;0.701182
9713.000000;0.700903
9712.000000;0.700415
9711.000000;0.699779
9710.000000;0.699089
9709.000000;0.698442
9708.000000;0.697941
9707.000000;0.697648
9706.000000;0.697493
9705.000000;0.697298
9704.000000;0.696928
9703.000000;0.696408
9702.000000;0.695882
9701.000000;0.695460
9700.000000;0.695114
9699.000000;0.694699
9698.000000;0.694101
9697.000000;0.693394
9696.000000;0.692841
9695.000000;0.692669
9694.000000;0.692817
9693.000000;0.692943
9692.000000;0.692732
9691.000000;0.692174
9690.000000;0.691527
9689.000000;0.691057
9688.000000;0.690840
9687.000000;0.690761
9686.000000;0.690631
9685.000000;0.690318
9684.000000;0.689832
9683.000000;0.689295
9682.000000;0.688817
9681.000000;0.688389
9680.000000;0.687929
9679.000000;0.687397
9678.000000;0.686824
9677.000000;0.686261
9676.000000;0.685761
9675.000000;0.685392
9674.000000;0.685206
9673.000000;0.685164
9672.000000;0.685121
9671.000000;0.684942
9670.000000;0.684610
9669.000000;0.684217
9668.000000;0.683849
9667.000000;0.683499
9666.000000;0.683088
9665.000000;0.682569
9664.000000;0.682006
9663.000000;0.681544
9662.000000;0.681279
9661.000000;0.681155
9660.000000;0.681021
9659.000000;0.680783
9658.000000;0.680457
9657.000000;0.680085
9656.000000;0.679635
9655.000000;0.679039
9654.000000;0.678310
9653.000000;0.677602
9652.000000;0.677099
9651.000000;0.676842
9650.000000;0.676678
9649.000000;0.676403
9648.000000;0.675972
9647.000000;0.675525
9646.000000;0.675192
9645.000000;0.674931
9644.000000;0.674587
9643.000000;0.674096
9642.000000;0.673555
9641.000000;0.673090
9640.000000;0.672729
9639.000000;0.672439
9638.000000;0.672238
9637.000000;0.672187
9636.000000;0.672274
9635.000000;0.672360
9634.000000;0.672268
9633.000000;0.671929
9632.000000;0.671428
9631.000000;0.670908
9630.000000;0.670450
9629.000000;0.670023
9628.000000;0.669536
9627.000000;0.668919
9626.000000;0.668209
9625.000000;0.667563
9624.000000;0.667168
9623.000000;0.667061
9622.000000;0.667042
9621.000000;0.666800
9620.000000;0.666186
9619.000000;0.665353
9618.000000;0.664609
9617.000000;0.664176
9616.000000;0.664082
9615.000000;0.664206
9614.000000;0.664330
9613.000000;0.664207
9612.000000;0.663724
9611.000000;0.663040
9610.000000;0.662485
9609.000000;0.662258
9608.000000;0.662247
9607.000000;0.662186
9606.000000;0.661942
9605.000000;0.661592
9604.000000;0.661262
9603.000000;0.660965
9602.000000;0.660629
9601.000000;0.660229
9600.000000;0.659831
9599.000000;0.659513
9598.000000;0.659232
9597.000000;0.658821
9596.000000;0.658137
9595.000000;0.657258
9594.000000;0.656485
9593.000000;0.656088
9592.000000;0.656046
9591.000000;0.656066
9590.000000;0.655868
9589.000000;0.655411
9588.000000;0.654871
9587.000000;0.654424
9586.000000;0.654110
9585.000000;0.653846
9584.000000;0.653539
9583.000000;0.653162
9582.000000;0.652751
9581.000000;0.652348
9580.000000;0.651939
9579.000000;0.651486
9578.000000;0.651013
9577.000000;0.650623
9576.000000;0.650396
9575.000000;0.650307
9574.000000;0.650277
9573.000000;0.650257
9572.000000;0.650187
9571.000000;0.649937
9570.000000;0.649414
9569.000000;0.648744
9568.000000;0.648209
9567.000000;0.647930
9566.000000;0.647693
9565.000000;0.647189
9564.000000;0.646366
9563.000000;0.645448
9562.000000;0.644673
9561.000000;0.644144
9560.000000;0.643882
9559.000000;0.643873
9558.000000;0.644011
9557.000000;0.644113
9556.000000;0.644053
9555.000000;0.643820
9554.000000;0.643434
9553.000000;0.642899
9552.000000;0.642280
9551.000000;0.641721
9550.000000;0.641319
9549.000000;0.641042
9548.000000;0.640841
9547.000000;0.640734
9546.000000;0.640728
9545.000000;0.640704
9544.000000;0.640513
9543.000000;0.640137
9542.000000;0.639689
9541.000000;0.639273
9540.000000;0.638923
9539.000000;0.638638
9538.000000;0.638403
9537.000000;0.638165
9536.000000;0.637883
9535.000000;0.637563
9534.000000;0.637234
9533.000000;0.636895
9532.000000;0.636543
9531.000000;0.636211
9530.000000;0.635887
9529.000000;0.635468
9528.000000;0.634877
9527.000000;0.634228
9526.000000;0.633747
9525.000000;0.633515
9524.000000;0.633392
9523.000000;0.633185
9522.000000;0.632826
9521.000000;0.632377
9520.000000;0.631933
9519.000000;0.631544
9518.000000;0.631176
9517.000000;0.630742
9516.000000;0.630235
9515.000000;0.629774
9514.000000;0.629466
9513.000000;0.629263
9512.000000;0.629063
9511.000000;0.628892
9510.000000;0.628825
9509.000000;0.628757
9508.000000;0.628459
9507.000000;0.627909
9506.000000;0.627369
9505.000000;0.627025
9504.000000;0.626726
9503.000000;0.626229
9502.000000;0.625561
9501.000000;0.624980
9500.000000;0.624631
9499.000000;0.624426
9498.000000;0.624229
9497.000000;0.624008
9496.000000;0.623794
9495.000000;0.623595
9494.000000;0.623375
9493.000000;0.623073
9492.000000;0.622633
9491.000000;0.622084
9490.000000;0.621544
9489.000000;0.621099
9488.000000;0.620735
9487.000000;0.620427
9486.000000;0.620226
9485.000000;0.620141
9484.000000;0.620009
9483.000000;0.619640
9482.000000;0.619070
9481.000000;0.618543
9480.000000;0.618235
9479.000000;0.618096
9478.000000;0.617989
9477.000000;0.617869
9476.000000;0.617759
9475.000000;0.617652
9474.000000;0.617499
9473.000000;0.617263
9472.000000;0.616954
9471.000000;0.616644
9470.000000;0.616426
9469.000000;0.616294
9468.000000;0.616080
9467.000000;0.615620
9466.000000;0.614973
9465.000000;0.614372
9464.000000;0.613925
9463.000000;0.613484
9462.000000;0.612864
9461.000000;0.612102
9460.000000;0.611423
9459.000000;0.611014
9458.000000;0.610886
9457.000000;0.610909
9456.000000;0.610887
9455.000000;0.610646
9454.000000;0.610152
9453.000000;0.609568
9452.000000;0.609147
9451.000000;0.609033
9450.000000;0.609145
9449.000000;0.609226
9448.000000;0.609005
9447.000000;0.608397
9446.000000;0.607594
9445.000000;0.606940
9444.000000;0.606666
9443.000000;0.606705
9442.000000;0.606774
9441.000000;0.606620
9440.000000;0.606213
9439.000000;0.605736
9438.000000;0.605397
9437.000000;0.605228
9436.000000;0.605058
9435.000000;0.604688
9434.000000;0.604095
9433.000000;0.603438
9432.000000;0.602899
9431.000000;0.602564
9430.000000;0.602431
9429.000000;0.602434
9428.000000;0.602439
9427.000000;0.602300
9426.000000;0.601976
9425.000000;0.601551
9424.000000;0.601118
9423.000000;0.600707
9422.000000;0.600348
9421.000000;0.600107
9420.000000;0.599966
9419.000000;0.599759
9418.000000;0.599331
9417.000000;0.598763
9416.000000;0.598324
9415.000000;0.598170
9414.000000;0.598171
9413.000000;0.598055
9412.000000;0.597684
9411.000000;0.597156
9410.000000;0.596663
9409.000000;0.596317
9408.000000;0.596079
9407.000000;0.595834
9406.000000;0.595513
9405.000000;0.595140
9404.000000;0.594772
9403.000000;0.594424
9402.000000;0.594070
9401.000000;0.593704
9400.000000;0.593371
9399.000000;0.593119
9398.000000;0.592941
9397.000000;0.592752
9396.000000;0.592447
9395.000000;0.591989
9394.000000;0.591454
9393.000000;0.590988
9392.000000;0.590695
9391.000000;0.590550
9390.000000;0.590415
9389.000000;0.590157
9388.000000;0.589761
9387.000000;0.589335
9386.000000;0.588992
9385.000000;0.588712
9384.000000;0.588374
9383.000000;0.587925
9382.000000;0.587453
9381.000000;0.587075
9380.000000;0.586810
9379.000000;0.586618
9378.000000;0.586523
9377.000000;0.586578
9376.000000;0.586735
9375.000000;0.586829
9374.000000;0.586717
9373.000000;0.586369
9372.000000;0.585826
9371.000000;0.585169
9370.000000;0.584510
9369.000000;0.583933
9368.000000;0.583402
9367.000000;0.582813
9366.000000;0.582202
9365.000000;0.581793
9364.000000;0.581749
9363.000000;0.581939
9362.000000;0.582030
9361.000000;0.581793
9360.000000;0.581275
9359.000000;0.580704
9358.000000;0.580276
9357.000000;0.580049
9356.000000;0.579965
9355.000000;0.579943
9354.000000;0.579915
9353.000000;0.579776
9352.000000;0.579383
9351.000000;0.578700
9350.000000;0.577931
9349.000000;0.577374
9348.000000;0.577113
9347.000000;0.576967
9346.000000;0.576774
9345.000000;0.576603
9344.000000;0.576588
9343.000000;0.576664
9342.000000;0.576614
9341.000000;0.576305
9340.000000;0.575781
9339.000000;0.575162
9338.000000;0.574593
9337.000000;0.574216
9336.000000;0.574071
9335.000000;0.573985
9334.000000;0.573697
9333.000000;0.573130
9332.000000;0.572480
9331.000000;0.572031
9330.000000;0.571916
9329.000000;0.572040
9328.000000;0.572134
9327.000000;0.571919
9326.000000;0.571321
9325.000000;0.570560
9324.000000;0.569968
9323.000000;0.569686
9322.000000;0.569590
9321.000000;0.569469
9320.000000;0.569192
9319.000000;0.568743
9318.000000;0.568192
9317.000000;0.567667
9316.000000;0.567275
9315.000000;0.567016
9314.000000;0.566824
9313.000000;0.566670
9312.000000;0.566565
9311.000000;0.566459
9310.000000;0.566252
9309.000000;0.565928
9308.000000;0.565605
9307.000000;0.565414
9306.000000;0.565362
9305.000000;0.565323
9304.000000;0.565127
9303.000000;0.564670
9302.000000;0.564002
9301.000000;0.563327
9300.000000;0.562836
9299.000000;0.562557
9298.000000;0.562389
9297.000000;0.562264
9296.000000;0.562170
9295.000000;0.562054
9294.000000;0.561839
9293.000000;0.561562
9292.000000;0.561362
9291.000000;0.561277
9290.000000;0.561176
9289.000000;0.560931
9288.000000;0.560570
9287.000000;0.560163
9286.000000;0.559674
9285.000000;0.559033
9284.000000;0.558299
9283.000000;0.557666
9282.000000;0.557301
9281.000000;0.557239
9280.000000;0.557362
9279.000000;0.557469
9278.000000;0.557386
9277.000000;0.557097
9276.000000;0.556723
9275.000000;0.556362
9274.000000;0.556006
9273.000000;0.555650
9272.000000;0.555371
9271.000000;0.555227
9270.000000;0.555136
9269.000000;0.554964
9268.000000;0.554679
9267.000000;0.554348
9266.000000;0.554026
9265.000000;0.553734
9264.000000;0.553480
9263.000000;0.553214
9262.000000;0.552799
9261.000000;0.552163
9260.000000;0.551460
9259.000000;0.550985
9258.000000;0.550885
9257.000000;0.551016
9256.000000;0.551091
9255.000000;0.550913
9254.000000;0.550470
9253.000000;0.549893
9252.000000;0.549376
9251.000000;0.549070
9250.000000;0.549001
9249.000000;0.549072
9248.000000;0.549125
9247.000000;0.548998
9246.000000;0.548597
9245.000000;0.548003
9244.000000;0.547498
9243.000000;0.547352
9242.000000;0.547543
9241.000000;0.547742
9240.000000;0.547622
9239.000000;0.547157
9238.000000;0.546602
9237.000000;0.546206
9236.000000;0.545993
9235.000000;0.545793
9234.000000;0.545422
9233.000000;0.544837
9232.000000;0.544158
9231.000000;0.543547
9230.000000;0.543082
9229.000000;0.542718
9228.000000;0.542363
9227.000000;0.541990
9226.000000;0.541674
9225.000000;0.541495
9224.000000;0.541421
9223.000000;0.541292
9222.000000;0.540978
9221.000000;0.540556
9220.000000;0.540257
9219.000000;0.540235
9218.000000;0.540410
9217.000000;0.540574
9216.000000;0.540583
9215.000000;0.540410
9214.000000;0.540067
9213.000000;0.539574
9212.000000;0.539000
9211.000000;0.538457
9210.000000;0.538026
9209.000000;0.537729
9208.000000;0.537550
9207.000000;0.537437
9206.000000;0.537289
9205.000000;0.537009
9204.000000;0.536592
9203.000000;0.536139
9202.000000;0.535788
9201.000000;0.535632
9200.000000;0.535681
9199.000000;0.535842
9198.000000;0.535939
9197.000000;0.535838
9196.000000;0.535550
9195.000000;0.535194
9194.000000;0.534843
9193.000000;0.534467
9192.000000;0.534040
9191.000000;0.533627
9190.000000;0.533307
9189.000000;0.533056
9188.000000;0.532768
9187.000000;0.532387
9186.000000;0.531963
9185.000000;0.531569
9184.000000;0.531200
9183.000000;0.530789
9182.000000;0.530304
9181.000000;0.529808
9180.000000;0.529409
9179.000000;0.529171
9178.000000;0.529104
9177.000000;0.529186
9176.000000;0.529341
9175.000000;0.529406
9174.000000;0.529202
9173.000000;0.528716
9172.000000;0.528167
9171.000000;0.527822
9170.000000;0.527751
9169.000000;0.527799
9168.000000;0.527777
9167.000000;0.527599
9166.000000;0.527264
9165.000000;0.526789
9164.000000;0.526229
9163.000000;0.525683
9162.000000;0.525244
9161.000000;0.524936
9160.000000;0.524731
9159.000000;0.524603
9158.000000;0.524550
9157.000000;0.524546
9156.000000;0.524486
9155.000000;0.524217
9154.000000;0.523667
9153.000000;0.522952
9152.000000;0.522316
9151.000000;0.521930
9150.000000;0.521766
9149.000000;0.521684
9148.000000;0.521589
9147.000000;0.521445
9146.000000;0.521226
9145.000000;0.520943
9144.000000;0.520714
9143.000000;0.520675
9142.000000;0.520776
9141.000000;0.520763
9140.000000;0.520422
9139.000000;0.519804
9138.000000;0.519162
9137.000000;0.518725
9136.000000;0.518556
9135.000000;0.518562
9134.000000;0.518571
9133.000000;0.518423
9132.000000;0.518074
9131.000000;0.517621
9130.000000;0.517210
9129.000000;0.516925
9128.000000;0.516750
9127.000000;0.516616
9126.000000;0.516443
9125.000000;0.516207
9124.000000;0.515967
9123.000000;0.515791
9122.000000;0.515640
9121.000000;0.515390
9120.000000;0.515004
9119.000000;0.514622
9118.000000;0.514395
9117.000000;0.514304
9116.000000;0.514209
9115.000000;0.514027
9114.000000;0.513772
9113.000000;0.513442
9112.000000;0.512990
9111.000000;0.512447
9110.000000;0.511972
9109.000000;0.511712
9108.000000;0.511647
9107.000000;0.511622
9106.000000;0.511496
9105.000000;0.511238
9104.000000;0.510911
9103.000000;0.510617
9102.000000;0.510447
9101.000000;0.510431
9100.000000;0.510499
9099.000000;0.510502
9098.000000;0.510305
9097.000000;0.509879
9096.000000;0.509329
9095.000000;0.508821
9094.000000;0.508472
9093.000000;0.508296
9092.000000;0.508234
9091.000000;0.508205
9090.000000;0.508129
9089.000000;0.507932
9088.000000;0.507587
9087.000000;0.507139
9086.000000;0.506665
9085.000000;0.506212
9084.000000;0.505809
9083.000000;0.505484
9082.000000;0.505248
9081.000000;0.505068
9080.000000;0.504909
9079.000000;0.504788
9078.000000;0.504730
9077.000000;0.504685
9076.000000;0.504555
9075.000000;0.504321
9074.000000;0.504060
9073.000000;0.503816
9072.000000;0.503516
9071.000000;0.503099
9070.000000;0.502635
9069.000000;0.502258
9068.000000;0.501998
9067.000000;0.501777
9066.000000;0.501536
9065.000000;0.501292
9064.000000;0.501049
9063.000000;0.500774
9062.000000;0.500463
9061.000000;0.500179
9060.000000;0.499930
9059.000000;0.499619
9058.000000;0.499174
9057.000000;0.498698
9056.000000;0.498377
9055.000000;0.498257
9054.000000;0.498193
9053.000000;0.498050
