Criado como novo conjunto de dados;"Jao_teste_celulas.spp","10084.2 Secs"
cm-1;Abs
10000.000000;1.875116
9999.000000;1.876799
9998.000000;1.878488
9997.000000;1.880184
9996.000000;1.881886
9995.000000;1.883595
9994.000000;1.885312
9993.000000;1.887033
9992.000000;1.888768
9991.000000;1.890330
9990.000000;1.891636
9989.000000;1.891824
9988.000000;1.890333
9987.000000;1.887866
9986.000000;1.885729
9985.000000;1.884570
9984.000000;1.883930
9983.000000;1.882958
9982.000000;1.881652
9981.000000;1.881261
9980.000000;1.882991
9979.000000;1.886240
9978.000000;1.888712
9977.000000;1.888771
9976.000000;1.887096
9975.000000;1.885383
9974.000000;1.884192
9973.000000;1.882860
9972.000000;1.881000
9971.000000;1.879128
9970.000000;1.878031
9969.000000;1.878335
9968.000000;1.880411
9967.000000;1.883772
9966.000000;1.886558
9965.000000;1.886528
9964.000000;1.883102
9963.000000;1.877919
9962.000000;1.873299
9961.000000;1.870720
9960.000000;1.870442
9959.000000;1.871593
9958.000000;1.872356
9957.000000;1.871012
9956.000000;1.867660
9955.000000;1.864515
9954.000000;1.863995
9953.000000;1.866746
9952.000000;1.871403
9951.000000;1.875602
9950.000000;1.877259
9949.000000;1.875732
9948.000000;1.872368
9947.000000;1.869504
9946.000000;1.868463
9945.000000;1.868761
9944.000000;1.869429
9943.000000;1.870468
9942.000000;1.872246
9941.000000;1.873885
9940.000000;1.873556
9939.000000;1.870850
9938.000000;1.867847
9937.000000;1.866995
9936.000000;1.868695
9935.000000;1.871509
9934.000000;1.873999
9933.000000;1.875571
9932.000000;1.875788
9931.000000;1.874026
9930.000000;1.870421
9929.000000;1.866322
9928.000000;1.863110
9927.000000;1.861126
9926.000000;1.860038
9925.000000;1.859557
9924.000000;1.859338
9923.000000;1.858729
9922.000000;1.857432
9921.000000;1.856100
9920.000000;1.855539
9919.000000;1.855571
9918.000000;1.855502
9917.000000;1.855718
9916.000000;1.857709
9915.000000;1.861879
9914.000000;1.866177
9913.000000;1.867936
9912.000000;1.866799
9911.000000;1.864749
9910.000000;1.863396
9909.000000;1.862438
9908.000000;1.860887
9907.000000;1.858765
9906.000000;1.856932
9905.000000;1.855769
9904.000000;1.854658
9903.000000;1.852787
9902.000000;1.850224
9901.000000;1.848085
9900.000000;1.847563
9899.000000;1.848645
9898.000000;1.850001
9897.000000;1.850393
9896.000000;1.849902
9895.000000;1.849424
9894.000000;1.849247
9893.000000;1.849012
9892.000000;1.849119
9891.000000;1.850854
9890.000000;1.854327
9889.000000;1.857328
9888.000000;1.857530
9887.000000;1.855394
9886.000000;1.853396
9885.000000;1.852677
9884.000000;1.851965
9883.000000;1.849952
9882.000000;1.847267
9881.000000;1.845280
9880.000000;1.844329
9879.000000;1.844183
9878.000000;1.845016
9877.000000;1.846592
9876.000000;1.847267
9875.000000;1.845480
9874.000000;1.841970
9873.000000;1.838874
9872.000000;1.836868
9871.000000;1.834943
9870.000000;1.833070
9869.000000;1.833206
9868.000000;1.836644
9867.000000;1.841569
9866.000000;1.844412
9865.000000;1.843445
9864.000000;1.840177
9863.000000;1.837376
9862.000000;1.836651
9861.000000;1.837533
9860.000000;1.837947
9859.000000;1.836060
9858.000000;1.832404
9857.000000;1.829567
9856.000000;1.829208
9855.000000;1.830122
9854.000000;1.830102
9853.000000;1.829003
9852.000000;1.828479
9851.000000;1.828968
9850.000000;1.828832
9849.000000;1.827053
9848.000000;1.825192
9847.000000;1.825479
9846.000000;1.827924
9845.000000;1.830359
9844.000000;1.830931
9843.000000;1.829751
9842.000000;1.828160
9841.000000;1.827173
9840.000000;1.826759
9839.000000;1.826175
9838.000000;1.824924
9837.000000;1.823470
9836.000000;1.822756
9835.000000;1.822930
9834.000000;1.822949
9833.000000;1.821779
9832.000000;1.819656
9831.000000;1.817697
9830.000000;1.816602
9829.000000;1.816271
9828.000000;1.816433
9827.000000;1.817027
9826.000000;1.817903
9825.000000;1.818764
9824.000000;1.819666
9823.000000;1.821158
9822.000000;1.823550
9821.000000;1.826157
9820.000000;1.827602
9819.000000;1.826953
9818.000000;1.824475
9817.000000;1.821363
9816.000000;1.818999
9815.000000;1.818377
9814.000000;1.819659
9813.000000;1.821985
9812.000000;1.823827
9811.000000;1.823956
9810.000000;1.822351
9809.000000;1.820016
9808.000000;1.817930
9807.000000;1.816417
9806.000000;1.815406
9805.000000;1.814777
9804.000000;1.814263
9803.000000;1.813571
9802.000000;1.812943
9801.000000;1.813210
9800.000000;1.814742
9799.000000;1.816488
9798.000000;1.816650
9797.000000;1.814483
9796.000000;1.811068
9795.000000;1.808250
9794.000000;1.807263
9793.000000;1.808066
9792.000000;1.809297
9791.000000;1.809129
9790.000000;1.807029
9789.000000;1.804617
9788.000000;1.804022
9787.000000;1.805397
9786.000000;1.806707
9785.000000;1.806143
9784.000000;1.804011
9783.000000;1.801875
9782.000000;1.800740
9781.000000;1.800717
9780.000000;1.801556
9779.000000;1.802627
9778.000000;1.802897
9777.000000;1.801882
9776.000000;1.800462
9775.000000;1.799978
9774.000000;1.800651
9773.000000;1.801595
9772.000000;1.802226
9771.000000;1.802745
9770.000000;1.803187
9769.000000;1.802991
9768.000000;1.801894
9767.000000;1.800476
9766.000000;1.799325
9765.000000;1.798266
9764.000000;1.796973
9763.000000;1.795916
9762.000000;1.795978
9761.000000;1.797126
9760.000000;1.797993
9759.000000;1.797125
9758.000000;1.794531
9757.000000;1.791816
9756.000000;1.790852
9755.000000;1.792293
9754.000000;1.795140
9753.000000;1.797634
9752.000000;1.798559
9751.000000;1.797722
9750.000000;1.795493
9749.000000;1.792414
9748.000000;1.789300
9747.000000;1.787109
9746.000000;1.786213
9745.000000;1.785977
9744.000000;1.785533
9743.000000;1.784865
9742.000000;1.784703
9741.000000;1.785431
9740.000000;1.786643
9739.000000;1.787974
9738.000000;1.789756
9737.000000;1.792221
9736.000000;1.794325
9735.000000;1.794186
9734.000000;1.791050
9733.000000;1.786425
9732.000000;1.782829
9731.000000;1.781550
9730.000000;1.781758
9729.000000;1.781649
9728.000000;1.780371
9727.000000;1.778734
9726.000000;1.778121
9725.000000;1.779004
9724.000000;1.780664
9723.000000;1.782123
9722.000000;1.782955
9721.000000;1.783064
9720.000000;1.782188
9719.000000;1.780188
9718.000000;1.777701
9717.000000;1.775902
9716.000000;1.775441
9715.000000;1.775872
9714.000000;1.776181
9713.000000;1.775662
9712.000000;1.774284
9711.000000;1.772603
9710.000000;1.771477
9709.000000;1.771512
9708.000000;1.772476
9707.000000;1.773454
9706.000000;1.773721
9705.000000;1.773245
9704.000000;1.772338
9703.000000;1.771292
9702.000000;1.770504
9701.000000;1.770372
9700.000000;1.770675
9699.000000;1.770512
9698.000000;1.769320
9697.000000;1.767688
9696.000000;1.766702
9695.000000;1.766602
9694.000000;1.766632
9693.000000;1.766133
9692.000000;1.765084
9691.000000;1.763634
9690.000000;1.761875
9689.000000;1.760289
9688.000000;1.759757
9687.000000;1.760716
9686.000000;1.762591
9685.000000;1.764229
9684.000000;1.764656
9683.000000;1.763421
9682.000000;1.760727
9681.000000;1.757614
9680.000000;1.755565
9679.000000;1.755460
9678.000000;1.756924
9677.000000;1.758859
9676.000000;1.760374
9675.000000;1.761007
9674.000000;1.760516
9673.000000;1.759107
9672.000000;1.757755
9671.000000;1.757539
9670.000000;1.758383
9669.000000;1.758885
9668.000000;1.757794
9667.000000;1.755473
9666.000000;1.753470
9665.000000;1.752862
9664.000000;1.753482
9663.000000;1.754471
9662.000000;1.754923
9661.000000;1.754105
9660.000000;1.751807
9659.000000;1.748814
9658.000000;1.746522
9657.000000;1.745652
9656.000000;1.745650
9655.000000;1.745649
9654.000000;1.745642
9653.000000;1.746209
9652.000000;1.747425
9651.000000;1.748789
9650.000000;1.750030
9649.000000;1.751168
9648.000000;1.751798
9647.000000;1.751319
9646.000000;1.750158
9645.000000;1.749756
9644.000000;1.750793
9643.000000;1.752118
9642.000000;1.752055
9641.000000;1.750272
9640.000000;1.747768
9639.000000;1.745555
9638.000000;1.744086
9637.000000;1.743472
9636.000000;1.743465
9635.000000;1.743464
9634.000000;1.743255
9633.000000;1.743503
9632.000000;1.744716
9631.000000;1.745986
9630.000000;1.745674
9629.000000;1.743394
9628.000000;1.740513
9627.000000;1.738540
9626.000000;1.737709
9625.000000;1.737188
9624.000000;1.736063
9623.000000;1.734026
9622.000000;1.731662
9621.000000;1.730221
9620.000000;1.730729
9619.000000;1.733207
9618.000000;1.736826
9617.000000;1.740474
9616.000000;1.742802
9615.000000;1.742331
9614.000000;1.738671
9613.000000;1.733625
9612.000000;1.730065
9611.000000;1.729533
9610.000000;1.731530
9609.000000;1.734905
9608.000000;1.738862
9607.000000;1.742391
9606.000000;1.743950
9605.000000;1.742734
9604.000000;1.739718
9603.000000;1.736563
9602.000000;1.733881
9601.000000;1.731238
9600.000000;1.728466
9599.000000;1.726197
9598.000000;1.725029
9597.000000;1.724677
9596.000000;1.724200
9595.000000;1.723004
9594.000000;1.721534
9593.000000;1.720907
9592.000000;1.721778
9591.000000;1.723710
9590.000000;1.725721
9589.000000;1.727090
9588.000000;1.727396
9587.000000;1.726273
9586.000000;1.723844
9585.000000;1.721289
9584.000000;1.720207
9583.000000;1.721103
9582.000000;1.722755
9581.000000;1.723373
9580.000000;1.722238
9579.000000;1.720111
9578.000000;1.718446
9577.000000;1.718283
9576.000000;1.719454
9575.000000;1.720679
9574.000000;1.720708
9573.000000;1.719457
9572.000000;1.717821
9571.000000;1.716633
9570.000000;1.716290
9569.000000;1.716999
9568.000000;1.718593
9567.000000;1.720129
9566.000000;1.720530
9565.000000;1.719728
9564.000000;1.718463
9563.000000;1.717040
9562.000000;1.715249
9561.000000;1.713566
9560.000000;1.713158
9559.000000;1.714204
9558.000000;1.715211
9557.000000;1.714795
9556.000000;1.713469
9555.000000;1.712840
9554.000000;1.713612
9553.000000;1.715068
9552.000000;1.716040
9551.000000;1.715753
9550.000000;1.714121
9549.000000;1.711944
9548.000000;1.710516
9547.000000;1.710476
9546.000000;1.711138
9545.000000;1.711231
9544.000000;1.710053
9543.000000;1.707651
9542.000000;1.704443
9541.000000;1.701260
9540.000000;1.699271
9539.000000;1.699116
9538.000000;1.700166
9537.000000;1.701093
9536.000000;1.701163
9535.000000;1.700724
9534.000000;1.700614
9533.000000;1.701423
9532.000000;1.703112
9531.000000;1.704979
9530.000000;1.706143
9529.000000;1.706269
9528.000000;1.705696
9527.000000;1.704884
9526.000000;1.704132
9525.000000;1.703794
9524.000000;1.704061
9523.000000;1.704293
9522.000000;1.703362
9521.000000;1.701111
9520.000000;1.698767
9519.000000;1.697406
9518.000000;1.696750
9517.000000;1.696003
9516.000000;1.695164
9515.000000;1.694741
9514.000000;1.694749
9513.000000;1.694790
9512.000000;1.694686
9511.000000;1.694296
9510.000000;1.693239
9509.000000;1.691600
9508.000000;1.690388
9507.000000;1.690367
9506.000000;1.690847
9505.000000;1.690608
9504.000000;1.689812
9503.000000;1.689872
9502.000000;1.691384
9501.000000;1.693259
9500.000000;1.694010
9499.000000;1.693056
9498.000000;1.690675
9497.000000;1.687649
9496.000000;1.685241
9495.000000;1.684690
9494.000000;1.686143
9493.000000;1.688395
9492.000000;1.689935
9491.000000;1.690103
9490.000000;1.689317
9489.000000;1.688571
9488.000000;1.688772
9487.000000;1.690062
9486.000000;1.691572
9485.000000;1.692134
9484.000000;1.691220
9483.000000;1.689006
9482.000000;1.685920
9481.000000;1.682745
9480.000000;1.680741
9479.000000;1.680767
9478.000000;1.682258
9477.000000;1.683602
9476.000000;1.683623
9475.000000;1.682258
9474.000000;1.680015
9473.000000;1.677609
9472.000000;1.676059
9471.000000;1.676179
9470.000000;1.677607
9469.000000;1.678950
9468.000000;1.679208
9467.000000;1.678666
9466.000000;1.678131
9465.000000;1.677788
9464.000000;1.677140
9463.000000;1.675679
9462.000000;1.673497
9461.000000;1.671521
9460.000000;1.671055
9459.000000;1.672540
9458.000000;1.674761
9457.000000;1.675891
9456.000000;1.675466
9455.000000;1.674691
9454.000000;1.674694
9453.000000;1.675310
9452.000000;1.675812
9451.000000;1.676038
9450.000000;1.676199
9449.000000;1.676119
9448.000000;1.675309
9447.000000;1.673566
9446.000000;1.671245
9445.000000;1.669224
9444.000000;1.668684
9443.000000;1.670281
9442.000000;1.673156
9441.000000;1.675301
9440.000000;1.675476
9439.000000;1.674378
9438.000000;1.673396
9437.000000;1.672796
9436.000000;1.671880
9435.000000;1.670516
9434.000000;1.669579
9433.000000;1.669761
9432.000000;1.670580
9431.000000;1.670836
9430.000000;1.669824
9429.000000;1.667921
9428.000000;1.666053
9427.000000;1.664696
9426.000000;1.663487
9425.000000;1.661951
9424.000000;1.660473
9423.000000;1.660051
9422.000000;1.660963
9421.000000;1.662194
9420.000000;1.662548
9419.000000;1.661933
9418.000000;1.661037
9417.000000;1.660107
9416.000000;1.658823
9415.000000;1.657341
9414.000000;1.656655
9413.000000;1.657522
9412.000000;1.659406
9411.000000;1.660823
9410.000000;1.660694
9409.000000;1.659186
9408.000000;1.657331
9407.000000;1.656073
9406.000000;1.655641
9405.000000;1.655574
9404.000000;1.655153
9403.000000;1.653988
9402.000000;1.652484
9401.000000;1.651707
9400.000000;1.652537
9399.000000;1.654848
9398.000000;1.657553
9397.000000;1.659542
9396.000000;1.660419
9395.000000;1.660216
9394.000000;1.658788
9393.000000;1.656086
9392.000000;1.652885
9391.000000;1.650501
9390.000000;1.649532
9389.000000;1.649345
9388.000000;1.649116
9387.000000;1.648938
9386.000000;1.649405
9385.000000;1.650391
9384.000000;1.650887
9383.000000;1.650189
9382.000000;1.648779
9381.000000;1.647725
9380.000000;1.647480
9379.000000;1.647579
9378.000000;1.647450
9377.000000;1.647171
9376.000000;1.647243
9375.000000;1.647778
9374.000000;1.648225
9373.000000;1.647980
9372.000000;1.647061
9371.000000;1.646012
9370.000000;1.645339
9369.000000;1.645201
9368.000000;1.645422
9367.000000;1.645598
9366.000000;1.645315
9365.000000;1.644553
9364.000000;1.643804
9363.000000;1.643441
9362.000000;1.643079
9361.000000;1.642038
9360.000000;1.640480
9359.000000;1.639526
9358.000000;1.639957
9357.000000;1.641136
9356.000000;1.641673
9355.000000;1.641083
9354.000000;1.640405
9353.000000;1.640989
9352.000000;1.642814
9351.000000;1.644243
9350.000000;1.643634
9349.000000;1.641180
9348.000000;1.638707
9347.000000;1.637558
9346.000000;1.637209
9345.000000;1.636354
9344.000000;1.634909
9343.000000;1.634005
9342.000000;1.633997
9341.000000;1.633582
9340.000000;1.631536
9339.000000;1.628673
9338.000000;1.627158
9337.000000;1.628118
9336.000000;1.630580
9335.000000;1.632633
9334.000000;1.633144
9333.000000;1.632257
9332.000000;1.630784
9331.000000;1.629554
9330.000000;1.629133
9329.000000;1.629650
9328.000000;1.630718
9327.000000;1.631584
9326.000000;1.631523
9325.000000;1.630312
9324.000000;1.628497
9323.000000;1.627123
9322.000000;1.626934
9321.000000;1.627650
9320.000000;1.628141
9319.000000;1.627530
9318.000000;1.626144
9317.000000;1.625176
9316.000000;1.625370
9315.000000;1.626285
9314.000000;1.626993
9313.000000;1.627272
9312.000000;1.627717
9311.000000;1.628730
9310.000000;1.629866
9309.000000;1.630337
9308.000000;1.629793
9307.000000;1.628493
9306.000000;1.627094
9305.000000;1.626463
9304.000000;1.627103
9303.000000;1.628252
9302.000000;1.628068
9301.000000;1.625520
9300.000000;1.621850
9299.000000;1.619364
9298.000000;1.618968
9297.000000;1.619647
9296.000000;1.620159
9295.000000;1.620186
9294.000000;1.619743
9293.000000;1.618700
9292.000000;1.617489
9291.000000;1.617286
9290.000000;1.618613
9289.000000;1.620294
9288.000000;1.620673
9287.000000;1.619627
9286.000000;1.618478
9285.000000;1.618137
9284.000000;1.618248
9283.000000;1.618148
9282.000000;1.617813
9281.000000;1.617557
9280.000000;1.617327
9279.000000;1.616570
9278.000000;1.614621
9277.000000;1.611269
9276.000000;1.607312
9275.000000;1.604417
9274.000000;1.603957
9273.000000;1.605860
9272.000000;1.608845
9271.000000;1.611695
9270.000000;1.613876
9269.000000;1.614978
9268.000000;1.614403
9267.000000;1.612080
9266.000000;1.609027
9265.000000;1.606744
9264.000000;1.606168
9263.000000;1.607300
9262.000000;1.609349
9261.000000;1.611013
9260.000000;1.611171
9259.000000;1.609847
9258.000000;1.608291
9257.000000;1.607714
9256.000000;1.608046
9255.000000;1.608193
9254.000000;1.607366
9253.000000;1.605774
9252.000000;1.604126
9251.000000;1.602955
9250.000000;1.602491
9249.000000;1.602774
9248.000000;1.603608
9247.000000;1.604520
9246.000000;1.604909
9245.000000;1.604328
9244.000000;1.602768
9243.000000;1.600753
9242.000000;1.599051
9241.000000;1.598082
9240.000000;1.597618
9239.000000;1.597195
9238.000000;1.596784
9237.000000;1.596833
9236.000000;1.597645
9235.000000;1.598950
9234.000000;1.600155
9233.000000;1.600827
9232.000000;1.600837
9231.000000;1.600250
9230.000000;1.599219
9229.000000;1.597935
9228.000000;1.596590
9227.000000;1.595430
9226.000000;1.594811
9225.000000;1.595028
9224.000000;1.595963
9223.000000;1.597079
9222.000000;1.597894
9221.000000;1.598326
9220.000000;1.598449
9219.000000;1.598137
9218.000000;1.597191
9217.000000;1.595655
9216.000000;1.593774
9215.000000;1.591770
9214.000000;1.589965
9213.000000;1.588949
9212.000000;1.589121
9211.000000;1.590032
9210.000000;1.590632
9209.000000;1.590352
9208.000000;1.589551
9207.000000;1.588792
9206.000000;1.588188
9205.000000;1.587739
9204.000000;1.587821
9203.000000;1.588687
9202.000000;1.589694
9201.000000;1.589698
9200.000000;1.588366
9199.000000;1.586657
9198.000000;1.585865
9197.000000;1.586450
9196.000000;1.587821
9195.000000;1.588872
9194.000000;1.588731
9193.000000;1.587383
9192.000000;1.585679
9191.000000;1.584545
9190.000000;1.584100
9189.000000;1.583757
9188.000000;1.583146
9187.000000;1.582485
9186.000000;1.581995
9185.000000;1.581527
9184.000000;1.581051
9183.000000;1.581028
9182.000000;1.581810
9181.000000;1.582980
9180.000000;1.583757
9179.000000;1.583849
9178.000000;1.583408
9177.000000;1.582424
9176.000000;1.580928
9175.000000;1.579721
9174.000000;1.580024
9173.000000;1.582023
9172.000000;1.584231
9171.000000;1.584780
9170.000000;1.583255
9169.000000;1.580912
9168.000000;1.579261
9167.000000;1.578751
9166.000000;1.578618
9165.000000;1.577717
9164.000000;1.575688
9163.000000;1.573520
9162.000000;1.572788
9161.000000;1.574057
9160.000000;1.576155
9159.000000;1.577301
9158.000000;1.576887
9157.000000;1.575830
9156.000000;1.575242
9155.000000;1.575315
9154.000000;1.575579
9153.000000;1.575702
9152.000000;1.575666
9151.000000;1.575399
9150.000000;1.574671
9149.000000;1.573358
9148.000000;1.571644
9147.000000;1.569943
9146.000000;1.568722
9145.000000;1.568294
9144.000000;1.568670
9143.000000;1.569662
9142.000000;1.571118
9141.000000;1.572857
9140.000000;1.574323
9139.000000;1.574705
9138.000000;1.573742
9137.000000;1.572183
9136.000000;1.571083
9135.000000;1.570746
9134.000000;1.570716
9133.000000;1.570627
9132.000000;1.570550
9131.000000;1.570497
9130.000000;1.570150
9129.000000;1.569311
9128.000000;1.568239
9127.000000;1.567261
9126.000000;1.566404
9125.000000;1.565671
9124.000000;1.565342
9123.000000;1.565597
9122.000000;1.566031
9121.000000;1.566020
9120.000000;1.565503
9119.000000;1.564989
9118.000000;1.564809
9117.000000;1.564787
9116.000000;1.564707
9115.000000;1.564666
9114.000000;1.564707
9113.000000;1.564496
9112.000000;1.563746
9111.000000;1.562779
9110.000000;1.562199
9109.000000;1.561990
9108.000000;1.561337
9107.000000;1.559626
9106.000000;1.557387
9105.000000;1.555849
9104.000000;1.555630
9103.000000;1.556243
9102.000000;1.556942
9101.000000;1.557657
9100.000000;1.558785
9099.000000;1.560187
9098.000000;1.560917
9097.000000;1.560243
9096.000000;1.558653
9095.000000;1.557472
9094.000000;1.557611
9093.000000;1.558840
9092.000000;1.560119
9091.000000;1.560470
9090.000000;1.559646
9089.000000;1.558209
9088.000000;1.557005
9087.000000;1.556535
9086.000000;1.556739
9085.000000;1.557120
9084.000000;1.556932
9083.000000;1.555530
9082.000000;1.553032
9081.000000;1.550714
9080.000000;1.550195
9079.000000;1.551860
9078.000000;1.554292
9077.000000;1.555591
9076.000000;1.555144
9075.000000;1.553764
9074.000000;1.552421
9073.000000;1.551481
9072.000000;1.550989
9071.000000;1.550917
9070.000000;1.550891
9069.000000;1.550260
9068.000000;1.548808
9067.000000;1.547111
9066.000000;1.545922
9065.000000;1.545446
9064.000000;1.545389
9063.000000;1.545443
9062.000000;1.545473
9061.000000;1.545423
9060.000000;1.545294
9059.000000;1.545149
9058.000000;1.544978
9057.000000;1.544659
9056.000000;1.544173
9055.000000;1.543710
9054.000000;1.543441
9053.000000;1.543328
