Criado como novo conjunto de dados;"Jao_teste_celulas.spp","10804.1 Secs"
cm-1;Abs
10000.000000;2.025803
9999.000000;2.026015
9998.000000;2.027687
9997.000000;2.028805
9996.000000;2.027280
9995.000000;2.024727
9994.000000;2.024275
9993.000000;2.026679
9992.000000;2.028978
9991.000000;2.028093
9990.000000;2.023829
9989.000000;2.018450
9988.000000;2.014515
9987.000000;2.013544
9986.000000;2.015376
9985.000000;2.018089
9984.000000;2.019376
9983.000000;2.018776
9982.000000;2.017683
9981.000000;2.017095
9980.000000;2.016841
9979.000000;2.017039
9978.000000;2.018681
9977.000000;2.021992
9976.000000;2.025316
9975.000000;2.026712
9974.000000;2.026184
9973.000000;2.025353
9972.000000;2.025237
9971.000000;2.025187
9970.000000;2.023802
9969.000000;2.020505
9968.000000;2.016409
9967.000000;2.013626
9966.000000;2.013402
9965.000000;2.014914
9964.000000;2.016240
9963.000000;2.016335
9962.000000;2.015318
9961.000000;2.013193
9960.000000;2.009509
9959.000000;2.004762
9958.000000;2.001169
9957.000000;2.000905
9956.000000;2.003925
9955.000000;2.008139
9954.000000;2.011292
9953.000000;2.012218
9952.000000;2.010886
9951.000000;2.008185
9950.000000;2.005739
9949.000000;2.005114
9948.000000;2.006712
9947.000000;2.009657
9946.000000;2.012635
9945.000000;2.014482
9944.000000;2.014346
9943.000000;2.012229
9942.000000;2.009456
9941.000000;2.007817
9940.000000;2.007801
9939.000000;2.008093
9938.000000;2.007164
9937.000000;2.005005
9936.000000;2.002699
9935.000000;2.000761
9934.000000;1.998898
9933.000000;1.997312
9932.000000;1.997047
9931.000000;1.998466
9930.000000;2.000082
9929.000000;1.999873
9928.000000;1.997633
9927.000000;1.995144
9926.000000;1.994234
9925.000000;1.995279
9924.000000;1.997276
9923.000000;1.998785
9922.000000;1.998678
9921.000000;1.996776
9920.000000;1.994363
9919.000000;1.993458
9918.000000;1.994988
9917.000000;1.997938
9916.000000;2.000516
9915.000000;2.001686
9914.000000;2.001232
9913.000000;1.999065
9912.000000;1.995473
9911.000000;1.991758
9910.000000;1.989465
9909.000000;1.988972
9908.000000;1.989537
9907.000000;1.990606
9906.000000;1.992347
9905.000000;1.994744
9904.000000;1.996790
9903.000000;1.996985
9902.000000;1.994596
9901.000000;1.990457
9900.000000;1.986691
9899.000000;1.985324
9898.000000;1.986572
9897.000000;1.988513
9896.000000;1.988986
9895.000000;1.987799
9894.000000;1.986556
9893.000000;1.986533
9892.000000;1.987481
9891.000000;1.988256
9890.000000;1.987500
9889.000000;1.984131
9888.000000;1.978582
9887.000000;1.973307
9886.000000;1.970984
9885.000000;1.971962
9884.000000;1.973941
9883.000000;1.974554
9882.000000;1.973822
9881.000000;1.973538
9880.000000;1.974932
9879.000000;1.977694
9878.000000;1.980625
9877.000000;1.982587
9876.000000;1.983240
9875.000000;1.983231
9874.000000;1.983283
9873.000000;1.982975
9872.000000;1.981232
9871.000000;1.978218
9870.000000;1.975552
9869.000000;1.974050
9868.000000;1.972467
9867.000000;1.969616
9866.000000;1.966803
9865.000000;1.966530
9864.000000;1.969104
9863.000000;1.971948
9862.000000;1.972492
9861.000000;1.970742
9860.000000;1.968542
9859.000000;1.967360
9858.000000;1.967380
9857.000000;1.967952
9856.000000;1.968219
9855.000000;1.967756
9854.000000;1.967101
9853.000000;1.967296
9852.000000;1.968470
9851.000000;1.969102
9850.000000;1.967276
9849.000000;1.962866
9848.000000;1.957846
9847.000000;1.954390
9846.000000;1.953169
9845.000000;1.953543
9844.000000;1.955002
9843.000000;1.957765
9842.000000;1.961704
9841.000000;1.965260
9840.000000;1.966357
9839.000000;1.964563
9838.000000;1.961582
9837.000000;1.959275
9836.000000;1.958089
9835.000000;1.957916
9834.000000;1.959381
9833.000000;1.963068
9832.000000;1.967698
9831.000000;1.969986
9830.000000;1.967263
9829.000000;1.960234
9828.000000;1.952385
9827.000000;1.947058
9826.000000;1.945602
9825.000000;1.947271
9824.000000;1.949934
9823.000000;1.951303
9822.000000;1.950599
9821.000000;1.949269
9820.000000;1.949495
9819.000000;1.951889
9818.000000;1.954795
9817.000000;1.955644
9816.000000;1.953014
9815.000000;1.947773
9814.000000;1.942468
9813.000000;1.939602
9812.000000;1.939940
9811.000000;1.941925
9810.000000;1.943293
9809.000000;1.943775
9808.000000;1.945294
9807.000000;1.948780
9806.000000;1.951891
9805.000000;1.951523
9804.000000;1.948487
9803.000000;1.947412
9802.000000;1.951147
9801.000000;1.956874
9800.000000;1.959070
9799.000000;1.955962
9798.000000;1.951170
9797.000000;1.948954
9796.000000;1.950065
9795.000000;1.952275
9794.000000;1.953224
9793.000000;1.951998
9792.000000;1.948917
9791.000000;1.945129
9790.000000;1.942208
9789.000000;1.941005
9788.000000;1.941048
9787.000000;1.941493
9786.000000;1.942163
9785.000000;1.943386
9784.000000;1.945210
9783.000000;1.947142
9782.000000;1.948462
9781.000000;1.948425
9780.000000;1.946548
9779.000000;1.943264
9778.000000;1.939900
9777.000000;1.937495
9776.000000;1.935834
9775.000000;1.934241
9774.000000;1.932958
9773.000000;1.932648
9772.000000;1.932813
9771.000000;1.932006
9770.000000;1.929812
9769.000000;1.927666
9768.000000;1.927028
9767.000000;1.927585
9766.000000;1.927952
9765.000000;1.927547
9764.000000;1.927016
9763.000000;1.927066
9762.000000;1.927634
9761.000000;1.928192
9760.000000;1.928351
9759.000000;1.928202
9758.000000;1.928439
9757.000000;1.929997
9756.000000;1.932983
9755.000000;1.935933
9754.000000;1.936699
9753.000000;1.934482
9752.000000;1.930695
9751.000000;1.927543
9750.000000;1.926050
9749.000000;1.925560
9748.000000;1.924836
9747.000000;1.923398
9746.000000;1.921826
9745.000000;1.920954
9744.000000;1.920967
9743.000000;1.921416
9742.000000;1.921977
9741.000000;1.922811
9740.000000;1.923963
9739.000000;1.924773
9738.000000;1.924423
9737.000000;1.923060
9736.000000;1.921914
9735.000000;1.922121
9734.000000;1.923637
9733.000000;1.925315
9732.000000;1.925862
9731.000000;1.924781
9730.000000;1.922689
9729.000000;1.920807
9728.000000;1.919934
9727.000000;1.919802
9726.000000;1.919601
9725.000000;1.919127
9724.000000;1.919083
9723.000000;1.920083
9722.000000;1.921663
9721.000000;1.922497
9720.000000;1.921600
9719.000000;1.919350
9718.000000;1.917435
9717.000000;1.917518
9716.000000;1.919448
9715.000000;1.920779
9714.000000;1.918847
9713.000000;1.913671
9712.000000;1.908043
9711.000000;1.904525
9710.000000;1.903319
9709.000000;1.903349
9708.000000;1.904312
9707.000000;1.906496
9706.000000;1.909093
9705.000000;1.910318
9704.000000;1.909529
9703.000000;1.908057
9702.000000;1.907432
9701.000000;1.907740
9700.000000;1.908206
9699.000000;1.908466
9698.000000;1.908435
9697.000000;1.907513
9696.000000;1.904974
9695.000000;1.901170
9694.000000;1.897594
9693.000000;1.895644
9692.000000;1.895833
9691.000000;1.897896
9690.000000;1.901054
9689.000000;1.904141
9688.000000;1.905926
9687.000000;1.905822
9686.000000;1.904251
9685.000000;1.902081
9684.000000;1.899874
9683.000000;1.897917
9682.000000;1.896614
9681.000000;1.896262
9680.000000;1.896350
9679.000000;1.895702
9678.000000;1.893811
9677.000000;1.891709
9676.000000;1.890861
9675.000000;1.891449
9674.000000;1.892447
9673.000000;1.893287
9672.000000;1.894518
9671.000000;1.896397
9670.000000;1.897690
9669.000000;1.896789
9668.000000;1.893798
9667.000000;1.890630
9666.000000;1.889154
9665.000000;1.889915
9664.000000;1.892346
9663.000000;1.895299
9662.000000;1.897375
9661.000000;1.897627
9660.000000;1.896353
9659.000000;1.894723
9658.000000;1.893504
9657.000000;1.892651
9656.000000;1.892019
9655.000000;1.891561
9654.000000;1.890757
9653.000000;1.888926
9652.000000;1.886579
9651.000000;1.885407
9650.000000;1.886276
9649.000000;1.887938
9648.000000;1.888412
9647.000000;1.887130
9646.000000;1.884911
9645.000000;1.882460
9644.000000;1.880056
9643.000000;1.878271
9642.000000;1.877633
9641.000000;1.877572
9640.000000;1.876849
9639.000000;1.875405
9638.000000;1.874816
9637.000000;1.876466
9636.000000;1.879932
9635.000000;1.883473
9634.000000;1.885542
9633.000000;1.885434
9632.000000;1.883214
9631.000000;1.879760
9630.000000;1.876493
9629.000000;1.874306
9628.000000;1.872745
9627.000000;1.870681
9626.000000;1.867817
9625.000000;1.865289
9624.000000;1.864876
9623.000000;1.867735
9622.000000;1.873430
9621.000000;1.879575
9620.000000;1.882671
9619.000000;1.880425
9618.000000;1.873911
9617.000000;1.867015
9616.000000;1.863451
9615.000000;1.864325
9614.000000;1.868141
9613.000000;1.872601
9612.000000;1.876151
9611.000000;1.878099
9610.000000;1.878232
9609.000000;1.877050
9608.000000;1.875902
9607.000000;1.875923
9606.000000;1.876780
9605.000000;1.877058
9604.000000;1.876009
9603.000000;1.874259
9602.000000;1.872527
9601.000000;1.870486
9600.000000;1.867526
9599.000000;1.864080
9598.000000;1.861410
9597.000000;1.860297
9596.000000;1.860651
9595.000000;1.862152
9594.000000;1.864433
9593.000000;1.866603
9592.000000;1.867445
9591.000000;1.866554
9590.000000;1.864831
9589.000000;1.863561
9588.000000;1.863377
9587.000000;1.864157
9586.000000;1.865360
9585.000000;1.866183
9584.000000;1.865893
9583.000000;1.864499
9582.000000;1.862964
9581.000000;1.862428
9580.000000;1.863154
9579.000000;1.864209
9578.000000;1.864118
9577.000000;1.862015
9576.000000;1.858495
9575.000000;1.855311
9574.000000;1.853888
9573.000000;1.854160
9572.000000;1.855081
9571.000000;1.856018
9570.000000;1.857082
9569.000000;1.858188
9568.000000;1.858697
9567.000000;1.858355
9566.000000;1.857861
9565.000000;1.857889
9564.000000;1.858053
9563.000000;1.857450
9562.000000;1.855926
9561.000000;1.854178
9560.000000;1.852849
9559.000000;1.852211
9558.000000;1.852535
9557.000000;1.853870
9556.000000;1.855301
9555.000000;1.855332
9554.000000;1.853671
9553.000000;1.852000
9552.000000;1.852120
9551.000000;1.853615
9550.000000;1.854094
9549.000000;1.851884
9548.000000;1.847834
9547.000000;1.844033
9546.000000;1.841527
9545.000000;1.840102
9544.000000;1.839767
9543.000000;1.841224
9542.000000;1.844495
9541.000000;1.847926
9540.000000;1.849466
9539.000000;1.848799
9538.000000;1.847395
9537.000000;1.846578
9536.000000;1.846319
9535.000000;1.845927
9534.000000;1.845285
9533.000000;1.845040
9532.000000;1.845671
9531.000000;1.846495
9530.000000;1.845657
9529.000000;1.841659
9528.000000;1.835458
9527.000000;1.830599
9526.000000;1.830402
9525.000000;1.834787
9524.000000;1.840058
9523.000000;1.842071
9522.000000;1.839741
9521.000000;1.835337
9520.000000;1.832069
9519.000000;1.831939
9518.000000;1.835003
9517.000000;1.839484
9516.000000;1.842725
9515.000000;1.842937
9514.000000;1.840336
9513.000000;1.836454
9512.000000;1.832701
9511.000000;1.829856
9510.000000;1.828322
9509.000000;1.828096
9508.000000;1.828619
9507.000000;1.829228
9506.000000;1.829759
9505.000000;1.830250
9504.000000;1.830329
9503.000000;1.829554
9502.000000;1.828194
9501.000000;1.827037
9500.000000;1.826430
9499.000000;1.826120
9498.000000;1.826086
9497.000000;1.826738
9496.000000;1.827964
9495.000000;1.828645
9494.000000;1.827679
9493.000000;1.825194
9492.000000;1.822261
9491.000000;1.819706
9490.000000;1.817712
9489.000000;1.816345
9488.000000;1.815742
9487.000000;1.815783
9486.000000;1.816198
9485.000000;1.817190
9484.000000;1.819354
9483.000000;1.822550
9482.000000;1.825223
9481.000000;1.825535
9480.000000;1.823303
9479.000000;1.820224
9478.000000;1.818042
9477.000000;1.817133
9476.000000;1.817105
9475.000000;1.818072
9474.000000;1.820519
9473.000000;1.823929
9472.000000;1.826447
9471.000000;1.826576
9470.000000;1.824926
9469.000000;1.823498
9468.000000;1.823289
9467.000000;1.823144
9466.000000;1.821094
9465.000000;1.816607
9464.000000;1.811309
9463.000000;1.807547
9462.000000;1.806501
9461.000000;1.807550
9460.000000;1.809147
9459.000000;1.810083
9458.000000;1.809978
9457.000000;1.809013
9456.000000;1.807799
9455.000000;1.807456
9454.000000;1.808996
9453.000000;1.812094
9452.000000;1.814885
9451.000000;1.815709
9450.000000;1.814942
9449.000000;1.814394
9448.000000;1.814966
9447.000000;1.815636
9446.000000;1.814900
9445.000000;1.812608
9444.000000;1.809965
9443.000000;1.808125
9442.000000;1.807266
9441.000000;1.806735
9440.000000;1.805601
9439.000000;1.803249
9438.000000;1.799955
9437.000000;1.797016
9436.000000;1.795950
9435.000000;1.797270
9434.000000;1.800039
9433.000000;1.802650
9432.000000;1.804046
9431.000000;1.804195
9430.000000;1.803545
9429.000000;1.802497
9428.000000;1.801631
9427.000000;1.801819
9426.000000;1.803340
9425.000000;1.804942
9424.000000;1.804606
9423.000000;1.801808
9422.000000;1.798491
9421.000000;1.797110
9420.000000;1.797958
9419.000000;1.798955
9418.000000;1.798079
9417.000000;1.795563
9416.000000;1.793506
9415.000000;1.793809
9414.000000;1.796820
9413.000000;1.801544
9412.000000;1.806482
9411.000000;1.810192
9410.000000;1.811433
9409.000000;1.809495
9408.000000;1.804912
9407.000000;1.799702
9406.000000;1.796187
9405.000000;1.795220
9404.000000;1.795864
9403.000000;1.796982
9402.000000;1.798502
9401.000000;1.800440
9400.000000;1.801470
9399.000000;1.799936
9398.000000;1.796365
9397.000000;1.793443
9396.000000;1.792995
9395.000000;1.794111
9394.000000;1.794807
9393.000000;1.794528
9392.000000;1.794039
9391.000000;1.793618
9390.000000;1.792718
9389.000000;1.791224
9388.000000;1.789827
9387.000000;1.789023
9386.000000;1.788549
9385.000000;1.787899
9384.000000;1.786729
9383.000000;1.784784
9382.000000;1.782339
9381.000000;1.780706
9380.000000;1.781280
9379.000000;1.783709
9378.000000;1.785806
9377.000000;1.785933
9376.000000;1.784822
9375.000000;1.784269
9374.000000;1.784696
9373.000000;1.784956
9372.000000;1.784181
9371.000000;1.782793
9370.000000;1.781564
9369.000000;1.780654
9368.000000;1.779901
9367.000000;1.779309
9366.000000;1.778785
9365.000000;1.777971
9364.000000;1.776844
9363.000000;1.776039
9362.000000;1.776089
9361.000000;1.776633
9360.000000;1.776860
9359.000000;1.776614
9358.000000;1.776509
9357.000000;1.777002
9356.000000;1.777866
9355.000000;1.778576
9354.000000;1.778663
9353.000000;1.777700
9352.000000;1.775681
9351.000000;1.773676
9350.000000;1.773235
9349.000000;1.774583
9348.000000;1.775903
9347.000000;1.775144
9346.000000;1.772297
9345.000000;1.769142
9344.000000;1.767157
9343.000000;1.766672
9342.000000;1.767713
9341.000000;1.770373
9340.000000;1.774003
9339.000000;1.777049
9338.000000;1.778399
9337.000000;1.778326
9336.000000;1.777607
9335.000000;1.776374
9334.000000;1.774440
9333.000000;1.772281
9332.000000;1.770873
9331.000000;1.770612
9330.000000;1.770953
9329.000000;1.771116
9328.000000;1.770821
9327.000000;1.770292
9326.000000;1.769786
9325.000000;1.769226
9324.000000;1.768250
9323.000000;1.766719
9322.000000;1.765159
9321.000000;1.764318
9320.000000;1.764193
9319.000000;1.763989
9318.000000;1.763321
9317.000000;1.762827
9316.000000;1.763149
9315.000000;1.763818
9314.000000;1.763707
9313.000000;1.762295
9312.000000;1.759902
9311.000000;1.757024
9310.000000;1.754303
9309.000000;1.753004
9308.000000;1.754412
9307.000000;1.758275
9306.000000;1.762469
9305.000000;1.764794
9304.000000;1.764862
9303.000000;1.763833
9302.000000;1.762710
9301.000000;1.761436
9300.000000;1.759498
9299.000000;1.756984
9298.000000;1.754946
9297.000000;1.754673
9296.000000;1.756551
9295.000000;1.759601
9294.000000;1.762181
9293.000000;1.763262
9292.000000;1.762856
9291.000000;1.761352
9290.000000;1.759042
9289.000000;1.756393
9288.000000;1.754217
9287.000000;1.753211
9286.000000;1.753484
9285.000000;1.754637
9284.000000;1.756090
9283.000000;1.757237
9282.000000;1.757600
9281.000000;1.757086
9280.000000;1.755971
9279.000000;1.754583
9278.000000;1.753255
9277.000000;1.752452
9276.000000;1.752429
9275.000000;1.752765
9274.000000;1.752717
9273.000000;1.752064
9272.000000;1.751086
9271.000000;1.749804
9270.000000;1.748061
9269.000000;1.746609
9268.000000;1.747139
9267.000000;1.750410
9266.000000;1.754776
9265.000000;1.757361
9264.000000;1.756769
9263.000000;1.753995
9262.000000;1.750831
9261.000000;1.748311
9260.000000;1.746671
9259.000000;1.745816
9258.000000;1.745308
9257.000000;1.744385
9256.000000;1.742566
9255.000000;1.740350
9254.000000;1.739102
9253.000000;1.740017
9252.000000;1.743072
9251.000000;1.746834
9250.000000;1.749398
9249.000000;1.749826
9248.000000;1.748755
9247.000000;1.747594
9246.000000;1.747297
9245.000000;1.747801
9244.000000;1.748138
9243.000000;1.746947
9242.000000;1.743434
9241.000000;1.738416
9240.000000;1.734232
9239.000000;1.733053
9238.000000;1.735094
9237.000000;1.738462
9236.000000;1.740774
9235.000000;1.740967
9234.000000;1.739681
9233.000000;1.738172
9232.000000;1.737106
9231.000000;1.736323
9230.000000;1.735544
9229.000000;1.734984
9228.000000;1.735048
9227.000000;1.735634
9226.000000;1.736182
9225.000000;1.736460
9224.000000;1.736783
9223.000000;1.737219
9222.000000;1.737077
9221.000000;1.735714
9220.000000;1.733584
9219.000000;1.732021
9218.000000;1.732060
9217.000000;1.733785
9216.000000;1.736448
9215.000000;1.738671
9214.000000;1.738880
9213.000000;1.736512
9212.000000;1.732994
9211.000000;1.730849
9210.000000;1.731489
9209.000000;1.734088
9208.000000;1.736609
9207.000000;1.737621
9206.000000;1.737030
9205.000000;1.735517
9204.000000;1.733840
9203.000000;1.732582
9202.000000;1.732079
9201.000000;1.732328
9200.000000;1.733082
9199.000000;1.734137
9198.000000;1.735435
9197.000000;1.736732
9196.000000;1.737259
9195.000000;1.736057
9194.000000;1.732882
9193.000000;1.728675
9192.000000;1.724939
9191.000000;1.722740
9190.000000;1.722378
9189.000000;1.723635
9188.000000;1.725725
9187.000000;1.727122
9186.000000;1.726421
9185.000000;1.723840
9184.000000;1.721266
9183.000000;1.720304
9182.000000;1.720808
9181.000000;1.721626
9180.000000;1.722244
9179.000000;1.722985
9178.000000;1.723938
9177.000000;1.724740
9176.000000;1.725445
9175.000000;1.726567
9174.000000;1.727932
9173.000000;1.728333
9172.000000;1.726900
9171.000000;1.724265
9170.000000;1.721755
9169.000000;1.719852
9168.000000;1.718070
9167.000000;1.716116
9166.000000;1.714555
9165.000000;1.714169
9164.000000;1.714984
9163.000000;1.716108
9162.000000;1.716503
9161.000000;1.715883
9160.000000;1.714832
9159.000000;1.714099
9158.000000;1.713914
9157.000000;1.714062
9156.000000;1.714376
9155.000000;1.714825
9154.000000;1.715177
9153.000000;1.715010
9152.000000;1.714187
9151.000000;1.713036
9150.000000;1.712004
9149.000000;1.711370
9148.000000;1.711245
9147.000000;1.711538
9146.000000;1.711896
9145.000000;1.711970
9144.000000;1.711824
9143.000000;1.711832
9142.000000;1.712095
9141.000000;1.712241
9140.000000;1.711925
9139.000000;1.711296
9138.000000;1.710829
9137.000000;1.710851
9136.000000;1.711259
9135.000000;1.711517
9134.000000;1.710946
9133.000000;1.709365
9132.000000;1.707487
9131.000000;1.706338
9130.000000;1.706242
9129.000000;1.706690
9128.000000;1.707167
9127.000000;1.707558
9126.000000;1.707574
9125.000000;1.706468
9124.000000;1.704011
9123.000000;1.701433
9122.000000;1.700611
9121.000000;1.702215
9120.000000;1.704976
9119.000000;1.706889
9118.000000;1.706927
9117.000000;1.705501
9116.000000;1.703585
9115.000000;1.701897
9114.000000;1.700852
9113.000000;1.700735
9112.000000;1.701507
9111.000000;1.702505
9110.000000;1.702778
9109.000000;1.702010
9108.000000;1.700907
9107.000000;1.700428
9106.000000;1.700762
9105.000000;1.701267
9104.000000;1.701271
9103.000000;1.700657
9102.000000;1.699716
9101.000000;1.698853
9100.000000;1.698494
9099.000000;1.698841
9098.000000;1.699496
9097.000000;1.699651
9096.000000;1.698870
9095.000000;1.697555
9094.000000;1.696519
9093.000000;1.696220
9092.000000;1.696464
9091.000000;1.696600
9090.000000;1.695873
9089.000000;1.693986
9088.000000;1.691685
9087.000000;1.690509
9086.000000;1.691445
9085.000000;1.693815
9084.000000;1.695774
9083.000000;1.696085
9082.000000;1.695272
9081.000000;1.694784
9080.000000;1.695212
9079.000000;1.695634
9078.000000;1.694741
9077.000000;1.692349
9076.000000;1.689577
9075.000000;1.687617
9074.000000;1.686695
9073.000000;1.686354
9072.000000;1.686370
9071.000000;1.686963
9070.000000;1.688152
9069.000000;1.689238
9068.000000;1.689164
9067.000000;1.687430
9066.000000;1.684667
9065.000000;1.682325
9064.000000;1.681690
9063.000000;1.682979
9062.000000;1.685206
9061.000000;1.686959
9060.000000;1.687360
9059.000000;1.686393
9058.000000;1.684608
9057.000000;1.682773
9056.000000;1.681560
9055.000000;1.681210
9054.000000;1.681405
9053.000000;1.681681
