Criado como novo conjunto de dados;"Jao_teste_celulas.spp","12004.7 Secs"
cm-1;Abs
10000.000000;2.138965
9999.000000;2.140733
9998.000000;2.140329
9997.000000;2.141209
9996.000000;2.144333
9995.000000;2.146245
9994.000000;2.145254
9993.000000;2.143771
9992.000000;2.145936
9991.000000;2.151144
9990.000000;2.154261
9989.000000;2.151934
9988.000000;2.147223
9987.000000;2.145424
9986.000000;2.147415
9985.000000;2.149050
9984.000000;2.146611
9983.000000;2.140882
9982.000000;2.135033
9981.000000;2.130983
9980.000000;2.129104
9979.000000;2.129490
9978.000000;2.131975
9977.000000;2.135191
9976.000000;2.137086
9975.000000;2.136808
9974.000000;2.134995
9973.000000;2.132414
9972.000000;2.129458
9971.000000;2.126825
9970.000000;2.125690
9969.000000;2.126615
9968.000000;2.128674
9967.000000;2.130098
9966.000000;2.129669
9965.000000;2.127316
9964.000000;2.123588
9963.000000;2.119071
9962.000000;2.114416
9961.000000;2.110589
9960.000000;2.108543
9959.000000;2.108284
9958.000000;2.108677
9957.000000;2.108670
9956.000000;2.108484
9955.000000;2.109016
9954.000000;2.110277
9953.000000;2.111297
9952.000000;2.111664
9951.000000;2.112056
9950.000000;2.112784
9949.000000;2.112973
9948.000000;2.112143
9947.000000;2.111725
9946.000000;2.113654
9945.000000;2.117922
9944.000000;2.122848
9943.000000;2.127313
9942.000000;2.131138
9941.000000;2.133459
9940.000000;2.132725
9939.000000;2.128950
9938.000000;2.124412
9937.000000;2.121244
9936.000000;2.119357
9935.000000;2.117638
9934.000000;2.116396
9933.000000;2.117108
9932.000000;2.119932
9931.000000;2.122787
9930.000000;2.123151
9929.000000;2.120316
9928.000000;2.115806
9927.000000;2.112096
9926.000000;2.110931
9925.000000;2.112194
9924.000000;2.114197
9923.000000;2.115476
9922.000000;2.116198
9921.000000;2.117186
9920.000000;2.117771
9919.000000;2.115970
9918.000000;2.111430
9917.000000;2.106931
9916.000000;2.105807
9915.000000;2.108390
9914.000000;2.111843
9913.000000;2.113414
9912.000000;2.113050
9911.000000;2.112340
9910.000000;2.111868
9909.000000;2.110697
9908.000000;2.108047
9907.000000;2.104549
9906.000000;2.101712
9905.000000;2.100665
9904.000000;2.101699
9903.000000;2.104248
9902.000000;2.107029
9901.000000;2.108942
9900.000000;2.109934
9899.000000;2.110570
9898.000000;2.110535
9897.000000;2.108220
9896.000000;2.102921
9895.000000;2.096982
9894.000000;2.094072
9893.000000;2.095287
9892.000000;2.098299
9891.000000;2.100555
9890.000000;2.101841
9889.000000;2.102921
9888.000000;2.103255
9887.000000;2.101633
9886.000000;2.098311
9885.000000;2.094908
9884.000000;2.092561
9883.000000;2.091458
9882.000000;2.091793
9881.000000;2.093705
9880.000000;2.096038
9879.000000;2.096864
9878.000000;2.095897
9877.000000;2.094557
9876.000000;2.093316
9875.000000;2.091132
9874.000000;2.088111
9873.000000;2.086698
9872.000000;2.088880
9871.000000;2.093553
9870.000000;2.098058
9869.000000;2.101519
9868.000000;2.104808
9867.000000;2.107502
9866.000000;2.107259
9865.000000;2.103039
9864.000000;2.097143
9863.000000;2.092733
9862.000000;2.090495
9861.000000;2.088789
9860.000000;2.086430
9859.000000;2.084277
9858.000000;2.083967
9857.000000;2.085711
9856.000000;2.087727
9855.000000;2.087896
9854.000000;2.085968
9853.000000;2.083807
9852.000000;2.083353
9851.000000;2.084713
9850.000000;2.086460
9849.000000;2.087466
9848.000000;2.087842
9847.000000;2.088088
9846.000000;2.088174
9845.000000;2.087883
9844.000000;2.087403
9843.000000;2.087078
9842.000000;2.086812
9841.000000;2.086064
9840.000000;2.084440
9839.000000;2.082138
9838.000000;2.079561
9837.000000;2.076681
9836.000000;2.073361
9835.000000;2.070349
9834.000000;2.069404
9833.000000;2.071978
9832.000000;2.077267
9831.000000;2.081800
9830.000000;2.082141
9829.000000;2.078484
9828.000000;2.074560
9827.000000;2.073572
9826.000000;2.075036
9825.000000;2.075859
9824.000000;2.074240
9823.000000;2.071852
9822.000000;2.071472
9821.000000;2.073598
9820.000000;2.076434
9819.000000;2.078430
9818.000000;2.079825
9817.000000;2.081324
9816.000000;2.082136
9815.000000;2.080607
9814.000000;2.076633
9813.000000;2.072010
9812.000000;2.068020
9811.000000;2.064258
9810.000000;2.060555
9809.000000;2.058598
9808.000000;2.060163
9807.000000;2.064391
9806.000000;2.068369
9805.000000;2.070522
9804.000000;2.071786
9803.000000;2.072933
9802.000000;2.072715
9801.000000;2.070040
9800.000000;2.066620
9799.000000;2.065355
9798.000000;2.066574
9797.000000;2.067677
9796.000000;2.066760
9795.000000;2.065083
9794.000000;2.064964
9793.000000;2.066321
9792.000000;2.066691
9791.000000;2.064670
9790.000000;2.062058
9789.000000;2.061892
9788.000000;2.064724
9787.000000;2.067532
9786.000000;2.066833
9785.000000;2.062408
9784.000000;2.057170
9783.000000;2.053806
9782.000000;2.052412
9781.000000;2.051399
9780.000000;2.049928
9779.000000;2.048745
9778.000000;2.048746
9777.000000;2.049600
9776.000000;2.050237
9775.000000;2.050271
9774.000000;2.050438
9773.000000;2.051798
9772.000000;2.054865
9771.000000;2.059242
9770.000000;2.063392
9769.000000;2.064777
9768.000000;2.061379
9767.000000;2.054216
9766.000000;2.047593
9765.000000;2.045515
9764.000000;2.048081
9763.000000;2.051831
9762.000000;2.053547
9761.000000;2.053101
9760.000000;2.052176
9759.000000;2.051593
9758.000000;2.051191
9757.000000;2.051304
9756.000000;2.052645
9755.000000;2.054927
9754.000000;2.056849
9753.000000;2.057652
9752.000000;2.057487
9751.000000;2.056147
9750.000000;2.053298
9749.000000;2.050352
9748.000000;2.050036
9747.000000;2.053101
9746.000000;2.056573
9745.000000;2.056461
9744.000000;2.051785
9743.000000;2.044675
9742.000000;2.037437
9741.000000;2.031349
9740.000000;2.027512
9739.000000;2.026924
9738.000000;2.029190
9737.000000;2.032288
9736.000000;2.034512
9735.000000;2.035834
9734.000000;2.036771
9733.000000;2.036918
9732.000000;2.035683
9731.000000;2.033923
9730.000000;2.033480
9729.000000;2.035009
9728.000000;2.037184
9727.000000;2.038382
9726.000000;2.038440
9725.000000;2.038050
9724.000000;2.037121
9723.000000;2.034844
9722.000000;2.031395
9721.000000;2.028605
9720.000000;2.028288
9719.000000;2.030291
9718.000000;2.032684
9717.000000;2.033638
9716.000000;2.032545
9715.000000;2.029528
9714.000000;2.025072
9713.000000;2.020655
9712.000000;2.018761
9711.000000;2.021135
9710.000000;2.027011
9709.000000;2.033534
9708.000000;2.038060
9707.000000;2.039647
9706.000000;2.038464
9705.000000;2.035016
9704.000000;2.030621
9703.000000;2.027415
9702.000000;2.026589
9701.000000;2.026918
9700.000000;2.026105
9699.000000;2.023729
9698.000000;2.021843
9697.000000;2.022327
9696.000000;2.024602
9695.000000;2.026449
9694.000000;2.026458
9693.000000;2.024895
9692.000000;2.022528
9691.000000;2.019837
9690.000000;2.017575
9689.000000;2.016914
9688.000000;2.018255
9687.000000;2.020297
9686.000000;2.021102
9685.000000;2.020080
9684.000000;2.018248
9683.000000;2.016689
9682.000000;2.015378
9681.000000;2.013631
9680.000000;2.011435
9679.000000;2.009787
9678.000000;2.009401
9677.000000;2.009566
9676.000000;2.008886
9675.000000;2.007048
9674.000000;2.005453
9673.000000;2.005905
9672.000000;2.008789
9671.000000;2.012780
9670.000000;2.016237
9669.000000;2.018459
9668.000000;2.019551
9667.000000;2.019720
9666.000000;2.019201
9665.000000;2.018519
9664.000000;2.018347
9663.000000;2.018954
9662.000000;2.019781
9661.000000;2.019697
9660.000000;2.017708
9659.000000;2.013754
9658.000000;2.009045
9657.000000;2.005228
9656.000000;2.003066
9655.000000;2.002135
9654.000000;2.001858
9653.000000;2.002300
9652.000000;2.003624
9651.000000;2.005299
9650.000000;2.006570
9649.000000;2.007487
9648.000000;2.008587
9647.000000;2.009521
9646.000000;2.009093
9645.000000;2.007132
9644.000000;2.005384
9643.000000;2.005695
9642.000000;2.007636
9641.000000;2.008757
9640.000000;2.007446
9639.000000;2.004961
9638.000000;2.003792
9637.000000;2.004246
9636.000000;2.003775
9635.000000;2.000237
9634.000000;1.994919
9633.000000;1.991271
9632.000000;1.991045
9631.000000;1.992733
9630.000000;1.993706
9629.000000;1.992881
9628.000000;1.990768
9627.000000;1.988013
9626.000000;1.985507
9625.000000;1.985267
9624.000000;1.989036
9623.000000;1.995655
9622.000000;2.001088
9621.000000;2.002171
9620.000000;1.999691
9619.000000;1.996677
9618.000000;1.994709
9617.000000;1.993104
9616.000000;1.991081
9615.000000;1.989257
9614.000000;1.988678
9613.000000;1.989386
9612.000000;1.990505
9611.000000;1.991242
9610.000000;1.991230
9609.000000;1.990102
9608.000000;1.987638
9607.000000;1.984748
9606.000000;1.983518
9605.000000;1.985369
9604.000000;1.989167
9603.000000;1.991783
9602.000000;1.991277
9601.000000;1.988993
9600.000000;1.987511
9599.000000;1.987460
9598.000000;1.987295
9597.000000;1.985807
9596.000000;1.983844
9595.000000;1.982851
9594.000000;1.982728
9593.000000;1.982223
9592.000000;1.980794
9591.000000;1.979370
9590.000000;1.979444
9589.000000;1.981652
9588.000000;1.984936
9587.000000;1.986949
9586.000000;1.985832
9585.000000;1.982240
9584.000000;1.979289
9583.000000;1.979714
9582.000000;1.983289
9581.000000;1.987427
9580.000000;1.989867
9579.000000;1.990276
9578.000000;1.989533
9577.000000;1.988344
9576.000000;1.986837
9575.000000;1.984948
9574.000000;1.982782
9573.000000;1.980488
9572.000000;1.978016
9571.000000;1.975233
9570.000000;1.972320
9569.000000;1.970139
9568.000000;1.969904
9567.000000;1.971826
9566.000000;1.974157
9565.000000;1.974334
9564.000000;1.971503
9563.000000;1.967568
9562.000000;1.965463
9561.000000;1.966663
9560.000000;1.970191
9559.000000;1.973485
9558.000000;1.974286
9557.000000;1.972282
9556.000000;1.969149
9555.000000;1.966792
9554.000000;1.965643
9553.000000;1.965085
9552.000000;1.965129
9551.000000;1.966760
9550.000000;1.970241
9549.000000;1.973616
9548.000000;1.974094
9547.000000;1.971083
9546.000000;1.966733
9545.000000;1.963482
9544.000000;1.961979
9543.000000;1.961523
9542.000000;1.961594
9541.000000;1.962114
9540.000000;1.962672
9539.000000;1.962594
9538.000000;1.961796
9537.000000;1.960735
9536.000000;1.959504
9535.000000;1.957900
9534.000000;1.956561
9533.000000;1.957098
9532.000000;1.960469
9531.000000;1.965680
9530.000000;1.970525
9529.000000;1.973306
9528.000000;1.973467
9527.000000;1.971325
9526.000000;1.968070
9525.000000;1.965422
9524.000000;1.964193
9523.000000;1.963435
9522.000000;1.961890
9521.000000;1.960075
9520.000000;1.959983
9519.000000;1.962594
9518.000000;1.966528
9517.000000;1.969260
9516.000000;1.968928
9515.000000;1.965125
9514.000000;1.959008
9513.000000;1.952873
9512.000000;1.948796
9511.000000;1.947167
9510.000000;1.946856
9509.000000;1.946980
9508.000000;1.947869
9507.000000;1.949921
9506.000000;1.952214
9505.000000;1.953102
9504.000000;1.952027
9503.000000;1.950195
9502.000000;1.949453
9501.000000;1.950757
9500.000000;1.953436
9499.000000;1.955726
9498.000000;1.956283
9497.000000;1.955315
9496.000000;1.953919
9495.000000;1.952572
9494.000000;1.951128
9493.000000;1.950009
9492.000000;1.950118
9491.000000;1.951447
9490.000000;1.952818
9489.000000;1.953267
9488.000000;1.952770
9487.000000;1.951352
9486.000000;1.948664
9485.000000;1.945137
9484.000000;1.942405
9483.000000;1.941629
9482.000000;1.942351
9481.000000;1.943967
9480.000000;1.947342
9479.000000;1.953389
9478.000000;1.960457
9477.000000;1.964684
9476.000000;1.963431
9475.000000;1.957572
9474.000000;1.950222
9473.000000;1.944238
9472.000000;1.940997
9471.000000;1.940189
9470.000000;1.940284
9469.000000;1.940008
9468.000000;1.939613
9467.000000;1.940107
9466.000000;1.941397
9465.000000;1.942183
9464.000000;1.941766
9463.000000;1.940848
9462.000000;1.940227
9461.000000;1.939803
9460.000000;1.939373
9459.000000;1.939375
9458.000000;1.940094
9457.000000;1.940704
9456.000000;1.939871
9455.000000;1.937200
9454.000000;1.933719
9453.000000;1.931108
9452.000000;1.930557
9451.000000;1.931853
9450.000000;1.933263
9449.000000;1.932874
9448.000000;1.930442
9447.000000;1.927477
9446.000000;1.925473
9445.000000;1.924703
9444.000000;1.924663
9443.000000;1.924809
9442.000000;1.924626
9441.000000;1.923884
9440.000000;1.923370
9439.000000;1.924525
9438.000000;1.927662
9437.000000;1.931095
9436.000000;1.932727
9435.000000;1.932108
9434.000000;1.930143
9433.000000;1.927461
9432.000000;1.924281
9431.000000;1.921535
9430.000000;1.920707
9429.000000;1.922194
9428.000000;1.924620
9427.000000;1.926231
9426.000000;1.926371
9425.000000;1.925312
9424.000000;1.923490
9423.000000;1.921450
9422.000000;1.919955
9421.000000;1.919487
9420.000000;1.919698
9419.000000;1.919743
9418.000000;1.919249
9417.000000;1.918758
9416.000000;1.919176
9415.000000;1.920885
9414.000000;1.923286
9413.000000;1.925032
9412.000000;1.924981
9411.000000;1.923290
9410.000000;1.921640
9409.000000;1.922052
9408.000000;1.925044
9407.000000;1.928743
9406.000000;1.930118
9405.000000;1.927704
9404.000000;1.923220
9403.000000;1.919957
9402.000000;1.919506
9401.000000;1.920583
9400.000000;1.920827
9399.000000;1.919096
9398.000000;1.916045
9397.000000;1.913140
9396.000000;1.911583
9395.000000;1.911932
9394.000000;1.913961
9393.000000;1.916592
9392.000000;1.918346
9391.000000;1.918261
9390.000000;1.916310
9389.000000;1.913012
9388.000000;1.909122
9387.000000;1.905891
9386.000000;1.904974
9385.000000;1.907210
9384.000000;1.911314
9383.000000;1.914377
9382.000000;1.914327
9381.000000;1.911849
9380.000000;1.909398
9379.000000;1.908525
9378.000000;1.908704
9377.000000;1.908617
9376.000000;1.907878
9375.000000;1.907084
9374.000000;1.906630
9373.000000;1.906153
9372.000000;1.905170
9371.000000;1.903793
9370.000000;1.902673
9369.000000;1.902473
9368.000000;1.903458
9367.000000;1.905193
9366.000000;1.906351
9365.000000;1.905325
9364.000000;1.901751
9363.000000;1.897533
9362.000000;1.895855
9361.000000;1.898703
9360.000000;1.904915
9359.000000;1.910590
9358.000000;1.912187
9357.000000;1.909680
9356.000000;1.906313
9355.000000;1.905201
9354.000000;1.906478
9353.000000;1.907652
9352.000000;1.906470
9351.000000;1.903128
9350.000000;1.899724
9349.000000;1.898126
9348.000000;1.898583
9347.000000;1.899855
9346.000000;1.900315
9345.000000;1.899186
9344.000000;1.897089
9343.000000;1.895436
9342.000000;1.895141
9341.000000;1.895703
9340.000000;1.895506
9339.000000;1.893347
9338.000000;1.889975
9337.000000;1.887934
9336.000000;1.889340
9335.000000;1.893463
9334.000000;1.896778
9333.000000;1.896171
9332.000000;1.892192
9331.000000;1.888371
9330.000000;1.887614
9329.000000;1.890056
9328.000000;1.893874
9327.000000;1.897032
9326.000000;1.898119
9325.000000;1.896628
9324.000000;1.893466
9323.000000;1.890756
9322.000000;1.890217
9321.000000;1.891691
9320.000000;1.893628
9319.000000;1.894883
9318.000000;1.895538
9317.000000;1.896097
9316.000000;1.896663
9315.000000;1.897124
9314.000000;1.897418
9313.000000;1.897176
9312.000000;1.895552
9311.000000;1.892045
9310.000000;1.887574
9309.000000;1.884265
9308.000000;1.883772
9307.000000;1.885711
9306.000000;1.887798
9305.000000;1.887793
9304.000000;1.885425
9303.000000;1.882316
9302.000000;1.880091
9301.000000;1.878896
9300.000000;1.877803
9299.000000;1.876353
9298.000000;1.875410
9297.000000;1.876382
9296.000000;1.879528
9295.000000;1.883113
9294.000000;1.884589
9293.000000;1.883021
9292.000000;1.880173
9291.000000;1.878756
9290.000000;1.879631
9289.000000;1.880962
9288.000000;1.880175
9287.000000;1.876840
9286.000000;1.873320
9285.000000;1.872411
9284.000000;1.874568
9283.000000;1.877367
9282.000000;1.877780
9281.000000;1.875304
9280.000000;1.872616
9279.000000;1.872859
9278.000000;1.876421
9277.000000;1.880487
9276.000000;1.881791
9275.000000;1.879754
9274.000000;1.876743
9273.000000;1.875567
9272.000000;1.877067
9271.000000;1.879747
9270.000000;1.881324
9269.000000;1.880721
9268.000000;1.878687
9267.000000;1.876616
9266.000000;1.875082
9265.000000;1.873730
9264.000000;1.872337
9263.000000;1.871368
9262.000000;1.871328
9261.000000;1.872114
9260.000000;1.873251
9259.000000;1.874479
9258.000000;1.875808
9257.000000;1.877144
9256.000000;1.878126
9255.000000;1.878443
9254.000000;1.878215
9253.000000;1.877894
9252.000000;1.877568
9251.000000;1.876427
9250.000000;1.873516
9249.000000;1.869411
9248.000000;1.866383
9247.000000;1.866011
9246.000000;1.867084
9245.000000;1.867012
9244.000000;1.865401
9243.000000;1.864728
9242.000000;1.866764
9241.000000;1.869743
9240.000000;1.870196
9239.000000;1.867030
9238.000000;1.862414
9237.000000;1.858866
9236.000000;1.857109
9235.000000;1.856814
9234.000000;1.857773
9233.000000;1.859620
9232.000000;1.861367
9231.000000;1.862180
9230.000000;1.862372
9229.000000;1.862826
9228.000000;1.863407
9227.000000;1.862690
9226.000000;1.859732
9225.000000;1.855771
9224.000000;1.853411
9223.000000;1.853841
9222.000000;1.855488
9221.000000;1.856076
9220.000000;1.855585
9219.000000;1.855964
9218.000000;1.857966
9217.000000;1.859764
9216.000000;1.859396
9215.000000;1.857384
9214.000000;1.855678
9213.000000;1.854957
9212.000000;1.854450
9211.000000;1.853805
9210.000000;1.853537
9209.000000;1.853645
9208.000000;1.853362
9207.000000;1.852790
9206.000000;1.853395
9205.000000;1.855992
9204.000000;1.859105
9203.000000;1.860220
9202.000000;1.858467
9201.000000;1.855490
9200.000000;1.853633
9199.000000;1.853841
9198.000000;1.855283
9197.000000;1.856529
9196.000000;1.856946
9195.000000;1.856976
9194.000000;1.857140
9193.000000;1.857138
9192.000000;1.856272
9191.000000;1.854547
9190.000000;1.852693
9189.000000;1.851109
9188.000000;1.849475
9187.000000;1.847613
9186.000000;1.846139
9185.000000;1.845943
9184.000000;1.847290
9183.000000;1.849609
9182.000000;1.851852
9181.000000;1.853067
9180.000000;1.853036
9179.000000;1.852374
9178.000000;1.851813
9177.000000;1.851428
9176.000000;1.850828
9175.000000;1.849978
9174.000000;1.849173
9173.000000;1.848400
9172.000000;1.847599
9171.000000;1.847251
9170.000000;1.847728
9169.000000;1.848133
9168.000000;1.846909
9167.000000;1.843918
9166.000000;1.840943
9165.000000;1.839699
9164.000000;1.840238
9163.000000;1.841618
9162.000000;1.843153
9161.000000;1.844296
9160.000000;1.844226
9159.000000;1.842679
9158.000000;1.840714
9157.000000;1.839575
9156.000000;1.839001
9155.000000;1.837700
9154.000000;1.835531
9153.000000;1.834225
9152.000000;1.835512
9151.000000;1.839042
9150.000000;1.842439
9149.000000;1.843352
9148.000000;1.841548
9147.000000;1.839027
9146.000000;1.838042
9145.000000;1.839021
9144.000000;1.840470
9143.000000;1.840768
9142.000000;1.839779
9141.000000;1.838531
9140.000000;1.837757
9139.000000;1.837260
9138.000000;1.836368
9137.000000;1.834605
9136.000000;1.832153
9135.000000;1.830001
9134.000000;1.829428
9133.000000;1.830842
9132.000000;1.833104
9131.000000;1.834439
9130.000000;1.834110
9129.000000;1.832802
9128.000000;1.831428
9127.000000;1.830122
9126.000000;1.828567
9125.000000;1.826841
9124.000000;1.825601
9123.000000;1.825513
9122.000000;1.826628
9121.000000;1.828171
9120.000000;1.828931
9119.000000;1.828182
9118.000000;1.826315
9117.000000;1.824416
9116.000000;1.823336
9115.000000;1.823297
9114.000000;1.824071
9113.000000;1.825119
9112.000000;1.825724
9111.000000;1.825487
9110.000000;1.824806
9109.000000;1.824551
9108.000000;1.825202
9107.000000;1.826468
9106.000000;1.827800
9105.000000;1.829071
9104.000000;1.830545
9103.000000;1.832136
9102.000000;1.832827
9101.000000;1.831272
9100.000000;1.827450
9099.000000;1.823449
9098.000000;1.821844
9097.000000;1.823128
9096.000000;1.825193
9095.000000;1.825618
9094.000000;1.824055
9093.000000;1.821904
9092.000000;1.820419
9091.000000;1.819993
9090.000000;1.820597
9089.000000;1.821765
9088.000000;1.822336
9087.000000;1.821428
9086.000000;1.819770
9085.000000;1.819063
9084.000000;1.819847
9083.000000;1.820963
9082.000000;1.821473
9081.000000;1.822136
9080.000000;1.824023
9079.000000;1.826332
9078.000000;1.826899
9077.000000;1.824942
9076.000000;1.822196
9075.000000;1.820831
9074.000000;1.821167
9073.000000;1.821922
9072.000000;1.822030
9071.000000;1.821415
9070.000000;1.820243
9069.000000;1.818454
9068.000000;1.816378
9067.000000;1.814980
9066.000000;1.814808
9065.000000;1.815253
9064.000000;1.815525
9063.000000;1.815948
9062.000000;1.817386
9061.000000;1.819457
9060.000000;1.820329
9059.000000;1.818719
9058.000000;1.815385
9057.000000;1.812084
9056.000000;1.809708
9055.000000;1.808133
9054.000000;1.807195
9053.000000;1.806897
