Criado como novo conjunto de dados;"Jao_teste_celulas.spp","4923.1 Secs"
cm-1;Abs
10000.000000;1.053957
9999.000000;1.052705
9998.000000;1.051456
9997.000000;1.050211
9996.000000;1.048969
9995.000000;1.047730
9994.000000;1.046497
9993.000000;1.045262
9992.000000;1.044040
9991.000000;1.042805
9990.000000;1.041608
9989.000000;1.040285
9988.000000;1.038948
9987.000000;1.038045
9986.000000;1.037871
9985.000000;1.038403
9984.000000;1.039133
9983.000000;1.039517
9982.000000;1.039368
9981.000000;1.038814
9980.000000;1.037991
9979.000000;1.037003
9978.000000;1.036030
9977.000000;1.035289
9976.000000;1.034863
9975.000000;1.034709
9974.000000;1.034780
9973.000000;1.035018
9972.000000;1.035254
9971.000000;1.035263
9970.000000;1.034934
9969.000000;1.034332
9968.000000;1.033604
9967.000000;1.032888
9966.000000;1.032286
9965.000000;1.031834
9964.000000;1.031481
9963.000000;1.031174
9962.000000;1.030917
9961.000000;1.030703
9960.000000;1.030451
9959.000000;1.030090
9958.000000;1.029649
9957.000000;1.029176
9956.000000;1.028628
9955.000000;1.027913
9954.000000;1.027044
9953.000000;1.026163
9952.000000;1.025441
9951.000000;1.025001
9950.000000;1.024877
9949.000000;1.024960
9948.000000;1.024986
9947.000000;1.024703
9946.000000;1.024041
9945.000000;1.023108
9944.000000;1.022084
9943.000000;1.021181
9942.000000;1.020622
9941.000000;1.020515
9940.000000;1.020741
9939.000000;1.021083
9938.000000;1.021439
9937.000000;1.021742
9936.000000;1.021726
9935.000000;1.021036
9934.000000;1.019709
9933.000000;1.018340
9932.000000;1.017558
9931.000000;1.017357
9930.000000;1.017133
9929.000000;1.016407
9928.000000;1.015373
9927.000000;1.014637
9926.000000;1.014533
9925.000000;1.014836
9924.000000;1.015091
9923.000000;1.015048
9922.000000;1.014707
9921.000000;1.014095
9920.000000;1.013235
9919.000000;1.012318
9918.000000;1.011706
9917.000000;1.011608
9916.000000;1.011813
9915.000000;1.011846
9914.000000;1.011384
9913.000000;1.010487
9912.000000;1.009459
9911.000000;1.008550
9910.000000;1.007781
9909.000000;1.007024
9908.000000;1.006257
9907.000000;1.005682
9906.000000;1.005492
9905.000000;1.005526
9904.000000;1.005347
9903.000000;1.004754
9902.000000;1.004055
9901.000000;1.003673
9900.000000;1.003590
9899.000000;1.003428
9898.000000;1.003021
9897.000000;1.002610
9896.000000;1.002423
9895.000000;1.002334
9894.000000;1.002077
9893.000000;1.001608
9892.000000;1.001102
9891.000000;1.000704
9890.000000;1.000450
9889.000000;1.000355
9888.000000;1.000414
9887.000000;1.000493
9886.000000;1.000360
9885.000000;0.999855
9884.000000;0.998990
9883.000000;0.997884
9882.000000;0.996694
9881.000000;0.995634
9880.000000;0.994976
9879.000000;0.994932
9878.000000;0.995469
9877.000000;0.996228
9876.000000;0.996679
9875.000000;0.996466
9874.000000;0.995672
9873.000000;0.994686
9872.000000;0.993806
9871.000000;0.993016
9870.000000;0.992178
9869.000000;0.991358
9868.000000;0.990858
9867.000000;0.990924
9866.000000;0.991467
9865.000000;0.992099
9864.000000;0.992368
9863.000000;0.991996
9862.000000;0.991014
9861.000000;0.989760
9860.000000;0.988731
9859.000000;0.988298
9858.000000;0.988435
9857.000000;0.988711
9856.000000;0.988614
9855.000000;0.987950
9854.000000;0.986924
9853.000000;0.985867
9852.000000;0.984966
9851.000000;0.984261
9850.000000;0.983756
9849.000000;0.983406
9848.000000;0.983048
9847.000000;0.982529
9846.000000;0.981913
9845.000000;0.981448
9844.000000;0.981274
9843.000000;0.981272
9842.000000;0.981236
9841.000000;0.981131
9840.000000;0.981101
9839.000000;0.981289
9838.000000;0.981630
9837.000000;0.981782
9836.000000;0.981309
9835.000000;0.980139
9834.000000;0.978828
9833.000000;0.978169
9832.000000;0.978406
9831.000000;0.978979
9830.000000;0.979131
9829.000000;0.978614
9828.000000;0.977685
9827.000000;0.976645
9826.000000;0.975668
9825.000000;0.974923
9824.000000;0.974510
9823.000000;0.974253
9822.000000;0.973866
9821.000000;0.973357
9820.000000;0.973004
9819.000000;0.972859
9818.000000;0.972573
9817.000000;0.971875
9816.000000;0.970940
9815.000000;0.970122
9814.000000;0.969552
9813.000000;0.969232
9812.000000;0.969264
9811.000000;0.969641
9810.000000;0.969940
9809.000000;0.969608
9808.000000;0.968609
9807.000000;0.967494
9806.000000;0.966772
9805.000000;0.966475
9804.000000;0.966387
9803.000000;0.966399
9802.000000;0.966462
9801.000000;0.966429
9800.000000;0.966179
9799.000000;0.965806
9798.000000;0.965496
9797.000000;0.965284
9796.000000;0.965053
9795.000000;0.964687
9794.000000;0.964094
9793.000000;0.963190
9792.000000;0.962057
9791.000000;0.961025
9790.000000;0.960405
9789.000000;0.960159
9788.000000;0.959998
9787.000000;0.959753
9786.000000;0.959435
9785.000000;0.959000
9784.000000;0.958335
9783.000000;0.957549
9782.000000;0.957013
9781.000000;0.956952
9780.000000;0.957165
9779.000000;0.957261
9778.000000;0.957030
9777.000000;0.956482
9776.000000;0.955716
9775.000000;0.954935
9774.000000;0.954414
9773.000000;0.954242
9772.000000;0.954170
9771.000000;0.953919
9770.000000;0.953540
9769.000000;0.953297
9768.000000;0.953293
9767.000000;0.953422
9766.000000;0.953619
9765.000000;0.953855
9764.000000;0.953940
9763.000000;0.953611
9762.000000;0.952879
9761.000000;0.952041
9760.000000;0.951311
9759.000000;0.950652
9758.000000;0.950045
9757.000000;0.949622
9756.000000;0.949409
9755.000000;0.949155
9754.000000;0.948602
9753.000000;0.947777
9752.000000;0.946904
9751.000000;0.946168
9750.000000;0.945675
9749.000000;0.945475
9748.000000;0.945427
9747.000000;0.945181
9746.000000;0.944478
9745.000000;0.943423
9744.000000;0.942371
9743.000000;0.941639
9742.000000;0.941394
9741.000000;0.941647
9740.000000;0.942153
9739.000000;0.942472
9738.000000;0.942304
9737.000000;0.941740
9736.000000;0.941082
9735.000000;0.940535
9734.000000;0.940161
9733.000000;0.939965
9732.000000;0.939810
9731.000000;0.939416
9730.000000;0.938686
9729.000000;0.937930
9728.000000;0.937530
9727.000000;0.937454
9726.000000;0.937355
9725.000000;0.937061
9724.000000;0.936693
9723.000000;0.936340
9722.000000;0.935931
9721.000000;0.935441
9720.000000;0.934947
9719.000000;0.934416
9718.000000;0.933718
9717.000000;0.932896
9716.000000;0.932196
9715.000000;0.931733
9714.000000;0.931333
9713.000000;0.930808
9712.000000;0.930158
9711.000000;0.929459
9710.000000;0.928743
9709.000000;0.928132
9708.000000;0.927855
9707.000000;0.927980
9706.000000;0.928265
9705.000000;0.928410
9704.000000;0.928343
9703.000000;0.928150
9702.000000;0.927846
9701.000000;0.927396
9700.000000;0.926870
9699.000000;0.926435
9698.000000;0.926190
9697.000000;0.926056
9696.000000;0.925792
9695.000000;0.925164
9694.000000;0.924227
9693.000000;0.923400
9692.000000;0.923098
9691.000000;0.923258
9690.000000;0.923377
9689.000000;0.923081
9688.000000;0.922483
9687.000000;0.921955
9686.000000;0.921708
9685.000000;0.921679
9684.000000;0.921629
9683.000000;0.921288
9682.000000;0.920589
9681.000000;0.919869
9680.000000;0.919612
9679.000000;0.919871
9678.000000;0.920124
9677.000000;0.919841
9676.000000;0.919011
9675.000000;0.918018
9674.000000;0.917203
9673.000000;0.916719
9672.000000;0.916586
9671.000000;0.916651
9670.000000;0.916634
9669.000000;0.916408
9668.000000;0.916093
9667.000000;0.915724
9666.000000;0.915037
9665.000000;0.913847
9664.000000;0.912438
9663.000000;0.911299
9662.000000;0.910609
9661.000000;0.910244
9660.000000;0.910132
9659.000000;0.910244
9658.000000;0.910329
9657.000000;0.910051
9656.000000;0.909459
9655.000000;0.908991
9654.000000;0.908916
9653.000000;0.909021
9652.000000;0.908939
9651.000000;0.908546
9650.000000;0.907947
9649.000000;0.907281
9648.000000;0.906672
9647.000000;0.906228
9646.000000;0.905949
9645.000000;0.905693
9644.000000;0.905322
9643.000000;0.904827
9642.000000;0.904328
9641.000000;0.903956
9640.000000;0.903731
9639.000000;0.903500
9638.000000;0.903071
9637.000000;0.902479
9636.000000;0.901990
9635.000000;0.901710
9634.000000;0.901387
9633.000000;0.900810
9632.000000;0.900249
9631.000000;0.900156
9630.000000;0.900505
9629.000000;0.900814
9628.000000;0.900822
9627.000000;0.900750
9626.000000;0.900739
9625.000000;0.900451
9624.000000;0.899505
9623.000000;0.898070
9622.000000;0.896729
9621.000000;0.895887
9620.000000;0.895544
9619.000000;0.895485
9618.000000;0.895463
9617.000000;0.895259
9616.000000;0.894825
9615.000000;0.894365
9614.000000;0.894109
9613.000000;0.894026
9612.000000;0.893898
9611.000000;0.893630
9610.000000;0.893318
9609.000000;0.893006
9608.000000;0.892565
9607.000000;0.891874
9606.000000;0.891037
9605.000000;0.890332
9604.000000;0.889963
9603.000000;0.889891
9602.000000;0.889878
9601.000000;0.889671
9600.000000;0.889185
9599.000000;0.888534
9598.000000;0.887901
9597.000000;0.887364
9596.000000;0.886858
9595.000000;0.886306
9594.000000;0.885810
9593.000000;0.885641
9592.000000;0.885950
9591.000000;0.886471
9590.000000;0.886648
9589.000000;0.886163
9588.000000;0.885283
9587.000000;0.884535
9586.000000;0.884142
9585.000000;0.883920
9584.000000;0.883658
9583.000000;0.883334
9582.000000;0.882955
9581.000000;0.882424
9580.000000;0.881713
9579.000000;0.881001
9578.000000;0.880521
9577.000000;0.880348
9576.000000;0.880395
9575.000000;0.880512
9574.000000;0.880482
9573.000000;0.880086
9572.000000;0.879323
9571.000000;0.878513
9570.000000;0.878048
9569.000000;0.878017
9568.000000;0.878151
9567.000000;0.878119
9566.000000;0.877802
9565.000000;0.877337
9564.000000;0.876927
9563.000000;0.876639
9562.000000;0.876347
9561.000000;0.875884
9560.000000;0.875255
9559.000000;0.874610
9558.000000;0.874047
9557.000000;0.873533
9556.000000;0.873076
9555.000000;0.872812
9554.000000;0.872824
9553.000000;0.872926
9552.000000;0.872768
9551.000000;0.872173
9550.000000;0.871321
9549.000000;0.870595
9548.000000;0.870235
9547.000000;0.870140
9546.000000;0.870015
9545.000000;0.869724
9544.000000;0.869450
9543.000000;0.869408
9542.000000;0.869480
9541.000000;0.869308
9540.000000;0.868733
9539.000000;0.867978
9538.000000;0.867342
9537.000000;0.866905
9536.000000;0.866629
9535.000000;0.866555
9534.000000;0.866699
9533.000000;0.866864
9532.000000;0.866770
9531.000000;0.866371
9530.000000;0.865859
9529.000000;0.865356
9528.000000;0.864716
9527.000000;0.863735
9526.000000;0.862480
9525.000000;0.861345
9524.000000;0.860718
9523.000000;0.860603
9522.000000;0.860648
9521.000000;0.860574
9520.000000;0.860497
9519.000000;0.860675
9518.000000;0.861030
9517.000000;0.861131
9516.000000;0.860695
9515.000000;0.859899
9514.000000;0.859128
9513.000000;0.858596
9512.000000;0.858308
9511.000000;0.858151
9510.000000;0.857877
9509.000000;0.857232
9508.000000;0.856311
9507.000000;0.855627
9506.000000;0.855575
9505.000000;0.855952
9504.000000;0.856223
9503.000000;0.856154
9502.000000;0.855882
9501.000000;0.855484
9500.000000;0.854853
9499.000000;0.854024
9498.000000;0.853271
9497.000000;0.852762
9496.000000;0.852351
9495.000000;0.851838
9494.000000;0.851237
9493.000000;0.850667
9492.000000;0.850184
9491.000000;0.849863
9490.000000;0.849848
9489.000000;0.850141
9488.000000;0.850437
9487.000000;0.850365
9486.000000;0.849831
9485.000000;0.849030
9484.000000;0.848225
9483.000000;0.847629
9482.000000;0.847384
9481.000000;0.847446
9480.000000;0.847546
9479.000000;0.847445
9478.000000;0.847205
9477.000000;0.847054
9476.000000;0.846989
9475.000000;0.846712
9474.000000;0.846022
9473.000000;0.845114
9472.000000;0.844392
9471.000000;0.844068
9470.000000;0.844029
9469.000000;0.844019
9468.000000;0.843851
9467.000000;0.843483
9466.000000;0.842978
9465.000000;0.842426
9464.000000;0.841867
9463.000000;0.841290
9462.000000;0.840728
9461.000000;0.840323
9460.000000;0.840238
9459.000000;0.840472
9458.000000;0.840788
9457.000000;0.840865
9456.000000;0.840525
9455.000000;0.839840
9454.000000;0.839050
9453.000000;0.838398
9452.000000;0.838006
9451.000000;0.837817
9450.000000;0.837627
9449.000000;0.837237
9448.000000;0.836643
9447.000000;0.836048
9446.000000;0.835628
9445.000000;0.835305
9444.000000;0.834855
9443.000000;0.834225
9442.000000;0.833655
9441.000000;0.833405
9440.000000;0.833446
9439.000000;0.833498
9438.000000;0.833335
9437.000000;0.832979
9436.000000;0.832608
9435.000000;0.832367
9434.000000;0.832288
9433.000000;0.832310
9432.000000;0.832344
9431.000000;0.832363
9430.000000;0.832443
9429.000000;0.832635
9428.000000;0.832769
9427.000000;0.832498
9426.000000;0.831640
9425.000000;0.830431
9424.000000;0.829334
9423.000000;0.828619
9422.000000;0.828204
9421.000000;0.827862
9420.000000;0.827455
9419.000000;0.826966
9418.000000;0.826456
9417.000000;0.826062
9416.000000;0.825938
9415.000000;0.826080
9414.000000;0.826248
9413.000000;0.826175
9412.000000;0.825817
9411.000000;0.825337
9410.000000;0.824894
9409.000000;0.824531
9408.000000;0.824235
9407.000000;0.823962
9406.000000;0.823608
9405.000000;0.823090
9404.000000;0.822503
9403.000000;0.822092
9402.000000;0.821978
9401.000000;0.821987
9400.000000;0.821834
9399.000000;0.821435
9398.000000;0.820968
9397.000000;0.820673
9396.000000;0.820639
9395.000000;0.820779
9394.000000;0.820925
9393.000000;0.820929
9392.000000;0.820731
9391.000000;0.820336
9390.000000;0.819775
9389.000000;0.819107
9388.000000;0.818445
9387.000000;0.817897
9386.000000;0.817455
9385.000000;0.816986
9384.000000;0.816417
9383.000000;0.815850
9382.000000;0.815437
9381.000000;0.815170
9380.000000;0.814904
9379.000000;0.814545
9378.000000;0.814117
9377.000000;0.813641
9376.000000;0.813090
9375.000000;0.812530
9374.000000;0.812176
9373.000000;0.812174
9372.000000;0.812348
9371.000000;0.812280
9370.000000;0.811705
9369.000000;0.810787
9368.000000;0.809976
9367.000000;0.809624
9366.000000;0.809710
9365.000000;0.809884
9364.000000;0.809743
9363.000000;0.809133
9362.000000;0.808250
9361.000000;0.807461
9360.000000;0.807021
9359.000000;0.806914
9358.000000;0.806930
9357.000000;0.806872
9356.000000;0.806687
9355.000000;0.806453
9354.000000;0.806256
9353.000000;0.806096
9352.000000;0.805875
9351.000000;0.805507
9350.000000;0.805026
9349.000000;0.804593
9348.000000;0.804363
9347.000000;0.804364
9346.000000;0.804461
9345.000000;0.804440
9344.000000;0.804115
9343.000000;0.803433
9342.000000;0.802548
9341.000000;0.801763
9340.000000;0.801350
9339.000000;0.801352
9338.000000;0.801581
9337.000000;0.801758
9336.000000;0.801686
9335.000000;0.801312
9334.000000;0.800712
9333.000000;0.800053
9332.000000;0.799529
9331.000000;0.799288
9330.000000;0.799352
9329.000000;0.799607
9328.000000;0.799838
9327.000000;0.799859
9326.000000;0.799637
9325.000000;0.799277
9324.000000;0.798865
9323.000000;0.798370
9322.000000;0.797751
9321.000000;0.797113
9320.000000;0.796628
9319.000000;0.796335
9318.000000;0.796098
9317.000000;0.795780
9316.000000;0.795354
9315.000000;0.794829
9314.000000;0.794202
9313.000000;0.793547
9312.000000;0.793055
9311.000000;0.792862
9310.000000;0.792901
9309.000000;0.792972
9308.000000;0.792925
9307.000000;0.792719
9306.000000;0.792385
9305.000000;0.792014
9304.000000;0.791725
9303.000000;0.791561
9302.000000;0.791432
9301.000000;0.791215
9300.000000;0.790868
9299.000000;0.790419
9298.000000;0.789912
9297.000000;0.789438
9296.000000;0.789111
9295.000000;0.788910
9294.000000;0.788622
9293.000000;0.788086
9292.000000;0.787444
9291.000000;0.786992
9290.000000;0.786801
9289.000000;0.786617
9288.000000;0.786171
9287.000000;0.785467
9286.000000;0.784759
9285.000000;0.784329
9284.000000;0.784302
9283.000000;0.784548
9282.000000;0.784740
9281.000000;0.784614
9280.000000;0.784211
9279.000000;0.783805
9278.000000;0.783582
9277.000000;0.783494
9276.000000;0.783416
9275.000000;0.783302
9274.000000;0.783140
9273.000000;0.782868
9272.000000;0.782423
9271.000000;0.781845
9270.000000;0.781263
9269.000000;0.780797
9268.000000;0.780476
9267.000000;0.780217
9266.000000;0.779899
9265.000000;0.779524
9264.000000;0.779246
9263.000000;0.779165
9262.000000;0.779118
9261.000000;0.778852
9260.000000;0.778364
9259.000000;0.777924
9258.000000;0.777723
9257.000000;0.777655
9256.000000;0.777504
9255.000000;0.777184
9254.000000;0.776701
9253.000000;0.776048
9252.000000;0.775276
9251.000000;0.774605
9250.000000;0.774280
9249.000000;0.774341
9248.000000;0.774582
9247.000000;0.774721
9246.000000;0.774575
9245.000000;0.774149
9244.000000;0.773628
9243.000000;0.773214
9242.000000;0.772924
9241.000000;0.772593
9240.000000;0.772116
9239.000000;0.771572
9238.000000;0.771057
9237.000000;0.770556
9236.000000;0.770093
9235.000000;0.769891
9234.000000;0.770164
9233.000000;0.770797
9232.000000;0.771361
9231.000000;0.771494
9230.000000;0.771153
9229.000000;0.770521
9228.000000;0.769808
9227.000000;0.769154
9226.000000;0.768611
9225.000000;0.768140
9224.000000;0.767675
9223.000000;0.767224
9222.000000;0.766875
9221.000000;0.766691
9220.000000;0.766606
9219.000000;0.766459
9218.000000;0.766125
9217.000000;0.765631
9216.000000;0.765149
9215.000000;0.764847
9214.000000;0.764739
9213.000000;0.764720
9212.000000;0.764727
9211.000000;0.764759
9210.000000;0.764722
9209.000000;0.764402
9208.000000;0.763708
9207.000000;0.762838
9206.000000;0.762101
9205.000000;0.761634
9204.000000;0.761392
9203.000000;0.761312
9202.000000;0.761334
9201.000000;0.761327
9200.000000;0.761156
9199.000000;0.760827
9198.000000;0.760454
9197.000000;0.760087
9196.000000;0.759695
9195.000000;0.759287
9194.000000;0.758907
9193.000000;0.758539
9192.000000;0.758187
9191.000000;0.758033
9190.000000;0.758292
9189.000000;0.758831
9188.000000;0.759123
9187.000000;0.758747
9186.000000;0.757832
9185.000000;0.756892
9184.000000;0.756306
9183.000000;0.756085
9182.000000;0.756021
9181.000000;0.755908
9180.000000;0.755615
9179.000000;0.755133
9178.000000;0.754594
9177.000000;0.754156
9176.000000;0.753845
9175.000000;0.753561
9174.000000;0.753277
9173.000000;0.753142
9172.000000;0.753308
9171.000000;0.753687
9170.000000;0.753953
9169.000000;0.753802
9168.000000;0.753190
9167.000000;0.752315
9166.000000;0.751441
9165.000000;0.750757
9164.000000;0.750339
9163.000000;0.750151
9162.000000;0.750071
9161.000000;0.749977
9160.000000;0.749849
9159.000000;0.749737
9158.000000;0.749612
9157.000000;0.749341
9156.000000;0.748864
9155.000000;0.748312
9154.000000;0.747862
9153.000000;0.747527
9152.000000;0.747201
9151.000000;0.746890
9150.000000;0.746768
9149.000000;0.746952
9148.000000;0.747322
9147.000000;0.747604
9146.000000;0.747587
9145.000000;0.747227
9144.000000;0.746632
9143.000000;0.746006
9142.000000;0.745525
9141.000000;0.745217
9140.000000;0.744945
9139.000000;0.744588
9138.000000;0.744185
9137.000000;0.743875
9136.000000;0.743703
9135.000000;0.743563
9134.000000;0.743319
9133.000000;0.742940
9132.000000;0.742499
9131.000000;0.742081
9130.000000;0.741727
9129.000000;0.741427
9128.000000;0.741156
9127.000000;0.740913
9126.000000;0.740738
9125.000000;0.740686
9124.000000;0.740772
9123.000000;0.740914
9122.000000;0.740966
9121.000000;0.740804
9120.000000;0.740390
9119.000000;0.739756
9118.000000;0.738973
9117.000000;0.738173
9116.000000;0.737571
9115.000000;0.737358
9114.000000;0.737495
9113.000000;0.737688
9112.000000;0.737626
9111.000000;0.737246
9110.000000;0.736709
9109.000000;0.736155
9108.000000;0.735577
9107.000000;0.734943
9106.000000;0.734335
9105.000000;0.733915
9104.000000;0.733801
9103.000000;0.733996
9102.000000;0.734413
9101.000000;0.734886
9100.000000;0.735192
9099.000000;0.735138
9098.000000;0.734687
9097.000000;0.734016
9096.000000;0.733411
9095.000000;0.733051
9094.000000;0.732880
9093.000000;0.732705
9092.000000;0.732424
9091.000000;0.732115
9090.000000;0.731867
9089.000000;0.731620
9088.000000;0.731251
9087.000000;0.730788
9086.000000;0.730395
9085.000000;0.730161
9084.000000;0.730017
9083.000000;0.729892
9082.000000;0.729799
9081.000000;0.729714
9080.000000;0.729482
9079.000000;0.728991
9078.000000;0.728353
9077.000000;0.727807
9076.000000;0.727466
9075.000000;0.727272
9074.000000;0.727163
9073.000000;0.727128
9072.000000;0.727094
9071.000000;0.726899
9070.000000;0.726455
9069.000000;0.725853
9068.000000;0.725251
9067.000000;0.724731
9066.000000;0.724335
9065.000000;0.724153
9064.000000;0.724229
9063.000000;0.724412
9062.000000;0.724436
9061.000000;0.724199
9060.000000;0.723884
9059.000000;0.723726
9058.000000;0.723738
9057.000000;0.723722
9056.000000;0.723539
9055.000000;0.723269
9054.000000;0.723064
9053.000000;0.722926
