Criado como novo conjunto de dados;"Jao_teste_celulas.spp","6303.1 Secs"
cm-1;Abs
10000.000000;1.245498
9999.000000;1.245740
9998.000000;1.245982
9997.000000;1.246223
9996.000000;1.246466
9995.000000;1.246707
9994.000000;1.246952
9993.000000;1.247190
9992.000000;1.247447
9991.000000;1.247128
9990.000000;1.245992
9989.000000;1.244224
9988.000000;1.242430
9987.000000;1.241064
9986.000000;1.240127
9985.000000;1.239531
9984.000000;1.239332
9983.000000;1.239457
9982.000000;1.239571
9981.000000;1.239458
9980.000000;1.239263
9979.000000;1.239149
9978.000000;1.239015
9977.000000;1.238722
9976.000000;1.238308
9975.000000;1.237771
9974.000000;1.236990
9973.000000;1.236128
9972.000000;1.235750
9971.000000;1.236194
9970.000000;1.237022
9969.000000;1.237469
9968.000000;1.237241
9967.000000;1.236538
9966.000000;1.235486
9965.000000;1.234020
9964.000000;1.232267
9963.000000;1.230651
9962.000000;1.229528
9961.000000;1.228979
9960.000000;1.228954
9959.000000;1.229344
9958.000000;1.229887
9957.000000;1.230280
9956.000000;1.230419
9955.000000;1.230378
9954.000000;1.230208
9953.000000;1.229969
9952.000000;1.229819
9951.000000;1.229777
9950.000000;1.229458
9949.000000;1.228422
9948.000000;1.226837
9947.000000;1.225461
9946.000000;1.224830
9945.000000;1.224710
9944.000000;1.224453
9943.000000;1.223667
9942.000000;1.222469
9941.000000;1.221284
9940.000000;1.220545
9939.000000;1.220420
9938.000000;1.220699
9937.000000;1.221056
9936.000000;1.221433
9935.000000;1.221953
9934.000000;1.222438
9933.000000;1.222398
9932.000000;1.221691
9931.000000;1.220903
9930.000000;1.220740
9929.000000;1.221180
9928.000000;1.221501
9927.000000;1.221064
9926.000000;1.219852
9925.000000;1.218311
9924.000000;1.216964
9923.000000;1.216179
9922.000000;1.215987
9921.000000;1.215950
9920.000000;1.215387
9919.000000;1.213976
9918.000000;1.212179
9917.000000;1.210974
9916.000000;1.211057
9915.000000;1.212190
9914.000000;1.213285
9913.000000;1.213245
9912.000000;1.211891
9911.000000;1.210103
9910.000000;1.209006
9909.000000;1.209040
9908.000000;1.209770
9907.000000;1.210462
9906.000000;1.210668
9905.000000;1.210309
9904.000000;1.209436
9903.000000;1.208161
9902.000000;1.206814
9901.000000;1.205886
9900.000000;1.205615
9899.000000;1.205690
9898.000000;1.205549
9897.000000;1.205003
9896.000000;1.204391
9895.000000;1.204068
9894.000000;1.203927
9893.000000;1.203612
9892.000000;1.203053
9891.000000;1.202548
9890.000000;1.202346
9889.000000;1.202375
9888.000000;1.202357
9887.000000;1.202009
9886.000000;1.201141
9885.000000;1.199835
9884.000000;1.198588
9883.000000;1.197999
9882.000000;1.198142
9881.000000;1.198413
9880.000000;1.198168
9879.000000;1.197375
9878.000000;1.196488
9877.000000;1.195863
9876.000000;1.195558
9875.000000;1.195599
9874.000000;1.196130
9873.000000;1.197165
9872.000000;1.198343
9871.000000;1.199078
9870.000000;1.198967
9869.000000;1.198033
9868.000000;1.196592
9867.000000;1.194954
9866.000000;1.193305
9865.000000;1.191875
9864.000000;1.191043
9863.000000;1.191037
9862.000000;1.191519
9861.000000;1.191746
9860.000000;1.191317
9859.000000;1.190620
9858.000000;1.190328
9857.000000;1.190577
9856.000000;1.190847
9855.000000;1.190614
9854.000000;1.189910
9853.000000;1.189226
9852.000000;1.189029
9851.000000;1.189348
9850.000000;1.189680
9849.000000;1.189330
9848.000000;1.188033
9847.000000;1.186259
9846.000000;1.184799
9845.000000;1.184074
9844.000000;1.183964
9843.000000;1.184141
9842.000000;1.184306
9841.000000;1.184115
9840.000000;1.183250
9839.000000;1.181770
9838.000000;1.180190
9837.000000;1.179053
9836.000000;1.178495
9835.000000;1.178307
9834.000000;1.178257
9833.000000;1.178230
9832.000000;1.178160
9831.000000;1.177992
9830.000000;1.177671
9829.000000;1.177139
9828.000000;1.176453
9827.000000;1.175940
9826.000000;1.176014
9825.000000;1.176677
9824.000000;1.177365
9823.000000;1.177482
9822.000000;1.176958
9821.000000;1.176096
9820.000000;1.175053
9819.000000;1.173792
9818.000000;1.172484
9817.000000;1.171551
9816.000000;1.171158
9815.000000;1.170928
9814.000000;1.170391
9813.000000;1.169617
9812.000000;1.169191
9811.000000;1.169539
9810.000000;1.170378
9809.000000;1.170912
9808.000000;1.170553
9807.000000;1.169467
9806.000000;1.168381
9805.000000;1.167909
9804.000000;1.168097
9803.000000;1.168528
9802.000000;1.168732
9801.000000;1.168473
9800.000000;1.167778
9799.000000;1.166873
9798.000000;1.166049
9797.000000;1.165474
9796.000000;1.165113
9795.000000;1.164852
9794.000000;1.164652
9793.000000;1.164497
9792.000000;1.164289
9791.000000;1.163924
9790.000000;1.163413
9789.000000;1.162810
9788.000000;1.162069
9787.000000;1.161143
9786.000000;1.160201
9785.000000;1.159551
9784.000000;1.159260
9783.000000;1.158997
9782.000000;1.158365
9781.000000;1.157376
9780.000000;1.156537
9779.000000;1.156424
9778.000000;1.157119
9777.000000;1.158018
9776.000000;1.158275
9775.000000;1.157550
9774.000000;1.156279
9773.000000;1.155134
9772.000000;1.154343
9771.000000;1.153643
9770.000000;1.152793
9769.000000;1.151873
9768.000000;1.151110
9767.000000;1.150635
9766.000000;1.150467
9765.000000;1.150559
9764.000000;1.150799
9763.000000;1.151086
9762.000000;1.151429
9761.000000;1.151811
9760.000000;1.152003
9759.000000;1.151746
9758.000000;1.151124
9757.000000;1.150486
9756.000000;1.149931
9755.000000;1.149169
9754.000000;1.148017
9753.000000;1.146776
9752.000000;1.145923
9751.000000;1.145631
9750.000000;1.145753
9749.000000;1.146065
9748.000000;1.146290
9747.000000;1.146062
9746.000000;1.145202
9745.000000;1.143984
9744.000000;1.142947
9743.000000;1.142450
9742.000000;1.142516
9741.000000;1.142934
9740.000000;1.143316
9739.000000;1.143209
9738.000000;1.142459
9737.000000;1.141439
9736.000000;1.140704
9735.000000;1.140430
9734.000000;1.140349
9733.000000;1.140194
9732.000000;1.139926
9731.000000;1.139551
9730.000000;1.138989
9729.000000;1.138263
9728.000000;1.137607
9727.000000;1.137274
9726.000000;1.137304
9725.000000;1.137543
9724.000000;1.137746
9723.000000;1.137623
9722.000000;1.136955
9721.000000;1.135802
9720.000000;1.134558
9719.000000;1.133688
9718.000000;1.133386
9717.000000;1.133472
9716.000000;1.133592
9715.000000;1.133507
9714.000000;1.133220
9713.000000;1.132834
9712.000000;1.132306
9711.000000;1.131476
9710.000000;1.130376
9709.000000;1.129390
9708.000000;1.128917
9707.000000;1.128902
9706.000000;1.128856
9705.000000;1.128366
9704.000000;1.127502
9703.000000;1.126712
9702.000000;1.126358
9701.000000;1.126392
9700.000000;1.126424
9699.000000;1.126156
9698.000000;1.125713
9697.000000;1.125473
9696.000000;1.125568
9695.000000;1.125719
9694.000000;1.125611
9693.000000;1.125245
9692.000000;1.124777
9691.000000;1.124222
9690.000000;1.123538
9689.000000;1.122810
9688.000000;1.122125
9687.000000;1.121402
9686.000000;1.120618
9685.000000;1.120078
9684.000000;1.120115
9683.000000;1.120543
9682.000000;1.120743
9681.000000;1.120341
9680.000000;1.119536
9679.000000;1.118717
9678.000000;1.118070
9677.000000;1.117639
9676.000000;1.117457
9675.000000;1.117419
9674.000000;1.117208
9673.000000;1.116570
9672.000000;1.115600
9671.000000;1.114690
9670.000000;1.114242
9669.000000;1.114405
9668.000000;1.114934
9667.000000;1.115270
9666.000000;1.114952
9665.000000;1.114010
9664.000000;1.112891
9663.000000;1.112012
9662.000000;1.111531
9661.000000;1.111432
9660.000000;1.111589
9659.000000;1.111748
9658.000000;1.111702
9657.000000;1.111468
9656.000000;1.111103
9655.000000;1.110442
9654.000000;1.109387
9653.000000;1.108388
9652.000000;1.108138
9651.000000;1.108639
9650.000000;1.108999
9649.000000;1.108426
9648.000000;1.107084
9647.000000;1.105693
9646.000000;1.104625
9645.000000;1.103793
9644.000000;1.103155
9643.000000;1.102898
9642.000000;1.103115
9641.000000;1.103607
9640.000000;1.104041
9639.000000;1.104160
9638.000000;1.103925
9637.000000;1.103564
9636.000000;1.103387
9635.000000;1.103418
9634.000000;1.103390
9633.000000;1.103212
9632.000000;1.103174
9631.000000;1.103416
9630.000000;1.103446
9629.000000;1.102601
9628.000000;1.100944
9627.000000;1.099296
9626.000000;1.098353
9625.000000;1.098080
9624.000000;1.098006
9623.000000;1.097793
9622.000000;1.097359
9621.000000;1.096675
9620.000000;1.095679
9619.000000;1.094405
9618.000000;1.093054
9617.000000;1.091913
9616.000000;1.091180
9615.000000;1.090875
9614.000000;1.090924
9613.000000;1.091320
9612.000000;1.092056
9611.000000;1.092879
9610.000000;1.093324
9609.000000;1.093128
9608.000000;1.092487
9607.000000;1.091789
9606.000000;1.091220
9605.000000;1.090747
9604.000000;1.090344
9603.000000;1.090016
9602.000000;1.089702
9601.000000;1.089335
9600.000000;1.088932
9599.000000;1.088525
9598.000000;1.088100
9597.000000;1.087723
9596.000000;1.087564
9595.000000;1.087618
9594.000000;1.087559
9593.000000;1.087096
9592.000000;1.086369
9591.000000;1.085758
9590.000000;1.085400
9589.000000;1.085138
9588.000000;1.084847
9587.000000;1.084541
9586.000000;1.084209
9585.000000;1.083830
9584.000000;1.083515
9583.000000;1.083394
9582.000000;1.083377
9581.000000;1.083256
9580.000000;1.082994
9579.000000;1.082640
9578.000000;1.082039
9577.000000;1.081029
9576.000000;1.079930
9575.000000;1.079395
9574.000000;1.079630
9573.000000;1.080059
9572.000000;1.079966
9571.000000;1.079219
9570.000000;1.078198
9569.000000;1.077282
9568.000000;1.076651
9567.000000;1.076359
9566.000000;1.076280
9565.000000;1.076101
9564.000000;1.075636
9563.000000;1.075119
9562.000000;1.074952
9561.000000;1.075171
9560.000000;1.075357
9559.000000;1.075118
9558.000000;1.074524
9557.000000;1.073992
9556.000000;1.073809
9555.000000;1.073862
9554.000000;1.073794
9553.000000;1.073398
9552.000000;1.072789
9551.000000;1.072200
9550.000000;1.071675
9549.000000;1.071016
9548.000000;1.070040
9547.000000;1.068826
9546.000000;1.067701
9545.000000;1.067032
9544.000000;1.066981
9543.000000;1.067306
9542.000000;1.067441
9541.000000;1.066974
9540.000000;1.066096
9539.000000;1.065444
9538.000000;1.065399
9537.000000;1.065692
9536.000000;1.065748
9535.000000;1.065325
9534.000000;1.064681
9533.000000;1.064215
9532.000000;1.064065
9531.000000;1.064046
9530.000000;1.063883
9529.000000;1.063529
9528.000000;1.063256
9527.000000;1.063353
9526.000000;1.063680
9525.000000;1.063655
9524.000000;1.062826
9523.000000;1.061386
9522.000000;1.060010
9521.000000;1.059205
9520.000000;1.058920
9519.000000;1.058732
9518.000000;1.058274
9517.000000;1.057485
9516.000000;1.056614
9515.000000;1.056060
9514.000000;1.056122
9513.000000;1.056752
9512.000000;1.057503
9511.000000;1.057795
9510.000000;1.057332
9509.000000;1.056304
9508.000000;1.055193
9507.000000;1.054401
9506.000000;1.054052
9505.000000;1.054075
9504.000000;1.054303
9503.000000;1.054476
9502.000000;1.054308
9501.000000;1.053717
9500.000000;1.052965
9499.000000;1.052422
9498.000000;1.052183
9497.000000;1.051996
9496.000000;1.051572
9495.000000;1.050850
9494.000000;1.049933
9493.000000;1.048900
9492.000000;1.047807
9491.000000;1.046799
9490.000000;1.046098
9489.000000;1.045819
9488.000000;1.045850
9487.000000;1.045965
9486.000000;1.046086
9485.000000;1.046377
9484.000000;1.046984
9483.000000;1.047687
9482.000000;1.047960
9481.000000;1.047464
9480.000000;1.046411
9479.000000;1.045345
9478.000000;1.044634
9477.000000;1.044292
9476.000000;1.044159
9475.000000;1.044026
9474.000000;1.043626
9473.000000;1.042768
9472.000000;1.041580
9471.000000;1.040487
9470.000000;1.039822
9469.000000;1.039562
9468.000000;1.039497
9467.000000;1.039516
9466.000000;1.039615
9465.000000;1.039720
9464.000000;1.039692
9463.000000;1.039484
9462.000000;1.039207
9461.000000;1.039010
9460.000000;1.038942
9459.000000;1.038916
9458.000000;1.038764
9457.000000;1.038366
9456.000000;1.037749
9455.000000;1.037075
9454.000000;1.036524
9453.000000;1.036186
9452.000000;1.036022
9451.000000;1.035877
9450.000000;1.035566
9449.000000;1.035052
9448.000000;1.034538
9447.000000;1.034258
9446.000000;1.034168
9445.000000;1.033962
9444.000000;1.033459
9443.000000;1.032853
9442.000000;1.032453
9441.000000;1.032270
9440.000000;1.032017
9439.000000;1.031502
9438.000000;1.030898
9437.000000;1.030556
9436.000000;1.030594
9435.000000;1.030749
9434.000000;1.030640
9433.000000;1.030186
9432.000000;1.029679
9431.000000;1.029441
9430.000000;1.029426
9429.000000;1.029243
9428.000000;1.028575
9427.000000;1.027508
9426.000000;1.026462
9425.000000;1.025835
9424.000000;1.025703
9423.000000;1.025807
9422.000000;1.025794
9421.000000;1.025515
9420.000000;1.025108
9419.000000;1.024767
9418.000000;1.024499
9417.000000;1.024177
9416.000000;1.023732
9415.000000;1.023195
9414.000000;1.022579
9413.000000;1.021906
9412.000000;1.021334
9411.000000;1.021087
9410.000000;1.021198
9409.000000;1.021465
9408.000000;1.021685
9407.000000;1.021803
9406.000000;1.021756
9405.000000;1.021367
9404.000000;1.020527
9403.000000;1.019388
9402.000000;1.018251
9401.000000;1.017341
9400.000000;1.016781
9399.000000;1.016647
9398.000000;1.016871
9397.000000;1.017140
9396.000000;1.017062
9395.000000;1.016487
9394.000000;1.015592
9393.000000;1.014676
9392.000000;1.013953
9391.000000;1.013513
9390.000000;1.013345
9389.000000;1.013357
9388.000000;1.013402
9387.000000;1.013336
9386.000000;1.013079
9385.000000;1.012695
9384.000000;1.012380
9383.000000;1.012286
9382.000000;1.012324
9381.000000;1.012230
9380.000000;1.011866
9379.000000;1.011382
9378.000000;1.011014
9377.000000;1.010851
9376.000000;1.010840
9375.000000;1.010905
9374.000000;1.010936
9373.000000;1.010775
9372.000000;1.010357
9371.000000;1.009790
9370.000000;1.009179
9369.000000;1.008480
9368.000000;1.007691
9367.000000;1.007086
9366.000000;1.007004
9365.000000;1.007393
9364.000000;1.007784
9363.000000;1.007755
9362.000000;1.007267
9361.000000;1.006533
9360.000000;1.005759
9359.000000;1.005089
9358.000000;1.004613
9357.000000;1.004274
9356.000000;1.003882
9355.000000;1.003314
9354.000000;1.002653
9353.000000;1.002067
9352.000000;1.001645
9351.000000;1.001405
9350.000000;1.001351
9349.000000;1.001420
9348.000000;1.001458
9347.000000;1.001337
9346.000000;1.001058
9345.000000;1.000651
9344.000000;1.000090
9343.000000;0.999386
9342.000000;0.998716
9341.000000;0.998292
9340.000000;0.998151
9339.000000;0.998133
9338.000000;0.998063
9337.000000;0.997883
9336.000000;0.997608
9335.000000;0.997280
9334.000000;0.996945
9333.000000;0.996645
9332.000000;0.996405
9331.000000;0.996263
9330.000000;0.996238
9329.000000;0.996195
9328.000000;0.995819
9327.000000;0.994903
9326.000000;0.993675
9325.000000;0.992699
9324.000000;0.992341
9323.000000;0.992386
9322.000000;0.992246
9321.000000;0.991514
9320.000000;0.990295
9319.000000;0.989073
9318.000000;0.988321
9317.000000;0.988195
9316.000000;0.988492
9315.000000;0.988902
9314.000000;0.989297
9313.000000;0.989750
9312.000000;0.990282
9311.000000;0.990712
9310.000000;0.990842
9309.000000;0.990697
9308.000000;0.990475
9307.000000;0.990268
9306.000000;0.989984
9305.000000;0.989538
9304.000000;0.988982
9303.000000;0.988392
9302.000000;0.987764
9301.000000;0.987099
9300.000000;0.986491
9299.000000;0.986024
9298.000000;0.985654
9297.000000;0.985286
9296.000000;0.984920
9295.000000;0.984587
9294.000000;0.984216
9293.000000;0.983701
9292.000000;0.983123
9291.000000;0.982760
9290.000000;0.982801
9289.000000;0.983129
9288.000000;0.983417
9287.000000;0.983388
9286.000000;0.982959
9285.000000;0.982255
9284.000000;0.981561
9283.000000;0.981149
9282.000000;0.981032
9281.000000;0.980938
9280.000000;0.980612
9279.000000;0.980116
9278.000000;0.979698
9277.000000;0.979430
9276.000000;0.979127
9275.000000;0.978659
9274.000000;0.978178
9273.000000;0.977950
9272.000000;0.978024
9271.000000;0.978172
9270.000000;0.978114
9269.000000;0.977727
9268.000000;0.977058
9267.000000;0.976231
9266.000000;0.975393
9265.000000;0.974677
9264.000000;0.974147
9263.000000;0.973766
9262.000000;0.973446
9261.000000;0.973172
9260.000000;0.973073
9259.000000;0.973279
9258.000000;0.973681
9257.000000;0.973908
9256.000000;0.973650
9255.000000;0.972996
9254.000000;0.972335
9253.000000;0.971921
9252.000000;0.971645
9251.000000;0.971263
9250.000000;0.970714
9249.000000;0.970148
9248.000000;0.969731
9247.000000;0.969556
9246.000000;0.969637
9245.000000;0.969884
9244.000000;0.970105
9243.000000;0.970170
9242.000000;0.970123
9241.000000;0.970019
9240.000000;0.969706
9239.000000;0.968972
9238.000000;0.967922
9237.000000;0.966984
9236.000000;0.966452
9235.000000;0.966186
9234.000000;0.965901
9233.000000;0.965566
9232.000000;0.965347
9231.000000;0.965269
9230.000000;0.965197
9229.000000;0.965114
9228.000000;0.965133
9227.000000;0.965183
9226.000000;0.964924
9225.000000;0.964170
9224.000000;0.963234
9223.000000;0.962638
9222.000000;0.962518
9221.000000;0.962515
9220.000000;0.962242
9219.000000;0.961695
9218.000000;0.961164
9217.000000;0.960883
9216.000000;0.960905
9215.000000;0.961194
9214.000000;0.961669
9213.000000;0.962128
9212.000000;0.962248
9211.000000;0.961777
9210.000000;0.960752
9209.000000;0.959504
9208.000000;0.958430
9207.000000;0.957741
9206.000000;0.957368
9205.000000;0.957104
9204.000000;0.956828
9203.000000;0.956582
9202.000000;0.956438
9201.000000;0.956343
9200.000000;0.956192
9199.000000;0.956015
9198.000000;0.955931
9197.000000;0.955896
9196.000000;0.955650
9195.000000;0.955029
9194.000000;0.954265
9193.000000;0.953772
9192.000000;0.953643
9191.000000;0.953536
9190.000000;0.953098
9189.000000;0.952376
9188.000000;0.951699
9187.000000;0.951280
9186.000000;0.951088
9185.000000;0.951034
9184.000000;0.951090
9183.000000;0.951192
9182.000000;0.951175
9181.000000;0.950924
9180.000000;0.950548
9179.000000;0.950305
9178.000000;0.950332
9177.000000;0.950498
9176.000000;0.950544
9175.000000;0.950339
9174.000000;0.949977
9173.000000;0.949616
9172.000000;0.949283
9171.000000;0.948880
9170.000000;0.948345
9169.000000;0.947762
9168.000000;0.947276
9167.000000;0.946940
9166.000000;0.946674
9165.000000;0.946349
9164.000000;0.945899
9163.000000;0.945392
9162.000000;0.944983
9161.000000;0.944757
9160.000000;0.944614
9159.000000;0.944381
9158.000000;0.944051
9157.000000;0.943834
9156.000000;0.943900
9155.000000;0.944136
9154.000000;0.944237
9153.000000;0.943981
9152.000000;0.943362
9151.000000;0.942529
9150.000000;0.941716
9149.000000;0.941213
9148.000000;0.941182
9147.000000;0.941435
9146.000000;0.941485
9145.000000;0.940959
9144.000000;0.939970
9143.000000;0.939032
9142.000000;0.938594
9141.000000;0.938677
9140.000000;0.938922
9139.000000;0.938949
9138.000000;0.938671
9137.000000;0.938299
9136.000000;0.938095
9135.000000;0.938154
9134.000000;0.938370
9133.000000;0.938520
9132.000000;0.938371
9131.000000;0.937800
9130.000000;0.936908
9129.000000;0.936011
9128.000000;0.935423
9127.000000;0.935229
9126.000000;0.935253
9125.000000;0.935236
9124.000000;0.935033
9123.000000;0.934707
9122.000000;0.934459
9121.000000;0.934401
9120.000000;0.934376
9119.000000;0.934090
9118.000000;0.933505
9117.000000;0.932993
9116.000000;0.932939
9115.000000;0.933233
9114.000000;0.933333
9113.000000;0.932839
9112.000000;0.931895
9111.000000;0.930972
9110.000000;0.930411
9109.000000;0.930237
9108.000000;0.930294
9107.000000;0.930407
9106.000000;0.930457
9105.000000;0.930411
9104.000000;0.930305
9103.000000;0.930200
9102.000000;0.930128
9101.000000;0.930050
9100.000000;0.929855
9099.000000;0.929444
9098.000000;0.928872
9097.000000;0.928338
9096.000000;0.927961
9095.000000;0.927608
9094.000000;0.927089
9093.000000;0.926486
9092.000000;0.926126
9091.000000;0.926192
9090.000000;0.926475
9089.000000;0.926575
9088.000000;0.926248
9087.000000;0.925505
9086.000000;0.924549
9085.000000;0.923695
9084.000000;0.923255
9083.000000;0.923310
9082.000000;0.923619
9081.000000;0.923816
9080.000000;0.923685
9079.000000;0.923219
9078.000000;0.922528
9077.000000;0.921783
9076.000000;0.921195
9075.000000;0.920891
9074.000000;0.920810
9073.000000;0.920795
9072.000000;0.920777
9071.000000;0.920774
9070.000000;0.920735
9069.000000;0.920510
9068.000000;0.920006
9067.000000;0.919310
9066.000000;0.918610
9065.000000;0.918021
9064.000000;0.917539
9063.000000;0.917122
9062.000000;0.916804
9061.000000;0.916704
9060.000000;0.916930
9059.000000;0.917459
9058.000000;0.918089
9057.000000;0.918513
9056.000000;0.918454
9055.000000;0.917854
9054.000000;0.916967
9053.000000;0.916216
