Criado como novo conjunto de dados;"Jao_teste_celulas.spp","1802.6 Secs"
cm-1;Abs
10000.000000;0.857127
9999.000000;0.856495
9998.000000;0.855701
9997.000000;0.854914
9996.000000;0.854435
9995.000000;0.854324
9994.000000;0.854261
9993.000000;0.853905
9992.000000;0.853293
9991.000000;0.852745
9990.000000;0.852461
9989.000000;0.852348
9988.000000;0.852147
9987.000000;0.851627
9986.000000;0.850717
9985.000000;0.849611
9984.000000;0.848700
9983.000000;0.848241
9982.000000;0.848094
9981.000000;0.847872
9980.000000;0.847353
9979.000000;0.846675
9978.000000;0.846164
9977.000000;0.846052
9976.000000;0.846296
9975.000000;0.846556
9974.000000;0.846409
9973.000000;0.845725
9972.000000;0.844817
9971.000000;0.844093
9970.000000;0.843621
9969.000000;0.843193
9968.000000;0.842759
9967.000000;0.842506
9966.000000;0.842477
9965.000000;0.842385
9964.000000;0.841955
9963.000000;0.841250
9962.000000;0.840470
9961.000000;0.839627
9960.000000;0.838662
9959.000000;0.837762
9958.000000;0.837247
9957.000000;0.837132
9956.000000;0.837036
9955.000000;0.836610
9954.000000;0.835904
9953.000000;0.835215
9952.000000;0.834753
9951.000000;0.834512
9950.000000;0.834352
9949.000000;0.834090
9948.000000;0.833603
9947.000000;0.832975
9946.000000;0.832489
9945.000000;0.832346
9944.000000;0.832406
9943.000000;0.832308
9942.000000;0.831852
9941.000000;0.831179
9940.000000;0.830552
9939.000000;0.830056
9938.000000;0.829568
9937.000000;0.828946
9936.000000;0.828189
9935.000000;0.827436
9934.000000;0.826850
9933.000000;0.826498
9932.000000;0.826274
9931.000000;0.825949
9930.000000;0.825333
9929.000000;0.824464
9928.000000;0.823600
9927.000000;0.822989
9926.000000;0.822616
9925.000000;0.822245
9924.000000;0.821700
9923.000000;0.821064
9922.000000;0.820520
9921.000000;0.820061
9920.000000;0.819499
9919.000000;0.818790
9918.000000;0.818200
9917.000000;0.818012
9916.000000;0.818138
9915.000000;0.818173
9914.000000;0.817839
9913.000000;0.817243
9912.000000;0.816617
9911.000000;0.815967
9910.000000;0.815138
9909.000000;0.814181
9908.000000;0.813443
9907.000000;0.813198
9906.000000;0.813311
9905.000000;0.813384
9904.000000;0.813171
9903.000000;0.812751
9902.000000;0.812318
9901.000000;0.811936
9900.000000;0.811547
9899.000000;0.811133
9898.000000;0.810768
9897.000000;0.810532
9896.000000;0.810379
9895.000000;0.810095
9894.000000;0.809409
9893.000000;0.808250
9892.000000;0.806917
9891.000000;0.805922
9890.000000;0.805558
9889.000000;0.805663
9888.000000;0.805824
9887.000000;0.805777
9886.000000;0.805534
9885.000000;0.805219
9884.000000;0.804905
9883.000000;0.804593
9882.000000;0.804234
9881.000000;0.803750
9880.000000;0.803115
9879.000000;0.802421
9878.000000;0.801769
9877.000000;0.801114
9876.000000;0.800335
9875.000000;0.799501
9874.000000;0.798893
9873.000000;0.798670
9872.000000;0.798647
9871.000000;0.798536
9870.000000;0.798308
9869.000000;0.798145
9868.000000;0.798054
9867.000000;0.797777
9866.000000;0.797126
9865.000000;0.796283
9864.000000;0.795629
9863.000000;0.795336
9862.000000;0.795212
9861.000000;0.794924
9860.000000;0.794322
9859.000000;0.793539
9858.000000;0.792819
9857.000000;0.792249
9856.000000;0.791695
9855.000000;0.790993
9854.000000;0.790185
9853.000000;0.789490
9852.000000;0.789043
9851.000000;0.788759
9850.000000;0.788486
9849.000000;0.788212
9848.000000;0.788012
9847.000000;0.787844
9846.000000;0.787523
9845.000000;0.786942
9844.000000;0.786241
9843.000000;0.785688
9842.000000;0.785399
9841.000000;0.785210
9840.000000;0.784826
9839.000000;0.784114
9838.000000;0.783234
9837.000000;0.782489
9836.000000;0.782032
9835.000000;0.781742
9834.000000;0.781429
9833.000000;0.781109
9832.000000;0.780981
9831.000000;0.781100
9830.000000;0.781200
9829.000000;0.780945
9828.000000;0.780313
9827.000000;0.779613
9826.000000;0.779103
9825.000000;0.778729
9824.000000;0.778269
9823.000000;0.777647
9822.000000;0.776996
9821.000000;0.776465
9820.000000;0.776053
9819.000000;0.775647
9818.000000;0.775170
9817.000000;0.774666
9816.000000;0.774289
9815.000000;0.774146
9814.000000;0.774119
9813.000000;0.773905
9812.000000;0.773322
9811.000000;0.772547
9810.000000;0.771916
9809.000000;0.771515
9808.000000;0.771110
9807.000000;0.770510
9806.000000;0.769831
9805.000000;0.769279
9804.000000;0.768836
9803.000000;0.768316
9802.000000;0.767652
9801.000000;0.766941
9800.000000;0.766244
9799.000000;0.765551
9798.000000;0.764980
9797.000000;0.764803
9796.000000;0.765141
9795.000000;0.765698
9794.000000;0.765948
9793.000000;0.765561
9792.000000;0.764613
9791.000000;0.763451
9790.000000;0.762463
9789.000000;0.761902
9788.000000;0.761770
9787.000000;0.761800
9786.000000;0.761630
9785.000000;0.761082
9784.000000;0.760288
9783.000000;0.759539
9782.000000;0.759039
9781.000000;0.758754
9780.000000;0.758451
9779.000000;0.757893
9778.000000;0.757073
9777.000000;0.756262
9776.000000;0.755745
9775.000000;0.755475
9774.000000;0.755100
9773.000000;0.754418
9772.000000;0.753696
9771.000000;0.753389
9770.000000;0.753558
9769.000000;0.753738
9768.000000;0.753453
9767.000000;0.752736
9766.000000;0.752009
9765.000000;0.751571
9764.000000;0.751335
9763.000000;0.751059
9762.000000;0.750628
9761.000000;0.750065
9760.000000;0.749387
9759.000000;0.748609
9758.000000;0.747861
9757.000000;0.747344
9756.000000;0.747126
9755.000000;0.747013
9754.000000;0.746724
9753.000000;0.746167
9752.000000;0.745488
9751.000000;0.744841
9750.000000;0.744216
9749.000000;0.743537
9748.000000;0.742881
9747.000000;0.742441
9746.000000;0.742273
9745.000000;0.742200
9744.000000;0.742023
9743.000000;0.741748
9742.000000;0.741504
9741.000000;0.741307
9740.000000;0.741031
9739.000000;0.740609
9738.000000;0.740145
9737.000000;0.739794
9736.000000;0.739580
9735.000000;0.739367
9734.000000;0.738998
9733.000000;0.738462
9732.000000;0.737950
9731.000000;0.737681
9730.000000;0.737612
9729.000000;0.737401
9728.000000;0.736744
9727.000000;0.735722
9726.000000;0.734687
9725.000000;0.733883
9724.000000;0.733309
9723.000000;0.732910
9722.000000;0.732697
9721.000000;0.732626
9720.000000;0.732542
9719.000000;0.732335
9718.000000;0.732004
9717.000000;0.731521
9716.000000;0.730814
9715.000000;0.729971
9714.000000;0.729286
9713.000000;0.728921
9712.000000;0.728695
9711.000000;0.728364
9710.000000;0.727962
9709.000000;0.727653
9708.000000;0.727363
9707.000000;0.726857
9706.000000;0.726141
9705.000000;0.725509
9704.000000;0.725144
9703.000000;0.724878
9702.000000;0.724437
9701.000000;0.723786
9700.000000;0.723122
9699.000000;0.722640
9698.000000;0.722388
9697.000000;0.722264
9696.000000;0.722098
9695.000000;0.721779
9694.000000;0.721337
9693.000000;0.720867
9692.000000;0.720386
9691.000000;0.719860
9690.000000;0.719357
9689.000000;0.719038
9688.000000;0.718969
9687.000000;0.719013
9686.000000;0.718931
9685.000000;0.718519
9684.000000;0.717683
9683.000000;0.716530
9682.000000;0.715384
9681.000000;0.714593
9680.000000;0.714256
9679.000000;0.714203
9678.000000;0.714222
9677.000000;0.714179
9676.000000;0.713942
9675.000000;0.713405
9674.000000;0.712651
9673.000000;0.711952
9672.000000;0.711504
9671.000000;0.711270
9670.000000;0.711107
9669.000000;0.710902
9668.000000;0.710532
9667.000000;0.709896
9666.000000;0.709095
9665.000000;0.708404
9664.000000;0.707922
9663.000000;0.707414
9662.000000;0.706672
9661.000000;0.705888
9660.000000;0.705454
9659.000000;0.705447
9658.000000;0.705519
9657.000000;0.705282
9656.000000;0.704641
9655.000000;0.703782
9654.000000;0.703005
9653.000000;0.702578
9652.000000;0.702590
9651.000000;0.702847
9650.000000;0.702992
9649.000000;0.702775
9648.000000;0.702195
9647.000000;0.701425
9646.000000;0.700665
9645.000000;0.700047
9644.000000;0.699578
9643.000000;0.699213
9642.000000;0.698993
9641.000000;0.699021
9640.000000;0.699208
9639.000000;0.699196
9638.000000;0.698699
9637.000000;0.697877
9636.000000;0.697139
9635.000000;0.696630
9634.000000;0.696102
9633.000000;0.695321
9632.000000;0.694389
9631.000000;0.693602
9630.000000;0.693136
9629.000000;0.692971
9628.000000;0.692976
9627.000000;0.692975
9626.000000;0.692824
9625.000000;0.692525
9624.000000;0.692204
9623.000000;0.691944
9622.000000;0.691678
9621.000000;0.691257
9620.000000;0.690553
9619.000000;0.689520
9618.000000;0.688296
9617.000000;0.687238
9616.000000;0.686703
9615.000000;0.686703
9614.000000;0.686915
9613.000000;0.687066
9612.000000;0.687163
9611.000000;0.687275
9610.000000;0.687263
9609.000000;0.686920
9608.000000;0.686284
9607.000000;0.685599
9606.000000;0.685012
9605.000000;0.684475
9604.000000;0.683936
9603.000000;0.683449
9602.000000;0.683038
9601.000000;0.682615
9600.000000;0.682099
9599.000000;0.681553
9598.000000;0.681103
9597.000000;0.680770
9596.000000;0.680450
9595.000000;0.680063
9594.000000;0.679649
9593.000000;0.679272
9592.000000;0.678876
9591.000000;0.678351
9590.000000;0.677743
9589.000000;0.677320
9588.000000;0.677284
9587.000000;0.677453
9586.000000;0.677365
9585.000000;0.676737
9584.000000;0.675725
9583.000000;0.674705
9582.000000;0.673925
9581.000000;0.673448
9580.000000;0.673275
9579.000000;0.673359
9578.000000;0.673536
9577.000000;0.673587
9576.000000;0.673392
9575.000000;0.672959
9574.000000;0.672355
9573.000000;0.671686
9572.000000;0.671120
9571.000000;0.670780
9570.000000;0.670597
9569.000000;0.670371
9568.000000;0.669991
9567.000000;0.669513
9566.000000;0.669027
9565.000000;0.668543
9564.000000;0.668046
9563.000000;0.667560
9562.000000;0.667110
9561.000000;0.666686
9560.000000;0.666275
9559.000000;0.665865
9558.000000;0.665388
9557.000000;0.664761
9556.000000;0.664038
9555.000000;0.663428
9554.000000;0.663073
9553.000000;0.662856
9552.000000;0.662553
9551.000000;0.662115
9550.000000;0.661690
9549.000000;0.661378
9548.000000;0.661097
9547.000000;0.660724
9546.000000;0.660253
9545.000000;0.659738
9544.000000;0.659168
9543.000000;0.658508
9542.000000;0.657831
9541.000000;0.657300
9540.000000;0.656982
9539.000000;0.656756
9538.000000;0.656452
9537.000000;0.656054
9536.000000;0.655698
9535.000000;0.655463
9534.000000;0.655236
9533.000000;0.654817
9532.000000;0.654160
9531.000000;0.653452
9530.000000;0.652938
9529.000000;0.652674
9528.000000;0.652511
9527.000000;0.652303
9526.000000;0.652087
9525.000000;0.651983
9524.000000;0.651966
9523.000000;0.651829
9522.000000;0.651426
9521.000000;0.650861
9520.000000;0.650345
9519.000000;0.649921
9518.000000;0.649441
9517.000000;0.648827
9516.000000;0.648228
9515.000000;0.647834
9514.000000;0.647623
9513.000000;0.647417
9512.000000;0.647150
9511.000000;0.646936
9510.000000;0.646828
9509.000000;0.646646
9508.000000;0.646139
9507.000000;0.645297
9506.000000;0.644397
9505.000000;0.643736
9504.000000;0.643377
9503.000000;0.643175
9502.000000;0.642984
9501.000000;0.642765
9500.000000;0.642523
9499.000000;0.642214
9498.000000;0.641750
9497.000000;0.641098
9496.000000;0.640350
9495.000000;0.639681
9494.000000;0.639215
9493.000000;0.638919
9492.000000;0.638622
9491.000000;0.638165
9490.000000;0.637553
9489.000000;0.636967
9488.000000;0.636608
9487.000000;0.636521
9486.000000;0.636567
9485.000000;0.636541
9484.000000;0.636312
9483.000000;0.635866
9482.000000;0.635276
9481.000000;0.634641
9480.000000;0.634051
9479.000000;0.633556
9478.000000;0.633172
9477.000000;0.632904
9476.000000;0.632744
9475.000000;0.632645
9474.000000;0.632495
9473.000000;0.632179
9472.000000;0.631670
9471.000000;0.631071
9470.000000;0.630535
9469.000000;0.630149
9468.000000;0.629860
9467.000000;0.629520
9466.000000;0.629011
9465.000000;0.628356
9464.000000;0.627700
9463.000000;0.627172
9462.000000;0.626770
9461.000000;0.626407
9460.000000;0.626035
9459.000000;0.625683
9458.000000;0.625371
9457.000000;0.625045
9456.000000;0.624653
9455.000000;0.624228
9454.000000;0.623838
9453.000000;0.623482
9452.000000;0.623105
9451.000000;0.622714
9450.000000;0.622396
9449.000000;0.622196
9448.000000;0.622021
9447.000000;0.621724
9446.000000;0.621261
9445.000000;0.620722
9444.000000;0.620212
9443.000000;0.619771
9442.000000;0.619380
9441.000000;0.619021
9440.000000;0.618696
9439.000000;0.618430
9438.000000;0.618253
9437.000000;0.618160
9436.000000;0.618084
9435.000000;0.617931
9434.000000;0.617653
9433.000000;0.617263
9432.000000;0.616777
9431.000000;0.616188
9430.000000;0.615498
9429.000000;0.614769
9428.000000;0.614119
9427.000000;0.613667
9426.000000;0.613474
9425.000000;0.613456
9424.000000;0.613386
9423.000000;0.613045
9422.000000;0.612435
9421.000000;0.611812
9420.000000;0.611429
9419.000000;0.611269
9418.000000;0.611102
9417.000000;0.610790
9416.000000;0.610431
9415.000000;0.610176
9414.000000;0.609991
9413.000000;0.609681
9412.000000;0.609113
9411.000000;0.608352
9410.000000;0.607577
9409.000000;0.606937
9408.000000;0.606489
9407.000000;0.606203
9406.000000;0.605988
9405.000000;0.605762
9404.000000;0.605532
9403.000000;0.605391
9402.000000;0.605386
9401.000000;0.605413
9400.000000;0.605291
9399.000000;0.604930
9398.000000;0.604405
9397.000000;0.603846
9396.000000;0.603311
9395.000000;0.602780
9394.000000;0.602219
9393.000000;0.601631
9392.000000;0.601043
9391.000000;0.600503
9390.000000;0.600067
9389.000000;0.599774
9388.000000;0.599604
9387.000000;0.599481
9386.000000;0.599311
9385.000000;0.599021
9384.000000;0.598563
9383.000000;0.597908
9382.000000;0.597098
9381.000000;0.596310
9380.000000;0.595831
9379.000000;0.595834
9378.000000;0.596139
9377.000000;0.596271
9376.000000;0.595869
9375.000000;0.595057
9374.000000;0.594294
9373.000000;0.593878
9372.000000;0.593690
9371.000000;0.593450
9370.000000;0.593091
9369.000000;0.592749
9368.000000;0.592475
9367.000000;0.592132
9366.000000;0.591587
9365.000000;0.590893
9364.000000;0.590250
9363.000000;0.589829
9362.000000;0.589651
9361.000000;0.589579
9360.000000;0.589401
9359.000000;0.589004
9358.000000;0.588490
9357.000000;0.588063
9356.000000;0.587821
9355.000000;0.587695
9354.000000;0.587589
9353.000000;0.587473
9352.000000;0.587314
9351.000000;0.587025
9350.000000;0.586547
9349.000000;0.585942
9348.000000;0.585331
9347.000000;0.584806
9346.000000;0.584422
9345.000000;0.584210
9344.000000;0.584125
9343.000000;0.584012
9342.000000;0.583720
9341.000000;0.583235
9340.000000;0.582670
9339.000000;0.582156
9338.000000;0.581778
9337.000000;0.581566
9336.000000;0.581452
9335.000000;0.581267
9334.000000;0.580868
9333.000000;0.580287
9332.000000;0.579725
9331.000000;0.579365
9330.000000;0.579212
9329.000000;0.579118
9328.000000;0.578913
9327.000000;0.578531
9326.000000;0.578036
9325.000000;0.577540
9324.000000;0.577098
9323.000000;0.576692
9322.000000;0.576294
9321.000000;0.575895
9320.000000;0.575464
9319.000000;0.574970
9318.000000;0.574464
9317.000000;0.574081
9316.000000;0.573876
9315.000000;0.573720
9314.000000;0.573448
9313.000000;0.573061
9312.000000;0.572689
9311.000000;0.572377
9310.000000;0.572042
9309.000000;0.571645
9308.000000;0.571290
9307.000000;0.571087
9306.000000;0.571002
9305.000000;0.570887
9304.000000;0.570639
9303.000000;0.570264
9302.000000;0.569841
9301.000000;0.569458
9300.000000;0.569165
9299.000000;0.568940
9298.000000;0.568713
9297.000000;0.568436
9296.000000;0.568128
9295.000000;0.567838
9294.000000;0.567564
9293.000000;0.567229
9292.000000;0.566743
9291.000000;0.566102
9290.000000;0.565428
9289.000000;0.564878
9288.000000;0.564499
9287.000000;0.564202
9286.000000;0.563898
9285.000000;0.563599
9284.000000;0.563346
9283.000000;0.563095
9282.000000;0.562753
9281.000000;0.562330
9280.000000;0.561958
9279.000000;0.561733
9278.000000;0.561600
9277.000000;0.561383
9276.000000;0.560928
9275.000000;0.560219
9274.000000;0.559433
9273.000000;0.558859
9272.000000;0.558664
9271.000000;0.558714
9270.000000;0.558690
9269.000000;0.558399
9268.000000;0.557927
9267.000000;0.557472
9266.000000;0.557132
9265.000000;0.556882
9264.000000;0.556662
9263.000000;0.556420
9262.000000;0.556117
9261.000000;0.555761
9260.000000;0.555398
9259.000000;0.555035
9258.000000;0.554614
9257.000000;0.554112
9256.000000;0.553623
9255.000000;0.553272
9254.000000;0.553073
9253.000000;0.552944
9252.000000;0.552817
9251.000000;0.552676
9250.000000;0.552480
9249.000000;0.552131
9248.000000;0.551548
9247.000000;0.550761
9246.000000;0.549931
9245.000000;0.549300
9244.000000;0.549060
9243.000000;0.549192
9242.000000;0.549407
9241.000000;0.549337
9240.000000;0.548850
9239.000000;0.548168
9238.000000;0.547652
9237.000000;0.547470
9236.000000;0.547479
9235.000000;0.547391
9234.000000;0.547033
9233.000000;0.546449
9232.000000;0.545818
9231.000000;0.545318
9230.000000;0.545024
9229.000000;0.544899
9228.000000;0.544823
9227.000000;0.544668
9226.000000;0.544370
9225.000000;0.543947
9224.000000;0.543465
9223.000000;0.542999
9222.000000;0.542643
9221.000000;0.542471
9220.000000;0.542461
9219.000000;0.542452
9218.000000;0.542263
9217.000000;0.541847
9216.000000;0.541299
9215.000000;0.540724
9214.000000;0.540138
9213.000000;0.539510
9212.000000;0.538863
9211.000000;0.538305
9210.000000;0.537961
9209.000000;0.537858
9208.000000;0.537841
9207.000000;0.537661
9206.000000;0.537191
9205.000000;0.536574
9204.000000;0.536087
9203.000000;0.535869
9202.000000;0.535830
9201.000000;0.535811
9200.000000;0.535734
9199.000000;0.535585
9198.000000;0.535337
9197.000000;0.534976
9196.000000;0.534536
9195.000000;0.534059
9194.000000;0.533553
9193.000000;0.533046
9192.000000;0.532621
9191.000000;0.532350
9190.000000;0.532194
9189.000000;0.532046
9188.000000;0.531840
9187.000000;0.531569
9186.000000;0.531226
9185.000000;0.530797
9184.000000;0.530314
9183.000000;0.529871
9182.000000;0.529556
9181.000000;0.529380
9180.000000;0.529274
9179.000000;0.529131
9178.000000;0.528866
9177.000000;0.528458
9176.000000;0.527956
9175.000000;0.527446
9174.000000;0.527012
9173.000000;0.526720
9172.000000;0.526586
9171.000000;0.526529
9170.000000;0.526411
9169.000000;0.526142
9168.000000;0.525750
9167.000000;0.525316
9166.000000;0.524886
9165.000000;0.524470
9164.000000;0.524091
9163.000000;0.523764
9162.000000;0.523447
9161.000000;0.523078
9160.000000;0.522669
9159.000000;0.522326
9158.000000;0.522138
9157.000000;0.522095
9156.000000;0.522106
9155.000000;0.522066
9154.000000;0.521902
9153.000000;0.521580
9152.000000;0.521132
9151.000000;0.520652
9150.000000;0.520247
9149.000000;0.519958
9148.000000;0.519728
9147.000000;0.519480
9146.000000;0.519205
9145.000000;0.518955
9144.000000;0.518717
9143.000000;0.518370
9142.000000;0.517809
9141.000000;0.517119
9140.000000;0.516526
9139.000000;0.516176
9138.000000;0.516009
9137.000000;0.515871
9136.000000;0.515662
9135.000000;0.515366
9134.000000;0.514997
9133.000000;0.514603
9132.000000;0.514277
9131.000000;0.514056
9130.000000;0.513855
9129.000000;0.513540
9128.000000;0.513088
9127.000000;0.512599
9126.000000;0.512164
9125.000000;0.511779
9124.000000;0.511397
9123.000000;0.511017
9122.000000;0.510685
9121.000000;0.510422
9120.000000;0.510210
9119.000000;0.510023
9118.000000;0.509867
9117.000000;0.509756
9116.000000;0.509666
9115.000000;0.509523
9114.000000;0.509267
9113.000000;0.508929
9112.000000;0.508608
9111.000000;0.508390
9110.000000;0.508291
9109.000000;0.508253
9108.000000;0.508162
9107.000000;0.507886
9106.000000;0.507385
9105.000000;0.506786
9104.000000;0.506282
9103.000000;0.505918
9102.000000;0.505557
9101.000000;0.505097
9100.000000;0.504627
9099.000000;0.504294
9098.000000;0.504108
9097.000000;0.503960
9096.000000;0.503784
9095.000000;0.503571
9094.000000;0.503287
9093.000000;0.502896
9092.000000;0.502475
9091.000000;0.502162
9090.000000;0.501959
9089.000000;0.501684
9088.000000;0.501179
9087.000000;0.500505
9086.000000;0.499862
9085.000000;0.499396
9084.000000;0.499117
9083.000000;0.498959
9082.000000;0.498854
9081.000000;0.498769
9080.000000;0.498719
9079.000000;0.498727
9078.000000;0.498756
9077.000000;0.498702
9076.000000;0.498489
9075.000000;0.498151
9074.000000;0.497795
9073.000000;0.497473
9072.000000;0.497115
9071.000000;0.496592
9070.000000;0.495858
9069.000000;0.495047
9068.000000;0.494389
9067.000000;0.494019
9066.000000;0.493855
9065.000000;0.493717
9064.000000;0.493532
9063.000000;0.493384
9062.000000;0.493340
9061.000000;0.493315
9060.000000;0.493139
9059.000000;0.492740
9058.000000;0.492220
9057.000000;0.491757
9056.000000;0.491453
9055.000000;0.491242
9054.000000;0.490971
9053.000000;0.490560
