Criado como novo conjunto de dados;"Jao_teste_celulas.spp","961.9 Secs"
cm-1;Abs
10000.000000;0.795043
9999.000000;0.794731
9998.000000;0.794420
9997.000000;0.794108
9996.000000;0.793798
9995.000000;0.793486
9994.000000;0.793176
9993.000000;0.792865
9992.000000;0.792560
9991.000000;0.792063
9990.000000;0.791362
9989.000000;0.790654
9988.000000;0.790137
9987.000000;0.789805
9986.000000;0.789493
9985.000000;0.789109
9984.000000;0.788716
9983.000000;0.788362
9982.000000;0.787968
9981.000000;0.787442
9980.000000;0.786828
9979.000000;0.786258
9978.000000;0.785768
9977.000000;0.785257
9976.000000;0.784683
9975.000000;0.784204
9974.000000;0.784069
9973.000000;0.784324
9972.000000;0.784682
9971.000000;0.784716
9970.000000;0.784186
9969.000000;0.783163
9968.000000;0.781901
9967.000000;0.780689
9966.000000;0.779790
9965.000000;0.779350
9964.000000;0.779273
9963.000000;0.779257
9962.000000;0.779062
9961.000000;0.778690
9960.000000;0.778277
9959.000000;0.777910
9958.000000;0.777632
9957.000000;0.777491
9956.000000;0.777424
9955.000000;0.777164
9954.000000;0.776471
9953.000000;0.775480
9952.000000;0.774622
9951.000000;0.774143
9950.000000;0.773855
9949.000000;0.773430
9948.000000;0.772789
9947.000000;0.772090
9946.000000;0.771489
9945.000000;0.771039
9944.000000;0.770734
9943.000000;0.770494
9942.000000;0.770159
9941.000000;0.769663
9940.000000;0.769164
9939.000000;0.768865
9938.000000;0.768696
9937.000000;0.768331
9936.000000;0.767564
9935.000000;0.766559
9934.000000;0.765676
9933.000000;0.765139
9932.000000;0.764899
9931.000000;0.764719
9930.000000;0.764328
9929.000000;0.763591
9928.000000;0.762659
9927.000000;0.761901
9926.000000;0.761589
9925.000000;0.761612
9924.000000;0.761577
9923.000000;0.761216
9922.000000;0.760648
9921.000000;0.760197
9920.000000;0.759980
9919.000000;0.759761
9918.000000;0.759221
9917.000000;0.758329
9916.000000;0.757393
9915.000000;0.756775
9914.000000;0.756588
9913.000000;0.756653
9912.000000;0.756675
9911.000000;0.756452
9910.000000;0.755980
9909.000000;0.755411
9908.000000;0.754895
9907.000000;0.754453
9906.000000;0.754013
9905.000000;0.753563
9904.000000;0.753153
9903.000000;0.752703
9902.000000;0.751961
9901.000000;0.750793
9900.000000;0.749495
9899.000000;0.748613
9898.000000;0.748426
9897.000000;0.748674
9896.000000;0.748853
9895.000000;0.748680
9894.000000;0.748228
9893.000000;0.747704
9892.000000;0.747229
9891.000000;0.746803
9890.000000;0.746384
9889.000000;0.745957
9888.000000;0.745534
9887.000000;0.745090
9886.000000;0.744509
9885.000000;0.743683
9884.000000;0.742696
9883.000000;0.741863
9882.000000;0.741486
9881.000000;0.741601
9880.000000;0.741978
9879.000000;0.742338
9878.000000;0.742465
9877.000000;0.742191
9876.000000;0.741432
9875.000000;0.740295
9874.000000;0.739077
9873.000000;0.738079
9872.000000;0.737444
9871.000000;0.737128
9870.000000;0.736919
9869.000000;0.736526
9868.000000;0.735786
9867.000000;0.734853
9866.000000;0.734085
9865.000000;0.733675
9864.000000;0.733506
9863.000000;0.733395
9862.000000;0.733330
9861.000000;0.733326
9860.000000;0.733233
9859.000000;0.732895
9858.000000;0.732441
9857.000000;0.732165
9856.000000;0.732088
9855.000000;0.731888
9854.000000;0.731333
9853.000000;0.730606
9852.000000;0.730067
9851.000000;0.729846
9850.000000;0.729740
9849.000000;0.729414
9848.000000;0.728604
9847.000000;0.727319
9846.000000;0.725964
9845.000000;0.725136
9844.000000;0.725073
9843.000000;0.725365
9842.000000;0.725361
9841.000000;0.724818
9840.000000;0.723982
9839.000000;0.723155
9838.000000;0.722437
9837.000000;0.721869
9836.000000;0.721500
9835.000000;0.721210
9834.000000;0.720732
9833.000000;0.720028
9832.000000;0.719453
9831.000000;0.719347
9830.000000;0.719581
9829.000000;0.719688
9828.000000;0.719394
9827.000000;0.718801
9826.000000;0.718130
9825.000000;0.717495
9824.000000;0.716935
9823.000000;0.716476
9822.000000;0.716106
9821.000000;0.715812
9820.000000;0.715655
9819.000000;0.715663
9818.000000;0.715645
9817.000000;0.715277
9816.000000;0.714471
9815.000000;0.713495
9814.000000;0.712645
9813.000000;0.711931
9812.000000;0.711231
9811.000000;0.710594
9810.000000;0.710204
9809.000000;0.710071
9808.000000;0.709984
9807.000000;0.709784
9806.000000;0.709527
9805.000000;0.709300
9804.000000;0.709031
9803.000000;0.708599
9802.000000;0.708024
9801.000000;0.707408
9800.000000;0.706739
9799.000000;0.705922
9798.000000;0.705003
9797.000000;0.704212
9796.000000;0.703733
9795.000000;0.703534
9794.000000;0.703464
9793.000000;0.703424
9792.000000;0.703336
9791.000000;0.703057
9790.000000;0.702485
9789.000000;0.701775
9788.000000;0.701262
9787.000000;0.701121
9786.000000;0.701162
9785.000000;0.701049
9784.000000;0.700632
9783.000000;0.699978
9782.000000;0.699180
9781.000000;0.698271
9780.000000;0.697335
9779.000000;0.696555
9778.000000;0.696065
9777.000000;0.695816
9776.000000;0.695645
9775.000000;0.695422
9774.000000;0.695099
9773.000000;0.694670
9772.000000;0.694146
9771.000000;0.693552
9770.000000;0.692916
9769.000000;0.692283
9768.000000;0.691754
9767.000000;0.691450
9766.000000;0.691370
9765.000000;0.691330
9764.000000;0.691113
9763.000000;0.690670
9762.000000;0.690094
9761.000000;0.689444
9760.000000;0.688706
9759.000000;0.687941
9758.000000;0.687318
9757.000000;0.686902
9756.000000;0.686521
9755.000000;0.685953
9754.000000;0.685193
9753.000000;0.684434
9752.000000;0.683828
9751.000000;0.683397
9750.000000;0.683149
9749.000000;0.683121
9748.000000;0.683247
9747.000000;0.683292
9746.000000;0.683029
9745.000000;0.682454
9744.000000;0.681769
9743.000000;0.681182
9742.000000;0.680769
9741.000000;0.680460
9740.000000;0.680102
9739.000000;0.679588
9738.000000;0.679002
9737.000000;0.678619
9736.000000;0.678644
9735.000000;0.678931
9734.000000;0.679035
9733.000000;0.678585
9732.000000;0.677614
9731.000000;0.676492
9730.000000;0.675591
9729.000000;0.675011
9728.000000;0.674584
9727.000000;0.674099
9726.000000;0.673522
9725.000000;0.673026
9724.000000;0.672799
9723.000000;0.672818
9722.000000;0.672826
9721.000000;0.672547
9720.000000;0.671933
9719.000000;0.671218
9718.000000;0.670713
9717.000000;0.670552
9716.000000;0.670596
9715.000000;0.670565
9714.000000;0.670254
9713.000000;0.669659
9712.000000;0.668938
9711.000000;0.668305
9710.000000;0.667927
9709.000000;0.667809
9708.000000;0.667724
9707.000000;0.667357
9706.000000;0.666610
9705.000000;0.665741
9704.000000;0.665112
9703.000000;0.664808
9702.000000;0.664590
9701.000000;0.664195
9700.000000;0.663573
9699.000000;0.662827
9698.000000;0.662048
9697.000000;0.661305
9696.000000;0.660672
9695.000000;0.660153
9694.000000;0.659623
9693.000000;0.658974
9692.000000;0.658309
9691.000000;0.657884
9690.000000;0.657830
9689.000000;0.657998
9688.000000;0.658100
9687.000000;0.657948
9686.000000;0.657533
9685.000000;0.656980
9684.000000;0.656466
9683.000000;0.656118
9682.000000;0.655898
9681.000000;0.655590
9680.000000;0.655022
9679.000000;0.654307
9678.000000;0.653763
9677.000000;0.653544
9676.000000;0.653414
9675.000000;0.653004
9674.000000;0.652259
9673.000000;0.651498
9672.000000;0.651021
9671.000000;0.650773
9670.000000;0.650484
9669.000000;0.650042
9668.000000;0.649573
9667.000000;0.649178
9666.000000;0.648763
9665.000000;0.648193
9664.000000;0.647510
9663.000000;0.646863
9662.000000;0.646315
9661.000000;0.645812
9660.000000;0.645343
9659.000000;0.644990
9658.000000;0.644795
9657.000000;0.644660
9656.000000;0.644451
9655.000000;0.644136
9654.000000;0.643770
9653.000000;0.643389
9652.000000;0.642988
9651.000000;0.642567
9650.000000;0.642135
9649.000000;0.641659
9648.000000;0.641098
9647.000000;0.640518
9646.000000;0.640114
9645.000000;0.640030
9644.000000;0.640191
9643.000000;0.640322
9642.000000;0.640172
9641.000000;0.639671
9640.000000;0.638927
9639.000000;0.638102
9638.000000;0.637324
9637.000000;0.636665
9636.000000;0.636153
9635.000000;0.635785
9634.000000;0.635531
9633.000000;0.635328
9632.000000;0.635107
9631.000000;0.634848
9630.000000;0.634595
9629.000000;0.634365
9628.000000;0.634058
9627.000000;0.633522
9626.000000;0.632736
9625.000000;0.631897
9624.000000;0.631257
9623.000000;0.630882
9622.000000;0.630587
9621.000000;0.630134
9620.000000;0.629477
9619.000000;0.628805
9618.000000;0.628337
9617.000000;0.628065
9616.000000;0.627743
9615.000000;0.627176
9614.000000;0.626471
9613.000000;0.625940
9612.000000;0.625748
9611.000000;0.625771
9610.000000;0.625792
9609.000000;0.625725
9608.000000;0.625541
9607.000000;0.625117
9606.000000;0.624321
9605.000000;0.623264
9604.000000;0.622316
9603.000000;0.621789
9602.000000;0.621660
9601.000000;0.621629
9600.000000;0.621409
9599.000000;0.620942
9598.000000;0.620396
9597.000000;0.619998
9596.000000;0.619847
9595.000000;0.619836
9594.000000;0.619735
9593.000000;0.619375
9592.000000;0.618748
9591.000000;0.617959
9590.000000;0.617126
9589.000000;0.616336
9588.000000;0.615690
9587.000000;0.615308
9586.000000;0.615267
9585.000000;0.615481
9584.000000;0.615670
9583.000000;0.615508
9582.000000;0.614873
9581.000000;0.613985
9580.000000;0.613257
9579.000000;0.612982
9578.000000;0.613133
9577.000000;0.613407
9576.000000;0.613462
9575.000000;0.613148
9574.000000;0.612544
9573.000000;0.611833
9572.000000;0.611149
9571.000000;0.610553
9570.000000;0.610083
9569.000000;0.609733
9568.000000;0.609406
9567.000000;0.608965
9566.000000;0.608382
9565.000000;0.607742
9564.000000;0.607117
9563.000000;0.606525
9562.000000;0.606048
9561.000000;0.605812
9560.000000;0.605738
9559.000000;0.605469
9558.000000;0.604744
9557.000000;0.603788
9556.000000;0.603128
9555.000000;0.603018
9554.000000;0.603211
9553.000000;0.603291
9552.000000;0.603049
9551.000000;0.602505
9550.000000;0.601765
9549.000000;0.600972
9548.000000;0.600283
9547.000000;0.599777
9546.000000;0.599434
9545.000000;0.599224
9544.000000;0.599111
9543.000000;0.598937
9542.000000;0.598462
9541.000000;0.597644
9540.000000;0.596767
9539.000000;0.596154
9538.000000;0.595850
9537.000000;0.595679
9536.000000;0.595549
9535.000000;0.595509
9534.000000;0.595560
9533.000000;0.595560
9532.000000;0.595369
9531.000000;0.594975
9530.000000;0.594457
9529.000000;0.593893
9528.000000;0.593336
9527.000000;0.592834
9526.000000;0.592431
9525.000000;0.592138
9524.000000;0.591879
9523.000000;0.591485
9522.000000;0.590831
9521.000000;0.590020
9520.000000;0.589352
9519.000000;0.589004
9518.000000;0.588814
9517.000000;0.588467
9516.000000;0.587854
9515.000000;0.587137
9514.000000;0.586504
9513.000000;0.586005
9512.000000;0.585639
9511.000000;0.585453
9510.000000;0.585466
9509.000000;0.585585
9508.000000;0.585631
9507.000000;0.585433
9506.000000;0.584908
9505.000000;0.584139
9504.000000;0.583375
9503.000000;0.582837
9502.000000;0.582506
9501.000000;0.582194
9500.000000;0.581823
9499.000000;0.581529
9498.000000;0.581424
9497.000000;0.581392
9496.000000;0.581222
9495.000000;0.580846
9494.000000;0.580331
9493.000000;0.579726
9492.000000;0.579046
9491.000000;0.578396
9490.000000;0.577937
9489.000000;0.577706
9488.000000;0.577553
9487.000000;0.577311
9486.000000;0.576957
9485.000000;0.576593
9484.000000;0.576300
9483.000000;0.576056
9482.000000;0.575756
9481.000000;0.575317
9480.000000;0.574770
9479.000000;0.574252
9478.000000;0.573857
9477.000000;0.573512
9476.000000;0.573063
9475.000000;0.572474
9474.000000;0.571840
9473.000000;0.571226
9472.000000;0.570588
9471.000000;0.569929
9470.000000;0.569400
9469.000000;0.569149
9468.000000;0.569095
9467.000000;0.568988
9466.000000;0.568691
9465.000000;0.568288
9464.000000;0.567909
9463.000000;0.567534
9462.000000;0.567078
9461.000000;0.566594
9460.000000;0.566282
9459.000000;0.566285
9458.000000;0.566510
9457.000000;0.566690
9456.000000;0.566610
9455.000000;0.566248
9454.000000;0.565705
9453.000000;0.565035
9452.000000;0.564205
9451.000000;0.563218
9450.000000;0.562227
9449.000000;0.561458
9448.000000;0.561050
9447.000000;0.560994
9446.000000;0.561200
9445.000000;0.561505
9444.000000;0.561656
9443.000000;0.561421
9442.000000;0.560793
9441.000000;0.560022
9440.000000;0.559379
9439.000000;0.558931
9438.000000;0.558586
9437.000000;0.558283
9436.000000;0.558030
9435.000000;0.557796
9434.000000;0.557487
9433.000000;0.557035
9432.000000;0.556469
9431.000000;0.555866
9430.000000;0.555301
9429.000000;0.554843
9428.000000;0.554538
9427.000000;0.554381
9426.000000;0.554313
9425.000000;0.554249
9424.000000;0.554088
9423.000000;0.553731
9422.000000;0.553159
9421.000000;0.552499
9420.000000;0.551941
9419.000000;0.551584
9418.000000;0.551373
9417.000000;0.551196
9416.000000;0.550980
9415.000000;0.550703
9414.000000;0.550368
9413.000000;0.549996
9412.000000;0.549626
9411.000000;0.549289
9410.000000;0.548985
9409.000000;0.548665
9408.000000;0.548220
9407.000000;0.547540
9406.000000;0.546651
9405.000000;0.545778
9404.000000;0.545182
9403.000000;0.544919
9402.000000;0.544813
9401.000000;0.544654
9400.000000;0.544373
9399.000000;0.544017
9398.000000;0.543653
9397.000000;0.543318
9396.000000;0.543013
9395.000000;0.542683
9394.000000;0.542266
9393.000000;0.541804
9392.000000;0.541439
9391.000000;0.541243
9390.000000;0.541101
9389.000000;0.540804
9388.000000;0.540257
9387.000000;0.539559
9386.000000;0.538906
9385.000000;0.538445
9384.000000;0.538174
9383.000000;0.537943
9382.000000;0.537596
9381.000000;0.537149
9380.000000;0.536786
9379.000000;0.536640
9378.000000;0.536625
9377.000000;0.536537
9376.000000;0.536290
9375.000000;0.535986
9374.000000;0.535745
9373.000000;0.535569
9372.000000;0.535369
9371.000000;0.535070
9370.000000;0.534628
9369.000000;0.534025
9368.000000;0.533297
9367.000000;0.532581
9366.000000;0.532050
9365.000000;0.531759
9364.000000;0.531558
9363.000000;0.531219
9362.000000;0.530669
9361.000000;0.530047
9360.000000;0.529542
9359.000000;0.529200
9358.000000;0.528949
9357.000000;0.528727
9356.000000;0.528502
9355.000000;0.528212
9354.000000;0.527779
9353.000000;0.527230
9352.000000;0.526672
9351.000000;0.526140
9350.000000;0.525535
9349.000000;0.524807
9348.000000;0.524100
9347.000000;0.523644
9346.000000;0.523518
9345.000000;0.523604
9344.000000;0.523748
9343.000000;0.523863
9342.000000;0.523885
9341.000000;0.523724
9340.000000;0.523326
9339.000000;0.522788
9338.000000;0.522322
9337.000000;0.522076
9336.000000;0.521998
9335.000000;0.521893
9334.000000;0.521613
9333.000000;0.521169
9332.000000;0.520663
9331.000000;0.520161
9330.000000;0.519685
9329.000000;0.519280
9328.000000;0.518996
9327.000000;0.518808
9326.000000;0.518608
9325.000000;0.518308
9324.000000;0.517914
9323.000000;0.517479
9322.000000;0.517030
9321.000000;0.516561
9320.000000;0.516064
9319.000000;0.515554
9318.000000;0.515073
9317.000000;0.514663
9316.000000;0.514320
9315.000000;0.513997
9314.000000;0.513688
9313.000000;0.513479
9312.000000;0.513429
9311.000000;0.513436
9310.000000;0.513315
9309.000000;0.513022
9308.000000;0.512676
9307.000000;0.512358
9306.000000;0.512015
9305.000000;0.511595
9304.000000;0.511165
9303.000000;0.510792
9302.000000;0.510426
9301.000000;0.509992
9300.000000;0.509545
9299.000000;0.509192
9298.000000;0.508902
9297.000000;0.508514
9296.000000;0.507957
9295.000000;0.507364
9294.000000;0.506944
9293.000000;0.506754
9292.000000;0.506636
9291.000000;0.506364
9290.000000;0.505880
9289.000000;0.505365
9288.000000;0.505037
9287.000000;0.504907
9286.000000;0.504771
9285.000000;0.504469
9284.000000;0.504010
9283.000000;0.503456
9282.000000;0.502831
9281.000000;0.502223
9280.000000;0.501829
9279.000000;0.501733
9278.000000;0.501719
9277.000000;0.501475
9276.000000;0.500959
9275.000000;0.500412
9274.000000;0.500027
9273.000000;0.499762
9272.000000;0.499514
9271.000000;0.499296
9270.000000;0.499160
9269.000000;0.499056
9268.000000;0.498861
9267.000000;0.498535
9266.000000;0.498164
9265.000000;0.497857
9264.000000;0.497626
9263.000000;0.497354
9262.000000;0.496894
9261.000000;0.496230
9260.000000;0.495532
9259.000000;0.495017
9258.000000;0.494760
9257.000000;0.494673
9256.000000;0.494609
9255.000000;0.494437
9254.000000;0.494061
9253.000000;0.493496
9252.000000;0.492922
9251.000000;0.492548
9250.000000;0.492369
9249.000000;0.492152
9248.000000;0.491727
9247.000000;0.491190
9246.000000;0.490763
9245.000000;0.490524
9244.000000;0.490366
9243.000000;0.490171
9242.000000;0.489908
9241.000000;0.489591
9240.000000;0.489221
9239.000000;0.488827
9238.000000;0.488472
9237.000000;0.488199
9236.000000;0.487981
9235.000000;0.487757
9234.000000;0.487483
9233.000000;0.487142
9232.000000;0.486740
9231.000000;0.486312
9230.000000;0.485918
9229.000000;0.485586
9228.000000;0.485256
9227.000000;0.484810
9226.000000;0.484215
9225.000000;0.483613
9224.000000;0.483249
9223.000000;0.483260
9222.000000;0.483541
9221.000000;0.483787
9220.000000;0.483710
9219.000000;0.483228
9218.000000;0.482504
9217.000000;0.481795
9216.000000;0.481264
9215.000000;0.480922
9214.000000;0.480707
9213.000000;0.480567
9212.000000;0.480429
9211.000000;0.480163
9210.000000;0.479676
9209.000000;0.479043
9208.000000;0.478454
9207.000000;0.478021
9206.000000;0.477700
9205.000000;0.477416
9204.000000;0.477181
9203.000000;0.477028
9202.000000;0.476909
9201.000000;0.476732
9200.000000;0.476465
9199.000000;0.476127
9198.000000;0.475730
9197.000000;0.475291
9196.000000;0.474871
9195.000000;0.474533
9194.000000;0.474265
9193.000000;0.473990
9192.000000;0.473670
9191.000000;0.473342
9190.000000;0.473065
9189.000000;0.472863
9188.000000;0.472704
9187.000000;0.472504
9186.000000;0.472192
9185.000000;0.471791
9184.000000;0.471415
9183.000000;0.471129
9182.000000;0.470860
9181.000000;0.470494
9180.000000;0.470017
9179.000000;0.469524
9178.000000;0.469102
9177.000000;0.468777
9176.000000;0.468520
9175.000000;0.468262
9174.000000;0.467949
9173.000000;0.467640
9172.000000;0.467494
9171.000000;0.467572
9170.000000;0.467692
9169.000000;0.467590
9168.000000;0.467202
9167.000000;0.466692
9166.000000;0.466238
9165.000000;0.465893
9164.000000;0.465645
9163.000000;0.465480
9162.000000;0.465333
9161.000000;0.465092
9160.000000;0.464689
9159.000000;0.464139
9158.000000;0.463489
9157.000000;0.462809
9156.000000;0.462217
9155.000000;0.461814
9154.000000;0.461577
9153.000000;0.461400
9152.000000;0.461255
9151.000000;0.461198
9150.000000;0.461184
9149.000000;0.461041
9148.000000;0.460688
9147.000000;0.460253
9146.000000;0.459880
9145.000000;0.459517
9144.000000;0.459021
9143.000000;0.458383
9142.000000;0.457745
9141.000000;0.457230
9140.000000;0.456889
9139.000000;0.456738
9138.000000;0.456734
9137.000000;0.456721
9136.000000;0.456547
9135.000000;0.456243
9134.000000;0.455985
9133.000000;0.455862
9132.000000;0.455767
9131.000000;0.455539
9130.000000;0.455134
9129.000000;0.454622
9128.000000;0.454104
9127.000000;0.453672
9126.000000;0.453401
9125.000000;0.453286
9124.000000;0.453212
9123.000000;0.453033
9122.000000;0.452693
9121.000000;0.452254
9120.000000;0.451825
9119.000000;0.451472
9118.000000;0.451188
9117.000000;0.450932
9116.000000;0.450682
9115.000000;0.450446
9114.000000;0.450209
9113.000000;0.449886
9112.000000;0.449371
9111.000000;0.448664
9110.000000;0.447923
9109.000000;0.447359
9108.000000;0.447051
9107.000000;0.446899
9106.000000;0.446741
9105.000000;0.446507
9104.000000;0.446247
9103.000000;0.446030
9102.000000;0.445863
9101.000000;0.445715
9100.000000;0.445565
9099.000000;0.445403
9098.000000;0.445222
9097.000000;0.445035
9096.000000;0.444887
9095.000000;0.444788
9094.000000;0.444646
9093.000000;0.444334
9092.000000;0.443827
9091.000000;0.443245
9090.000000;0.442746
9089.000000;0.442415
9088.000000;0.442246
9087.000000;0.442169
9086.000000;0.442067
9085.000000;0.441827
9084.000000;0.441417
9083.000000;0.440896
9082.000000;0.440348
9081.000000;0.439846
9080.000000;0.439494
9079.000000;0.439387
9078.000000;0.439475
9077.000000;0.439538
9076.000000;0.439386
9075.000000;0.439066
9074.000000;0.438762
9073.000000;0.438532
9072.000000;0.438246
9071.000000;0.437787
9070.000000;0.437220
9069.000000;0.436678
9068.000000;0.436200
9067.000000;0.435752
9066.000000;0.435378
9065.000000;0.435186
9064.000000;0.435183
9063.000000;0.435168
9062.000000;0.434892
9061.000000;0.434308
9060.000000;0.433636
9059.000000;0.433165
9058.000000;0.432993
9057.000000;0.432960
9056.000000;0.432820
9055.000000;0.432458
9054.000000;0.431962
9053.000000;0.431516
