Criado como novo conjunto de dados;"Jao_teste_celulas.spp","2762.1 Secs"
cm-1;Abs
10000.000000;0.937645
9999.000000;0.938097
9998.000000;0.938692
9997.000000;0.938914
9996.000000;0.938464
9995.000000;0.937670
9994.000000;0.936934
9993.000000;0.936417
9992.000000;0.935999
9991.000000;0.935528
9990.000000;0.934870
9989.000000;0.934039
9988.000000;0.933245
9987.000000;0.932703
9986.000000;0.932396
9985.000000;0.932194
9984.000000;0.932135
9983.000000;0.932308
9982.000000;0.932472
9981.000000;0.932141
9980.000000;0.931175
9979.000000;0.930015
9978.000000;0.929178
9977.000000;0.928713
9976.000000;0.928324
9975.000000;0.927848
9974.000000;0.927417
9973.000000;0.927236
9972.000000;0.927350
9971.000000;0.927548
9970.000000;0.927414
9969.000000;0.926625
9968.000000;0.925318
9967.000000;0.924056
9966.000000;0.923315
9965.000000;0.923087
9964.000000;0.923063
9963.000000;0.923067
9962.000000;0.923121
9961.000000;0.923159
9960.000000;0.922914
9959.000000;0.922177
9958.000000;0.921065
9957.000000;0.919978
9956.000000;0.919278
9955.000000;0.919014
9954.000000;0.918937
9953.000000;0.918768
9952.000000;0.918419
9951.000000;0.917919
9950.000000;0.917244
9949.000000;0.916393
9948.000000;0.915629
9947.000000;0.915364
9946.000000;0.915676
9945.000000;0.916081
9944.000000;0.915956
9943.000000;0.915137
9942.000000;0.913986
9941.000000;0.912979
9940.000000;0.912355
9939.000000;0.912075
9938.000000;0.911903
9937.000000;0.911528
9936.000000;0.910787
9935.000000;0.909824
9934.000000;0.908978
9933.000000;0.908476
9932.000000;0.908271
9931.000000;0.908102
9930.000000;0.907661
9929.000000;0.906812
9928.000000;0.905767
9927.000000;0.904984
9926.000000;0.904725
9925.000000;0.904736
9924.000000;0.904535
9923.000000;0.904019
9922.000000;0.903561
9921.000000;0.903432
9920.000000;0.903401
9919.000000;0.903084
9918.000000;0.902517
9917.000000;0.902069
9916.000000;0.901848
9915.000000;0.901530
9914.000000;0.900876
9913.000000;0.900151
9912.000000;0.899782
9911.000000;0.899766
9910.000000;0.899680
9909.000000;0.899252
9908.000000;0.898644
9907.000000;0.898083
9906.000000;0.897456
9905.000000;0.896483
9904.000000;0.895174
9903.000000;0.893915
9902.000000;0.893133
9901.000000;0.892983
9900.000000;0.893292
9899.000000;0.893655
9898.000000;0.893615
9897.000000;0.892952
9896.000000;0.891870
9895.000000;0.890826
9894.000000;0.890120
9893.000000;0.889699
9892.000000;0.889345
9891.000000;0.888901
9890.000000;0.888312
9889.000000;0.887624
9888.000000;0.887024
9887.000000;0.886756
9886.000000;0.886838
9885.000000;0.886916
9884.000000;0.886533
9883.000000;0.885577
9882.000000;0.884406
9881.000000;0.883551
9880.000000;0.883306
9879.000000;0.883544
9878.000000;0.883877
9877.000000;0.883992
9876.000000;0.883901
9875.000000;0.883822
9874.000000;0.883844
9873.000000;0.883790
9872.000000;0.883464
9871.000000;0.882884
9870.000000;0.882191
9869.000000;0.881419
9868.000000;0.880558
9867.000000;0.879770
9866.000000;0.879328
9865.000000;0.879261
9864.000000;0.879204
9863.000000;0.878719
9862.000000;0.877715
9861.000000;0.876487
9860.000000;0.875406
9859.000000;0.874672
9858.000000;0.874299
9857.000000;0.874179
9856.000000;0.874132
9855.000000;0.873960
9854.000000;0.873548
9853.000000;0.872902
9852.000000;0.872130
9851.000000;0.871396
9850.000000;0.870856
9849.000000;0.870533
9848.000000;0.870261
9847.000000;0.869804
9846.000000;0.869105
9845.000000;0.868352
9844.000000;0.867762
9843.000000;0.867342
9842.000000;0.866939
9841.000000;0.866473
9840.000000;0.866042
9839.000000;0.865790
9838.000000;0.865744
9837.000000;0.865787
9836.000000;0.865716
9835.000000;0.865358
9834.000000;0.864704
9833.000000;0.863951
9832.000000;0.863315
9831.000000;0.862801
9830.000000;0.862235
9829.000000;0.861558
9828.000000;0.860942
9827.000000;0.860562
9826.000000;0.860363
9825.000000;0.860161
9824.000000;0.859877
9823.000000;0.859519
9822.000000;0.859038
9821.000000;0.858385
9820.000000;0.857723
9819.000000;0.857366
9818.000000;0.857414
9817.000000;0.857567
9816.000000;0.857410
9815.000000;0.856848
9814.000000;0.856169
9813.000000;0.855697
9812.000000;0.855464
9811.000000;0.855230
9810.000000;0.854776
9809.000000;0.854127
9808.000000;0.853498
9807.000000;0.853048
9806.000000;0.852717
9805.000000;0.852317
9804.000000;0.851721
9803.000000;0.850963
9802.000000;0.850194
9801.000000;0.849603
9800.000000;0.849300
9799.000000;0.849190
9798.000000;0.848987
9797.000000;0.848468
9796.000000;0.847724
9795.000000;0.847072
9794.000000;0.846708
9793.000000;0.846545
9792.000000;0.846418
9791.000000;0.846284
9790.000000;0.846109
9789.000000;0.845681
9788.000000;0.844779
9787.000000;0.843545
9786.000000;0.842480
9785.000000;0.841947
9784.000000;0.841781
9783.000000;0.841534
9782.000000;0.841048
9781.000000;0.840569
9780.000000;0.840289
9779.000000;0.840017
9778.000000;0.839457
9777.000000;0.838655
9776.000000;0.837944
9775.000000;0.837497
9774.000000;0.837158
9773.000000;0.836729
9772.000000;0.836206
9771.000000;0.835658
9770.000000;0.835053
9769.000000;0.834354
9768.000000;0.833683
9767.000000;0.833234
9766.000000;0.833082
9765.000000;0.833127
9764.000000;0.833156
9763.000000;0.832903
9762.000000;0.832208
9761.000000;0.831242
9760.000000;0.830474
9759.000000;0.830240
9758.000000;0.830395
9757.000000;0.830493
9756.000000;0.830258
9755.000000;0.829746
9754.000000;0.829136
9753.000000;0.828543
9752.000000;0.828033
9751.000000;0.827621
9750.000000;0.827226
9749.000000;0.826748
9748.000000;0.826223
9747.000000;0.825773
9746.000000;0.825403
9745.000000;0.824984
9744.000000;0.824457
9743.000000;0.823898
9742.000000;0.823381
9741.000000;0.822899
9740.000000;0.822463
9739.000000;0.822101
9738.000000;0.821685
9737.000000;0.820965
9736.000000;0.819894
9735.000000;0.818833
9734.000000;0.818227
9733.000000;0.818151
9732.000000;0.818273
9731.000000;0.818229
9730.000000;0.817906
9729.000000;0.817407
9728.000000;0.816894
9727.000000;0.816522
9726.000000;0.816389
9725.000000;0.816417
9724.000000;0.816333
9723.000000;0.815884
9722.000000;0.815093
9721.000000;0.814253
9720.000000;0.813620
9719.000000;0.813188
9718.000000;0.812828
9717.000000;0.812531
9716.000000;0.812358
9715.000000;0.812165
9714.000000;0.811645
9713.000000;0.810762
9712.000000;0.809956
9711.000000;0.809675
9710.000000;0.809794
9709.000000;0.809734
9708.000000;0.809175
9707.000000;0.808431
9706.000000;0.808039
9705.000000;0.808131
9704.000000;0.808323
9703.000000;0.808151
9702.000000;0.807505
9701.000000;0.806679
9700.000000;0.806039
9699.000000;0.805674
9698.000000;0.805372
9697.000000;0.804925
9696.000000;0.804372
9695.000000;0.803870
9694.000000;0.803450
9693.000000;0.803047
9692.000000;0.802701
9691.000000;0.802521
9690.000000;0.802457
9689.000000;0.802296
9688.000000;0.801949
9687.000000;0.801519
9686.000000;0.801013
9685.000000;0.800226
9684.000000;0.799078
9683.000000;0.797905
9682.000000;0.797191
9681.000000;0.797068
9680.000000;0.797246
9679.000000;0.797372
9678.000000;0.797283
9677.000000;0.796935
9676.000000;0.796310
9675.000000;0.795503
9674.000000;0.794763
9673.000000;0.794334
9672.000000;0.794238
9671.000000;0.794244
9670.000000;0.794036
9669.000000;0.793429
9668.000000;0.792505
9667.000000;0.791605
9666.000000;0.791110
9665.000000;0.791141
9664.000000;0.791406
9663.000000;0.791391
9662.000000;0.790795
9661.000000;0.789792
9660.000000;0.788853
9659.000000;0.788284
9658.000000;0.787976
9657.000000;0.787584
9656.000000;0.786896
9655.000000;0.786017
9654.000000;0.785251
9653.000000;0.784835
9652.000000;0.784762
9651.000000;0.784774
9650.000000;0.784582
9649.000000;0.784119
9648.000000;0.783559
9647.000000;0.783048
9646.000000;0.782521
9645.000000;0.781867
9644.000000;0.781185
9643.000000;0.780708
9642.000000;0.780481
9641.000000;0.780275
9640.000000;0.779863
9639.000000;0.779314
9638.000000;0.778919
9637.000000;0.778865
9636.000000;0.779017
9635.000000;0.779012
9634.000000;0.778593
9633.000000;0.777858
9632.000000;0.777111
9631.000000;0.776473
9630.000000;0.775780
9629.000000;0.774974
9628.000000;0.774383
9627.000000;0.774355
9626.000000;0.774694
9625.000000;0.774749
9624.000000;0.774127
9623.000000;0.773079
9622.000000;0.772101
9621.000000;0.771411
9620.000000;0.770932
9619.000000;0.770588
9618.000000;0.770397
9617.000000;0.770356
9616.000000;0.770387
9615.000000;0.770390
9614.000000;0.770263
9613.000000;0.769940
9612.000000;0.769448
9611.000000;0.768881
9610.000000;0.768266
9609.000000;0.767546
9608.000000;0.766720
9607.000000;0.765906
9606.000000;0.765220
9605.000000;0.764710
9604.000000;0.764409
9603.000000;0.764314
9602.000000;0.764247
9601.000000;0.763945
9600.000000;0.763376
9599.000000;0.762823
9598.000000;0.762532
9597.000000;0.762441
9596.000000;0.762357
9595.000000;0.762221
9594.000000;0.762041
9593.000000;0.761722
9592.000000;0.761196
9591.000000;0.760622
9590.000000;0.760215
9589.000000;0.759940
9588.000000;0.759582
9587.000000;0.759066
9586.000000;0.758506
9585.000000;0.757949
9584.000000;0.757314
9583.000000;0.756610
9582.000000;0.756024
9581.000000;0.755682
9580.000000;0.755468
9579.000000;0.755124
9578.000000;0.754473
9577.000000;0.753538
9576.000000;0.752582
9575.000000;0.752011
9574.000000;0.752079
9573.000000;0.752613
9572.000000;0.753113
9571.000000;0.753184
9570.000000;0.752789
9569.000000;0.752093
9568.000000;0.751239
9567.000000;0.750344
9566.000000;0.749576
9565.000000;0.749082
9564.000000;0.748876
9563.000000;0.748873
9562.000000;0.748973
9561.000000;0.749055
9560.000000;0.748928
9559.000000;0.748408
9558.000000;0.747488
9557.000000;0.746425
9556.000000;0.745595
9555.000000;0.745221
9554.000000;0.745165
9553.000000;0.745024
9552.000000;0.744499
9551.000000;0.743697
9550.000000;0.742990
9549.000000;0.742622
9548.000000;0.742491
9547.000000;0.742340
9546.000000;0.742031
9545.000000;0.741621
9544.000000;0.741250
9543.000000;0.741026
9542.000000;0.740943
9541.000000;0.740857
9540.000000;0.740567
9539.000000;0.739999
9538.000000;0.739282
9537.000000;0.738599
9536.000000;0.737993
9535.000000;0.737394
9534.000000;0.736784
9533.000000;0.736244
9532.000000;0.735821
9531.000000;0.735452
9530.000000;0.735077
9529.000000;0.734767
9528.000000;0.734639
9527.000000;0.734673
9526.000000;0.734687
9525.000000;0.734511
9524.000000;0.734109
9523.000000;0.733516
9522.000000;0.732758
9521.000000;0.731894
9520.000000;0.731047
9519.000000;0.730301
9518.000000;0.729628
9517.000000;0.729003
9516.000000;0.728528
9515.000000;0.728319
9514.000000;0.728305
9513.000000;0.728295
9512.000000;0.728236
9511.000000;0.728219
9510.000000;0.728210
9509.000000;0.727965
9508.000000;0.727348
9507.000000;0.726545
9506.000000;0.725808
9505.000000;0.725140
9504.000000;0.724440
9503.000000;0.723847
9502.000000;0.723648
9501.000000;0.723806
9500.000000;0.723838
9499.000000;0.723305
9498.000000;0.722304
9497.000000;0.721364
9496.000000;0.720899
9495.000000;0.720864
9494.000000;0.720880
9493.000000;0.720589
9492.000000;0.719933
9491.000000;0.719165
9490.000000;0.718636
9489.000000;0.718526
9488.000000;0.718730
9487.000000;0.718981
9486.000000;0.719067
9485.000000;0.718938
9484.000000;0.718607
9483.000000;0.718016
9482.000000;0.717097
9481.000000;0.716005
9480.000000;0.715168
9479.000000;0.714945
9478.000000;0.715187
9477.000000;0.715297
9476.000000;0.714829
9475.000000;0.713955
9474.000000;0.713235
9473.000000;0.712985
9472.000000;0.712987
9471.000000;0.712804
9470.000000;0.712229
9469.000000;0.711415
9468.000000;0.710690
9467.000000;0.710287
9466.000000;0.710182
9465.000000;0.710117
9464.000000;0.709801
9463.000000;0.709134
9462.000000;0.708259
9461.000000;0.707444
9460.000000;0.706920
9459.000000;0.706779
9458.000000;0.706909
9457.000000;0.707051
9456.000000;0.706992
9455.000000;0.706742
9454.000000;0.706471
9453.000000;0.706277
9452.000000;0.706080
9451.000000;0.705743
9450.000000;0.705225
9449.000000;0.704594
9448.000000;0.703950
9447.000000;0.703366
9446.000000;0.702869
9445.000000;0.702432
9444.000000;0.702004
9443.000000;0.701568
9442.000000;0.701145
9441.000000;0.700734
9440.000000;0.700284
9439.000000;0.699732
9438.000000;0.699083
9437.000000;0.698435
9436.000000;0.697926
9435.000000;0.697599
9434.000000;0.697338
9433.000000;0.696985
9432.000000;0.696545
9431.000000;0.696191
9430.000000;0.696020
9429.000000;0.695897
9428.000000;0.695632
9427.000000;0.695241
9426.000000;0.694894
9425.000000;0.694642
9424.000000;0.694339
9423.000000;0.693862
9422.000000;0.693284
9421.000000;0.692780
9420.000000;0.692450
9419.000000;0.692273
9418.000000;0.692167
9417.000000;0.692051
9416.000000;0.691898
9415.000000;0.691733
9414.000000;0.691547
9413.000000;0.691248
9412.000000;0.690763
9411.000000;0.690179
9410.000000;0.689679
9409.000000;0.689348
9408.000000;0.689142
9407.000000;0.689004
9406.000000;0.688887
9405.000000;0.688648
9404.000000;0.688107
9403.000000;0.687296
9402.000000;0.686496
9401.000000;0.685928
9400.000000;0.685527
9399.000000;0.685100
9398.000000;0.684607
9397.000000;0.684141
9396.000000;0.683725
9395.000000;0.683283
9394.000000;0.682777
9393.000000;0.682249
9392.000000;0.681747
9391.000000;0.681317
9390.000000;0.681034
9389.000000;0.680936
9388.000000;0.680911
9387.000000;0.680787
9386.000000;0.680523
9385.000000;0.680221
9384.000000;0.679934
9383.000000;0.679597
9382.000000;0.679180
9381.000000;0.678806
9380.000000;0.678610
9379.000000;0.678559
9378.000000;0.678472
9377.000000;0.678212
9376.000000;0.677779
9375.000000;0.677247
9374.000000;0.676667
9373.000000;0.676076
9372.000000;0.675539
9371.000000;0.675136
9370.000000;0.674887
9369.000000;0.674721
9368.000000;0.674550
9367.000000;0.674360
9366.000000;0.674176
9365.000000;0.673949
9364.000000;0.673548
9363.000000;0.672902
9362.000000;0.672121
9361.000000;0.671440
9360.000000;0.671060
9359.000000;0.671018
9358.000000;0.671152
9357.000000;0.671140
9356.000000;0.670696
9355.000000;0.669822
9354.000000;0.668863
9353.000000;0.668201
9352.000000;0.667915
9351.000000;0.667783
9350.000000;0.667595
9349.000000;0.667333
9348.000000;0.667058
9347.000000;0.666765
9346.000000;0.666408
9345.000000;0.665980
9344.000000;0.665481
9343.000000;0.664883
9342.000000;0.664197
9341.000000;0.663547
9340.000000;0.663090
9339.000000;0.662882
9338.000000;0.662850
9337.000000;0.662866
9336.000000;0.662800
9335.000000;0.662564
9334.000000;0.662206
9333.000000;0.661924
9332.000000;0.661885
9331.000000;0.661976
9330.000000;0.661829
9329.000000;0.661161
9328.000000;0.660090
9327.000000;0.659045
9326.000000;0.658388
9325.000000;0.658139
9324.000000;0.658054
9323.000000;0.657905
9322.000000;0.657639
9321.000000;0.657317
9320.000000;0.656975
9319.000000;0.656589
9318.000000;0.656151
9317.000000;0.655694
9316.000000;0.655252
9315.000000;0.654824
9314.000000;0.654405
9313.000000;0.654009
9312.000000;0.653654
9311.000000;0.653347
9310.000000;0.653107
9309.000000;0.652973
9308.000000;0.652937
9307.000000;0.652886
9306.000000;0.652656
9305.000000;0.652163
9304.000000;0.651466
9303.000000;0.650689
9302.000000;0.649933
9301.000000;0.649270
9300.000000;0.648783
9299.000000;0.648558
9298.000000;0.648602
9297.000000;0.648795
9296.000000;0.648954
9295.000000;0.648925
9294.000000;0.648609
9293.000000;0.647953
9292.000000;0.647012
9291.000000;0.646033
9290.000000;0.645365
9289.000000;0.645181
9288.000000;0.645304
9287.000000;0.645407
9286.000000;0.645350
9285.000000;0.645228
9284.000000;0.645110
9283.000000;0.644905
9282.000000;0.644528
9281.000000;0.644057
9280.000000;0.643612
9279.000000;0.643177
9278.000000;0.642674
9277.000000;0.642152
9276.000000;0.641762
9275.000000;0.641535
9274.000000;0.641340
9273.000000;0.641032
9272.000000;0.640574
9271.000000;0.640026
9270.000000;0.639507
9269.000000;0.639161
9268.000000;0.639021
9267.000000;0.638892
9266.000000;0.638506
9265.000000;0.637845
9264.000000;0.637184
9263.000000;0.636783
9262.000000;0.636620
9261.000000;0.636498
9260.000000;0.636284
9259.000000;0.635972
9258.000000;0.635620
9257.000000;0.635314
9256.000000;0.635127
9255.000000;0.634990
9254.000000;0.634689
9253.000000;0.634100
9252.000000;0.633388
9251.000000;0.632876
9250.000000;0.632738
9249.000000;0.632889
9248.000000;0.633119
9247.000000;0.633210
9246.000000;0.632993
9245.000000;0.632463
9244.000000;0.631847
9243.000000;0.631407
9242.000000;0.631164
9241.000000;0.630894
9240.000000;0.630417
9239.000000;0.629742
9238.000000;0.628932
9237.000000;0.628029
9236.000000;0.627205
9235.000000;0.626777
9234.000000;0.626907
9233.000000;0.627327
9232.000000;0.627538
9231.000000;0.627264
9230.000000;0.626634
9229.000000;0.625952
9228.000000;0.625419
9227.000000;0.625083
9226.000000;0.624904
9225.000000;0.624779
9224.000000;0.624582
9223.000000;0.624245
9222.000000;0.623809
9221.000000;0.623366
9220.000000;0.622973
9219.000000;0.622626
9218.000000;0.622269
9217.000000;0.621851
9216.000000;0.621387
9215.000000;0.620985
9214.000000;0.620753
9213.000000;0.620661
9212.000000;0.620555
9211.000000;0.620328
9210.000000;0.620029
9209.000000;0.619730
9208.000000;0.619349
9207.000000;0.618732
9206.000000;0.617904
9205.000000;0.617158
9204.000000;0.616775
9203.000000;0.616737
9202.000000;0.616783
9201.000000;0.616726
9200.000000;0.616590
9199.000000;0.616444
9198.000000;0.616242
9197.000000;0.615909
9196.000000;0.615488
9195.000000;0.615082
9194.000000;0.614694
9193.000000;0.614218
9192.000000;0.613604
9191.000000;0.612935
9190.000000;0.612346
9189.000000;0.611931
9188.000000;0.611724
9187.000000;0.611690
9186.000000;0.611690
9185.000000;0.611565
9184.000000;0.611285
9183.000000;0.610979
9182.000000;0.610753
9181.000000;0.610570
9180.000000;0.610335
9179.000000;0.610043
9178.000000;0.609774
9177.000000;0.609571
9176.000000;0.609406
9175.000000;0.609230
9174.000000;0.608993
9173.000000;0.608634
9172.000000;0.608135
9171.000000;0.607594
9170.000000;0.607171
9169.000000;0.606916
9168.000000;0.606723
9167.000000;0.606468
9166.000000;0.606161
9165.000000;0.605910
9164.000000;0.605765
9163.000000;0.605626
9162.000000;0.605341
9161.000000;0.604864
9160.000000;0.604317
9159.000000;0.603877
9158.000000;0.603614
9157.000000;0.603416
9156.000000;0.603082
9155.000000;0.602501
9154.000000;0.601767
9153.000000;0.601126
9152.000000;0.600802
9151.000000;0.600814
9150.000000;0.600957
9149.000000;0.600975
9148.000000;0.600759
9147.000000;0.600382
9146.000000;0.599975
9145.000000;0.599617
9144.000000;0.599319
9143.000000;0.599035
9142.000000;0.598670
9141.000000;0.598150
9140.000000;0.597543
9139.000000;0.597042
9138.000000;0.596786
9137.000000;0.596698
9136.000000;0.596561
9135.000000;0.596238
9134.000000;0.595793
9133.000000;0.595398
9132.000000;0.595164
9131.000000;0.595053
9130.000000;0.594916
9129.000000;0.594622
9128.000000;0.594157
9127.000000;0.593597
9126.000000;0.593011
9125.000000;0.592442
9124.000000;0.591976
9123.000000;0.591709
9122.000000;0.591596
9121.000000;0.591440
9120.000000;0.591123
9119.000000;0.590823
9118.000000;0.590828
9117.000000;0.591136
9116.000000;0.591361
9115.000000;0.591103
9114.000000;0.590342
9113.000000;0.589429
9112.000000;0.588750
9111.000000;0.588446
9110.000000;0.588361
9109.000000;0.588191
9108.000000;0.587726
9107.000000;0.587028
9106.000000;0.586372
9105.000000;0.585974
9104.000000;0.585809
9103.000000;0.585709
9102.000000;0.585592
9101.000000;0.585511
9100.000000;0.585490
9099.000000;0.585433
9098.000000;0.585238
9097.000000;0.584956
9096.000000;0.584751
9095.000000;0.584724
9094.000000;0.584799
9093.000000;0.584813
9092.000000;0.584654
9091.000000;0.584298
9090.000000;0.583735
9089.000000;0.582955
9088.000000;0.582059
9087.000000;0.581295
9086.000000;0.580886
9085.000000;0.580810
9084.000000;0.580824
9083.000000;0.580709
9082.000000;0.580455
9081.000000;0.580185
9080.000000;0.579986
9079.000000;0.579840
9078.000000;0.579666
9077.000000;0.579357
9076.000000;0.578855
9075.000000;0.578258
9074.000000;0.577800
9073.000000;0.577634
9072.000000;0.577629
9071.000000;0.577496
9070.000000;0.577125
9069.000000;0.576717
9068.000000;0.576516
9067.000000;0.576502
9066.000000;0.576401
9065.000000;0.575978
9064.000000;0.575250
9063.000000;0.574419
9062.000000;0.573686
9061.000000;0.573155
9060.000000;0.572853
9059.000000;0.572756
9058.000000;0.572783
9057.000000;0.572803
9056.000000;0.572705
9055.000000;0.572460
9054.000000;0.572115
9053.000000;0.571736
