Criado como novo conjunto de dados;"Jao_teste_celulas.spp","2.2 Secs"
cm-1;Abs
10000.000000;0.799728
9999.000000;0.798868
9998.000000;0.798124
9997.000000;0.797644
9996.000000;0.797212
9995.000000;0.796738
9994.000000;0.796437
9993.000000;0.796276
9992.000000;0.795919
9991.000000;0.795331
9990.000000;0.794892
9989.000000;0.794679
9988.000000;0.794273
9987.000000;0.793463
9986.000000;0.792563
9985.000000;0.791818
9984.000000;0.791102
9983.000000;0.790404
9982.000000;0.790012
9981.000000;0.789952
9980.000000;0.789855
9979.000000;0.789597
9978.000000;0.789495
9977.000000;0.789617
9976.000000;0.789483
9975.000000;0.788738
9974.000000;0.787598
9973.000000;0.786418
9972.000000;0.785335
9971.000000;0.784517
9970.000000;0.784211
9969.000000;0.784320
9968.000000;0.784378
9967.000000;0.784148
9966.000000;0.783787
9965.000000;0.783371
9964.000000;0.782797
9963.000000;0.782231
9962.000000;0.782039
9961.000000;0.782125
9960.000000;0.781918
9959.000000;0.781174
9958.000000;0.780223
9957.000000;0.779324
9956.000000;0.778368
9955.000000;0.777371
9954.000000;0.776657
9953.000000;0.776379
9952.000000;0.776347
9951.000000;0.776422
9950.000000;0.776545
9949.000000;0.776372
9948.000000;0.775549
9947.000000;0.774432
9946.000000;0.773829
9945.000000;0.773908
9944.000000;0.773991
9943.000000;0.773547
9942.000000;0.772741
9941.000000;0.771878
9940.000000;0.771030
9939.000000;0.770391
9938.000000;0.770289
9937.000000;0.770575
9936.000000;0.770629
9935.000000;0.770208
9934.000000;0.769713
9933.000000;0.769423
9932.000000;0.769078
9931.000000;0.768434
9930.000000;0.767650
9929.000000;0.766907
9928.000000;0.766185
9927.000000;0.765612
9926.000000;0.765456
9925.000000;0.765609
9924.000000;0.765578
9923.000000;0.765122
9922.000000;0.764408
9921.000000;0.763543
9920.000000;0.762569
9919.000000;0.761893
9918.000000;0.761966
9917.000000;0.762449
9916.000000;0.762459
9915.000000;0.761812
9914.000000;0.761237
9913.000000;0.761140
9912.000000;0.760970
9911.000000;0.760157
9910.000000;0.758971
9909.000000;0.758019
9908.000000;0.757476
9907.000000;0.757170
9906.000000;0.756948
9905.000000;0.756633
9904.000000;0.756044
9903.000000;0.755310
9902.000000;0.754781
9901.000000;0.754475
9900.000000;0.754059
9899.000000;0.753406
9898.000000;0.752695
9897.000000;0.751947
9896.000000;0.751032
9895.000000;0.750195
9894.000000;0.749920
9893.000000;0.750155
9892.000000;0.750301
9891.000000;0.750067
9890.000000;0.749745
9889.000000;0.749528
9888.000000;0.749196
9887.000000;0.748636
9886.000000;0.748038
9885.000000;0.747418
9884.000000;0.746534
9883.000000;0.745453
9882.000000;0.744600
9881.000000;0.744106
9880.000000;0.743680
9879.000000;0.743218
9878.000000;0.742960
9877.000000;0.742948
9876.000000;0.742936
9875.000000;0.742926
9874.000000;0.743112
9873.000000;0.743228
9872.000000;0.742667
9871.000000;0.741441
9870.000000;0.740331
9869.000000;0.739873
9868.000000;0.739821
9867.000000;0.739768
9866.000000;0.739628
9865.000000;0.739324
9864.000000;0.738685
9863.000000;0.737872
9862.000000;0.737307
9861.000000;0.736997
9860.000000;0.736538
9859.000000;0.735902
9858.000000;0.735526
9857.000000;0.735478
9856.000000;0.735241
9855.000000;0.734562
9854.000000;0.733796
9853.000000;0.733176
9852.000000;0.732427
9851.000000;0.731387
9850.000000;0.730382
9849.000000;0.729683
9848.000000;0.729214
9847.000000;0.729017
9846.000000;0.729340
9845.000000;0.729987
9844.000000;0.730224
9843.000000;0.729676
9842.000000;0.728745
9841.000000;0.727878
9840.000000;0.727014
9839.000000;0.726083
9838.000000;0.725398
9837.000000;0.725181
9836.000000;0.725172
9835.000000;0.725037
9834.000000;0.724763
9833.000000;0.724412
9832.000000;0.723937
9831.000000;0.723439
9830.000000;0.723113
9829.000000;0.722779
9828.000000;0.721999
9827.000000;0.720828
9826.000000;0.719881
9825.000000;0.719469
9824.000000;0.719243
9823.000000;0.718916
9822.000000;0.718708
9821.000000;0.718791
9820.000000;0.718835
9819.000000;0.718475
9818.000000;0.717788
9817.000000;0.717030
9816.000000;0.716300
9815.000000;0.715647
9814.000000;0.715125
9813.000000;0.714573
9812.000000;0.713805
9811.000000;0.713084
9810.000000;0.712900
9809.000000;0.713170
9808.000000;0.713199
9807.000000;0.712616
9806.000000;0.711785
9805.000000;0.711117
9804.000000;0.710550
9803.000000;0.709922
9802.000000;0.709296
9801.000000;0.708700
9800.000000;0.708035
9799.000000;0.707457
9798.000000;0.707308
9797.000000;0.707503
9796.000000;0.707479
9795.000000;0.706973
9794.000000;0.706330
9793.000000;0.705874
9792.000000;0.705497
9791.000000;0.705104
9790.000000;0.704874
9789.000000;0.704803
9788.000000;0.704491
9787.000000;0.703709
9786.000000;0.702796
9785.000000;0.702199
9784.000000;0.701992
9783.000000;0.701995
9782.000000;0.702011
9781.000000;0.701801
9780.000000;0.701222
9779.000000;0.700510
9778.000000;0.700046
9777.000000;0.699790
9776.000000;0.699339
9775.000000;0.698596
9774.000000;0.697884
9773.000000;0.697346
9772.000000;0.696775
9771.000000;0.696121
9770.000000;0.695630
9769.000000;0.695335
9768.000000;0.694906
9767.000000;0.694162
9766.000000;0.693286
9765.000000;0.692425
9764.000000;0.691578
9763.000000;0.690952
9762.000000;0.690905
9761.000000;0.691347
9760.000000;0.691664
9759.000000;0.691427
9758.000000;0.690788
9757.000000;0.690113
9756.000000;0.689622
9755.000000;0.689443
9754.000000;0.689510
9753.000000;0.689356
9752.000000;0.688500
9751.000000;0.687129
9750.000000;0.685968
9749.000000;0.685436
9748.000000;0.685359
9747.000000;0.685456
9746.000000;0.685587
9745.000000;0.685557
9744.000000;0.685228
9743.000000;0.684839
9742.000000;0.684678
9741.000000;0.684465
9740.000000;0.683679
9739.000000;0.682468
9738.000000;0.681534
9737.000000;0.681125
9736.000000;0.680819
9735.000000;0.680353
9734.000000;0.679944
9733.000000;0.679658
9732.000000;0.679207
9731.000000;0.678567
9730.000000;0.678133
9729.000000;0.678022
9728.000000;0.677844
9727.000000;0.677365
9726.000000;0.676810
9725.000000;0.676316
9724.000000;0.675696
9723.000000;0.674981
9722.000000;0.674570
9721.000000;0.674586
9720.000000;0.674606
9719.000000;0.674266
9718.000000;0.673672
9717.000000;0.673051
9716.000000;0.672480
9715.000000;0.672107
9714.000000;0.672117
9713.000000;0.672326
9712.000000;0.672299
9711.000000;0.671964
9710.000000;0.671595
9709.000000;0.671170
9708.000000;0.670359
9707.000000;0.669260
9706.000000;0.668426
9705.000000;0.668028
9704.000000;0.667616
9703.000000;0.666936
9702.000000;0.666321
9701.000000;0.666035
9700.000000;0.665841
9699.000000;0.665508
9698.000000;0.665190
9697.000000;0.664989
9696.000000;0.664661
9695.000000;0.664029
9694.000000;0.663252
9693.000000;0.662467
9692.000000;0.661621
9691.000000;0.660828
9690.000000;0.660376
9689.000000;0.660203
9688.000000;0.659858
9687.000000;0.659176
9686.000000;0.658493
9685.000000;0.658049
9684.000000;0.657668
9683.000000;0.657228
9682.000000;0.656902
9681.000000;0.656740
9680.000000;0.656499
9679.000000;0.656083
9678.000000;0.655673
9677.000000;0.655266
9676.000000;0.654590
9675.000000;0.653655
9674.000000;0.652868
9673.000000;0.652427
9672.000000;0.652095
9671.000000;0.651721
9670.000000;0.651467
9669.000000;0.651331
9668.000000;0.650992
9667.000000;0.650362
9666.000000;0.649801
9665.000000;0.649549
9664.000000;0.649402
9663.000000;0.649156
9662.000000;0.648933
9661.000000;0.648828
9660.000000;0.648673
9659.000000;0.648334
9658.000000;0.647854
9657.000000;0.647181
9656.000000;0.646208
9655.000000;0.645197
9654.000000;0.644699
9653.000000;0.644862
9652.000000;0.645233
9651.000000;0.645346
9650.000000;0.645115
9649.000000;0.644575
9648.000000;0.643735
9647.000000;0.642828
9646.000000;0.642204
9645.000000;0.641847
9644.000000;0.641425
9643.000000;0.640899
9642.000000;0.640593
9641.000000;0.640586
9640.000000;0.640539
9639.000000;0.640226
9638.000000;0.639735
9637.000000;0.639098
9636.000000;0.638263
9635.000000;0.637502
9634.000000;0.637235
9633.000000;0.637297
9632.000000;0.636999
9631.000000;0.636090
9630.000000;0.635078
9629.000000;0.634410
9628.000000;0.633923
9627.000000;0.633367
9626.000000;0.632888
9625.000000;0.632689
9624.000000;0.632680
9623.000000;0.632707
9622.000000;0.632746
9621.000000;0.632657
9620.000000;0.632186
9619.000000;0.631378
9618.000000;0.630580
9617.000000;0.629919
9616.000000;0.629228
9615.000000;0.628548
9614.000000;0.628168
9613.000000;0.628052
9612.000000;0.627784
9611.000000;0.627254
9610.000000;0.626836
9609.000000;0.626695
9608.000000;0.626454
9607.000000;0.625812
9606.000000;0.624987
9605.000000;0.624292
9604.000000;0.623747
9603.000000;0.623334
9602.000000;0.623190
9601.000000;0.623279
9600.000000;0.623285
9599.000000;0.623057
9598.000000;0.622781
9597.000000;0.622530
9596.000000;0.622078
9595.000000;0.621312
9594.000000;0.620439
9593.000000;0.619642
9592.000000;0.618916
9591.000000;0.618336
9590.000000;0.618047
9589.000000;0.617884
9588.000000;0.617471
9587.000000;0.616817
9586.000000;0.616316
9585.000000;0.616066
9584.000000;0.615710
9583.000000;0.615106
9582.000000;0.614603
9581.000000;0.614452
9580.000000;0.614459
9579.000000;0.614406
9578.000000;0.614345
9577.000000;0.614263
9576.000000;0.613937
9575.000000;0.613337
9574.000000;0.612736
9573.000000;0.612235
9572.000000;0.611634
9571.000000;0.610943
9570.000000;0.610535
9569.000000;0.610557
9568.000000;0.610625
9567.000000;0.610342
9566.000000;0.609721
9565.000000;0.608932
9564.000000;0.608048
9563.000000;0.607231
9562.000000;0.606741
9561.000000;0.606558
9560.000000;0.606374
9559.000000;0.606092
9558.000000;0.605916
9557.000000;0.605831
9556.000000;0.605450
9555.000000;0.604583
9554.000000;0.603532
9553.000000;0.602651
9552.000000;0.602009
9551.000000;0.601611
9550.000000;0.601508
9549.000000;0.601532
9548.000000;0.601367
9547.000000;0.601004
9546.000000;0.600744
9545.000000;0.600613
9544.000000;0.600271
9543.000000;0.599611
9542.000000;0.598987
9541.000000;0.598649
9540.000000;0.598417
9539.000000;0.598063
9538.000000;0.597585
9537.000000;0.596981
9536.000000;0.596212
9535.000000;0.595509
9534.000000;0.595252
9533.000000;0.595378
9532.000000;0.595378
9531.000000;0.595039
9530.000000;0.594675
9529.000000;0.594476
9528.000000;0.594163
9527.000000;0.593516
9526.000000;0.592758
9525.000000;0.592169
9524.000000;0.591755
9523.000000;0.591492
9522.000000;0.591468
9521.000000;0.591544
9520.000000;0.591355
9519.000000;0.590837
9518.000000;0.590352
9517.000000;0.590050
9516.000000;0.589615
9515.000000;0.588848
9514.000000;0.588060
9513.000000;0.587568
9512.000000;0.587250
9511.000000;0.586862
9510.000000;0.586459
9509.000000;0.586189
9508.000000;0.585988
9507.000000;0.585725
9506.000000;0.585374
9505.000000;0.584876
9504.000000;0.584154
9503.000000;0.583401
9502.000000;0.582995
9501.000000;0.582973
9500.000000;0.582939
9499.000000;0.582615
9498.000000;0.582140
9497.000000;0.581658
9496.000000;0.581075
9495.000000;0.580410
9494.000000;0.579980
9493.000000;0.579963
9492.000000;0.580083
9491.000000;0.579969
9490.000000;0.579549
9489.000000;0.578938
9488.000000;0.578231
9487.000000;0.577586
9486.000000;0.577189
9485.000000;0.576974
9484.000000;0.576647
9483.000000;0.576111
9482.000000;0.575597
9481.000000;0.575283
9480.000000;0.575082
9479.000000;0.574856
9478.000000;0.574546
9477.000000;0.574042
9476.000000;0.573270
9475.000000;0.572469
9474.000000;0.572007
9473.000000;0.571888
9472.000000;0.571767
9471.000000;0.571474
9470.000000;0.571115
9469.000000;0.570655
9468.000000;0.569907
9467.000000;0.569020
9466.000000;0.568479
9465.000000;0.568469
9464.000000;0.568633
9463.000000;0.568597
9462.000000;0.568342
9461.000000;0.567964
9460.000000;0.567494
9459.000000;0.567073
9458.000000;0.566876
9457.000000;0.566726
9456.000000;0.566212
9455.000000;0.565295
9454.000000;0.564407
9453.000000;0.563825
9452.000000;0.563399
9451.000000;0.563004
9450.000000;0.562773
9449.000000;0.562719
9448.000000;0.562576
9447.000000;0.562234
9446.000000;0.561941
9445.000000;0.561853
9444.000000;0.561759
9443.000000;0.561421
9442.000000;0.560845
9441.000000;0.560080
9440.000000;0.559129
9439.000000;0.558210
9438.000000;0.557703
9437.000000;0.557665
9436.000000;0.557729
9435.000000;0.557602
9434.000000;0.557337
9433.000000;0.557027
9432.000000;0.556636
9431.000000;0.556229
9430.000000;0.555960
9429.000000;0.555691
9428.000000;0.555065
9427.000000;0.554131
9426.000000;0.553456
9425.000000;0.553413
9424.000000;0.553713
9423.000000;0.553856
9422.000000;0.553656
9421.000000;0.553154
9420.000000;0.552359
9419.000000;0.551372
9418.000000;0.550483
9417.000000;0.549928
9416.000000;0.549713
9415.000000;0.549747
9414.000000;0.549896
9413.000000;0.549892
9412.000000;0.549524
9411.000000;0.548982
9410.000000;0.548665
9409.000000;0.548591
9408.000000;0.548358
9407.000000;0.547733
9406.000000;0.546931
9405.000000;0.546240
9404.000000;0.545750
9403.000000;0.545502
9402.000000;0.545489
9401.000000;0.545455
9400.000000;0.545082
9399.000000;0.544467
9398.000000;0.544004
9397.000000;0.543750
9396.000000;0.543351
9395.000000;0.542665
9394.000000;0.541972
9393.000000;0.541461
9392.000000;0.540991
9391.000000;0.540530
9390.000000;0.540336
9389.000000;0.540497
9388.000000;0.540679
9387.000000;0.540567
9386.000000;0.540199
9385.000000;0.539714
9384.000000;0.539135
9383.000000;0.538563
9382.000000;0.538196
9381.000000;0.538007
9380.000000;0.537737
9379.000000;0.537320
9378.000000;0.536952
9377.000000;0.536637
9376.000000;0.536089
9375.000000;0.535246
9374.000000;0.534449
9373.000000;0.533962
9372.000000;0.533699
9371.000000;0.533547
9370.000000;0.533547
9369.000000;0.533577
9368.000000;0.533317
9367.000000;0.532722
9366.000000;0.532124
9365.000000;0.531677
9364.000000;0.531119
9363.000000;0.530342
9362.000000;0.529729
9361.000000;0.529627
9360.000000;0.529821
9359.000000;0.529845
9358.000000;0.529528
9357.000000;0.528989
9356.000000;0.528367
9355.000000;0.527821
9354.000000;0.527551
9353.000000;0.527570
9352.000000;0.527619
9351.000000;0.527478
9350.000000;0.527165
9349.000000;0.526738
9348.000000;0.526167
9347.000000;0.525523
9346.000000;0.525015
9345.000000;0.524685
9344.000000;0.524309
9343.000000;0.523753
9342.000000;0.523168
9341.000000;0.522730
9340.000000;0.522406
9339.000000;0.522094
9338.000000;0.521784
9337.000000;0.521483
9336.000000;0.521218
9335.000000;0.521111
9334.000000;0.521237
9333.000000;0.521373
9332.000000;0.521197
9331.000000;0.520711
9330.000000;0.520170
9329.000000;0.519606
9328.000000;0.518817
9327.000000;0.517856
9326.000000;0.517099
9325.000000;0.516721
9324.000000;0.516485
9323.000000;0.516183
9322.000000;0.515904
9321.000000;0.515747
9320.000000;0.515610
9319.000000;0.515406
9318.000000;0.515195
9317.000000;0.514974
9316.000000;0.514633
9315.000000;0.514219
9314.000000;0.513950
9313.000000;0.513866
9312.000000;0.513731
9311.000000;0.513367
9310.000000;0.512810
9309.000000;0.512085
9308.000000;0.511185
9307.000000;0.510309
9306.000000;0.509777
9305.000000;0.509615
9304.000000;0.509544
9303.000000;0.509432
9302.000000;0.509413
9301.000000;0.509501
9300.000000;0.509465
9299.000000;0.509188
9298.000000;0.508822
9297.000000;0.508479
9296.000000;0.508118
9295.000000;0.507783
9294.000000;0.507588
9293.000000;0.507385
9292.000000;0.506841
9291.000000;0.505961
9290.000000;0.505172
9289.000000;0.504774
9288.000000;0.504617
9287.000000;0.504429
9286.000000;0.504108
9285.000000;0.503611
9284.000000;0.502911
9283.000000;0.502211
9282.000000;0.501845
9281.000000;0.501849
9280.000000;0.501911
9279.000000;0.501832
9278.000000;0.501708
9277.000000;0.501589
9276.000000;0.501319
9275.000000;0.500852
9274.000000;0.500374
9273.000000;0.499994
9272.000000;0.499612
9271.000000;0.499172
9270.000000;0.498765
9269.000000;0.498382
9268.000000;0.497900
9267.000000;0.497354
9266.000000;0.496911
9265.000000;0.496552
9264.000000;0.496121
9263.000000;0.495719
9262.000000;0.495642
9261.000000;0.495840
9260.000000;0.495886
9259.000000;0.495568
9258.000000;0.495143
9257.000000;0.494862
9256.000000;0.494654
9255.000000;0.494421
9254.000000;0.494239
9253.000000;0.494098
9252.000000;0.493790
9251.000000;0.493243
9250.000000;0.492650
9249.000000;0.492121
9248.000000;0.491547
9247.000000;0.490915
9246.000000;0.490413
9245.000000;0.490077
9244.000000;0.489682
9243.000000;0.489133
9242.000000;0.488629
9241.000000;0.488293
9240.000000;0.487986
9239.000000;0.487623
9238.000000;0.487321
9237.000000;0.487093
9236.000000;0.486728
9235.000000;0.486145
9234.000000;0.485548
9233.000000;0.485092
9232.000000;0.484705
9231.000000;0.484381
9230.000000;0.484281
9229.000000;0.484388
9228.000000;0.484388
9227.000000;0.484116
9226.000000;0.483786
9225.000000;0.483602
9224.000000;0.483431
9223.000000;0.483098
9222.000000;0.482682
9221.000000;0.482322
9220.000000;0.481963
9219.000000;0.481523
9218.000000;0.481080
9217.000000;0.480706
9216.000000;0.480325
9215.000000;0.479901
9214.000000;0.479571
9213.000000;0.479409
9212.000000;0.479261
9211.000000;0.478946
9210.000000;0.478496
9209.000000;0.478062
9208.000000;0.477744
9207.000000;0.477578
9206.000000;0.477511
9205.000000;0.477339
9204.000000;0.476876
9203.000000;0.476232
9202.000000;0.475710
9201.000000;0.475439
9200.000000;0.475293
9199.000000;0.475163
9198.000000;0.475017
9197.000000;0.474713
9196.000000;0.474097
9195.000000;0.473350
9194.000000;0.472897
9193.000000;0.472870
9192.000000;0.472952
9191.000000;0.472837
9190.000000;0.472533
9189.000000;0.472138
9188.000000;0.471629
9187.000000;0.471023
9186.000000;0.470483
9185.000000;0.470101
9184.000000;0.469797
9183.000000;0.469515
9182.000000;0.469317
9181.000000;0.469186
9180.000000;0.468975
9179.000000;0.468627
9178.000000;0.468249
9177.000000;0.467898
9176.000000;0.467511
9175.000000;0.467070
9174.000000;0.466644
9173.000000;0.466239
9172.000000;0.465831
9171.000000;0.465536
9170.000000;0.465507
9169.000000;0.465641
9168.000000;0.465631
9167.000000;0.465347
9166.000000;0.464917
9165.000000;0.464472
9164.000000;0.464057
9163.000000;0.463763
9162.000000;0.463651
9161.000000;0.463546
9160.000000;0.463221
9159.000000;0.462760
9158.000000;0.462431
9157.000000;0.462247
9156.000000;0.461963
9155.000000;0.461498
9154.000000;0.461012
9153.000000;0.460561
9152.000000;0.460038
9151.000000;0.459482
9150.000000;0.459078
9149.000000;0.458811
9148.000000;0.458458
9147.000000;0.457942
9146.000000;0.457400
9145.000000;0.456886
9144.000000;0.456364
9143.000000;0.455997
9142.000000;0.456041
9141.000000;0.456401
9140.000000;0.456646
9139.000000;0.456542
9138.000000;0.456249
9137.000000;0.455954
9136.000000;0.455678
9135.000000;0.455472
9134.000000;0.455402
9133.000000;0.455285
9132.000000;0.454843
9131.000000;0.454180
9130.000000;0.453732
9129.000000;0.453648
9128.000000;0.453604
9127.000000;0.453325
9126.000000;0.452901
9125.000000;0.452465
9124.000000;0.451956
9123.000000;0.451351
9122.000000;0.450775
9121.000000;0.450258
9120.000000;0.449692
9119.000000;0.449136
9118.000000;0.448812
9117.000000;0.448708
9116.000000;0.448534
9115.000000;0.448179
9114.000000;0.447857
9113.000000;0.447693
9112.000000;0.447547
9111.000000;0.447375
9110.000000;0.447353
9109.000000;0.447466
9108.000000;0.447358
9107.000000;0.446811
9106.000000;0.446058
9105.000000;0.445422
9104.000000;0.444960
9103.000000;0.444622
9102.000000;0.444458
9101.000000;0.444452
9100.000000;0.444425
9099.000000;0.444306
9098.000000;0.444233
9097.000000;0.444232
9096.000000;0.444059
9095.000000;0.443549
9094.000000;0.442868
9093.000000;0.442251
9092.000000;0.441743
9091.000000;0.441335
9090.000000;0.441104
9089.000000;0.441010
9088.000000;0.440816
9087.000000;0.440386
9086.000000;0.439885
9085.000000;0.439526
9084.000000;0.439295
9083.000000;0.439039
9082.000000;0.438663
9081.000000;0.438145
9080.000000;0.437550
9079.000000;0.437094
9078.000000;0.436998
9077.000000;0.437175
9076.000000;0.437272
9075.000000;0.437063
9074.000000;0.436622
9073.000000;0.436103
9072.000000;0.435605
9071.000000;0.435284
9070.000000;0.435273
9069.000000;0.435419
9068.000000;0.435374
9067.000000;0.435022
9066.000000;0.434568
9065.000000;0.434139
9064.000000;0.433628
9063.000000;0.433016
9062.000000;0.432525
9061.000000;0.432292
9060.000000;0.432158
9059.000000;0.431914
9058.000000;0.431560
9057.000000;0.431200
9056.000000;0.430895
9055.000000;0.430695
9054.000000;0.430595
9053.000000;0.430400
