Criado como novo conjunto de dados;"Jao_teste_celulas.spp","9304.0 Secs"
cm-1;Abs
10000.000000;1.564720
9999.000000;1.563769
9998.000000;1.562821
9997.000000;1.561874
9996.000000;1.560929
9995.000000;1.559987
9994.000000;1.559046
9993.000000;1.558108
9992.000000;1.557169
9991.000000;1.556427
9990.000000;1.556290
9989.000000;1.556596
9988.000000;1.556886
9987.000000;1.556898
9986.000000;1.556720
9985.000000;1.556601
9984.000000;1.556658
9983.000000;1.556703
9982.000000;1.556423
9981.000000;1.555845
9980.000000;1.555468
9979.000000;1.555664
9978.000000;1.556078
9977.000000;1.556043
9976.000000;1.555515
9975.000000;1.554986
9974.000000;1.554436
9973.000000;1.553138
9972.000000;1.550925
9971.000000;1.548931
9970.000000;1.548370
9969.000000;1.549080
9968.000000;1.549985
9967.000000;1.550610
9966.000000;1.551287
9965.000000;1.552008
9964.000000;1.552042
9963.000000;1.550932
9962.000000;1.549171
9961.000000;1.547573
9960.000000;1.546470
9959.000000;1.545807
9958.000000;1.545532
9957.000000;1.545585
9956.000000;1.545817
9955.000000;1.546118
9954.000000;1.546447
9953.000000;1.546637
9952.000000;1.546420
9951.000000;1.545726
9950.000000;1.544698
9949.000000;1.543368
9948.000000;1.541677
9947.000000;1.539843
9946.000000;1.538380
9945.000000;1.537663
9944.000000;1.537670
9943.000000;1.538114
9942.000000;1.538560
9941.000000;1.538584
9940.000000;1.538317
9939.000000;1.538672
9938.000000;1.540377
9937.000000;1.542679
9936.000000;1.543704
9935.000000;1.542393
9934.000000;1.539533
9933.000000;1.536718
9932.000000;1.535053
9931.000000;1.535088
9930.000000;1.536985
9929.000000;1.539958
9928.000000;1.542142
9927.000000;1.541984
9926.000000;1.539696
9925.000000;1.536767
9924.000000;1.534334
9923.000000;1.532647
9922.000000;1.531683
9921.000000;1.531363
9920.000000;1.531203
9919.000000;1.530534
9918.000000;1.529306
9917.000000;1.528155
9916.000000;1.527507
9915.000000;1.527064
9914.000000;1.526369
9913.000000;1.525485
9912.000000;1.524915
9911.000000;1.525069
9910.000000;1.525904
9909.000000;1.526877
9908.000000;1.527191
9907.000000;1.526385
9906.000000;1.524880
9905.000000;1.523795
9904.000000;1.524013
9903.000000;1.525417
9902.000000;1.526970
9901.000000;1.527485
9900.000000;1.526425
9899.000000;1.524167
9898.000000;1.521658
9897.000000;1.519800
9896.000000;1.519005
9895.000000;1.519051
9894.000000;1.519178
9893.000000;1.518497
9892.000000;1.516834
9891.000000;1.515240
9890.000000;1.515216
9889.000000;1.517041
9888.000000;1.519076
9887.000000;1.519133
9886.000000;1.516682
9885.000000;1.513351
9884.000000;1.511146
9883.000000;1.510531
9882.000000;1.510347
9881.000000;1.509430
9880.000000;1.508084
9879.000000;1.507742
9878.000000;1.509164
9877.000000;1.511218
9876.000000;1.511777
9875.000000;1.509892
9874.000000;1.506810
9873.000000;1.504685
9872.000000;1.504651
9871.000000;1.506222
9870.000000;1.508028
9869.000000;1.508803
9868.000000;1.508048
9867.000000;1.506280
9866.000000;1.504677
9865.000000;1.504134
9864.000000;1.504555
9863.000000;1.505267
9862.000000;1.506020
9861.000000;1.507129
9860.000000;1.508572
9859.000000;1.509412
9858.000000;1.508505
9857.000000;1.505769
9856.000000;1.502495
9855.000000;1.500275
9854.000000;1.499667
9853.000000;1.499882
9852.000000;1.499846
9851.000000;1.499483
9850.000000;1.499700
9849.000000;1.501037
9848.000000;1.502693
9847.000000;1.503214
9846.000000;1.501979
9845.000000;1.499671
9844.000000;1.497445
9843.000000;1.496044
9842.000000;1.495638
9841.000000;1.495921
9840.000000;1.496181
9839.000000;1.495647
9838.000000;1.494176
9837.000000;1.492502
9836.000000;1.491588
9835.000000;1.491774
9834.000000;1.492612
9833.000000;1.493447
9832.000000;1.493988
9831.000000;1.494293
9830.000000;1.494391
9829.000000;1.494135
9828.000000;1.493373
9827.000000;1.492132
9826.000000;1.490632
9825.000000;1.489227
9824.000000;1.488402
9823.000000;1.488611
9822.000000;1.489826
9821.000000;1.491233
9820.000000;1.491727
9819.000000;1.490885
9818.000000;1.489319
9817.000000;1.487984
9816.000000;1.487355
9815.000000;1.487364
9814.000000;1.487754
9813.000000;1.488107
9812.000000;1.487742
9811.000000;1.486149
9810.000000;1.483703
9809.000000;1.481690
9808.000000;1.481367
9807.000000;1.482900
9806.000000;1.485121
9805.000000;1.486387
9804.000000;1.485907
9803.000000;1.484329
9802.000000;1.482905
9801.000000;1.482158
9800.000000;1.481636
9799.000000;1.480967
9798.000000;1.480611
9797.000000;1.481238
9796.000000;1.482611
9795.000000;1.483558
9794.000000;1.483094
9793.000000;1.481327
9792.000000;1.479234
9791.000000;1.477800
9790.000000;1.477381
9789.000000;1.477609
9788.000000;1.477788
9787.000000;1.477487
9786.000000;1.476778
9785.000000;1.475914
9784.000000;1.475006
9783.000000;1.474180
9782.000000;1.473792
9781.000000;1.474091
9780.000000;1.474749
9779.000000;1.475049
9778.000000;1.474533
9777.000000;1.473214
9776.000000;1.471272
9775.000000;1.469023
9774.000000;1.467171
9773.000000;1.466497
9772.000000;1.467033
9771.000000;1.467887
9770.000000;1.468162
9769.000000;1.467910
9768.000000;1.467901
9767.000000;1.468576
9766.000000;1.469423
9765.000000;1.469409
9764.000000;1.467957
9763.000000;1.465480
9762.000000;1.463030
9761.000000;1.461448
9760.000000;1.460747
9759.000000;1.460332
9758.000000;1.459772
9757.000000;1.459251
9756.000000;1.459284
9755.000000;1.460141
9754.000000;1.461493
9753.000000;1.462472
9752.000000;1.462185
9751.000000;1.460513
9750.000000;1.458432
9749.000000;1.457207
9748.000000;1.457129
9747.000000;1.457311
9746.000000;1.456877
9745.000000;1.456030
9744.000000;1.455675
9743.000000;1.456259
9742.000000;1.457391
9741.000000;1.458469
9740.000000;1.459198
9739.000000;1.459420
9738.000000;1.458982
9737.000000;1.458006
9736.000000;1.456946
9735.000000;1.456118
9734.000000;1.455405
9733.000000;1.454656
9732.000000;1.454124
9731.000000;1.454145
9730.000000;1.454516
9729.000000;1.454544
9728.000000;1.453843
9727.000000;1.452779
9726.000000;1.451957
9725.000000;1.451535
9724.000000;1.451185
9723.000000;1.450515
9722.000000;1.449381
9721.000000;1.447979
9720.000000;1.446844
9719.000000;1.446589
9718.000000;1.447353
9717.000000;1.448498
9716.000000;1.449065
9715.000000;1.448556
9714.000000;1.447114
9713.000000;1.445125
9712.000000;1.443118
9711.000000;1.441981
9710.000000;1.442588
9709.000000;1.444789
9708.000000;1.447091
9707.000000;1.447793
9706.000000;1.446461
9705.000000;1.444018
9704.000000;1.441610
9703.000000;1.439814
9702.000000;1.438721
9701.000000;1.438179
9700.000000;1.437865
9699.000000;1.437492
9698.000000;1.437112
9697.000000;1.436976
9696.000000;1.437143
9695.000000;1.437475
9694.000000;1.437950
9693.000000;1.438554
9692.000000;1.438841
9691.000000;1.438145
9690.000000;1.436466
9689.000000;1.434744
9688.000000;1.433902
9687.000000;1.433948
9686.000000;1.434254
9685.000000;1.434422
9684.000000;1.434450
9683.000000;1.434303
9682.000000;1.433843
9681.000000;1.433252
9680.000000;1.433070
9679.000000;1.433624
9678.000000;1.434621
9677.000000;1.435376
9676.000000;1.435300
9675.000000;1.434167
9674.000000;1.432201
9673.000000;1.430068
9672.000000;1.428603
9671.000000;1.428245
9670.000000;1.428649
9669.000000;1.428959
9668.000000;1.428569
9667.000000;1.427647
9666.000000;1.426886
9665.000000;1.426775
9664.000000;1.427151
9663.000000;1.427415
9662.000000;1.427105
9661.000000;1.426193
9660.000000;1.424971
9659.000000;1.423857
9658.000000;1.423265
9657.000000;1.423372
9656.000000;1.423858
9655.000000;1.424067
9654.000000;1.423626
9653.000000;1.422784
9652.000000;1.422026
9651.000000;1.421555
9650.000000;1.421281
9649.000000;1.421045
9648.000000;1.420660
9647.000000;1.419958
9646.000000;1.419110
9645.000000;1.418713
9644.000000;1.419163
9643.000000;1.419977
9642.000000;1.420126
9641.000000;1.419165
9640.000000;1.417697
9639.000000;1.416567
9638.000000;1.415937
9637.000000;1.415348
9636.000000;1.414421
9635.000000;1.413275
9634.000000;1.412402
9633.000000;1.412287
9632.000000;1.412962
9631.000000;1.413756
9630.000000;1.413709
9629.000000;1.412540
9628.000000;1.411066
9627.000000;1.410406
9626.000000;1.410850
9625.000000;1.411724
9624.000000;1.412235
9623.000000;1.412150
9622.000000;1.411652
9621.000000;1.410902
9620.000000;1.409941
9619.000000;1.408849
9618.000000;1.407788
9617.000000;1.406946
9616.000000;1.406492
9615.000000;1.406501
9614.000000;1.406860
9613.000000;1.407279
9612.000000;1.407471
9611.000000;1.407336
9610.000000;1.406977
9609.000000;1.406558
9608.000000;1.406114
9607.000000;1.405524
9606.000000;1.404773
9605.000000;1.404197
9604.000000;1.404216
9603.000000;1.404673
9602.000000;1.404650
9601.000000;1.403291
9600.000000;1.400823
9599.000000;1.398500
9598.000000;1.397506
9597.000000;1.398083
9596.000000;1.399550
9595.000000;1.400903
9594.000000;1.401453
9593.000000;1.401228
9592.000000;1.400858
9591.000000;1.400892
9590.000000;1.401091
9589.000000;1.400634
9588.000000;1.399144
9587.000000;1.397261
9586.000000;1.395999
9585.000000;1.395796
9584.000000;1.396375
9583.000000;1.397239
9582.000000;1.397970
9581.000000;1.398233
9580.000000;1.397895
9579.000000;1.397157
9578.000000;1.396327
9577.000000;1.395537
9576.000000;1.394905
9575.000000;1.394786
9574.000000;1.395375
9573.000000;1.396050
9572.000000;1.395650
9571.000000;1.393722
9570.000000;1.391210
9569.000000;1.389626
9568.000000;1.389732
9567.000000;1.391141
9566.000000;1.392827
9565.000000;1.393714
9564.000000;1.393041
9563.000000;1.390745
9562.000000;1.387696
9561.000000;1.385239
9560.000000;1.384199
9559.000000;1.384299
9558.000000;1.384563
9557.000000;1.384265
9556.000000;1.383477
9555.000000;1.382798
9554.000000;1.382670
9553.000000;1.382994
9552.000000;1.383327
9551.000000;1.383375
9550.000000;1.383213
9549.000000;1.383040
9548.000000;1.382847
9547.000000;1.382432
9546.000000;1.381712
9545.000000;1.380860
9544.000000;1.380057
9543.000000;1.379178
9542.000000;1.377871
9541.000000;1.376013
9540.000000;1.374060
9539.000000;1.372826
9538.000000;1.372825
9537.000000;1.373792
9536.000000;1.374922
9535.000000;1.375624
9534.000000;1.376027
9533.000000;1.376663
9532.000000;1.377704
9531.000000;1.378635
9530.000000;1.378767
9529.000000;1.378005
9528.000000;1.376984
9527.000000;1.376402
9526.000000;1.376291
9525.000000;1.376033
9524.000000;1.375111
9523.000000;1.373758
9522.000000;1.372793
9521.000000;1.372834
9520.000000;1.373754
9519.000000;1.374883
9518.000000;1.375577
9517.000000;1.375486
9516.000000;1.374432
9515.000000;1.372401
9514.000000;1.369800
9513.000000;1.367513
9512.000000;1.366356
9511.000000;1.366424
9510.000000;1.367029
9509.000000;1.367330
9508.000000;1.367009
9507.000000;1.366409
9506.000000;1.366112
9505.000000;1.366388
9504.000000;1.366905
9503.000000;1.366981
9502.000000;1.366229
9501.000000;1.365007
9500.000000;1.364062
9499.000000;1.363684
9498.000000;1.363433
9497.000000;1.362795
9496.000000;1.361827
9495.000000;1.360897
9494.000000;1.360078
9493.000000;1.359233
9492.000000;1.358574
9491.000000;1.358561
9490.000000;1.359103
9489.000000;1.359362
9488.000000;1.358745
9487.000000;1.357803
9486.000000;1.357677
9485.000000;1.358754
9484.000000;1.360233
9483.000000;1.360993
9482.000000;1.360595
9481.000000;1.359412
9480.000000;1.358123
9479.000000;1.357263
9478.000000;1.356998
9477.000000;1.357062
9476.000000;1.356960
9475.000000;1.356394
9474.000000;1.355507
9473.000000;1.354663
9472.000000;1.354059
9471.000000;1.353608
9470.000000;1.353113
9469.000000;1.352471
9468.000000;1.351720
9467.000000;1.351034
9466.000000;1.350645
9465.000000;1.350672
9464.000000;1.350934
9463.000000;1.350965
9462.000000;1.350311
9461.000000;1.348905
9460.000000;1.347242
9459.000000;1.346130
9458.000000;1.346124
9457.000000;1.347062
9456.000000;1.348138
9455.000000;1.348564
9454.000000;1.348204
9453.000000;1.347560
9452.000000;1.347172
9451.000000;1.347122
9450.000000;1.347121
9449.000000;1.346980
9448.000000;1.346847
9447.000000;1.346942
9446.000000;1.347190
9445.000000;1.347206
9444.000000;1.346649
9443.000000;1.345619
9442.000000;1.344697
9441.000000;1.344478
9440.000000;1.344929
9439.000000;1.345273
9438.000000;1.344745
9437.000000;1.343495
9436.000000;1.342480
9435.000000;1.342372
9434.000000;1.342816
9433.000000;1.342933
9432.000000;1.342328
9431.000000;1.341338
9430.000000;1.340438
9429.000000;1.339769
9428.000000;1.339272
9427.000000;1.338956
9426.000000;1.338870
9425.000000;1.338943
9424.000000;1.338939
9423.000000;1.338575
9422.000000;1.337745
9421.000000;1.336774
9420.000000;1.336312
9419.000000;1.336688
9418.000000;1.337407
9417.000000;1.337563
9416.000000;1.336823
9415.000000;1.335752
9414.000000;1.335145
9413.000000;1.335290
9412.000000;1.335873
9411.000000;1.336264
9410.000000;1.335904
9409.000000;1.334760
9408.000000;1.333510
9407.000000;1.332921
9406.000000;1.332951
9405.000000;1.332812
9404.000000;1.331979
9403.000000;1.330694
9402.000000;1.329298
9401.000000;1.327678
9400.000000;1.325819
9399.000000;1.324365
9398.000000;1.324000
9397.000000;1.324486
9396.000000;1.324929
9395.000000;1.324896
9394.000000;1.324754
9393.000000;1.324888
9392.000000;1.325121
9391.000000;1.325024
9390.000000;1.324452
9389.000000;1.323625
9388.000000;1.322949
9387.000000;1.322789
9386.000000;1.323196
9385.000000;1.323810
9384.000000;1.324214
9383.000000;1.324354
9382.000000;1.324384
9381.000000;1.324243
9380.000000;1.323704
9379.000000;1.322785
9378.000000;1.321775
9377.000000;1.320873
9376.000000;1.320154
9375.000000;1.319840
9374.000000;1.320165
9373.000000;1.320848
9372.000000;1.321127
9371.000000;1.320552
9370.000000;1.319514
9369.000000;1.318817
9368.000000;1.318907
9367.000000;1.319565
9366.000000;1.320113
9365.000000;1.319878
9364.000000;1.318731
9363.000000;1.317246
9362.000000;1.316133
9361.000000;1.315542
9360.000000;1.315147
9359.000000;1.314827
9358.000000;1.314822
9357.000000;1.315165
9356.000000;1.315427
9355.000000;1.315252
9354.000000;1.314787
9353.000000;1.314363
9352.000000;1.314044
9351.000000;1.313734
9350.000000;1.313426
9349.000000;1.313078
9348.000000;1.312491
9347.000000;1.311572
9346.000000;1.310523
9345.000000;1.309566
9344.000000;1.308714
9343.000000;1.308002
9342.000000;1.307664
9341.000000;1.307815
9340.000000;1.308191
9339.000000;1.308532
9338.000000;1.308988
9337.000000;1.309772
9336.000000;1.310531
9335.000000;1.310515
9334.000000;1.309447
9333.000000;1.307896
9332.000000;1.306719
9331.000000;1.306354
9330.000000;1.306653
9329.000000;1.307109
9328.000000;1.307125
9327.000000;1.306312
9326.000000;1.304772
9325.000000;1.303088
9324.000000;1.301923
9323.000000;1.301603
9322.000000;1.302001
9321.000000;1.302718
9320.000000;1.303352
9319.000000;1.303638
9318.000000;1.303447
9317.000000;1.302764
9316.000000;1.301754
9315.000000;1.300797
9314.000000;1.300289
9313.000000;1.300311
9312.000000;1.300529
9311.000000;1.300459
9310.000000;1.299867
9309.000000;1.298976
9308.000000;1.298334
9307.000000;1.298370
9306.000000;1.298952
9305.000000;1.299455
9304.000000;1.299371
9303.000000;1.298756
9302.000000;1.297912
9301.000000;1.296882
9300.000000;1.295617
9299.000000;1.294504
9298.000000;1.294164
9297.000000;1.294658
9296.000000;1.295318
9295.000000;1.295523
9294.000000;1.295252
9293.000000;1.294660
9292.000000;1.293614
9291.000000;1.292051
9290.000000;1.290467
9289.000000;1.289527
9288.000000;1.289372
9287.000000;1.289618
9286.000000;1.289888
9285.000000;1.289969
9284.000000;1.289663
9283.000000;1.288980
9282.000000;1.288459
9281.000000;1.288786
9280.000000;1.289979
9279.000000;1.291284
9278.000000;1.291989
9277.000000;1.292069
9276.000000;1.291878
9275.000000;1.291540
9274.000000;1.290899
9273.000000;1.289906
9272.000000;1.288806
9271.000000;1.287916
9270.000000;1.287336
9269.000000;1.286868
9268.000000;1.286225
9267.000000;1.285378
9266.000000;1.284717
9265.000000;1.284741
9264.000000;1.285508
9263.000000;1.286391
9262.000000;1.286474
9261.000000;1.285287
9260.000000;1.283251
9259.000000;1.281405
9258.000000;1.280620
9257.000000;1.280969
9256.000000;1.281777
9255.000000;1.282273
9254.000000;1.282191
9253.000000;1.281810
9252.000000;1.281583
9251.000000;1.281817
9250.000000;1.282533
9249.000000;1.283473
9248.000000;1.284257
9247.000000;1.284623
9246.000000;1.284504
9245.000000;1.283929
9244.000000;1.282989
9243.000000;1.281913
9242.000000;1.280997
9241.000000;1.280342
9240.000000;1.279813
9239.000000;1.279339
9238.000000;1.279058
9237.000000;1.279053
9236.000000;1.279119
9235.000000;1.278985
9234.000000;1.278636
9233.000000;1.278252
9232.000000;1.277914
9231.000000;1.277561
9230.000000;1.277151
9229.000000;1.276688
9228.000000;1.276129
9227.000000;1.275432
9226.000000;1.274625
9225.000000;1.273720
9224.000000;1.272657
9223.000000;1.271490
9222.000000;1.270517
9221.000000;1.270041
9220.000000;1.270034
9219.000000;1.270211
9218.000000;1.270391
9217.000000;1.270620
9216.000000;1.270954
9215.000000;1.271278
9214.000000;1.271359
9213.000000;1.270988
9212.000000;1.270136
9211.000000;1.269056
9210.000000;1.268183
9209.000000;1.267799
9208.000000;1.267857
9207.000000;1.268164
9206.000000;1.268595
9205.000000;1.269011
9204.000000;1.269168
9203.000000;1.268960
9202.000000;1.268636
9201.000000;1.268500
9200.000000;1.268408
9199.000000;1.267850
9198.000000;1.266593
9197.000000;1.265086
9196.000000;1.264140
9195.000000;1.264280
9194.000000;1.265344
9193.000000;1.266544
9192.000000;1.266969
9191.000000;1.266272
9190.000000;1.264961
9189.000000;1.263932
9188.000000;1.263698
9187.000000;1.264052
9186.000000;1.264340
9185.000000;1.263983
9184.000000;1.262896
9183.000000;1.261580
9182.000000;1.260695
9181.000000;1.260410
9180.000000;1.260297
9179.000000;1.259991
9178.000000;1.259738
9177.000000;1.259984
9176.000000;1.260610
9175.000000;1.261012
9174.000000;1.260881
9173.000000;1.260478
9172.000000;1.260067
9171.000000;1.259519
9170.000000;1.258659
9169.000000;1.257669
9168.000000;1.256868
9167.000000;1.256332
9166.000000;1.255941
9165.000000;1.255627
9164.000000;1.255391
9163.000000;1.255161
9162.000000;1.254864
9161.000000;1.254581
9160.000000;1.254497
9159.000000;1.254692
9158.000000;1.255038
9157.000000;1.255263
9156.000000;1.255090
9155.000000;1.254435
9154.000000;1.253544
9153.000000;1.252830
9152.000000;1.252459
9151.000000;1.252142
9150.000000;1.251408
9149.000000;1.250080
9148.000000;1.248473
9147.000000;1.247183
9146.000000;1.246709
9145.000000;1.247164
9144.000000;1.248208
9143.000000;1.249242
9142.000000;1.249724
9141.000000;1.249420
9140.000000;1.248494
9139.000000;1.247439
9138.000000;1.246802
9137.000000;1.246794
9136.000000;1.247147
9135.000000;1.247410
9134.000000;1.247346
9133.000000;1.246965
9132.000000;1.246332
9131.000000;1.245566
9130.000000;1.244942
9129.000000;1.244692
9128.000000;1.244644
9127.000000;1.244333
9126.000000;1.243594
9125.000000;1.242832
9124.000000;1.242592
9123.000000;1.242952
9122.000000;1.243441
9121.000000;1.243465
9120.000000;1.242758
9119.000000;1.241578
9118.000000;1.240533
9117.000000;1.240077
9116.000000;1.240115
9115.000000;1.240195
9114.000000;1.240098
9113.000000;1.240027
9112.000000;1.240146
9111.000000;1.240241
9110.000000;1.240041
9109.000000;1.239634
9108.000000;1.239266
9107.000000;1.238890
9106.000000;1.238287
9105.000000;1.237569
9104.000000;1.237189
9103.000000;1.237369
9102.000000;1.237765
9101.000000;1.237877
9100.000000;1.237611
9099.000000;1.237247
9098.000000;1.236983
9097.000000;1.236735
9096.000000;1.236363
9095.000000;1.235901
9094.000000;1.235489
9093.000000;1.235171
9092.000000;1.234840
9091.000000;1.234370
9090.000000;1.233742
9089.000000;1.233071
9088.000000;1.232554
9087.000000;1.232361
9086.000000;1.232504
9085.000000;1.232781
9084.000000;1.232908
9083.000000;1.232795
9082.000000;1.232646
9081.000000;1.232725
9080.000000;1.232950
9079.000000;1.232832
9078.000000;1.231964
9077.000000;1.230558
9076.000000;1.229369
9075.000000;1.228984
9074.000000;1.229280
9073.000000;1.229675
9072.000000;1.229839
9071.000000;1.229936
9070.000000;1.230127
9069.000000;1.230138
9068.000000;1.229574
9067.000000;1.228515
9066.000000;1.227499
9065.000000;1.226895
9064.000000;1.226555
9063.000000;1.226148
9062.000000;1.225599
9061.000000;1.225093
9060.000000;1.224847
9059.000000;1.225005
9058.000000;1.225550
9057.000000;1.226140
9056.000000;1.226246
9055.000000;1.225677
9054.000000;1.224832
9053.000000;1.224207
