Criado como novo conjunto de dados;"Jao_teste_celulas.spp","7263.3 Secs"
cm-1;Abs
10000.000000;1.379430
9999.000000;1.378012
9998.000000;1.375944
9997.000000;1.374469
9996.000000;1.374817
9995.000000;1.376569
9994.000000;1.378291
9993.000000;1.378727
9992.000000;1.377783
9991.000000;1.375923
9990.000000;1.373654
9989.000000;1.371535
9988.000000;1.370238
9987.000000;1.370031
9986.000000;1.370391
9985.000000;1.370465
9984.000000;1.369876
9983.000000;1.368936
9982.000000;1.368176
9981.000000;1.367863
9980.000000;1.367799
9979.000000;1.367395
9978.000000;1.366102
9977.000000;1.364067
9976.000000;1.362274
9975.000000;1.361722
9974.000000;1.362454
9973.000000;1.363580
9972.000000;1.364221
9971.000000;1.364213
9970.000000;1.363866
9969.000000;1.363417
9968.000000;1.362936
9967.000000;1.362518
9966.000000;1.362265
9965.000000;1.362128
9964.000000;1.361951
9963.000000;1.361669
9962.000000;1.361284
9961.000000;1.360705
9960.000000;1.359786
9959.000000;1.358546
9958.000000;1.357212
9957.000000;1.356087
9956.000000;1.355472
9955.000000;1.355654
9954.000000;1.356685
9953.000000;1.358020
9952.000000;1.358603
9951.000000;1.357730
9950.000000;1.355809
9949.000000;1.353993
9948.000000;1.353058
9947.000000;1.352832
9946.000000;1.352720
9945.000000;1.352486
9944.000000;1.352308
9943.000000;1.352271
9942.000000;1.352133
9941.000000;1.351665
9940.000000;1.351038
9939.000000;1.350749
9938.000000;1.351146
9937.000000;1.352060
9936.000000;1.352942
9935.000000;1.353333
9934.000000;1.353152
9933.000000;1.352482
9932.000000;1.351284
9931.000000;1.349594
9930.000000;1.347902
9929.000000;1.346920
9928.000000;1.346824
9927.000000;1.346952
9926.000000;1.346471
9925.000000;1.345234
9924.000000;1.343785
9923.000000;1.342708
9922.000000;1.342167
9921.000000;1.341906
9920.000000;1.341468
9919.000000;1.340568
9918.000000;1.339497
9917.000000;1.339020
9916.000000;1.339540
9915.000000;1.340472
9914.000000;1.340828
9913.000000;1.340371
9912.000000;1.339747
9911.000000;1.339454
9910.000000;1.339228
9909.000000;1.338618
9908.000000;1.337724
9907.000000;1.337022
9906.000000;1.336663
9905.000000;1.336368
9904.000000;1.335884
9903.000000;1.335277
9902.000000;1.334849
9901.000000;1.334900
9900.000000;1.335437
9899.000000;1.336013
9898.000000;1.336032
9897.000000;1.335392
9896.000000;1.334646
9895.000000;1.334311
9894.000000;1.334223
9893.000000;1.333815
9892.000000;1.332847
9891.000000;1.331596
9890.000000;1.330426
9889.000000;1.329456
9888.000000;1.328626
9887.000000;1.327869
9886.000000;1.327232
9885.000000;1.326946
9884.000000;1.327285
9883.000000;1.328166
9882.000000;1.328986
9881.000000;1.329075
9880.000000;1.328266
9879.000000;1.326882
9878.000000;1.325329
9877.000000;1.323950
9876.000000;1.323156
9875.000000;1.323262
9874.000000;1.324075
9873.000000;1.324844
9872.000000;1.324773
9871.000000;1.323590
9870.000000;1.321743
9869.000000;1.320180
9868.000000;1.319737
9867.000000;1.320436
9866.000000;1.321388
9865.000000;1.321684
9864.000000;1.321347
9863.000000;1.321091
9862.000000;1.321163
9861.000000;1.320884
9860.000000;1.319539
9859.000000;1.317343
9858.000000;1.315217
9857.000000;1.313840
9856.000000;1.313227
9855.000000;1.313070
9854.000000;1.313134
9853.000000;1.313295
9852.000000;1.313405
9851.000000;1.313291
9850.000000;1.312870
9849.000000;1.312261
9848.000000;1.311734
9847.000000;1.311466
9846.000000;1.311322
9845.000000;1.310967
9844.000000;1.310197
9843.000000;1.309094
9842.000000;1.307836
9841.000000;1.306537
9840.000000;1.305319
9839.000000;1.304396
9838.000000;1.303990
9837.000000;1.304241
9836.000000;1.305197
9835.000000;1.306681
9834.000000;1.308106
9833.000000;1.308703
9832.000000;1.308223
9831.000000;1.307245
9830.000000;1.306501
9829.000000;1.306006
9828.000000;1.305214
9827.000000;1.303970
9826.000000;1.302856
9825.000000;1.302477
9824.000000;1.302739
9823.000000;1.303081
9822.000000;1.303168
9821.000000;1.303019
9820.000000;1.302594
9819.000000;1.301663
9818.000000;1.300192
9817.000000;1.298610
9816.000000;1.297540
9815.000000;1.297309
9814.000000;1.297731
9813.000000;1.298244
9812.000000;1.298281
9811.000000;1.297713
9810.000000;1.296982
9809.000000;1.296651
9808.000000;1.296774
9807.000000;1.296839
9806.000000;1.296394
9805.000000;1.295511
9804.000000;1.294567
9803.000000;1.293793
9802.000000;1.293233
9801.000000;1.292930
9800.000000;1.292844
9799.000000;1.292726
9798.000000;1.292386
9797.000000;1.292006
9796.000000;1.291896
9795.000000;1.291989
9794.000000;1.291868
9793.000000;1.291301
9792.000000;1.290435
9791.000000;1.289460
9790.000000;1.288461
9789.000000;1.287632
9788.000000;1.287257
9787.000000;1.287313
9786.000000;1.287395
9785.000000;1.287216
9784.000000;1.286897
9783.000000;1.286563
9782.000000;1.286028
9781.000000;1.285142
9780.000000;1.284132
9779.000000;1.283223
9778.000000;1.282213
9777.000000;1.280872
9776.000000;1.279581
9775.000000;1.279081
9774.000000;1.279595
9773.000000;1.280550
9772.000000;1.281194
9771.000000;1.281189
9770.000000;1.280668
9769.000000;1.280020
9768.000000;1.279629
9767.000000;1.279499
9766.000000;1.279175
9765.000000;1.278337
9764.000000;1.277440
9763.000000;1.277309
9762.000000;1.278052
9761.000000;1.278814
9760.000000;1.278803
9759.000000;1.278141
9758.000000;1.277434
9757.000000;1.276922
9756.000000;1.276449
9755.000000;1.275970
9754.000000;1.275629
9753.000000;1.275409
9752.000000;1.275126
9751.000000;1.274754
9750.000000;1.274444
9749.000000;1.274220
9748.000000;1.273956
9747.000000;1.273673
9746.000000;1.273572
9745.000000;1.273678
9744.000000;1.273713
9743.000000;1.273435
9742.000000;1.272874
9741.000000;1.272063
9740.000000;1.270770
9739.000000;1.268842
9738.000000;1.266740
9737.000000;1.265383
9736.000000;1.265298
9735.000000;1.266092
9734.000000;1.266889
9733.000000;1.267195
9732.000000;1.267177
9731.000000;1.267202
9730.000000;1.267405
9729.000000;1.267695
9728.000000;1.267882
9727.000000;1.267616
9726.000000;1.266471
9725.000000;1.264415
9724.000000;1.262110
9723.000000;1.260495
9722.000000;1.260030
9721.000000;1.260466
9720.000000;1.261255
9719.000000;1.261931
9718.000000;1.262133
9717.000000;1.261578
9716.000000;1.260245
9715.000000;1.258502
9714.000000;1.256900
9713.000000;1.255847
9712.000000;1.255487
9711.000000;1.255746
9710.000000;1.256374
9709.000000;1.257033
9708.000000;1.257484
9707.000000;1.257727
9706.000000;1.257844
9705.000000;1.257723
9704.000000;1.257030
9703.000000;1.255584
9702.000000;1.253785
9701.000000;1.252510
9700.000000;1.252384
9699.000000;1.253127
9698.000000;1.253762
9697.000000;1.253540
9696.000000;1.252545
9695.000000;1.251332
9694.000000;1.250260
9693.000000;1.249397
9692.000000;1.248832
9691.000000;1.248675
9690.000000;1.248771
9689.000000;1.248730
9688.000000;1.248307
9687.000000;1.247575
9686.000000;1.246744
9685.000000;1.246048
9684.000000;1.245754
9683.000000;1.245944
9682.000000;1.246236
9681.000000;1.246050
9680.000000;1.245269
9679.000000;1.244362
9678.000000;1.243787
9677.000000;1.243623
9676.000000;1.243892
9675.000000;1.244746
9674.000000;1.245954
9673.000000;1.246532
9672.000000;1.245526
9671.000000;1.243168
9670.000000;1.240819
9669.000000;1.239645
9668.000000;1.239616
9667.000000;1.239833
9666.000000;1.239557
9665.000000;1.238794
9664.000000;1.238070
9663.000000;1.237824
9662.000000;1.238036
9661.000000;1.238309
9660.000000;1.238257
9659.000000;1.237760
9658.000000;1.236886
9657.000000;1.235723
9656.000000;1.234383
9655.000000;1.233094
9654.000000;1.232177
9653.000000;1.231918
9652.000000;1.232441
9651.000000;1.233587
9650.000000;1.234847
9649.000000;1.235599
9648.000000;1.235587
9647.000000;1.235123
9646.000000;1.234661
9645.000000;1.234257
9644.000000;1.233619
9643.000000;1.232573
9642.000000;1.231297
9641.000000;1.230110
9640.000000;1.229231
9639.000000;1.228763
9638.000000;1.228672
9637.000000;1.228697
9636.000000;1.228450
9635.000000;1.227748
9634.000000;1.226824
9633.000000;1.226099
9632.000000;1.225753
9631.000000;1.225552
9630.000000;1.225091
9629.000000;1.224277
9628.000000;1.223532
9627.000000;1.223401
9626.000000;1.223901
9625.000000;1.224376
9624.000000;1.224141
9623.000000;1.223210
9622.000000;1.222246
9621.000000;1.221820
9620.000000;1.221897
9619.000000;1.221998
9618.000000;1.221689
9617.000000;1.220890
9616.000000;1.219870
9615.000000;1.219051
9614.000000;1.218706
9613.000000;1.218752
9612.000000;1.218808
9611.000000;1.218470
9610.000000;1.217582
9609.000000;1.216391
9608.000000;1.215505
9607.000000;1.215509
9606.000000;1.216380
9605.000000;1.217329
9604.000000;1.217468
9603.000000;1.216668
9602.000000;1.215554
9601.000000;1.214708
9600.000000;1.214166
9599.000000;1.213718
9598.000000;1.213347
9597.000000;1.213153
9596.000000;1.213126
9595.000000;1.213231
9594.000000;1.213478
9593.000000;1.213646
9592.000000;1.213175
9591.000000;1.211763
9590.000000;1.209993
9589.000000;1.208972
9588.000000;1.209238
9587.000000;1.210243
9586.000000;1.210964
9585.000000;1.210808
9584.000000;1.209878
9583.000000;1.208637
9582.000000;1.207553
9581.000000;1.206897
9580.000000;1.206648
9579.000000;1.206560
9578.000000;1.206400
9577.000000;1.206078
9576.000000;1.205545
9575.000000;1.204764
9574.000000;1.203920
9573.000000;1.203471
9572.000000;1.203720
9571.000000;1.204368
9570.000000;1.204714
9569.000000;1.204350
9568.000000;1.203476
9567.000000;1.202529
9566.000000;1.201716
9565.000000;1.201022
9564.000000;1.200454
9563.000000;1.200066
9562.000000;1.199844
9561.000000;1.199752
9560.000000;1.199830
9559.000000;1.200055
9558.000000;1.200125
9557.000000;1.199666
9556.000000;1.198713
9555.000000;1.197781
9554.000000;1.197292
9553.000000;1.197109
9552.000000;1.196823
9551.000000;1.196354
9550.000000;1.195972
9549.000000;1.195770
9548.000000;1.195441
9547.000000;1.194713
9546.000000;1.193780
9545.000000;1.193079
9544.000000;1.192757
9543.000000;1.192569
9542.000000;1.192235
9541.000000;1.191745
9540.000000;1.191319
9539.000000;1.191161
9538.000000;1.191231
9537.000000;1.191167
9536.000000;1.190529
9535.000000;1.189277
9534.000000;1.187967
9533.000000;1.187269
9532.000000;1.187298
9531.000000;1.187600
9530.000000;1.187770
9529.000000;1.187814
9528.000000;1.187842
9527.000000;1.187694
9526.000000;1.187142
9525.000000;1.186277
9524.000000;1.185449
9523.000000;1.184887
9522.000000;1.184579
9521.000000;1.184437
9520.000000;1.184364
9519.000000;1.184208
9518.000000;1.183920
9517.000000;1.183763
9516.000000;1.184066
9515.000000;1.184722
9514.000000;1.185156
9513.000000;1.184947
9512.000000;1.184265
9511.000000;1.183510
9510.000000;1.182731
9509.000000;1.181675
9508.000000;1.180351
9507.000000;1.179223
9506.000000;1.178728
9505.000000;1.178749
9504.000000;1.178732
9503.000000;1.178293
9502.000000;1.177605
9501.000000;1.177128
9500.000000;1.177036
9499.000000;1.177046
9498.000000;1.176823
9497.000000;1.176415
9496.000000;1.176148
9495.000000;1.176138
9494.000000;1.176107
9493.000000;1.175722
9492.000000;1.175008
9491.000000;1.174320
9490.000000;1.173957
9489.000000;1.173885
9488.000000;1.173791
9487.000000;1.173373
9486.000000;1.172621
9485.000000;1.171834
9484.000000;1.171301
9483.000000;1.171001
9482.000000;1.170705
9481.000000;1.170372
9480.000000;1.170223
9479.000000;1.170382
9478.000000;1.170632
9477.000000;1.170692
9476.000000;1.170573
9475.000000;1.170446
9474.000000;1.170266
9473.000000;1.169744
9472.000000;1.168750
9471.000000;1.167548
9470.000000;1.166610
9469.000000;1.166280
9468.000000;1.166576
9467.000000;1.167129
9466.000000;1.167337
9465.000000;1.166804
9464.000000;1.165732
9463.000000;1.164746
9462.000000;1.164290
9461.000000;1.164292
9460.000000;1.164412
9459.000000;1.164437
9458.000000;1.164342
9457.000000;1.164108
9456.000000;1.163667
9455.000000;1.163006
9454.000000;1.162225
9453.000000;1.161501
9452.000000;1.160998
9451.000000;1.160745
9450.000000;1.160571
9449.000000;1.160253
9448.000000;1.159775
9447.000000;1.159357
9446.000000;1.159155
9445.000000;1.159034
9444.000000;1.158772
9443.000000;1.158384
9442.000000;1.158064
9441.000000;1.157851
9440.000000;1.157521
9439.000000;1.156854
9438.000000;1.155862
9437.000000;1.154755
9436.000000;1.153826
9435.000000;1.153387
9434.000000;1.153599
9433.000000;1.154204
9432.000000;1.154600
9431.000000;1.154416
9430.000000;1.153922
9429.000000;1.153635
9428.000000;1.153572
9427.000000;1.153218
9426.000000;1.152320
9425.000000;1.151381
9424.000000;1.151071
9423.000000;1.151343
9422.000000;1.151435
9421.000000;1.150741
9420.000000;1.149439
9419.000000;1.148205
9418.000000;1.147555
9417.000000;1.147530
9416.000000;1.147809
9415.000000;1.147990
9414.000000;1.147869
9413.000000;1.147559
9412.000000;1.147265
9411.000000;1.146945
9410.000000;1.146341
9409.000000;1.145411
9408.000000;1.144531
9407.000000;1.144098
9406.000000;1.144075
9405.000000;1.144080
9404.000000;1.143864
9403.000000;1.143482
9402.000000;1.143076
9401.000000;1.142694
9400.000000;1.142363
9399.000000;1.142162
9398.000000;1.142144
9397.000000;1.142250
9396.000000;1.142337
9395.000000;1.142257
9394.000000;1.141946
9393.000000;1.141512
9392.000000;1.141189
9391.000000;1.141095
9390.000000;1.141062
9389.000000;1.140841
9388.000000;1.140438
9387.000000;1.140079
9386.000000;1.139833
9385.000000;1.139465
9384.000000;1.138747
9383.000000;1.137816
9382.000000;1.137085
9381.000000;1.136809
9380.000000;1.136788
9379.000000;1.136531
9378.000000;1.135773
9377.000000;1.134825
9376.000000;1.134290
9375.000000;1.134374
9374.000000;1.134589
9373.000000;1.134305
9372.000000;1.133518
9371.000000;1.132835
9370.000000;1.132688
9369.000000;1.132837
9368.000000;1.132745
9367.000000;1.132189
9366.000000;1.131345
9365.000000;1.130465
9364.000000;1.129743
9363.000000;1.129431
9362.000000;1.129747
9361.000000;1.130555
9360.000000;1.131299
9359.000000;1.131409
9358.000000;1.130779
9357.000000;1.129779
9356.000000;1.128836
9355.000000;1.128108
9354.000000;1.127545
9353.000000;1.127092
9352.000000;1.126712
9351.000000;1.126283
9350.000000;1.125660
9349.000000;1.124895
9348.000000;1.124240
9347.000000;1.123855
9346.000000;1.123633
9345.000000;1.123397
9344.000000;1.123152
9343.000000;1.122975
9342.000000;1.122786
9341.000000;1.122491
9340.000000;1.122296
9339.000000;1.122578
9338.000000;1.123355
9337.000000;1.124098
9336.000000;1.124227
9335.000000;1.123639
9334.000000;1.122647
9333.000000;1.121592
9332.000000;1.120665
9331.000000;1.119993
9330.000000;1.119671
9329.000000;1.119687
9328.000000;1.119889
9327.000000;1.120017
9326.000000;1.119794
9325.000000;1.119105
9324.000000;1.118135
9323.000000;1.117219
9322.000000;1.116493
9321.000000;1.115800
9320.000000;1.115060
9319.000000;1.114559
9318.000000;1.114681
9317.000000;1.115406
9316.000000;1.116250
9315.000000;1.116718
9314.000000;1.116682
9313.000000;1.116309
9312.000000;1.115775
9311.000000;1.115135
9310.000000;1.114414
9309.000000;1.113720
9308.000000;1.113219
9307.000000;1.112954
9306.000000;1.112743
9305.000000;1.112379
9304.000000;1.111951
9303.000000;1.111807
9302.000000;1.112058
9301.000000;1.112283
9300.000000;1.111935
9299.000000;1.111017
9298.000000;1.110122
9297.000000;1.109748
9296.000000;1.109764
9295.000000;1.109623
9294.000000;1.108986
9293.000000;1.107996
9292.000000;1.106995
9291.000000;1.106130
9290.000000;1.105328
9289.000000;1.104585
9288.000000;1.104120
9287.000000;1.104139
9286.000000;1.104505
9285.000000;1.104808
9284.000000;1.104821
9283.000000;1.104731
9282.000000;1.104841
9281.000000;1.105149
9280.000000;1.105374
9279.000000;1.105313
9278.000000;1.105039
9277.000000;1.104741
9276.000000;1.104510
9275.000000;1.104269
9274.000000;1.103865
9273.000000;1.103239
9272.000000;1.102560
9271.000000;1.102093
9270.000000;1.101851
9269.000000;1.101545
9268.000000;1.101033
9267.000000;1.100650
9266.000000;1.100800
9265.000000;1.101278
9264.000000;1.101331
9263.000000;1.100523
9262.000000;1.099248
9261.000000;1.098238
9260.000000;1.097769
9259.000000;1.097553
9258.000000;1.097224
9257.000000;1.096737
9256.000000;1.096323
9255.000000;1.096217
9254.000000;1.096430
9253.000000;1.096655
9252.000000;1.096438
9251.000000;1.095573
9250.000000;1.094370
9249.000000;1.093463
9248.000000;1.093323
9247.000000;1.093884
9246.000000;1.094571
9245.000000;1.094717
9244.000000;1.094132
9243.000000;1.093288
9242.000000;1.092837
9241.000000;1.092920
9240.000000;1.093067
9239.000000;1.092824
9238.000000;1.092297
9237.000000;1.091936
9236.000000;1.091962
9235.000000;1.092177
9234.000000;1.092242
9233.000000;1.091948
9232.000000;1.091257
9231.000000;1.090284
9230.000000;1.089269
9229.000000;1.088443
9228.000000;1.087897
9227.000000;1.087615
9226.000000;1.087547
9225.000000;1.087537
9224.000000;1.087280
9223.000000;1.086575
9222.000000;1.085613
9221.000000;1.084860
9220.000000;1.084628
9219.000000;1.084840
9218.000000;1.085154
9217.000000;1.085191
9216.000000;1.084727
9215.000000;1.083870
9214.000000;1.083042
9213.000000;1.082596
9212.000000;1.082440
9211.000000;1.082243
9210.000000;1.081948
9209.000000;1.081815
9208.000000;1.081920
9207.000000;1.081965
9206.000000;1.081737
9205.000000;1.081456
9204.000000;1.081419
9203.000000;1.081507
9202.000000;1.081342
9201.000000;1.080844
9200.000000;1.080336
9199.000000;1.080128
9198.000000;1.080221
9197.000000;1.080413
9196.000000;1.080503
9195.000000;1.080356
9194.000000;1.079930
9193.000000;1.079301
9192.000000;1.078566
9191.000000;1.077745
9190.000000;1.076875
9189.000000;1.076150
9188.000000;1.075788
9187.000000;1.075754
9186.000000;1.075781
9185.000000;1.075675
9184.000000;1.075452
9183.000000;1.075169
9182.000000;1.074789
9181.000000;1.074304
9180.000000;1.073845
9179.000000;1.073553
9178.000000;1.073408
9177.000000;1.073283
9176.000000;1.073110
9175.000000;1.072912
9174.000000;1.072714
9173.000000;1.072489
9172.000000;1.072172
9171.000000;1.071708
9170.000000;1.071113
9169.000000;1.070480
9168.000000;1.069903
9167.000000;1.069395
9166.000000;1.068956
9165.000000;1.068690
9164.000000;1.068701
9163.000000;1.068865
9162.000000;1.068863
9161.000000;1.068536
9160.000000;1.068102
9159.000000;1.067904
9158.000000;1.068032
9157.000000;1.068277
9156.000000;1.068380
9155.000000;1.068194
9154.000000;1.067688
9153.000000;1.066966
9152.000000;1.066248
9151.000000;1.065692
9150.000000;1.065199
9149.000000;1.064564
9148.000000;1.063866
9147.000000;1.063529
9146.000000;1.063870
9145.000000;1.064671
9144.000000;1.065341
9143.000000;1.065482
9142.000000;1.065135
9141.000000;1.064493
9140.000000;1.063575
9139.000000;1.062371
9138.000000;1.061164
9137.000000;1.060475
9136.000000;1.060567
9135.000000;1.061117
9134.000000;1.061512
9133.000000;1.061412
9132.000000;1.060971
9131.000000;1.060515
9130.000000;1.060143
9129.000000;1.059701
9128.000000;1.059072
9127.000000;1.058403
9126.000000;1.058003
9125.000000;1.058030
9124.000000;1.058309
9123.000000;1.058493
9122.000000;1.058371
9121.000000;1.057995
9120.000000;1.057508
9119.000000;1.057006
9118.000000;1.056590
9117.000000;1.056409
9116.000000;1.056487
9115.000000;1.056557
9114.000000;1.056242
9113.000000;1.055458
9112.000000;1.054535
9111.000000;1.053946
9110.000000;1.053949
9109.000000;1.054442
9108.000000;1.055005
9107.000000;1.055124
9106.000000;1.054563
9105.000000;1.053601
9104.000000;1.052791
9103.000000;1.052425
9102.000000;1.052315
9101.000000;1.052101
9100.000000;1.051634
9099.000000;1.051002
9098.000000;1.050368
9097.000000;1.049885
9096.000000;1.049682
9095.000000;1.049768
9094.000000;1.049995
9093.000000;1.050194
9092.000000;1.050283
9091.000000;1.050241
9090.000000;1.050072
9089.000000;1.049875
9088.000000;1.049766
9087.000000;1.049640
9086.000000;1.049189
9085.000000;1.048347
9084.000000;1.047543
9083.000000;1.047238
9082.000000;1.047294
9081.000000;1.047122
9080.000000;1.046452
9079.000000;1.045634
9078.000000;1.045116
9077.000000;1.044930
9076.000000;1.044896
9075.000000;1.045048
9074.000000;1.045524
9073.000000;1.046111
9072.000000;1.046252
9071.000000;1.045602
9070.000000;1.044448
9069.000000;1.043422
9068.000000;1.042893
9067.000000;1.042714
9066.000000;1.042491
9065.000000;1.042003
9064.000000;1.041346
9063.000000;1.040751
9062.000000;1.040343
9061.000000;1.040076
9060.000000;1.039854
9059.000000;1.039680
9058.000000;1.039665
9057.000000;1.039870
9056.000000;1.040160
9055.000000;1.040255
9054.000000;1.039986
9053.000000;1.039455
