Criado como novo conjunto de dados;"Jao_teste_celulas.spp","9183.8 Secs"
cm-1;Abs
10000.000000;1.456743
9999.000000;1.456891
9998.000000;1.455056
9997.000000;1.452215
9996.000000;1.450665
9995.000000;1.451347
9994.000000;1.453470
9993.000000;1.455045
9992.000000;1.455172
9991.000000;1.454434
9990.000000;1.453824
9989.000000;1.453400
9988.000000;1.452647
9987.000000;1.451553
9986.000000;1.450801
9985.000000;1.450829
9984.000000;1.451127
9983.000000;1.450728
9982.000000;1.449309
9981.000000;1.447573
9980.000000;1.446455
9979.000000;1.446203
9978.000000;1.446422
9977.000000;1.446852
9976.000000;1.447625
9975.000000;1.448607
9974.000000;1.448992
9973.000000;1.448131
9972.000000;1.446550
9971.000000;1.445500
9970.000000;1.445518
9969.000000;1.446016
9968.000000;1.446275
9967.000000;1.446247
9966.000000;1.446132
9965.000000;1.445759
9964.000000;1.444955
9963.000000;1.444174
9962.000000;1.444105
9961.000000;1.444637
9960.000000;1.444753
9959.000000;1.443656
9958.000000;1.441761
9957.000000;1.440295
9956.000000;1.440030
9955.000000;1.440645
9954.000000;1.441267
9953.000000;1.441281
9952.000000;1.440480
9951.000000;1.438812
9950.000000;1.436456
9949.000000;1.434132
9948.000000;1.432826
9947.000000;1.432872
9946.000000;1.433556
9945.000000;1.433954
9944.000000;1.434068
9943.000000;1.434712
9942.000000;1.436248
9941.000000;1.437837
9940.000000;1.438123
9939.000000;1.436481
9938.000000;1.433504
9937.000000;1.430464
9936.000000;1.428431
9935.000000;1.427666
9934.000000;1.427612
9933.000000;1.427550
9932.000000;1.427382
9931.000000;1.427607
9930.000000;1.428445
9929.000000;1.429224
9928.000000;1.428933
9927.000000;1.427338
9926.000000;1.425314
9925.000000;1.424009
9924.000000;1.423796
9923.000000;1.424067
9922.000000;1.423995
9921.000000;1.423424
9920.000000;1.422921
9919.000000;1.422959
9918.000000;1.423282
9917.000000;1.423276
9916.000000;1.422771
9915.000000;1.422088
9914.000000;1.421329
9913.000000;1.420262
9912.000000;1.419107
9911.000000;1.418809
9910.000000;1.419937
9909.000000;1.421623
9908.000000;1.422207
9907.000000;1.421002
9906.000000;1.418895
9905.000000;1.417131
9904.000000;1.416084
9903.000000;1.415414
9902.000000;1.414911
9901.000000;1.414714
9900.000000;1.414894
9899.000000;1.415250
9898.000000;1.415540
9897.000000;1.415657
9896.000000;1.415516
9895.000000;1.415041
9894.000000;1.414398
9893.000000;1.414014
9892.000000;1.414139
9891.000000;1.414495
9890.000000;1.414541
9889.000000;1.414108
9888.000000;1.413596
9887.000000;1.413442
9886.000000;1.413537
9885.000000;1.413327
9884.000000;1.412462
9883.000000;1.411151
9882.000000;1.409848
9881.000000;1.408804
9880.000000;1.408091
9879.000000;1.407864
9878.000000;1.408220
9877.000000;1.408741
9876.000000;1.408541
9875.000000;1.407098
9874.000000;1.404923
9873.000000;1.403163
9872.000000;1.402457
9871.000000;1.402314
9870.000000;1.401710
9869.000000;1.400296
9868.000000;1.398885
9867.000000;1.398611
9866.000000;1.399715
9865.000000;1.401232
9864.000000;1.401893
9863.000000;1.401313
9862.000000;1.400193
9861.000000;1.399382
9860.000000;1.399018
9859.000000;1.398651
9858.000000;1.398014
9857.000000;1.397452
9856.000000;1.397459
9855.000000;1.397909
9854.000000;1.398057
9853.000000;1.397387
9852.000000;1.396260
9851.000000;1.395482
9850.000000;1.395342
9849.000000;1.395322
9848.000000;1.394804
9847.000000;1.393817
9846.000000;1.392885
9845.000000;1.392387
9844.000000;1.392306
9843.000000;1.392418
9842.000000;1.392410
9841.000000;1.391907
9840.000000;1.390744
9839.000000;1.389331
9838.000000;1.388414
9837.000000;1.388305
9836.000000;1.388531
9835.000000;1.388491
9834.000000;1.388263
9833.000000;1.388463
9832.000000;1.389365
9831.000000;1.390382
9830.000000;1.390482
9829.000000;1.389102
9828.000000;1.386750
9827.000000;1.384740
9826.000000;1.384162
9825.000000;1.384908
9824.000000;1.385731
9823.000000;1.385429
9822.000000;1.383956
9821.000000;1.382286
9820.000000;1.381329
9819.000000;1.381206
9818.000000;1.381441
9817.000000;1.381480
9816.000000;1.381025
9815.000000;1.380212
9814.000000;1.379605
9813.000000;1.379717
9812.000000;1.380376
9811.000000;1.380807
9810.000000;1.380522
9809.000000;1.379956
9808.000000;1.379938
9807.000000;1.380672
9806.000000;1.381486
9805.000000;1.381529
9804.000000;1.380562
9803.000000;1.379075
9802.000000;1.377833
9801.000000;1.377354
9800.000000;1.377648
9799.000000;1.378289
9798.000000;1.378684
9797.000000;1.378380
9796.000000;1.377313
9795.000000;1.375878
9794.000000;1.374689
9793.000000;1.374125
9792.000000;1.374091
9791.000000;1.374249
9790.000000;1.374381
9789.000000;1.374355
9788.000000;1.373940
9787.000000;1.373030
9786.000000;1.372030
9785.000000;1.371571
9784.000000;1.371719
9783.000000;1.371790
9782.000000;1.371161
9781.000000;1.370032
9780.000000;1.369127
9779.000000;1.368810
9778.000000;1.368774
9777.000000;1.368446
9776.000000;1.367514
9775.000000;1.366118
9774.000000;1.364698
9773.000000;1.363643
9772.000000;1.363031
9771.000000;1.362741
9770.000000;1.362726
9769.000000;1.362948
9768.000000;1.363094
9767.000000;1.362807
9766.000000;1.362327
9765.000000;1.362447
9764.000000;1.363536
9763.000000;1.364887
9762.000000;1.365391
9761.000000;1.364603
9760.000000;1.362834
9759.000000;1.360604
9758.000000;1.358536
9757.000000;1.357403
9756.000000;1.357552
9755.000000;1.358280
9754.000000;1.358356
9753.000000;1.357303
9752.000000;1.355799
9751.000000;1.354809
9750.000000;1.354768
9749.000000;1.355561
9748.000000;1.356721
9747.000000;1.357536
9746.000000;1.357452
9745.000000;1.356643
9744.000000;1.355819
9743.000000;1.355292
9742.000000;1.354605
9741.000000;1.353302
9740.000000;1.351723
9739.000000;1.350704
9738.000000;1.350658
9737.000000;1.351215
9736.000000;1.351638
9735.000000;1.351391
9734.000000;1.350408
9733.000000;1.349018
9732.000000;1.347699
9731.000000;1.346814
9730.000000;1.346561
9729.000000;1.346954
9728.000000;1.347656
9727.000000;1.347994
9726.000000;1.347476
9725.000000;1.346305
9724.000000;1.345122
9723.000000;1.344254
9722.000000;1.343555
9721.000000;1.342942
9720.000000;1.342664
9719.000000;1.342855
9718.000000;1.343181
9717.000000;1.343128
9716.000000;1.342470
9715.000000;1.341335
9714.000000;1.340054
9713.000000;1.339097
9712.000000;1.338876
9711.000000;1.339360
9710.000000;1.339977
9709.000000;1.340044
9708.000000;1.339272
9707.000000;1.337896
9706.000000;1.336483
9705.000000;1.335596
9704.000000;1.335404
9703.000000;1.335572
9702.000000;1.335690
9701.000000;1.335775
9700.000000;1.336069
9699.000000;1.336451
9698.000000;1.336470
9697.000000;1.335992
9696.000000;1.335378
9695.000000;1.334867
9694.000000;1.334267
9693.000000;1.333416
9692.000000;1.332534
9691.000000;1.331829
9690.000000;1.331134
9689.000000;1.330304
9688.000000;1.329645
9687.000000;1.329568
9686.000000;1.330011
9685.000000;1.330501
9684.000000;1.330655
9683.000000;1.330422
9682.000000;1.330014
9681.000000;1.329786
9680.000000;1.329949
9679.000000;1.330220
9678.000000;1.329993
9677.000000;1.329032
9676.000000;1.327701
9675.000000;1.326366
9674.000000;1.324969
9673.000000;1.323512
9672.000000;1.322489
9671.000000;1.322337
9670.000000;1.322784
9669.000000;1.323218
9668.000000;1.323430
9667.000000;1.323540
9666.000000;1.323452
9665.000000;1.323011
9664.000000;1.322526
9663.000000;1.322475
9662.000000;1.322717
9661.000000;1.322597
9660.000000;1.321952
9659.000000;1.321426
9658.000000;1.321576
9657.000000;1.322066
9656.000000;1.322016
9655.000000;1.320985
9654.000000;1.319439
9653.000000;1.318312
9652.000000;1.318137
9651.000000;1.318473
9650.000000;1.318245
9649.000000;1.316852
9648.000000;1.314809
9647.000000;1.313063
9646.000000;1.311972
9645.000000;1.311322
9644.000000;1.311048
9643.000000;1.311331
9642.000000;1.312020
9641.000000;1.312546
9640.000000;1.312599
9639.000000;1.312393
9638.000000;1.312099
9637.000000;1.311455
9636.000000;1.310228
9635.000000;1.308655
9634.000000;1.307177
9633.000000;1.306029
9632.000000;1.305300
9631.000000;1.305089
9630.000000;1.305323
9629.000000;1.305655
9628.000000;1.305800
9627.000000;1.305829
9626.000000;1.305948
9625.000000;1.306202
9624.000000;1.306532
9623.000000;1.306891
9622.000000;1.307107
9621.000000;1.306896
9620.000000;1.306257
9619.000000;1.305608
9618.000000;1.305247
9617.000000;1.304929
9616.000000;1.304260
9615.000000;1.303302
9614.000000;1.302483
9613.000000;1.302035
9612.000000;1.301829
9611.000000;1.301661
9610.000000;1.301433
9609.000000;1.301123
9608.000000;1.300858
9607.000000;1.300925
9606.000000;1.301402
9605.000000;1.301793
9604.000000;1.301394
9603.000000;1.300098
9602.000000;1.298571
9601.000000;1.297546
9600.000000;1.297132
9599.000000;1.296880
9598.000000;1.296326
9597.000000;1.295374
9596.000000;1.294275
9595.000000;1.293387
9594.000000;1.292919
9593.000000;1.292914
9592.000000;1.293472
9591.000000;1.294795
9590.000000;1.296763
9589.000000;1.298542
9588.000000;1.299039
9587.000000;1.297949
9586.000000;1.296089
9585.000000;1.294495
9584.000000;1.293385
9583.000000;1.292235
9582.000000;1.290641
9581.000000;1.288850
9580.000000;1.287491
9579.000000;1.287022
9578.000000;1.287410
9577.000000;1.288126
9576.000000;1.288462
9575.000000;1.288084
9574.000000;1.287347
9573.000000;1.286949
9572.000000;1.287187
9571.000000;1.287672
9570.000000;1.287785
9569.000000;1.287248
9568.000000;1.286209
9567.000000;1.285012
9566.000000;1.284047
9565.000000;1.283607
9564.000000;1.283663
9563.000000;1.283845
9562.000000;1.283837
9561.000000;1.283716
9560.000000;1.283706
9559.000000;1.283754
9558.000000;1.283613
9557.000000;1.283292
9556.000000;1.283037
9555.000000;1.282833
9554.000000;1.282308
9553.000000;1.281309
9552.000000;1.280237
9551.000000;1.279539
9550.000000;1.279106
9549.000000;1.278510
9548.000000;1.277712
9547.000000;1.277163
9546.000000;1.277177
9545.000000;1.277495
9544.000000;1.277595
9543.000000;1.277272
9542.000000;1.276757
9541.000000;1.276338
9540.000000;1.275999
9539.000000;1.275461
9538.000000;1.274518
9537.000000;1.273309
9536.000000;1.272214
9535.000000;1.271516
9534.000000;1.271207
9533.000000;1.271115
9532.000000;1.271106
9531.000000;1.271152
9530.000000;1.271287
9529.000000;1.271592
9528.000000;1.272124
9527.000000;1.272771
9526.000000;1.273224
9525.000000;1.273190
9524.000000;1.272610
9523.000000;1.271630
9522.000000;1.270460
9521.000000;1.269350
9520.000000;1.268596
9519.000000;1.268336
9518.000000;1.268344
9517.000000;1.268184
9516.000000;1.267629
9515.000000;1.266836
9514.000000;1.266124
9513.000000;1.265700
9512.000000;1.265602
9511.000000;1.265752
9510.000000;1.265929
9509.000000;1.265783
9508.000000;1.265032
9507.000000;1.263731
9506.000000;1.262300
9505.000000;1.261191
9504.000000;1.260500
9503.000000;1.259962
9502.000000;1.259381
9501.000000;1.258973
9500.000000;1.259083
9499.000000;1.259584
9498.000000;1.259796
9497.000000;1.259196
9496.000000;1.258069
9495.000000;1.257238
9494.000000;1.257239
9493.000000;1.257905
9492.000000;1.258655
9491.000000;1.258943
9490.000000;1.258472
9489.000000;1.257295
9488.000000;1.255895
9487.000000;1.254960
9486.000000;1.254852
9485.000000;1.255297
9484.000000;1.255672
9483.000000;1.255609
9482.000000;1.255261
9481.000000;1.254996
9480.000000;1.254913
9479.000000;1.254741
9478.000000;1.254194
9477.000000;1.253373
9476.000000;1.252704
9475.000000;1.252428
9474.000000;1.252263
9473.000000;1.251683
9472.000000;1.250547
9471.000000;1.249330
9470.000000;1.248671
9469.000000;1.248761
9468.000000;1.249182
9467.000000;1.249315
9466.000000;1.248885
9465.000000;1.248162
9464.000000;1.247663
9463.000000;1.247666
9462.000000;1.247991
9461.000000;1.248247
9460.000000;1.248244
9459.000000;1.248111
9458.000000;1.248020
9457.000000;1.247873
9456.000000;1.247357
9455.000000;1.246325
9454.000000;1.245028
9453.000000;1.243895
9452.000000;1.243123
9451.000000;1.242583
9450.000000;1.242148
9449.000000;1.241928
9448.000000;1.242068
9447.000000;1.242433
9446.000000;1.242713
9445.000000;1.242783
9444.000000;1.242693
9443.000000;1.242363
9442.000000;1.241600
9441.000000;1.240530
9440.000000;1.239668
9439.000000;1.239345
9438.000000;1.239313
9437.000000;1.239134
9436.000000;1.238754
9435.000000;1.238390
9434.000000;1.238066
9433.000000;1.237645
9432.000000;1.237254
9431.000000;1.237261
9430.000000;1.237713
9429.000000;1.238102
9428.000000;1.237847
9427.000000;1.236822
9426.000000;1.235330
9425.000000;1.233776
9424.000000;1.232488
9423.000000;1.231672
9422.000000;1.231366
9421.000000;1.231484
9420.000000;1.231895
9419.000000;1.232363
9418.000000;1.232468
9417.000000;1.231890
9416.000000;1.230874
9415.000000;1.230146
9414.000000;1.230142
9413.000000;1.230478
9412.000000;1.230408
9411.000000;1.229702
9410.000000;1.228813
9409.000000;1.228242
9408.000000;1.228044
9407.000000;1.228019
9406.000000;1.228136
9405.000000;1.228523
9404.000000;1.229129
9403.000000;1.229575
9402.000000;1.229443
9401.000000;1.228675
9400.000000;1.227627
9399.000000;1.226747
9398.000000;1.226221
9397.000000;1.225939
9396.000000;1.225707
9395.000000;1.225423
9394.000000;1.225072
9393.000000;1.224667
9392.000000;1.224270
9391.000000;1.223997
9390.000000;1.223904
9389.000000;1.223892
9388.000000;1.223761
9387.000000;1.223392
9386.000000;1.222887
9385.000000;1.222484
9384.000000;1.222311
9383.000000;1.222214
9382.000000;1.221894
9381.000000;1.221208
9380.000000;1.220275
9379.000000;1.219267
9378.000000;1.218207
9377.000000;1.217096
9376.000000;1.216157
9375.000000;1.215755
9374.000000;1.216001
9373.000000;1.216551
9372.000000;1.216900
9371.000000;1.216830
9370.000000;1.216514
9369.000000;1.216195
9368.000000;1.215847
9367.000000;1.215200
9366.000000;1.214085
9365.000000;1.212732
9364.000000;1.211648
9363.000000;1.211193
9362.000000;1.211348
9361.000000;1.211858
9360.000000;1.212439
9359.000000;1.212802
9358.000000;1.212681
9357.000000;1.212075
9356.000000;1.211366
9355.000000;1.210987
9354.000000;1.210953
9353.000000;1.210915
9352.000000;1.210616
9351.000000;1.210077
9350.000000;1.209358
9349.000000;1.208455
9348.000000;1.207574
9347.000000;1.207206
9346.000000;1.207630
9345.000000;1.208420
9344.000000;1.208732
9343.000000;1.208143
9342.000000;1.207035
9341.000000;1.206132
9340.000000;1.205768
9339.000000;1.205683
9338.000000;1.205425
9337.000000;1.204826
9336.000000;1.204105
9335.000000;1.203574
9334.000000;1.203351
9333.000000;1.203361
9332.000000;1.203506
9331.000000;1.203697
9330.000000;1.203773
9329.000000;1.203546
9328.000000;1.202994
9327.000000;1.202355
9326.000000;1.201978
9325.000000;1.202098
9324.000000;1.202698
9323.000000;1.203435
9322.000000;1.203748
9321.000000;1.203264
9320.000000;1.202226
9319.000000;1.201326
9318.000000;1.201016
9317.000000;1.201094
9316.000000;1.201051
9315.000000;1.200640
9314.000000;1.199941
9313.000000;1.199033
9312.000000;1.197926
9311.000000;1.196840
9310.000000;1.196200
9309.000000;1.196186
9308.000000;1.196424
9307.000000;1.196314
9306.000000;1.195609
9305.000000;1.194583
9304.000000;1.193670
9303.000000;1.193117
9302.000000;1.192942
9301.000000;1.193067
9300.000000;1.193346
9299.000000;1.193524
9298.000000;1.193364
9297.000000;1.192866
9296.000000;1.192296
9295.000000;1.191899
9294.000000;1.191641
9293.000000;1.191281
9292.000000;1.190666
9291.000000;1.189866
9290.000000;1.189061
9289.000000;1.188378
9288.000000;1.187853
9287.000000;1.187474
9286.000000;1.187255
9285.000000;1.187308
9284.000000;1.187785
9283.000000;1.188650
9282.000000;1.189512
9281.000000;1.189853
9280.000000;1.189462
9279.000000;1.188558
9278.000000;1.187483
9277.000000;1.186452
9276.000000;1.185629
9275.000000;1.185209
9274.000000;1.185237
9273.000000;1.185429
9272.000000;1.185349
9271.000000;1.184782
9270.000000;1.183890
9269.000000;1.183085
9268.000000;1.182774
9267.000000;1.183081
9266.000000;1.183660
9265.000000;1.183903
9264.000000;1.183497
9263.000000;1.182754
9262.000000;1.182245
9261.000000;1.182190
9260.000000;1.182330
9259.000000;1.182308
9258.000000;1.181959
9257.000000;1.181272
9256.000000;1.180340
9255.000000;1.179394
9254.000000;1.178695
9253.000000;1.178292
9252.000000;1.178009
9251.000000;1.177710
9250.000000;1.177428
9249.000000;1.177215
9248.000000;1.177011
9247.000000;1.176762
9246.000000;1.176486
9245.000000;1.176160
9244.000000;1.175694
9243.000000;1.175152
9242.000000;1.174840
9241.000000;1.175013
9240.000000;1.175530
9239.000000;1.175933
9238.000000;1.175831
9237.000000;1.175134
9236.000000;1.174005
9235.000000;1.172743
9234.000000;1.171684
9233.000000;1.171075
9232.000000;1.171006
9231.000000;1.171460
9230.000000;1.172336
9229.000000;1.173324
9228.000000;1.173895
9227.000000;1.173655
9226.000000;1.172748
9225.000000;1.171777
9224.000000;1.171277
9223.000000;1.171282
9222.000000;1.171380
9221.000000;1.171086
9220.000000;1.170237
9219.000000;1.169162
9218.000000;1.168461
9217.000000;1.168473
9216.000000;1.168906
9215.000000;1.169107
9214.000000;1.168746
9213.000000;1.168087
9212.000000;1.167546
9211.000000;1.167140
9210.000000;1.166538
9209.000000;1.165587
9208.000000;1.164547
9207.000000;1.163782
9206.000000;1.163360
9205.000000;1.163128
9204.000000;1.163066
9203.000000;1.163388
9202.000000;1.164190
9201.000000;1.165129
9200.000000;1.165632
9199.000000;1.165418
9198.000000;1.164657
9197.000000;1.163653
9196.000000;1.162597
9195.000000;1.161702
9194.000000;1.161260
9193.000000;1.161291
9192.000000;1.161337
9191.000000;1.160934
9190.000000;1.160242
9189.000000;1.159859
9188.000000;1.160019
9187.000000;1.160370
9186.000000;1.160586
9185.000000;1.160789
9184.000000;1.161127
9183.000000;1.161300
9182.000000;1.160912
9181.000000;1.160088
9180.000000;1.159333
9179.000000;1.158805
9178.000000;1.158132
9177.000000;1.156971
9176.000000;1.155485
9175.000000;1.154172
9174.000000;1.153453
9173.000000;1.153501
9172.000000;1.154230
9171.000000;1.155271
9170.000000;1.156077
9169.000000;1.156250
9168.000000;1.155774
9167.000000;1.154917
9166.000000;1.153963
9165.000000;1.153090
9164.000000;1.152388
9163.000000;1.151869
9162.000000;1.151497
9161.000000;1.151262
9160.000000;1.151215
9159.000000;1.151358
9158.000000;1.151516
9157.000000;1.151345
9156.000000;1.150567
9155.000000;1.149265
9154.000000;1.147969
9153.000000;1.147297
9152.000000;1.147407
9151.000000;1.147835
9150.000000;1.147961
9149.000000;1.147612
9148.000000;1.147086
9147.000000;1.146673
9146.000000;1.146366
9145.000000;1.146044
9144.000000;1.145738
9143.000000;1.145617
9142.000000;1.145848
9141.000000;1.146469
9140.000000;1.147259
9139.000000;1.147700
9138.000000;1.147305
9137.000000;1.146129
9136.000000;1.144795
9135.000000;1.143873
9134.000000;1.143394
9133.000000;1.143072
9132.000000;1.142838
9131.000000;1.142877
9130.000000;1.143207
9129.000000;1.143482
9128.000000;1.143280
9127.000000;1.142494
9126.000000;1.141394
9125.000000;1.140419
9124.000000;1.139929
9123.000000;1.140050
9122.000000;1.140658
9121.000000;1.141456
9120.000000;1.142078
9119.000000;1.142176
9118.000000;1.141584
9117.000000;1.140462
9116.000000;1.139185
9115.000000;1.137978
9114.000000;1.136813
9113.000000;1.135771
9112.000000;1.135285
9111.000000;1.135722
9110.000000;1.136774
9109.000000;1.137602
9108.000000;1.137671
9107.000000;1.137206
9106.000000;1.136733
9105.000000;1.136458
9104.000000;1.136280
9103.000000;1.136150
9102.000000;1.136104
9101.000000;1.136045
9100.000000;1.135780
9099.000000;1.135307
9098.000000;1.134871
9097.000000;1.134680
9096.000000;1.134685
9095.000000;1.134686
9094.000000;1.134517
9093.000000;1.134113
9092.000000;1.133532
9091.000000;1.132983
9090.000000;1.132709
9089.000000;1.132754
9088.000000;1.132888
9087.000000;1.132847
9086.000000;1.132586
9085.000000;1.132249
9084.000000;1.131939
9083.000000;1.131601
9082.000000;1.131134
9081.000000;1.130581
9080.000000;1.130152
9079.000000;1.130028
9078.000000;1.130128
9077.000000;1.130093
9076.000000;1.129646
9075.000000;1.128941
9074.000000;1.128423
9073.000000;1.128256
9072.000000;1.128061
9071.000000;1.127381
9070.000000;1.126323
9069.000000;1.125491
9068.000000;1.125274
9067.000000;1.125422
9066.000000;1.125440
9065.000000;1.125195
9064.000000;1.124921
9063.000000;1.124731
9062.000000;1.124395
9061.000000;1.123708
9060.000000;1.122886
9059.000000;1.122384
9058.000000;1.122369
9057.000000;1.122504
9056.000000;1.122313
9055.000000;1.121695
9054.000000;1.121006
9053.000000;1.120664
