Criado como novo conjunto de dados;"Jao_teste_celulas.spp","8403.6 Secs"
cm-1;Abs
10000.000000;1.534319
9999.000000;1.534699
9998.000000;1.536006
9997.000000;1.537470
9996.000000;1.538231
9995.000000;1.537934
9994.000000;1.536830
9993.000000;1.535481
9992.000000;1.534336
9991.000000;1.533465
9990.000000;1.532582
9989.000000;1.531400
9988.000000;1.530052
9987.000000;1.529110
9986.000000;1.529023
9985.000000;1.529535
9984.000000;1.529786
9983.000000;1.529098
9982.000000;1.527650
9981.000000;1.526361
9980.000000;1.526039
9979.000000;1.526626
9978.000000;1.527267
9977.000000;1.527132
9976.000000;1.526216
9975.000000;1.525271
9974.000000;1.524935
9973.000000;1.525043
9972.000000;1.524879
9971.000000;1.524046
9970.000000;1.522901
9969.000000;1.522095
9968.000000;1.521884
9967.000000;1.521971
9966.000000;1.521872
9965.000000;1.521359
9964.000000;1.520658
9963.000000;1.520294
9962.000000;1.520629
9961.000000;1.521475
9960.000000;1.522190
9959.000000;1.522226
9958.000000;1.521555
9957.000000;1.520646
9956.000000;1.520141
9955.000000;1.520438
9954.000000;1.521239
9953.000000;1.521469
9952.000000;1.520097
9951.000000;1.517324
9950.000000;1.514580
9949.000000;1.513131
9948.000000;1.512991
9947.000000;1.513440
9946.000000;1.514129
9945.000000;1.515032
9944.000000;1.515582
9943.000000;1.514732
9942.000000;1.512231
9941.000000;1.509319
9940.000000;1.507689
9939.000000;1.507999
9938.000000;1.509665
9937.000000;1.511786
9936.000000;1.513855
9935.000000;1.515626
9934.000000;1.516739
9933.000000;1.516803
9932.000000;1.515789
9931.000000;1.514181
9930.000000;1.512601
9929.000000;1.511197
9928.000000;1.509434
9927.000000;1.506655
9926.000000;1.502989
9925.000000;1.499608
9924.000000;1.497885
9923.000000;1.498213
9922.000000;1.499656
9921.000000;1.500798
9920.000000;1.500964
9919.000000;1.500518
9918.000000;1.500058
9917.000000;1.499620
9916.000000;1.498864
9915.000000;1.497800
9914.000000;1.496899
9913.000000;1.496429
9912.000000;1.496120
9911.000000;1.495662
9910.000000;1.495290
9909.000000;1.495532
9908.000000;1.496461
9907.000000;1.497478
9906.000000;1.497785
9905.000000;1.496947
9904.000000;1.495149
9903.000000;1.493183
9902.000000;1.492071
9901.000000;1.492309
9900.000000;1.493385
9899.000000;1.494178
9898.000000;1.493890
9897.000000;1.492502
9896.000000;1.490544
9895.000000;1.488809
9894.000000;1.488161
9893.000000;1.489057
9892.000000;1.490993
9891.000000;1.492750
9890.000000;1.493452
9889.000000;1.493144
9888.000000;1.492222
9887.000000;1.490768
9886.000000;1.488805
9885.000000;1.486814
9884.000000;1.485462
9883.000000;1.484842
9882.000000;1.484383
9881.000000;1.483540
9880.000000;1.482300
9879.000000;1.481061
9878.000000;1.480323
9877.000000;1.480486
9876.000000;1.481598
9875.000000;1.483126
9874.000000;1.484189
9873.000000;1.484289
9872.000000;1.483788
9871.000000;1.483525
9870.000000;1.483995
9869.000000;1.484926
9868.000000;1.485559
9867.000000;1.485246
9866.000000;1.483838
9865.000000;1.481661
9864.000000;1.479284
9863.000000;1.477301
9862.000000;1.476148
9861.000000;1.475926
9860.000000;1.476398
9859.000000;1.477192
9858.000000;1.477975
9857.000000;1.478459
9856.000000;1.478422
9855.000000;1.477899
9854.000000;1.477335
9853.000000;1.477173
9852.000000;1.477183
9851.000000;1.476567
9850.000000;1.474971
9849.000000;1.473093
9848.000000;1.471892
9847.000000;1.471363
9846.000000;1.470518
9845.000000;1.468677
9844.000000;1.466439
9843.000000;1.465183
9842.000000;1.465722
9841.000000;1.467560
9840.000000;1.469361
9839.000000;1.470081
9838.000000;1.469710
9837.000000;1.468988
9836.000000;1.468482
9835.000000;1.468089
9834.000000;1.467483
9833.000000;1.466816
9832.000000;1.466679
9831.000000;1.467342
9830.000000;1.468233
9829.000000;1.468289
9828.000000;1.466881
9827.000000;1.464452
9826.000000;1.462325
9825.000000;1.461745
9824.000000;1.462821
9823.000000;1.464308
9822.000000;1.464653
9821.000000;1.463488
9820.000000;1.461983
9819.000000;1.461596
9818.000000;1.462580
9817.000000;1.463820
9816.000000;1.464097
9815.000000;1.463330
9814.000000;1.462403
9813.000000;1.461876
9812.000000;1.461254
9811.000000;1.459738
9810.000000;1.457528
9809.000000;1.455894
9808.000000;1.455821
9807.000000;1.456928
9806.000000;1.458010
9805.000000;1.458379
9804.000000;1.458279
9803.000000;1.458075
9802.000000;1.457640
9801.000000;1.456741
9800.000000;1.455533
9799.000000;1.454319
9798.000000;1.453075
9797.000000;1.451622
9796.000000;1.450151
9795.000000;1.449223
9794.000000;1.449163
9793.000000;1.449624
9792.000000;1.449790
9791.000000;1.449012
9790.000000;1.447454
9789.000000;1.446223
9788.000000;1.446525
9787.000000;1.448330
9786.000000;1.450082
9785.000000;1.450243
9784.000000;1.449104
9783.000000;1.448406
9782.000000;1.449071
9781.000000;1.449989
9780.000000;1.449461
9779.000000;1.447341
9778.000000;1.445066
9777.000000;1.443810
9776.000000;1.443301
9775.000000;1.442536
9774.000000;1.441204
9773.000000;1.440079
9772.000000;1.440160
9771.000000;1.441609
9770.000000;1.443409
9769.000000;1.444059
9768.000000;1.442890
9767.000000;1.440831
9766.000000;1.439668
9765.000000;1.440372
9764.000000;1.442155
9763.000000;1.443171
9762.000000;1.442140
9761.000000;1.439339
9760.000000;1.436207
9759.000000;1.434158
9758.000000;1.433671
9757.000000;1.434218
9756.000000;1.434890
9755.000000;1.435092
9754.000000;1.434714
9753.000000;1.433864
9752.000000;1.432721
9751.000000;1.431676
9750.000000;1.431293
9749.000000;1.431848
9748.000000;1.432943
9747.000000;1.433755
9746.000000;1.433701
9745.000000;1.432843
9744.000000;1.431717
9743.000000;1.430880
9742.000000;1.430540
9741.000000;1.430471
9740.000000;1.430213
9739.000000;1.429432
9738.000000;1.428148
9737.000000;1.426706
9736.000000;1.425599
9735.000000;1.425238
9734.000000;1.425664
9733.000000;1.426404
9732.000000;1.426775
9731.000000;1.426467
9730.000000;1.425691
9729.000000;1.424759
9728.000000;1.423802
9727.000000;1.423000
9726.000000;1.422719
9725.000000;1.423070
9724.000000;1.423565
9723.000000;1.423588
9722.000000;1.423094
9721.000000;1.422466
9720.000000;1.421823
9719.000000;1.420937
9718.000000;1.419828
9717.000000;1.418955
9716.000000;1.418631
9715.000000;1.418582
9714.000000;1.418319
9713.000000;1.417702
9712.000000;1.416928
9711.000000;1.416166
9710.000000;1.415432
9709.000000;1.414690
9708.000000;1.413915
9707.000000;1.413155
9706.000000;1.412673
9705.000000;1.412821
9704.000000;1.413594
9703.000000;1.414451
9702.000000;1.414804
9701.000000;1.414619
9700.000000;1.414284
9699.000000;1.413939
9698.000000;1.413255
9697.000000;1.411951
9696.000000;1.410344
9695.000000;1.409236
9694.000000;1.409279
9693.000000;1.410462
9692.000000;1.412130
9691.000000;1.413405
9690.000000;1.413608
9689.000000;1.412451
9688.000000;1.410135
9687.000000;1.407436
9686.000000;1.405488
9685.000000;1.405088
9684.000000;1.406000
9683.000000;1.407114
9682.000000;1.407452
9681.000000;1.406944
9680.000000;1.406111
9679.000000;1.405232
9678.000000;1.404140
9677.000000;1.402783
9676.000000;1.401615
9675.000000;1.401174
9674.000000;1.401362
9673.000000;1.401394
9672.000000;1.400581
9671.000000;1.399148
9670.000000;1.398072
9669.000000;1.398084
9668.000000;1.398968
9667.000000;1.399984
9666.000000;1.400784
9665.000000;1.401554
9664.000000;1.402259
9663.000000;1.402256
9662.000000;1.401005
9661.000000;1.398960
9660.000000;1.397324
9659.000000;1.396890
9658.000000;1.397306
9657.000000;1.397506
9656.000000;1.396747
9655.000000;1.395248
9654.000000;1.393906
9653.000000;1.393421
9652.000000;1.393710
9651.000000;1.394134
9650.000000;1.394187
9649.000000;1.393780
9648.000000;1.392978
9647.000000;1.391858
9646.000000;1.390758
9645.000000;1.390246
9644.000000;1.390481
9643.000000;1.390882
9642.000000;1.390761
9641.000000;1.390137
9640.000000;1.389548
9639.000000;1.389221
9638.000000;1.388891
9637.000000;1.388384
9636.000000;1.387833
9635.000000;1.387246
9634.000000;1.386370
9633.000000;1.385250
9632.000000;1.384526
9631.000000;1.384792
9630.000000;1.385852
9629.000000;1.386912
9628.000000;1.387372
9627.000000;1.387169
9626.000000;1.386481
9625.000000;1.385510
9624.000000;1.384589
9623.000000;1.384102
9622.000000;1.384069
9621.000000;1.383955
9620.000000;1.383123
9619.000000;1.381500
9618.000000;1.379751
9617.000000;1.378743
9616.000000;1.378805
9615.000000;1.379390
9614.000000;1.379487
9613.000000;1.378481
9612.000000;1.376689
9611.000000;1.375050
9610.000000;1.374286
9609.000000;1.374346
9608.000000;1.374563
9607.000000;1.374287
9606.000000;1.373416
9605.000000;1.372458
9604.000000;1.372106
9603.000000;1.372647
9602.000000;1.373663
9601.000000;1.374324
9600.000000;1.374065
9599.000000;1.373042
9598.000000;1.371940
9597.000000;1.371433
9596.000000;1.371799
9595.000000;1.372884
9594.000000;1.374179
9593.000000;1.375002
9592.000000;1.374881
9591.000000;1.373970
9590.000000;1.372964
9589.000000;1.372458
9588.000000;1.372407
9587.000000;1.372287
9586.000000;1.371710
9585.000000;1.370777
9584.000000;1.369908
9583.000000;1.369481
9582.000000;1.369580
9581.000000;1.369857
9580.000000;1.369669
9579.000000;1.368587
9578.000000;1.366843
9577.000000;1.365086
9576.000000;1.363646
9575.000000;1.362284
9574.000000;1.360756
9573.000000;1.359392
9572.000000;1.358838
9571.000000;1.359311
9570.000000;1.360296
9569.000000;1.360978
9568.000000;1.360907
9567.000000;1.360317
9566.000000;1.359864
9565.000000;1.360001
9564.000000;1.360522
9563.000000;1.360794
9562.000000;1.360450
9561.000000;1.359706
9560.000000;1.358949
9559.000000;1.358289
9558.000000;1.357699
9557.000000;1.357344
9556.000000;1.357437
9555.000000;1.357889
9554.000000;1.358405
9553.000000;1.358844
9552.000000;1.359194
9551.000000;1.359218
9550.000000;1.358532
9549.000000;1.357131
9548.000000;1.355579
9547.000000;1.354544
9546.000000;1.354272
9545.000000;1.354497
9544.000000;1.354639
9543.000000;1.354140
9542.000000;1.352916
9541.000000;1.351540
9540.000000;1.350729
9539.000000;1.350560
9538.000000;1.350435
9537.000000;1.349930
9536.000000;1.349359
9535.000000;1.349285
9534.000000;1.349719
9533.000000;1.350153
9532.000000;1.350229
9531.000000;1.350049
9530.000000;1.349807
9529.000000;1.349447
9528.000000;1.348806
9527.000000;1.347918
9526.000000;1.346990
9525.000000;1.346178
9524.000000;1.345526
9523.000000;1.345099
9522.000000;1.345010
9521.000000;1.345220
9520.000000;1.345416
9519.000000;1.345242
9518.000000;1.344655
9517.000000;1.343919
9516.000000;1.343241
9515.000000;1.342588
9514.000000;1.341928
9513.000000;1.341433
9512.000000;1.341240
9511.000000;1.341183
9510.000000;1.341012
9509.000000;1.340771
9508.000000;1.340703
9507.000000;1.340805
9506.000000;1.340805
9505.000000;1.340561
9504.000000;1.340148
9503.000000;1.339508
9502.000000;1.338374
9501.000000;1.336720
9500.000000;1.334995
9499.000000;1.333735
9498.000000;1.333163
9497.000000;1.333318
9496.000000;1.334239
9495.000000;1.335703
9494.000000;1.337023
9493.000000;1.337470
9492.000000;1.336930
9491.000000;1.335880
9490.000000;1.334788
9489.000000;1.333772
9488.000000;1.332800
9487.000000;1.331950
9486.000000;1.331389
9485.000000;1.331230
9484.000000;1.331393
9483.000000;1.331563
9482.000000;1.331374
9481.000000;1.330789
9480.000000;1.330230
9479.000000;1.330172
9478.000000;1.330632
9477.000000;1.331175
9476.000000;1.331368
9475.000000;1.331065
9474.000000;1.330348
9473.000000;1.329439
9472.000000;1.328641
9471.000000;1.328110
9470.000000;1.327631
9469.000000;1.326806
9468.000000;1.325531
9467.000000;1.324156
9466.000000;1.323155
9465.000000;1.322819
9464.000000;1.323239
9463.000000;1.324263
9462.000000;1.325330
9461.000000;1.325607
9460.000000;1.324624
9459.000000;1.322808
9458.000000;1.321191
9457.000000;1.320569
9456.000000;1.320939
9455.000000;1.321647
9454.000000;1.322000
9453.000000;1.321765
9452.000000;1.321163
9451.000000;1.320432
9450.000000;1.319484
9449.000000;1.318118
9448.000000;1.316563
9447.000000;1.315574
9446.000000;1.315714
9445.000000;1.316591
9444.000000;1.317086
9443.000000;1.316508
9442.000000;1.315330
9441.000000;1.314561
9440.000000;1.314546
9439.000000;1.314720
9438.000000;1.314548
9437.000000;1.314251
9436.000000;1.314266
9435.000000;1.314302
9434.000000;1.313542
9433.000000;1.311823
9432.000000;1.310050
9431.000000;1.309166
9430.000000;1.309087
9429.000000;1.308985
9428.000000;1.308411
9427.000000;1.307743
9426.000000;1.307601
9425.000000;1.308241
9424.000000;1.309513
9423.000000;1.310990
9422.000000;1.312032
9421.000000;1.312070
9420.000000;1.311097
9419.000000;1.309730
9418.000000;1.308637
9417.000000;1.307993
9416.000000;1.307570
9415.000000;1.307167
9414.000000;1.306813
9413.000000;1.306658
9412.000000;1.306838
9411.000000;1.307349
9410.000000;1.307928
9409.000000;1.308088
9408.000000;1.307431
9407.000000;1.305987
9406.000000;1.304215
9405.000000;1.302699
9404.000000;1.301794
9403.000000;1.301454
9402.000000;1.301360
9401.000000;1.301288
9400.000000;1.301309
9399.000000;1.301477
9398.000000;1.301416
9397.000000;1.300584
9396.000000;1.299071
9395.000000;1.297804
9394.000000;1.297617
9393.000000;1.298262
9392.000000;1.298665
9391.000000;1.298167
9390.000000;1.297205
9389.000000;1.296685
9388.000000;1.296969
9387.000000;1.297640
9386.000000;1.298066
9385.000000;1.297968
9384.000000;1.297474
9383.000000;1.296838
9382.000000;1.296233
9381.000000;1.295785
9380.000000;1.295663
9379.000000;1.296005
9378.000000;1.296693
9377.000000;1.297245
9376.000000;1.297103
9375.000000;1.296120
9374.000000;1.294720
9373.000000;1.293508
9372.000000;1.292693
9371.000000;1.291961
9370.000000;1.290952
9369.000000;1.289819
9368.000000;1.289138
9367.000000;1.289234
9366.000000;1.289779
9365.000000;1.290205
9364.000000;1.290363
9363.000000;1.290478
9362.000000;1.290546
9361.000000;1.290192
9360.000000;1.289251
9359.000000;1.288107
9358.000000;1.287218
9357.000000;1.286636
9356.000000;1.286254
9355.000000;1.286221
9354.000000;1.286648
9353.000000;1.287087
9352.000000;1.286821
9351.000000;1.285734
9350.000000;1.284488
9349.000000;1.283739
9348.000000;1.283587
9347.000000;1.283857
9346.000000;1.284433
9345.000000;1.285054
9344.000000;1.285149
9343.000000;1.284311
9342.000000;1.282807
9341.000000;1.281342
9340.000000;1.280433
9339.000000;1.280174
9338.000000;1.280356
9337.000000;1.280503
9336.000000;1.280039
9335.000000;1.278844
9334.000000;1.277631
9333.000000;1.277351
9332.000000;1.278205
9331.000000;1.279478
9330.000000;1.280308
9329.000000;1.280327
9328.000000;1.279579
9327.000000;1.278301
9326.000000;1.276982
9325.000000;1.276248
9324.000000;1.276274
9323.000000;1.276437
9322.000000;1.275927
9321.000000;1.274687
9320.000000;1.273491
9319.000000;1.273051
9318.000000;1.273273
9317.000000;1.273491
9316.000000;1.273281
9315.000000;1.272863
9314.000000;1.272752
9313.000000;1.273147
9312.000000;1.273721
9311.000000;1.273919
9310.000000;1.273451
9309.000000;1.272532
9308.000000;1.271702
9307.000000;1.271393
9306.000000;1.271616
9305.000000;1.272011
9304.000000;1.272213
9303.000000;1.272139
9302.000000;1.271910
9301.000000;1.271606
9300.000000;1.271231
9299.000000;1.270844
9298.000000;1.270510
9297.000000;1.270080
9296.000000;1.269263
9295.000000;1.268033
9294.000000;1.266742
9293.000000;1.265685
9292.000000;1.264758
9291.000000;1.263788
9290.000000;1.263005
9289.000000;1.262831
9288.000000;1.263284
9287.000000;1.263937
9286.000000;1.264488
9285.000000;1.265018
9284.000000;1.265515
9283.000000;1.265535
9282.000000;1.264664
9281.000000;1.263166
9280.000000;1.261863
9279.000000;1.261342
9278.000000;1.261453
9277.000000;1.261581
9276.000000;1.261290
9275.000000;1.260712
9274.000000;1.260335
9273.000000;1.260438
9272.000000;1.260766
9271.000000;1.260795
9270.000000;1.260298
9269.000000;1.259532
9268.000000;1.258886
9267.000000;1.258519
9266.000000;1.258323
9265.000000;1.258098
9264.000000;1.257691
9263.000000;1.257169
9262.000000;1.256886
9261.000000;1.257196
9260.000000;1.258003
9259.000000;1.258771
9258.000000;1.259069
9257.000000;1.258923
9256.000000;1.258530
9255.000000;1.257914
9254.000000;1.257064
9253.000000;1.256188
9252.000000;1.255542
9251.000000;1.255106
9250.000000;1.254682
9249.000000;1.254225
9248.000000;1.253878
9247.000000;1.253719
9246.000000;1.253656
9245.000000;1.253529
9244.000000;1.253172
9243.000000;1.252489
9242.000000;1.251659
9241.000000;1.251127
9240.000000;1.251132
9239.000000;1.251342
9238.000000;1.251174
9237.000000;1.250427
9236.000000;1.249378
9235.000000;1.248357
9234.000000;1.247567
9233.000000;1.247243
9232.000000;1.247553
9231.000000;1.248238
9230.000000;1.248714
9229.000000;1.248692
9228.000000;1.248443
9227.000000;1.248295
9226.000000;1.248174
9225.000000;1.247834
9224.000000;1.247252
9223.000000;1.246592
9222.000000;1.245955
9221.000000;1.245402
9220.000000;1.245037
9219.000000;1.244867
9218.000000;1.244667
9217.000000;1.244242
9216.000000;1.243711
9215.000000;1.243362
9214.000000;1.243283
9213.000000;1.243302
9212.000000;1.243188
9211.000000;1.242758
9210.000000;1.241918
9209.000000;1.240858
9208.000000;1.240084
9207.000000;1.239970
9206.000000;1.240283
9205.000000;1.240424
9204.000000;1.240169
9203.000000;1.239860
9202.000000;1.239787
9201.000000;1.239734
9200.000000;1.239354
9199.000000;1.238744
9198.000000;1.238343
9197.000000;1.238331
9196.000000;1.238386
9195.000000;1.238027
9194.000000;1.237024
9193.000000;1.235531
9192.000000;1.234054
9191.000000;1.233289
9190.000000;1.233659
9189.000000;1.234819
9188.000000;1.235803
9187.000000;1.235871
9186.000000;1.235136
9185.000000;1.234211
9184.000000;1.233449
9183.000000;1.232798
9182.000000;1.232274
9181.000000;1.232144
9180.000000;1.232488
9179.000000;1.232910
9178.000000;1.232924
9177.000000;1.232506
9176.000000;1.232003
9175.000000;1.231602
9174.000000;1.231150
9173.000000;1.230460
9172.000000;1.229541
9171.000000;1.228470
9170.000000;1.227256
9169.000000;1.225967
9168.000000;1.224869
9167.000000;1.224259
9166.000000;1.224211
9165.000000;1.224572
9164.000000;1.225182
9163.000000;1.225978
9162.000000;1.226891
9161.000000;1.227731
9160.000000;1.228259
9159.000000;1.228327
9158.000000;1.227888
9157.000000;1.227000
9156.000000;1.225935
9155.000000;1.225201
9154.000000;1.225141
9153.000000;1.225417
9152.000000;1.225156
9151.000000;1.223933
9150.000000;1.222479
9149.000000;1.222012
9148.000000;1.222849
9147.000000;1.224025
9146.000000;1.224388
9145.000000;1.223769
9144.000000;1.222862
9143.000000;1.222276
9142.000000;1.222097
9141.000000;1.222169
9140.000000;1.222345
9139.000000;1.222422
9138.000000;1.222133
9137.000000;1.221339
9136.000000;1.220110
9135.000000;1.218646
9134.000000;1.217275
9133.000000;1.216418
9132.000000;1.216310
9131.000000;1.216766
9130.000000;1.217406
9129.000000;1.218046
9128.000000;1.218667
9127.000000;1.219047
9126.000000;1.218810
9125.000000;1.217895
9124.000000;1.216712
9123.000000;1.215684
9122.000000;1.214874
9121.000000;1.214147
9120.000000;1.213476
9119.000000;1.212947
9118.000000;1.212667
9117.000000;1.212783
9116.000000;1.213397
9115.000000;1.214295
9114.000000;1.214913
9113.000000;1.214781
9112.000000;1.213953
9111.000000;1.212947
9110.000000;1.212320
9109.000000;1.212319
9108.000000;1.212747
9107.000000;1.213051
9106.000000;1.212713
9105.000000;1.211696
9104.000000;1.210435
9103.000000;1.209404
9102.000000;1.208818
9101.000000;1.208713
9100.000000;1.208998
9099.000000;1.209302
9098.000000;1.209120
9097.000000;1.208369
9096.000000;1.207598
9095.000000;1.207385
9094.000000;1.207700
9093.000000;1.208091
9092.000000;1.208302
9091.000000;1.208417
9090.000000;1.208494
9089.000000;1.208459
9088.000000;1.208338
9087.000000;1.208276
9086.000000;1.208228
9085.000000;1.207887
9084.000000;1.207018
9083.000000;1.205720
9082.000000;1.204305
9081.000000;1.203088
9080.000000;1.202336
9079.000000;1.202190
9078.000000;1.202499
9077.000000;1.202825
9076.000000;1.202766
9075.000000;1.202298
9074.000000;1.201750
9073.000000;1.201485
9072.000000;1.201605
9071.000000;1.201883
9070.000000;1.201961
9069.000000;1.201652
9068.000000;1.201057
9067.000000;1.200372
9066.000000;1.199635
9065.000000;1.198763
9064.000000;1.197805
9063.000000;1.197024
9062.000000;1.196680
9061.000000;1.196786
9060.000000;1.197113
9059.000000;1.197422
9058.000000;1.197630
9057.000000;1.197771
9056.000000;1.197823
9055.000000;1.197649
9054.000000;1.197178
9053.000000;1.196587
