Criado como novo conjunto de dados;"Jao_teste_celulas.spp","12064.7 Secs"
cm-1;Abs
10000.000000;2.128044
9999.000000;2.124205
9998.000000;2.118577
9997.000000;2.112229
9996.000000;2.108687
9995.000000;2.109718
9994.000000;2.113987
9993.000000;2.118891
9992.000000;2.123086
9991.000000;2.125776
9990.000000;2.125495
9989.000000;2.121542
9988.000000;2.116201
9987.000000;2.113389
9986.000000;2.114917
9985.000000;2.118739
9984.000000;2.120976
9983.000000;2.119562
9982.000000;2.115719
9981.000000;2.112105
9980.000000;2.110234
9979.000000;2.109904
9978.000000;2.110432
9977.000000;2.111602
9976.000000;2.113194
9975.000000;2.114326
9974.000000;2.114245
9973.000000;2.113699
9972.000000;2.114435
9971.000000;2.117014
9970.000000;2.119783
9969.000000;2.120491
9968.000000;2.118453
9967.000000;2.114566
9966.000000;2.110102
9965.000000;2.106382
9964.000000;2.104569
9963.000000;2.104484
9962.000000;2.104274
9961.000000;2.102514
9960.000000;2.100139
9959.000000;2.099120
9958.000000;2.099744
9957.000000;2.100519
9956.000000;2.100760
9955.000000;2.101685
9954.000000;2.104253
9953.000000;2.107341
9952.000000;2.108953
9951.000000;2.108541
9950.000000;2.107351
9949.000000;2.106507
9948.000000;2.105594
9947.000000;2.103441
9946.000000;2.099622
9945.000000;2.095207
9944.000000;2.092374
9943.000000;2.092781
9942.000000;2.095990
9941.000000;2.099885
9940.000000;2.102518
9939.000000;2.103406
9938.000000;2.103638
9937.000000;2.104639
9936.000000;2.106719
9935.000000;2.108870
9934.000000;2.109557
9933.000000;2.107665
9932.000000;2.103095
9931.000000;2.097091
9930.000000;2.092020
9929.000000;2.090552
9928.000000;2.094002
9927.000000;2.100459
9926.000000;2.105553
9925.000000;2.106469
9924.000000;2.104587
9923.000000;2.102905
9922.000000;2.101995
9921.000000;2.100319
9920.000000;2.097559
9919.000000;2.095081
9918.000000;2.093014
9917.000000;2.089574
9916.000000;2.084512
9915.000000;2.081018
9914.000000;2.082301
9913.000000;2.087568
9912.000000;2.092854
9911.000000;2.095393
9910.000000;2.095552
9909.000000;2.094322
9908.000000;2.091205
9907.000000;2.085706
9906.000000;2.079482
9905.000000;2.075635
9904.000000;2.076025
9903.000000;2.079797
9902.000000;2.084460
9901.000000;2.088151
9900.000000;2.090448
9899.000000;2.090832
9898.000000;2.087705
9897.000000;2.080585
9896.000000;2.072553
9895.000000;2.068178
9894.000000;2.068771
9893.000000;2.071279
9892.000000;2.072466
9891.000000;2.072686
9890.000000;2.073937
9889.000000;2.075814
9888.000000;2.075830
9887.000000;2.073090
9886.000000;2.069374
9885.000000;2.066708
9884.000000;2.065922
9883.000000;2.067280
9882.000000;2.070346
9881.000000;2.073176
9880.000000;2.073728
9879.000000;2.072463
9878.000000;2.071702
9877.000000;2.072247
9876.000000;2.072696
9875.000000;2.072475
9874.000000;2.073149
9873.000000;2.075503
9872.000000;2.077502
9871.000000;2.076958
9870.000000;2.074397
9869.000000;2.071244
9868.000000;2.067344
9867.000000;2.062546
9866.000000;2.058954
9865.000000;2.059063
9864.000000;2.062440
9863.000000;2.066561
9862.000000;2.070669
9861.000000;2.076141
9860.000000;2.082833
9859.000000;2.087411
9858.000000;2.086390
9857.000000;2.080103
9856.000000;2.072088
9855.000000;2.065389
9854.000000;2.061148
9853.000000;2.059170
9852.000000;2.058144
9851.000000;2.056314
9850.000000;2.053352
9849.000000;2.051229
9848.000000;2.052519
9847.000000;2.057928
9846.000000;2.065632
9845.000000;2.072629
9844.000000;2.075996
9843.000000;2.073897
9842.000000;2.067176
9841.000000;2.059708
9840.000000;2.055996
9839.000000;2.057723
9838.000000;2.062318
9837.000000;2.064950
9836.000000;2.062498
9835.000000;2.055916
9834.000000;2.048864
9833.000000;2.044523
9832.000000;2.043653
9831.000000;2.045010
9830.000000;2.047213
9829.000000;2.049818
9828.000000;2.052650
9827.000000;2.055070
9826.000000;2.056446
9825.000000;2.056955
9824.000000;2.057697
9823.000000;2.059751
9822.000000;2.062690
9821.000000;2.064283
9820.000000;2.062176
9819.000000;2.056119
9818.000000;2.048478
9817.000000;2.042410
9816.000000;2.039615
9815.000000;2.039941
9814.000000;2.042690
9813.000000;2.047492
9812.000000;2.053585
9811.000000;2.058969
9810.000000;2.061432
9809.000000;2.060537
9808.000000;2.057826
9807.000000;2.055001
9806.000000;2.052632
9805.000000;2.050560
9804.000000;2.048718
9803.000000;2.047252
9802.000000;2.046442
9801.000000;2.046577
9800.000000;2.047484
9799.000000;2.048151
9798.000000;2.047144
9797.000000;2.044089
9796.000000;2.040588
9795.000000;2.038870
9794.000000;2.039708
9793.000000;2.041970
9792.000000;2.043726
9791.000000;2.043425
9790.000000;2.040662
9789.000000;2.036645
9788.000000;2.033526
9787.000000;2.032488
9786.000000;2.032760
9785.000000;2.033050
9784.000000;2.033456
9783.000000;2.034896
9782.000000;2.037022
9781.000000;2.038201
9780.000000;2.037953
9779.000000;2.037945
9778.000000;2.039460
9777.000000;2.041508
9776.000000;2.042462
9775.000000;2.042160
9774.000000;2.041170
9773.000000;2.039060
9772.000000;2.035352
9771.000000;2.031519
9770.000000;2.029969
9769.000000;2.031074
9768.000000;2.032599
9767.000000;2.032500
9766.000000;2.031086
9765.000000;2.029822
9764.000000;2.029297
9763.000000;2.029309
9762.000000;2.030021
9761.000000;2.031767
9760.000000;2.033881
9759.000000;2.034895
9758.000000;2.034253
9757.000000;2.033074
9756.000000;2.032702
9755.000000;2.032921
9754.000000;2.032332
9753.000000;2.030335
9752.000000;2.027937
9751.000000;2.026294
9750.000000;2.025133
9749.000000;2.023401
9748.000000;2.021256
9747.000000;2.020324
9746.000000;2.021683
9745.000000;2.024541
9744.000000;2.027466
9743.000000;2.030058
9742.000000;2.032369
9741.000000;2.033264
9740.000000;2.030981
9739.000000;2.025554
9738.000000;2.019493
9737.000000;2.015572
9736.000000;2.014547
9735.000000;2.015130
9734.000000;2.015630
9733.000000;2.015472
9732.000000;2.015304
9731.000000;2.015733
9730.000000;2.016162
9729.000000;2.015381
9728.000000;2.013474
9727.000000;2.012378
9726.000000;2.013739
9725.000000;2.016656
9724.000000;2.018405
9723.000000;2.017459
9722.000000;2.014973
9721.000000;2.013080
9720.000000;2.012782
9719.000000;2.013915
9718.000000;2.016045
9717.000000;2.018522
9716.000000;2.020157
9715.000000;2.019723
9714.000000;2.017046
9713.000000;2.013289
9712.000000;2.010031
9711.000000;2.008144
9710.000000;2.007445
9709.000000;2.007361
9708.000000;2.007986
9707.000000;2.010066
9706.000000;2.013572
9705.000000;2.016768
9704.000000;2.017508
9703.000000;2.015556
9702.000000;2.012926
9701.000000;2.011768
9700.000000;2.012418
9699.000000;2.013321
9698.000000;2.012237
9697.000000;2.008012
9696.000000;2.001979
9695.000000;1.997296
9694.000000;1.996132
9693.000000;1.997556
9692.000000;1.998864
9691.000000;1.998878
9690.000000;1.998659
9689.000000;1.998743
9688.000000;1.997544
9687.000000;1.993655
9686.000000;1.988541
9685.000000;1.985462
9684.000000;1.986238
9683.000000;1.989907
9682.000000;1.993977
9681.000000;1.996281
9680.000000;1.996119
9679.000000;1.994558
9678.000000;1.993603
9677.000000;1.994536
9676.000000;1.997064
9675.000000;2.000108
9674.000000;2.002845
9673.000000;2.004567
9672.000000;2.004259
9671.000000;2.001383
9670.000000;1.997010
9669.000000;1.993197
9668.000000;1.991214
9667.000000;1.990925
9666.000000;1.991475
9665.000000;1.992007
9664.000000;1.992095
9663.000000;1.992077
9662.000000;1.992664
9661.000000;1.993723
9660.000000;1.993880
9659.000000;1.992068
9658.000000;1.989094
9657.000000;1.986836
9656.000000;1.986246
9655.000000;1.986866
9654.000000;1.987786
9653.000000;1.988210
9652.000000;1.987604
9651.000000;1.986219
9650.000000;1.985353
9649.000000;1.986344
9648.000000;1.989070
9647.000000;1.991975
9646.000000;1.993702
9645.000000;1.994139
9644.000000;1.993841
9643.000000;1.993179
9642.000000;1.992396
9641.000000;1.991681
9640.000000;1.990618
9639.000000;1.988241
9638.000000;1.984249
9637.000000;1.979712
9636.000000;1.976171
9635.000000;1.974315
9634.000000;1.973709
9633.000000;1.973777
9632.000000;1.974743
9631.000000;1.977127
9630.000000;1.980093
9629.000000;1.980929
9628.000000;1.977421
9627.000000;1.970994
9626.000000;1.966212
9625.000000;1.966404
9624.000000;1.970614
9623.000000;1.975180
9622.000000;1.977712
9621.000000;1.978641
9620.000000;1.979101
9619.000000;1.979203
9618.000000;1.978946
9617.000000;1.978919
9616.000000;1.979163
9615.000000;1.978630
9614.000000;1.976625
9613.000000;1.974005
9612.000000;1.972166
9611.000000;1.971308
9610.000000;1.970492
9609.000000;1.969071
9608.000000;1.967421
9607.000000;1.966485
9606.000000;1.967068
9605.000000;1.969256
9604.000000;1.971891
9603.000000;1.972965
9602.000000;1.971386
9601.000000;1.968330
9600.000000;1.966267
9599.000000;1.966571
9598.000000;1.968316
9597.000000;1.969351
9596.000000;1.968381
9595.000000;1.965942
9594.000000;1.963475
9593.000000;1.961731
9592.000000;1.960462
9591.000000;1.959712
9590.000000;1.960688
9589.000000;1.964420
9588.000000;1.969631
9587.000000;1.973094
9586.000000;1.972806
9585.000000;1.969896
9584.000000;1.966761
9583.000000;1.964463
9582.000000;1.962782
9581.000000;1.961798
9580.000000;1.961926
9579.000000;1.962589
9578.000000;1.962307
9577.000000;1.960587
9576.000000;1.958705
9575.000000;1.958080
9574.000000;1.958642
9573.000000;1.959302
9572.000000;1.959347
9571.000000;1.958768
9570.000000;1.957700
9569.000000;1.956330
9568.000000;1.955164
9567.000000;1.954664
9566.000000;1.954496
9565.000000;1.953742
9564.000000;1.952170
9563.000000;1.950871
9562.000000;1.951138
9561.000000;1.952858
9560.000000;1.954474
9559.000000;1.954632
9558.000000;1.953391
9557.000000;1.951717
9556.000000;1.950596
9555.000000;1.951010
9554.000000;1.953991
9553.000000;1.959317
9552.000000;1.963902
9551.000000;1.963264
9550.000000;1.956281
9549.000000;1.947428
9548.000000;1.942727
9547.000000;1.944221
9546.000000;1.948858
9545.000000;1.952031
9544.000000;1.951601
9543.000000;1.948513
9542.000000;1.944729
9541.000000;1.941701
9540.000000;1.940235
9539.000000;1.940483
9538.000000;1.941868
9537.000000;1.943491
9536.000000;1.944752
9535.000000;1.945353
9534.000000;1.944980
9533.000000;1.943530
9532.000000;1.941662
9531.000000;1.940536
9530.000000;1.940676
9529.000000;1.941238
9528.000000;1.940612
9527.000000;1.937922
9526.000000;1.933990
9525.000000;1.930746
9524.000000;1.929584
9523.000000;1.930284
9522.000000;1.931499
9521.000000;1.932215
9520.000000;1.932491
9519.000000;1.932794
9518.000000;1.933154
9517.000000;1.933313
9516.000000;1.933267
9515.000000;1.933076
9514.000000;1.932307
9513.000000;1.930287
9512.000000;1.927071
9511.000000;1.923839
9510.000000;1.922266
9509.000000;1.923432
9508.000000;1.926923
9507.000000;1.930608
9506.000000;1.931794
9505.000000;1.929576
9504.000000;1.925926
9503.000000;1.923819
9502.000000;1.924609
9501.000000;1.927521
9500.000000;1.930940
9499.000000;1.933336
9498.000000;1.933381
9497.000000;1.930777
9496.000000;1.927412
9495.000000;1.926197
9494.000000;1.927907
9493.000000;1.930042
9492.000000;1.929664
9491.000000;1.926744
9490.000000;1.923686
9489.000000;1.922370
9488.000000;1.922996
9487.000000;1.925022
9486.000000;1.927657
9485.000000;1.929646
9484.000000;1.930051
9483.000000;1.929386
9482.000000;1.928786
9481.000000;1.928041
9480.000000;1.925749
9479.000000;1.921669
9478.000000;1.917564
9477.000000;1.915195
9476.000000;1.914634
9475.000000;1.915016
9474.000000;1.915869
9473.000000;1.917118
9472.000000;1.918567
9471.000000;1.920140
9470.000000;1.921962
9469.000000;1.923539
9468.000000;1.923629
9467.000000;1.921859
9466.000000;1.919741
9465.000000;1.918968
9464.000000;1.919254
9463.000000;1.918987
9462.000000;1.917620
9461.000000;1.916190
9460.000000;1.915506
9459.000000;1.915122
9458.000000;1.914362
9457.000000;1.913366
9456.000000;1.912683
9455.000000;1.912512
9454.000000;1.912774
9453.000000;1.913350
9452.000000;1.913766
9451.000000;1.912996
9450.000000;1.910281
9449.000000;1.906223
9448.000000;1.902692
9447.000000;1.901454
9446.000000;1.902828
9445.000000;1.905469
9444.000000;1.907389
9443.000000;1.907405
9442.000000;1.905722
9441.000000;1.903291
9440.000000;1.900939
9439.000000;1.899262
9438.000000;1.898901
9437.000000;1.900363
9436.000000;1.903381
9435.000000;1.906637
9434.000000;1.908481
9433.000000;1.908240
9432.000000;1.906857
9431.000000;1.906119
9430.000000;1.907012
9429.000000;1.908713
9428.000000;1.909354
9427.000000;1.907922
9426.000000;1.905321
9425.000000;1.903620
9424.000000;1.904433
9423.000000;1.907795
9422.000000;1.911981
9421.000000;1.914368
9420.000000;1.913229
9419.000000;1.909149
9418.000000;1.904409
9417.000000;1.900946
9416.000000;1.899289
9415.000000;1.898970
9414.000000;1.899085
9413.000000;1.898484
9412.000000;1.896417
9411.000000;1.893656
9410.000000;1.892236
9409.000000;1.893324
9408.000000;1.895821
9407.000000;1.897789
9406.000000;1.898788
9405.000000;1.899810
9404.000000;1.901155
9403.000000;1.901655
9402.000000;1.900225
9401.000000;1.897233
9400.000000;1.894115
9399.000000;1.892308
9398.000000;1.892466
9397.000000;1.893806
9396.000000;1.894196
9395.000000;1.891983
9394.000000;1.888067
9393.000000;1.885161
9392.000000;1.884697
9391.000000;1.885482
9390.000000;1.885692
9389.000000;1.885086
9388.000000;1.884560
9387.000000;1.884506
9386.000000;1.884633
9385.000000;1.884875
9384.000000;1.885403
9383.000000;1.885855
9382.000000;1.885641
9381.000000;1.885044
9380.000000;1.885097
9379.000000;1.886265
9378.000000;1.887847
9377.000000;1.888689
9376.000000;1.888094
9375.000000;1.886073
9374.000000;1.883266
9373.000000;1.880768
9372.000000;1.879535
9371.000000;1.879844
9370.000000;1.881624
9369.000000;1.884919
9368.000000;1.889219
9367.000000;1.892492
9366.000000;1.892170
9365.000000;1.887796
9364.000000;1.881860
9363.000000;1.877417
9362.000000;1.875666
9361.000000;1.876050
9360.000000;1.877572
9359.000000;1.879309
9358.000000;1.880513
9357.000000;1.881277
9356.000000;1.882655
9355.000000;1.885090
9354.000000;1.887080
9353.000000;1.886497
9352.000000;1.883343
9351.000000;1.879933
9350.000000;1.878016
9349.000000;1.877168
9348.000000;1.876426
9347.000000;1.876042
9346.000000;1.876614
9345.000000;1.877463
9344.000000;1.877300
9343.000000;1.876108
9342.000000;1.875001
9341.000000;1.874327
9340.000000;1.873214
9339.000000;1.871244
9338.000000;1.869421
9337.000000;1.868790
9336.000000;1.868789
9335.000000;1.867798
9334.000000;1.865265
9333.000000;1.862615
9332.000000;1.861892
9331.000000;1.863703
9330.000000;1.866587
9329.000000;1.868640
9328.000000;1.869647
9327.000000;1.870933
9326.000000;1.873060
9325.000000;1.874645
9324.000000;1.874133
9323.000000;1.871968
9322.000000;1.869824
9321.000000;1.868250
9320.000000;1.866490
9319.000000;1.864515
9318.000000;1.863762
9317.000000;1.865399
9316.000000;1.868863
9315.000000;1.872581
9314.000000;1.875291
9313.000000;1.876256
9312.000000;1.875118
9311.000000;1.872365
9310.000000;1.869363
9309.000000;1.867172
9308.000000;1.865723
9307.000000;1.864597
9306.000000;1.863954
9305.000000;1.864063
9304.000000;1.864489
9303.000000;1.864561
9302.000000;1.864299
9301.000000;1.864220
9300.000000;1.864509
9299.000000;1.865004
9298.000000;1.865649
9297.000000;1.866302
9296.000000;1.866348
9295.000000;1.865098
9294.000000;1.862597
9293.000000;1.859742
9292.000000;1.857713
9291.000000;1.857359
9290.000000;1.858595
9289.000000;1.860081
9288.000000;1.860204
9287.000000;1.858911
9286.000000;1.857900
9285.000000;1.858492
9284.000000;1.860138
9283.000000;1.861590
9282.000000;1.862527
9281.000000;1.862981
9280.000000;1.862158
9279.000000;1.859502
9278.000000;1.856483
9277.000000;1.855526
9276.000000;1.857161
9275.000000;1.859532
9274.000000;1.860763
9273.000000;1.860674
9272.000000;1.860121
9271.000000;1.859952
9270.000000;1.860802
9269.000000;1.862532
9268.000000;1.863454
9267.000000;1.861475
9266.000000;1.856789
9265.000000;1.852282
9264.000000;1.850581
9263.000000;1.851691
9262.000000;1.853904
9261.000000;1.855954
9260.000000;1.857408
9259.000000;1.857701
9258.000000;1.856154
9257.000000;1.852915
9256.000000;1.849049
9255.000000;1.845738
9254.000000;1.843820
9253.000000;1.843692
9252.000000;1.844908
9251.000000;1.845947
9250.000000;1.845162
9249.000000;1.842385
9248.000000;1.839324
9247.000000;1.838185
9246.000000;1.839857
9245.000000;1.843100
9244.000000;1.845512
9243.000000;1.845786
9242.000000;1.845008
9241.000000;1.845264
9240.000000;1.847060
9239.000000;1.848771
9238.000000;1.848680
9237.000000;1.846684
9236.000000;1.843644
9235.000000;1.840185
9234.000000;1.836956
9233.000000;1.835231
9232.000000;1.836102
9231.000000;1.839192
9230.000000;1.842858
9229.000000;1.845613
9228.000000;1.846855
9227.000000;1.846430
9226.000000;1.844422
9225.000000;1.841631
9224.000000;1.839502
9223.000000;1.839019
9222.000000;1.839878
9221.000000;1.840910
9220.000000;1.841119
9219.000000;1.840302
9218.000000;1.838987
9217.000000;1.837965
9216.000000;1.837727
9215.000000;1.838096
9214.000000;1.838320
9213.000000;1.837647
9212.000000;1.835987
9211.000000;1.834118
9210.000000;1.833186
9209.000000;1.833808
9208.000000;1.835527
9207.000000;1.837120
9206.000000;1.837423
9205.000000;1.835893
9204.000000;1.832782
9203.000000;1.829187
9202.000000;1.826539
9201.000000;1.825572
9200.000000;1.825817
9199.000000;1.826105
9198.000000;1.825547
9197.000000;1.824102
9196.000000;1.822459
9195.000000;1.821691
9194.000000;1.822761
9193.000000;1.825782
9192.000000;1.829749
9191.000000;1.833343
9190.000000;1.835816
9189.000000;1.836767
9188.000000;1.835724
9187.000000;1.832918
9186.000000;1.829942
9185.000000;1.828399
9184.000000;1.828038
9183.000000;1.827305
9182.000000;1.825808
9181.000000;1.824978
9180.000000;1.825787
9179.000000;1.827221
9178.000000;1.827902
9177.000000;1.828145
9176.000000;1.829101
9175.000000;1.830538
9174.000000;1.830867
9173.000000;1.829181
9172.000000;1.826177
9171.000000;1.823167
9170.000000;1.821093
9169.000000;1.820379
9168.000000;1.820783
9167.000000;1.821436
9166.000000;1.821775
9165.000000;1.822272
9164.000000;1.823562
9163.000000;1.825174
9162.000000;1.825991
9161.000000;1.825852
9160.000000;1.825755
9159.000000;1.826374
9158.000000;1.827182
9157.000000;1.827186
9156.000000;1.825850
9155.000000;1.823203
9154.000000;1.819737
9153.000000;1.816449
9152.000000;1.814371
9151.000000;1.813713
9150.000000;1.813815
9149.000000;1.814100
9148.000000;1.814686
9147.000000;1.815925
9146.000000;1.817688
9145.000000;1.819308
9144.000000;1.820107
9143.000000;1.819968
9142.000000;1.819494
9141.000000;1.819404
9140.000000;1.819331
9139.000000;1.817763
9138.000000;1.814068
9137.000000;1.809999
9136.000000;1.808212
9135.000000;1.809542
9134.000000;1.812331
9133.000000;1.814339
9132.000000;1.814647
9131.000000;1.813508
9130.000000;1.811416
9129.000000;1.809108
9128.000000;1.807692
9127.000000;1.807750
9126.000000;1.808558
9125.000000;1.808748
9124.000000;1.807675
9123.000000;1.805819
9122.000000;1.804230
9121.000000;1.804036
9120.000000;1.806074
9119.000000;1.810142
9118.000000;1.814501
9117.000000;1.816690
9116.000000;1.815374
9115.000000;1.811394
9114.000000;1.806908
9113.000000;1.803642
9112.000000;1.801980
9111.000000;1.801406
9110.000000;1.801456
9109.000000;1.802007
9108.000000;1.802735
9107.000000;1.802851
9106.000000;1.801956
9105.000000;1.800829
9104.000000;1.800589
9103.000000;1.801200
9102.000000;1.801548
9101.000000;1.801129
9100.000000;1.800731
9099.000000;1.801128
9098.000000;1.802004
9097.000000;1.802778
9096.000000;1.803850
9095.000000;1.805937
9094.000000;1.808447
9093.000000;1.809595
9092.000000;1.808316
9091.000000;1.805423
9090.000000;1.802654
9089.000000;1.801060
9088.000000;1.800480
9087.000000;1.800144
9086.000000;1.799419
9085.000000;1.798218
9084.000000;1.797084
9083.000000;1.796709
9082.000000;1.797182
9081.000000;1.797873
9080.000000;1.798052
9079.000000;1.797497
9078.000000;1.796504
9077.000000;1.795498
9076.000000;1.794817
9075.000000;1.794785
9074.000000;1.795689
9073.000000;1.797417
9072.000000;1.799016
9071.000000;1.798978
9070.000000;1.796615
9069.000000;1.793170
9068.000000;1.790924
9067.000000;1.790939
9066.000000;1.792129
9065.000000;1.792790
9064.000000;1.792540
9063.000000;1.792223
9062.000000;1.792342
9061.000000;1.792454
9060.000000;1.792145
9059.000000;1.791703
9058.000000;1.791493
9057.000000;1.791438
9056.000000;1.791447
9055.000000;1.791860
9054.000000;1.793174
9053.000000;1.795414
