Criado como novo conjunto de dados;"Jao_teste_celulas.spp","10504.1 Secs"
cm-1;Abs
10000.000000;1.723932
9999.000000;1.725691
9998.000000;1.727946
9997.000000;1.729359
9996.000000;1.728517
9995.000000;1.725329
9994.000000;1.721078
9993.000000;1.717695
9992.000000;1.716018
9991.000000;1.715590
9990.000000;1.715711
9989.000000;1.716395
9988.000000;1.717785
9987.000000;1.719388
9986.000000;1.720469
9985.000000;1.720735
9984.000000;1.720167
9983.000000;1.718684
9982.000000;1.716422
9981.000000;1.713986
9980.000000;1.711926
9979.000000;1.710125
9978.000000;1.708209
9977.000000;1.706433
9976.000000;1.705667
9975.000000;1.706468
9974.000000;1.708464
9973.000000;1.710573
9972.000000;1.711615
9971.000000;1.710990
9970.000000;1.709020
9969.000000;1.706478
9968.000000;1.703847
9967.000000;1.701512
9966.000000;1.700566
9965.000000;1.702389
9964.000000;1.706791
9963.000000;1.711272
9962.000000;1.713161
9961.000000;1.712317
9960.000000;1.710820
9959.000000;1.710336
9958.000000;1.710846
9957.000000;1.711546
9956.000000;1.711751
9955.000000;1.710806
9954.000000;1.708247
9953.000000;1.704643
9952.000000;1.701598
9951.000000;1.700435
9950.000000;1.701114
9949.000000;1.702456
9948.000000;1.703017
9947.000000;1.701911
9946.000000;1.699435
9945.000000;1.696944
9944.000000;1.695654
9943.000000;1.695481
9942.000000;1.695329
9941.000000;1.694475
9940.000000;1.693211
9939.000000;1.692186
9938.000000;1.691808
9937.000000;1.692354
9936.000000;1.693900
9935.000000;1.695826
9934.000000;1.697013
9933.000000;1.696993
9932.000000;1.696414
9931.000000;1.695978
9930.000000;1.695377
9929.000000;1.693812
9928.000000;1.691359
9927.000000;1.689265
9926.000000;1.688893
9925.000000;1.690566
9924.000000;1.693258
9923.000000;1.695259
9922.000000;1.695401
9921.000000;1.693940
9920.000000;1.692138
9919.000000;1.690893
9918.000000;1.689959
9917.000000;1.688630
9916.000000;1.686933
9915.000000;1.685689
9914.000000;1.685387
9913.000000;1.685471
9912.000000;1.684999
9911.000000;1.683852
9910.000000;1.682896
9909.000000;1.682810
9908.000000;1.683085
9907.000000;1.682567
9906.000000;1.680963
9905.000000;1.679309
9904.000000;1.678793
9903.000000;1.679610
9902.000000;1.681148
9901.000000;1.682733
9900.000000;1.683695
9899.000000;1.683108
9898.000000;1.680555
9897.000000;1.677162
9896.000000;1.674901
9895.000000;1.674736
9894.000000;1.675959
9893.000000;1.677404
9892.000000;1.678797
9891.000000;1.680575
9890.000000;1.682711
9889.000000;1.684160
9888.000000;1.683555
9887.000000;1.680460
9886.000000;1.675951
9885.000000;1.671811
9884.000000;1.669078
9883.000000;1.667524
9882.000000;1.666582
9881.000000;1.666348
9880.000000;1.667148
9879.000000;1.668507
9878.000000;1.669351
9877.000000;1.669101
9876.000000;1.667875
9875.000000;1.665815
9874.000000;1.663210
9873.000000;1.661203
9872.000000;1.661284
9871.000000;1.663673
9870.000000;1.666710
9869.000000;1.668282
9868.000000;1.667653
9867.000000;1.665575
9866.000000;1.663122
9865.000000;1.660987
9864.000000;1.659525
9863.000000;1.658893
9862.000000;1.659113
9861.000000;1.660033
9860.000000;1.661099
9859.000000;1.661424
9858.000000;1.660771
9857.000000;1.660313
9856.000000;1.661488
9855.000000;1.663965
9854.000000;1.665645
9853.000000;1.665127
9852.000000;1.663323
9851.000000;1.661930
9850.000000;1.661227
9849.000000;1.660306
9848.000000;1.658766
9847.000000;1.657036
9846.000000;1.655275
9845.000000;1.653109
9844.000000;1.650627
9843.000000;1.648783
9842.000000;1.648509
9841.000000;1.649846
9840.000000;1.651878
9839.000000;1.653148
9838.000000;1.652436
9837.000000;1.649836
9836.000000;1.647028
9835.000000;1.645865
9834.000000;1.646551
9833.000000;1.647612
9832.000000;1.647760
9831.000000;1.647343
9830.000000;1.647650
9829.000000;1.649234
9828.000000;1.651321
9827.000000;1.652660
9826.000000;1.652617
9825.000000;1.651411
9824.000000;1.649572
9823.000000;1.647471
9822.000000;1.645417
9821.000000;1.643897
9820.000000;1.643307
9819.000000;1.643472
9818.000000;1.643776
9817.000000;1.643885
9816.000000;1.643991
9815.000000;1.644137
9814.000000;1.643806
9813.000000;1.642602
9812.000000;1.641021
9811.000000;1.639901
9810.000000;1.639266
9809.000000;1.638363
9808.000000;1.636915
9807.000000;1.635695
9806.000000;1.635571
9805.000000;1.636400
9804.000000;1.637257
9803.000000;1.637614
9802.000000;1.637842
9801.000000;1.638392
9800.000000;1.638836
9799.000000;1.638207
9798.000000;1.636333
9797.000000;1.634369
9796.000000;1.633616
9795.000000;1.634057
9794.000000;1.634538
9793.000000;1.634229
9792.000000;1.633386
9791.000000;1.632692
9790.000000;1.632330
9789.000000;1.631995
9788.000000;1.631441
9787.000000;1.630587
9786.000000;1.629417
9785.000000;1.628165
9784.000000;1.627315
9783.000000;1.626996
9782.000000;1.626604
9781.000000;1.625450
9780.000000;1.623740
9779.000000;1.622515
9778.000000;1.622650
9777.000000;1.624146
9776.000000;1.626188
9775.000000;1.627616
9774.000000;1.627595
9773.000000;1.626226
9772.000000;1.624398
9771.000000;1.622893
9770.000000;1.621795
9769.000000;1.620884
9768.000000;1.620274
9767.000000;1.620071
9766.000000;1.619705
9765.000000;1.618463
9764.000000;1.616693
9763.000000;1.615689
9762.000000;1.616132
9761.000000;1.617252
9760.000000;1.617889
9759.000000;1.617913
9758.000000;1.618080
9757.000000;1.618793
9756.000000;1.619607
9755.000000;1.619922
9754.000000;1.619683
9753.000000;1.619167
9752.000000;1.618412
9751.000000;1.617259
9750.000000;1.615884
9749.000000;1.614869
9748.000000;1.614597
9747.000000;1.614707
9746.000000;1.614366
9745.000000;1.613139
9744.000000;1.611384
9743.000000;1.609758
9742.000000;1.608590
9741.000000;1.607836
9740.000000;1.607467
9739.000000;1.607623
9738.000000;1.608382
9737.000000;1.609493
9736.000000;1.610359
9735.000000;1.610370
9734.000000;1.609413
9733.000000;1.608044
9732.000000;1.607010
9731.000000;1.606489
9730.000000;1.606015
9729.000000;1.605239
9728.000000;1.604460
9727.000000;1.604238
9726.000000;1.604800
9725.000000;1.605970
9724.000000;1.607370
9723.000000;1.608380
9722.000000;1.608155
9721.000000;1.606145
9720.000000;1.602662
9719.000000;1.598805
9718.000000;1.595926
9717.000000;1.595102
9716.000000;1.596563
9715.000000;1.599203
9714.000000;1.601066
9713.000000;1.600990
9712.000000;1.599682
9711.000000;1.598667
9710.000000;1.598510
9709.000000;1.598663
9708.000000;1.598805
9707.000000;1.599407
9706.000000;1.600660
9705.000000;1.601559
9704.000000;1.600728
9703.000000;1.598005
9702.000000;1.594730
9701.000000;1.592419
9700.000000;1.591462
9699.000000;1.591235
9698.000000;1.591232
9697.000000;1.591708
9696.000000;1.593011
9695.000000;1.594577
9694.000000;1.595240
9693.000000;1.594591
9692.000000;1.593388
9691.000000;1.592311
9690.000000;1.591005
9689.000000;1.588926
9688.000000;1.586601
9687.000000;1.585184
9686.000000;1.584875
9685.000000;1.584604
9684.000000;1.583430
9683.000000;1.581654
9682.000000;1.580324
9681.000000;1.580195
9680.000000;1.581353
9679.000000;1.583327
9678.000000;1.585272
9677.000000;1.586341
9676.000000;1.586286
9675.000000;1.585555
9674.000000;1.584590
9673.000000;1.583310
9672.000000;1.581487
9671.000000;1.579285
9670.000000;1.577201
9669.000000;1.575695
9668.000000;1.575054
9667.000000;1.575352
9666.000000;1.576339
9665.000000;1.577546
9664.000000;1.578667
9663.000000;1.579617
9662.000000;1.580119
9661.000000;1.579662
9660.000000;1.578225
9659.000000;1.576734
9658.000000;1.576342
9657.000000;1.577251
9656.000000;1.578499
9655.000000;1.578959
9654.000000;1.578404
9653.000000;1.577566
9652.000000;1.577230
9651.000000;1.577335
9650.000000;1.576958
9649.000000;1.575257
9648.000000;1.572416
9647.000000;1.569588
9646.000000;1.567979
9645.000000;1.568121
9644.000000;1.569814
9643.000000;1.572280
9642.000000;1.574320
9641.000000;1.574809
9640.000000;1.573508
9639.000000;1.571259
9638.000000;1.569137
9637.000000;1.567556
9636.000000;1.566315
9635.000000;1.565213
9634.000000;1.564252
9633.000000;1.563432
9632.000000;1.562696
9631.000000;1.562086
9630.000000;1.561675
9629.000000;1.561357
9628.000000;1.560957
9627.000000;1.560580
9626.000000;1.560591
9625.000000;1.561085
9624.000000;1.561563
9623.000000;1.561379
9622.000000;1.560527
9621.000000;1.559802
9620.000000;1.560024
9619.000000;1.561090
9618.000000;1.561905
9617.000000;1.561403
9616.000000;1.559637
9615.000000;1.557656
9614.000000;1.556303
9613.000000;1.555521
9612.000000;1.554992
9611.000000;1.555069
9610.000000;1.556462
9609.000000;1.558880
9608.000000;1.560587
9607.000000;1.559891
9606.000000;1.557002
9605.000000;1.553914
9604.000000;1.552410
9603.000000;1.552565
9602.000000;1.553115
9601.000000;1.552857
9600.000000;1.551567
9599.000000;1.549919
9598.000000;1.548897
9597.000000;1.549143
9596.000000;1.550482
9595.000000;1.552013
9594.000000;1.552883
9593.000000;1.552968
9592.000000;1.552646
9591.000000;1.552066
9590.000000;1.551046
9589.000000;1.549626
9588.000000;1.548318
9587.000000;1.547692
9586.000000;1.547948
9585.000000;1.548869
9584.000000;1.549877
9583.000000;1.550133
9582.000000;1.549030
9581.000000;1.546851
9580.000000;1.544641
9579.000000;1.543200
9578.000000;1.542505
9577.000000;1.542251
9576.000000;1.542423
9575.000000;1.542913
9574.000000;1.542991
9573.000000;1.541852
9572.000000;1.539627
9571.000000;1.537321
9570.000000;1.535700
9569.000000;1.534739
9568.000000;1.534208
9567.000000;1.534149
9566.000000;1.534476
9565.000000;1.534643
9564.000000;1.534247
9563.000000;1.533750
9562.000000;1.534100
9561.000000;1.535586
9560.000000;1.537422
9559.000000;1.538557
9558.000000;1.538705
9557.000000;1.538421
9556.000000;1.538369
9555.000000;1.538722
9554.000000;1.539207
9553.000000;1.539433
9552.000000;1.539117
9551.000000;1.538137
9550.000000;1.536483
9549.000000;1.534238
9548.000000;1.531771
9547.000000;1.529885
9546.000000;1.529517
9545.000000;1.530922
9544.000000;1.533101
9543.000000;1.534413
9542.000000;1.534108
9541.000000;1.532928
9540.000000;1.531870
9539.000000;1.530741
9538.000000;1.528567
9537.000000;1.525312
9536.000000;1.522448
9535.000000;1.521542
9534.000000;1.522725
9533.000000;1.524733
9532.000000;1.526153
9531.000000;1.526427
9530.000000;1.525948
9529.000000;1.525453
9528.000000;1.525247
9527.000000;1.524862
9526.000000;1.523639
9525.000000;1.521680
9524.000000;1.519909
9523.000000;1.519120
9522.000000;1.519290
9521.000000;1.519852
9520.000000;1.520213
9519.000000;1.519929
9518.000000;1.518963
9517.000000;1.518061
9516.000000;1.518276
9515.000000;1.519660
9514.000000;1.520882
9513.000000;1.520690
9512.000000;1.519383
9511.000000;1.518215
9510.000000;1.517758
9509.000000;1.517608
9508.000000;1.517335
9507.000000;1.516836
9506.000000;1.515909
9505.000000;1.514505
9504.000000;1.513467
9503.000000;1.514028
9502.000000;1.516168
9501.000000;1.518087
9500.000000;1.517880
9499.000000;1.515488
9498.000000;1.512525
9497.000000;1.510563
9496.000000;1.510018
9495.000000;1.510350
9494.000000;1.510786
9493.000000;1.510861
9492.000000;1.510540
9491.000000;1.509945
9490.000000;1.509076
9489.000000;1.507940
9488.000000;1.506851
9487.000000;1.506220
9486.000000;1.506007
9485.000000;1.505741
9484.000000;1.505179
9483.000000;1.504620
9482.000000;1.504426
9481.000000;1.504556
9480.000000;1.504720
9479.000000;1.504681
9478.000000;1.504287
9477.000000;1.503507
9476.000000;1.502670
9475.000000;1.502328
9474.000000;1.502629
9473.000000;1.503062
9472.000000;1.503098
9471.000000;1.502898
9470.000000;1.503049
9469.000000;1.503697
9468.000000;1.504226
9467.000000;1.503794
9466.000000;1.502112
9465.000000;1.499752
9464.000000;1.497694
9463.000000;1.496432
9462.000000;1.495555
9461.000000;1.494378
9460.000000;1.492981
9459.000000;1.492277
9458.000000;1.492898
9457.000000;1.494390
9456.000000;1.495746
9455.000000;1.496461
9454.000000;1.496686
9453.000000;1.496510
9452.000000;1.495635
9451.000000;1.493888
9450.000000;1.491710
9449.000000;1.489881
9448.000000;1.488915
9447.000000;1.488827
9446.000000;1.489343
9445.000000;1.490162
9444.000000;1.491025
9443.000000;1.491658
9442.000000;1.491829
9441.000000;1.491553
9440.000000;1.491183
9439.000000;1.491133
9438.000000;1.491426
9437.000000;1.491589
9436.000000;1.491058
9435.000000;1.489715
9434.000000;1.488070
9433.000000;1.486864
9432.000000;1.486408
9431.000000;1.486286
9430.000000;1.485893
9429.000000;1.485238
9428.000000;1.484936
9427.000000;1.485235
9426.000000;1.485384
9425.000000;1.484458
9424.000000;1.482655
9423.000000;1.481224
9422.000000;1.481107
9421.000000;1.482058
9420.000000;1.483152
9419.000000;1.483719
9418.000000;1.483605
9417.000000;1.482979
9416.000000;1.482221
9415.000000;1.481777
9414.000000;1.481797
9413.000000;1.481957
9412.000000;1.481826
9411.000000;1.481301
9410.000000;1.480562
9409.000000;1.479731
9408.000000;1.478676
9407.000000;1.477113
9406.000000;1.474961
9405.000000;1.472730
9404.000000;1.471387
9403.000000;1.471512
9402.000000;1.472636
9401.000000;1.473762
9400.000000;1.474503
9399.000000;1.475166
9398.000000;1.475703
9397.000000;1.475388
9396.000000;1.473969
9395.000000;1.472431
9394.000000;1.471878
9393.000000;1.472046
9392.000000;1.471683
9391.000000;1.470294
9390.000000;1.468778
9389.000000;1.468242
9388.000000;1.468776
9387.000000;1.469593
9386.000000;1.469970
9385.000000;1.469810
9384.000000;1.469461
9383.000000;1.469231
9382.000000;1.469071
9381.000000;1.468664
9380.000000;1.467854
9379.000000;1.466876
9378.000000;1.466025
9377.000000;1.465257
9376.000000;1.464392
9375.000000;1.463598
9374.000000;1.463282
9373.000000;1.463454
9372.000000;1.463577
9371.000000;1.463238
9370.000000;1.462675
9369.000000;1.462364
9368.000000;1.462293
9367.000000;1.461995
9366.000000;1.461296
9365.000000;1.460728
9364.000000;1.461026
9363.000000;1.462253
9362.000000;1.463522
9361.000000;1.463645
9360.000000;1.462146
9359.000000;1.459673
9358.000000;1.457425
9357.000000;1.456251
9356.000000;1.456234
9355.000000;1.456916
9354.000000;1.457676
9353.000000;1.457940
9352.000000;1.457346
9351.000000;1.455987
9350.000000;1.454547
9349.000000;1.453952
9348.000000;1.454625
9347.000000;1.455977
9346.000000;1.456792
9345.000000;1.456290
9344.000000;1.454813
9343.000000;1.453378
9342.000000;1.452663
9341.000000;1.452587
9340.000000;1.452696
9339.000000;1.452669
9338.000000;1.452410
9337.000000;1.451902
9336.000000;1.451172
9335.000000;1.450340
9334.000000;1.449620
9333.000000;1.449318
9332.000000;1.449651
9331.000000;1.450321
9330.000000;1.450384
9329.000000;1.449044
9328.000000;1.446750
9327.000000;1.445021
9326.000000;1.444921
9325.000000;1.446023
9324.000000;1.447145
9323.000000;1.447748
9322.000000;1.448138
9321.000000;1.448504
9320.000000;1.448443
9319.000000;1.447546
9318.000000;1.446008
9317.000000;1.444425
9316.000000;1.443292
9315.000000;1.442805
9314.000000;1.442833
9313.000000;1.442933
9312.000000;1.442631
9311.000000;1.441855
9310.000000;1.440899
9309.000000;1.439922
9308.000000;1.438827
9307.000000;1.437735
9306.000000;1.437167
9305.000000;1.437406
9304.000000;1.437974
9303.000000;1.438139
9302.000000;1.437780
9301.000000;1.437318
9300.000000;1.436908
9299.000000;1.436277
9298.000000;1.435451
9297.000000;1.435019
9296.000000;1.435389
9295.000000;1.436201
9294.000000;1.436850
9293.000000;1.437310
9292.000000;1.437930
9291.000000;1.438555
9290.000000;1.438448
9289.000000;1.437285
9288.000000;1.435774
9287.000000;1.434954
9286.000000;1.435112
9285.000000;1.435605
9284.000000;1.435567
9283.000000;1.434580
9282.000000;1.432845
9281.000000;1.431042
9280.000000;1.429987
9279.000000;1.430049
9278.000000;1.430798
9277.000000;1.431398
9276.000000;1.431380
9275.000000;1.430913
9274.000000;1.430331
9273.000000;1.429710
9272.000000;1.428999
9271.000000;1.428351
9270.000000;1.428005
9269.000000;1.427894
9268.000000;1.427615
9267.000000;1.426882
9266.000000;1.425924
9265.000000;1.425271
9264.000000;1.425166
9263.000000;1.425329
9262.000000;1.425375
9261.000000;1.425326
9260.000000;1.425492
9259.000000;1.425903
9258.000000;1.426210
9257.000000;1.426259
9256.000000;1.426383
9255.000000;1.426825
9254.000000;1.427104
9253.000000;1.426431
9252.000000;1.424702
9251.000000;1.422668
9250.000000;1.421120
9249.000000;1.420317
9248.000000;1.420225
9247.000000;1.420780
9246.000000;1.421670
9245.000000;1.422206
9244.000000;1.421825
9243.000000;1.420673
9242.000000;1.419489
9241.000000;1.418947
9240.000000;1.419147
9239.000000;1.419568
9238.000000;1.419418
9237.000000;1.418244
9236.000000;1.416412
9235.000000;1.414915
9234.000000;1.414626
9233.000000;1.415699
9232.000000;1.417529
9231.000000;1.419003
9230.000000;1.418971
9229.000000;1.417071
9228.000000;1.414323
9227.000000;1.412431
9226.000000;1.412164
9225.000000;1.412642
9224.000000;1.412460
9223.000000;1.411288
9222.000000;1.410000
9221.000000;1.409448
9220.000000;1.409606
9219.000000;1.409862
9218.000000;1.409706
9217.000000;1.409100
9216.000000;1.408469
9215.000000;1.408452
9214.000000;1.409360
9213.000000;1.410746
9212.000000;1.411669
9211.000000;1.411419
9210.000000;1.410017
9209.000000;1.408144
9208.000000;1.406740
9207.000000;1.406514
9206.000000;1.407410
9205.000000;1.408542
9204.000000;1.408979
9203.000000;1.408661
9202.000000;1.408225
9201.000000;1.407968
9200.000000;1.407425
9199.000000;1.406168
9198.000000;1.404639
9197.000000;1.403835
9196.000000;1.404267
9195.000000;1.405466
9194.000000;1.406451
9193.000000;1.406527
9192.000000;1.405683
9191.000000;1.404441
9190.000000;1.403402
9189.000000;1.402823
9188.000000;1.402500
9187.000000;1.401976
9186.000000;1.400917
9185.000000;1.399372
9184.000000;1.397775
9183.000000;1.396653
9182.000000;1.396230
9181.000000;1.396319
9180.000000;1.396591
9179.000000;1.396866
9178.000000;1.397104
9177.000000;1.397276
9176.000000;1.397386
9175.000000;1.397503
9174.000000;1.397594
9173.000000;1.397371
9172.000000;1.396497
9171.000000;1.394982
9170.000000;1.393276
9169.000000;1.391944
9168.000000;1.391324
9167.000000;1.391378
9166.000000;1.391715
9165.000000;1.391834
9164.000000;1.391532
9163.000000;1.391060
9162.000000;1.390747
9161.000000;1.390559
9160.000000;1.390224
9159.000000;1.389714
9158.000000;1.389338
9157.000000;1.389342
9156.000000;1.389643
9155.000000;1.389982
9154.000000;1.390114
9153.000000;1.389842
9152.000000;1.389134
9151.000000;1.388319
9150.000000;1.387910
9149.000000;1.388054
9148.000000;1.388296
9147.000000;1.388037
9146.000000;1.387147
9145.000000;1.386056
9144.000000;1.385355
9143.000000;1.385385
9142.000000;1.386028
9141.000000;1.386769
9140.000000;1.387063
9139.000000;1.386748
9138.000000;1.386074
9137.000000;1.385341
9136.000000;1.384673
9135.000000;1.384128
9134.000000;1.383784
9133.000000;1.383571
9132.000000;1.383242
9131.000000;1.382706
9130.000000;1.382293
9129.000000;1.382489
9128.000000;1.383396
9127.000000;1.384539
9126.000000;1.385219
9125.000000;1.385029
9124.000000;1.384094
9123.000000;1.382889
9122.000000;1.381814
9121.000000;1.380970
9120.000000;1.380323
9119.000000;1.379956
9118.000000;1.379982
9117.000000;1.380264
9116.000000;1.380419
9115.000000;1.380140
9114.000000;1.379388
9113.000000;1.378306
9112.000000;1.377186
9111.000000;1.376458
9110.000000;1.376391
9109.000000;1.376650
9108.000000;1.376442
9107.000000;1.375331
9106.000000;1.373760
9105.000000;1.372575
9104.000000;1.372209
9103.000000;1.372446
9102.000000;1.372792
9101.000000;1.372880
9100.000000;1.372626
9099.000000;1.372227
9098.000000;1.371985
9097.000000;1.372048
9096.000000;1.372382
9095.000000;1.372954
9094.000000;1.373654
9093.000000;1.373962
9092.000000;1.373109
9091.000000;1.370948
9090.000000;1.368419
9089.000000;1.366797
9088.000000;1.366585
9087.000000;1.367350
9086.000000;1.368368
9085.000000;1.369097
9084.000000;1.369212
9083.000000;1.368662
9082.000000;1.367769
9081.000000;1.366938
9080.000000;1.366229
9079.000000;1.365519
9078.000000;1.365012
9077.000000;1.365154
9076.000000;1.366006
9075.000000;1.367045
9074.000000;1.367661
9073.000000;1.367606
9072.000000;1.366885
9071.000000;1.365575
9070.000000;1.363919
9069.000000;1.362340
9068.000000;1.361161
9067.000000;1.360445
9066.000000;1.360183
9065.000000;1.360410
9064.000000;1.361053
9063.000000;1.361879
9062.000000;1.362687
9061.000000;1.363329
9060.000000;1.363470
9059.000000;1.362690
9058.000000;1.361057
9057.000000;1.359350
9056.000000;1.358405
9055.000000;1.358360
9054.000000;1.358686
9053.000000;1.358805
