Criado como novo conjunto de dados;"Jao_teste_celulas.spp","9004.0 Secs"
cm-1;Abs
10000.000000;1.296151
9999.000000;1.294776
9998.000000;1.293855
9997.000000;1.293390
9996.000000;1.292939
9995.000000;1.292271
9994.000000;1.291652
9993.000000;1.291484
9992.000000;1.291845
9991.000000;1.292411
9990.000000;1.292717
9989.000000;1.292476
9988.000000;1.291807
9987.000000;1.291200
9986.000000;1.291114
9985.000000;1.291502
9984.000000;1.291779
9983.000000;1.291336
9982.000000;1.290061
9981.000000;1.288350
9980.000000;1.286752
9979.000000;1.285652
9978.000000;1.285189
9977.000000;1.285280
9976.000000;1.285671
9975.000000;1.286028
9974.000000;1.286087
9973.000000;1.285779
9972.000000;1.285277
9971.000000;1.284875
9970.000000;1.284723
9969.000000;1.284665
9968.000000;1.284429
9967.000000;1.283996
9966.000000;1.283660
9965.000000;1.283650
9964.000000;1.283813
9963.000000;1.283776
9962.000000;1.283365
9961.000000;1.282673
9960.000000;1.281753
9959.000000;1.280483
9958.000000;1.278861
9957.000000;1.277301
9956.000000;1.276382
9955.000000;1.276256
9954.000000;1.276453
9953.000000;1.276422
9952.000000;1.276161
9951.000000;1.276100
9950.000000;1.276327
9949.000000;1.276205
9948.000000;1.275070
9947.000000;1.273240
9946.000000;1.271936
9945.000000;1.272026
9944.000000;1.273015
9943.000000;1.273522
9942.000000;1.272691
9941.000000;1.270922
9940.000000;1.269213
9939.000000;1.268167
9938.000000;1.267815
9937.000000;1.268055
9936.000000;1.268817
9935.000000;1.269797
9934.000000;1.270388
9933.000000;1.270132
9932.000000;1.269110
9931.000000;1.267818
9930.000000;1.266761
9929.000000;1.266230
9928.000000;1.266275
9927.000000;1.266677
9926.000000;1.267030
9925.000000;1.267056
9924.000000;1.266800
9923.000000;1.266379
9922.000000;1.265624
9921.000000;1.264267
9920.000000;1.262507
9919.000000;1.261069
9918.000000;1.260517
9917.000000;1.260638
9916.000000;1.260702
9915.000000;1.260253
9914.000000;1.259505
9913.000000;1.258983
9912.000000;1.258968
9911.000000;1.259318
9910.000000;1.259685
9909.000000;1.259826
9908.000000;1.259733
9907.000000;1.259523
9906.000000;1.259176
9905.000000;1.258459
9904.000000;1.257183
9903.000000;1.255533
9902.000000;1.254042
9901.000000;1.253167
9900.000000;1.252943
9899.000000;1.253024
9898.000000;1.253017
9897.000000;1.252767
9896.000000;1.252358
9895.000000;1.251919
9894.000000;1.251444
9893.000000;1.250838
9892.000000;1.250123
9891.000000;1.249522
9890.000000;1.249271
9889.000000;1.249347
9888.000000;1.249451
9887.000000;1.249260
9886.000000;1.248700
9885.000000;1.248008
9884.000000;1.247548
9883.000000;1.247545
9882.000000;1.247906
9881.000000;1.248278
9880.000000;1.248330
9879.000000;1.247972
9878.000000;1.247266
9877.000000;1.246228
9876.000000;1.244849
9875.000000;1.243346
9874.000000;1.242198
9873.000000;1.241796
9872.000000;1.242038
9871.000000;1.242359
9870.000000;1.242220
9869.000000;1.241605
9868.000000;1.240992
9867.000000;1.240810
9866.000000;1.240946
9865.000000;1.240843
9864.000000;1.240134
9863.000000;1.239090
9862.000000;1.238321
9861.000000;1.238084
9860.000000;1.238066
9859.000000;1.237862
9858.000000;1.237525
9857.000000;1.237446
9856.000000;1.237763
9855.000000;1.238088
9854.000000;1.237875
9853.000000;1.236971
9852.000000;1.235746
9851.000000;1.234735
9850.000000;1.234247
9849.000000;1.234241
9848.000000;1.234416
9847.000000;1.234386
9846.000000;1.233903
9845.000000;1.233069
9844.000000;1.232290
9843.000000;1.231897
9842.000000;1.231784
9841.000000;1.231523
9840.000000;1.230876
9839.000000;1.230106
9838.000000;1.229676
9837.000000;1.229738
9836.000000;1.229990
9835.000000;1.229974
9834.000000;1.229377
9833.000000;1.228164
9832.000000;1.226622
9831.000000;1.225296
9830.000000;1.224675
9829.000000;1.224807
9828.000000;1.225292
9827.000000;1.225689
9826.000000;1.225810
9825.000000;1.225586
9824.000000;1.224837
9823.000000;1.223408
9822.000000;1.221484
9821.000000;1.219627
9820.000000;1.218459
9819.000000;1.218305
9818.000000;1.218996
9817.000000;1.219903
9816.000000;1.220292
9815.000000;1.219905
9814.000000;1.219204
9813.000000;1.218874
9812.000000;1.219048
9811.000000;1.219195
9810.000000;1.218795
9809.000000;1.217959
9808.000000;1.217232
9807.000000;1.216936
9806.000000;1.216886
9805.000000;1.216688
9804.000000;1.216132
9803.000000;1.215291
9802.000000;1.214400
9801.000000;1.213727
9800.000000;1.213428
9799.000000;1.213420
9798.000000;1.213396
9797.000000;1.213069
9796.000000;1.212431
9795.000000;1.211730
9794.000000;1.211186
9793.000000;1.210746
9792.000000;1.210151
9791.000000;1.209210
9790.000000;1.208036
9789.000000;1.207036
9788.000000;1.206613
9787.000000;1.206748
9786.000000;1.206873
9785.000000;1.206348
9784.000000;1.205241
9783.000000;1.204465
9782.000000;1.204818
9781.000000;1.205906
9780.000000;1.206370
9779.000000;1.205391
9778.000000;1.203660
9777.000000;1.202540
9776.000000;1.202511
9775.000000;1.202877
9774.000000;1.202836
9773.000000;1.202332
9772.000000;1.201697
9771.000000;1.200999
9770.000000;1.200152
9769.000000;1.199397
9768.000000;1.199205
9767.000000;1.199685
9766.000000;1.200399
9765.000000;1.200795
9764.000000;1.200644
9763.000000;1.200043
9762.000000;1.199219
9761.000000;1.198409
9760.000000;1.197775
9759.000000;1.197326
9758.000000;1.196949
9757.000000;1.196490
9756.000000;1.195773
9755.000000;1.194663
9754.000000;1.193337
9753.000000;1.192445
9752.000000;1.192665
9751.000000;1.193945
9750.000000;1.195333
9749.000000;1.195758
9748.000000;1.194950
9747.000000;1.193596
9746.000000;1.192721
9745.000000;1.192972
9744.000000;1.194185
9743.000000;1.195384
9742.000000;1.195345
9741.000000;1.193550
9740.000000;1.190684
9739.000000;1.188085
9738.000000;1.186694
9737.000000;1.186559
9736.000000;1.187125
9735.000000;1.187766
9734.000000;1.188069
9733.000000;1.187908
9732.000000;1.187434
9731.000000;1.186874
9730.000000;1.186254
9729.000000;1.185398
9728.000000;1.184321
9727.000000;1.183460
9726.000000;1.183328
9725.000000;1.183926
9724.000000;1.184654
9723.000000;1.184833
9722.000000;1.184253
9721.000000;1.183180
9720.000000;1.182008
9719.000000;1.181029
9718.000000;1.180424
9717.000000;1.180244
9716.000000;1.180328
9715.000000;1.180360
9714.000000;1.180141
9713.000000;1.179733
9712.000000;1.179257
9711.000000;1.178654
9710.000000;1.177806
9709.000000;1.176804
9708.000000;1.175906
9707.000000;1.175237
9706.000000;1.174700
9705.000000;1.174216
9704.000000;1.173838
9703.000000;1.173590
9702.000000;1.173440
9701.000000;1.173498
9700.000000;1.173939
9699.000000;1.174525
9698.000000;1.174510
9697.000000;1.173407
9696.000000;1.171714
9695.000000;1.170465
9694.000000;1.170129
9693.000000;1.170318
9692.000000;1.170501
9691.000000;1.170543
9690.000000;1.170441
9689.000000;1.170021
9688.000000;1.169218
9687.000000;1.168343
9686.000000;1.167756
9685.000000;1.167468
9684.000000;1.167294
9683.000000;1.167117
9682.000000;1.166740
9681.000000;1.165784
9680.000000;1.164199
9679.000000;1.162687
9678.000000;1.162131
9677.000000;1.162610
9676.000000;1.163322
9675.000000;1.163468
9674.000000;1.162886
9673.000000;1.161871
9672.000000;1.160840
9671.000000;1.160279
9670.000000;1.160540
9669.000000;1.161394
9668.000000;1.162084
9667.000000;1.162075
9666.000000;1.161552
9665.000000;1.161004
9664.000000;1.160589
9663.000000;1.160149
9662.000000;1.159572
9661.000000;1.158836
9660.000000;1.157885
9659.000000;1.156757
9658.000000;1.155720
9657.000000;1.155046
9656.000000;1.154740
9655.000000;1.154653
9654.000000;1.154734
9653.000000;1.154937
9652.000000;1.155034
9651.000000;1.154827
9650.000000;1.154439
9649.000000;1.154098
9648.000000;1.153731
9647.000000;1.153095
9646.000000;1.152225
9645.000000;1.151420
9644.000000;1.150842
9643.000000;1.150446
9642.000000;1.150281
9641.000000;1.150452
9640.000000;1.150740
9639.000000;1.150629
9638.000000;1.149930
9637.000000;1.149070
9636.000000;1.148603
9635.000000;1.148610
9634.000000;1.148760
9633.000000;1.148725
9632.000000;1.148381
9631.000000;1.147746
9630.000000;1.146925
9629.000000;1.146022
9628.000000;1.145006
9627.000000;1.143805
9626.000000;1.142628
9625.000000;1.141985
9624.000000;1.142194
9623.000000;1.142979
9622.000000;1.143674
9621.000000;1.143767
9620.000000;1.143179
9619.000000;1.142181
9618.000000;1.141225
9617.000000;1.140708
9616.000000;1.140713
9615.000000;1.140966
9614.000000;1.141110
9613.000000;1.140956
9612.000000;1.140466
9611.000000;1.139662
9610.000000;1.138664
9609.000000;1.137654
9608.000000;1.136699
9607.000000;1.135746
9606.000000;1.134889
9605.000000;1.134424
9604.000000;1.134467
9603.000000;1.134687
9602.000000;1.134632
9601.000000;1.134197
9600.000000;1.133601
9599.000000;1.133070
9598.000000;1.132772
9597.000000;1.132897
9596.000000;1.133477
9595.000000;1.134184
9594.000000;1.134592
9593.000000;1.134623
9592.000000;1.134450
9591.000000;1.134020
9590.000000;1.133045
9589.000000;1.131551
9588.000000;1.130115
9587.000000;1.129334
9586.000000;1.129220
9585.000000;1.129229
9584.000000;1.128793
9583.000000;1.127823
9582.000000;1.126789
9581.000000;1.126338
9580.000000;1.126674
9579.000000;1.127289
9578.000000;1.127448
9577.000000;1.126973
9576.000000;1.126327
9575.000000;1.125884
9574.000000;1.125430
9573.000000;1.124558
9572.000000;1.123356
9571.000000;1.122387
9570.000000;1.122034
9569.000000;1.122104
9568.000000;1.122144
9567.000000;1.121958
9566.000000;1.121687
9565.000000;1.121452
9564.000000;1.121148
9563.000000;1.120673
9562.000000;1.120192
9561.000000;1.119941
9560.000000;1.119774
9559.000000;1.119194
9558.000000;1.117997
9557.000000;1.116665
9556.000000;1.115887
9555.000000;1.115830
9554.000000;1.116143
9553.000000;1.116523
9552.000000;1.116941
9551.000000;1.117311
9550.000000;1.117309
9549.000000;1.116678
9548.000000;1.115518
9547.000000;1.114218
9546.000000;1.113255
9545.000000;1.113019
9544.000000;1.113484
9543.000000;1.113984
9542.000000;1.113705
9541.000000;1.112630
9540.000000;1.111655
9539.000000;1.111526
9538.000000;1.111956
9537.000000;1.112092
9536.000000;1.111608
9535.000000;1.110931
9534.000000;1.110536
9533.000000;1.110447
9532.000000;1.110434
9531.000000;1.110329
9530.000000;1.110057
9529.000000;1.109613
9528.000000;1.109097
9527.000000;1.108610
9526.000000;1.108060
9525.000000;1.107260
9524.000000;1.106282
9523.000000;1.105489
9522.000000;1.105110
9521.000000;1.104956
9520.000000;1.104693
9519.000000;1.104314
9518.000000;1.104137
9517.000000;1.104363
9516.000000;1.104762
9515.000000;1.104863
9514.000000;1.104429
9513.000000;1.103696
9512.000000;1.103102
9511.000000;1.102808
9510.000000;1.102567
9509.000000;1.102095
9508.000000;1.101450
9507.000000;1.100923
9506.000000;1.100638
9505.000000;1.100455
9504.000000;1.100235
9503.000000;1.099963
9502.000000;1.099575
9501.000000;1.098894
9500.000000;1.097906
9499.000000;1.096931
9498.000000;1.096337
9497.000000;1.096148
9496.000000;1.096080
9495.000000;1.095882
9494.000000;1.095507
9493.000000;1.094998
9492.000000;1.094426
9491.000000;1.093950
9490.000000;1.093742
9489.000000;1.093751
9488.000000;1.093719
9487.000000;1.093495
9486.000000;1.093200
9485.000000;1.092954
9484.000000;1.092630
9483.000000;1.092048
9482.000000;1.091306
9481.000000;1.090697
9480.000000;1.090333
9479.000000;1.090054
9478.000000;1.089712
9477.000000;1.089313
9476.000000;1.088851
9475.000000;1.088239
9474.000000;1.087517
9473.000000;1.086937
9472.000000;1.086692
9471.000000;1.086698
9470.000000;1.086780
9469.000000;1.086899
9468.000000;1.087029
9467.000000;1.086974
9466.000000;1.086566
9465.000000;1.085962
9464.000000;1.085469
9463.000000;1.085097
9462.000000;1.084538
9461.000000;1.083668
9460.000000;1.082826
9459.000000;1.082455
9458.000000;1.082617
9457.000000;1.082946
9456.000000;1.083004
9455.000000;1.082613
9454.000000;1.081926
9453.000000;1.081267
9452.000000;1.080859
9451.000000;1.080681
9450.000000;1.080599
9449.000000;1.080535
9448.000000;1.080393
9447.000000;1.079918
9446.000000;1.078931
9445.000000;1.077724
9444.000000;1.076939
9443.000000;1.076898
9442.000000;1.077263
9441.000000;1.077498
9440.000000;1.077473
9439.000000;1.077386
9438.000000;1.077274
9437.000000;1.076917
9436.000000;1.076206
9435.000000;1.075301
9434.000000;1.074407
9433.000000;1.073590
9432.000000;1.072889
9431.000000;1.072365
9430.000000;1.071926
9429.000000;1.071288
9428.000000;1.070301
9427.000000;1.069248
9426.000000;1.068658
9425.000000;1.068783
9424.000000;1.069363
9423.000000;1.069886
9422.000000;1.070034
9421.000000;1.069872
9420.000000;1.069662
9419.000000;1.069563
9418.000000;1.069484
9417.000000;1.069186
9416.000000;1.068558
9415.000000;1.067795
9414.000000;1.067247
9413.000000;1.067046
9412.000000;1.066917
9411.000000;1.066456
9410.000000;1.065589
9409.000000;1.064635
9408.000000;1.063935
9407.000000;1.063555
9406.000000;1.063425
9405.000000;1.063534
9404.000000;1.063793
9403.000000;1.063841
9402.000000;1.063309
9401.000000;1.062297
9400.000000;1.061368
9399.000000;1.060996
9398.000000;1.061182
9397.000000;1.061642
9396.000000;1.062123
9395.000000;1.062424
9394.000000;1.062321
9393.000000;1.061697
9392.000000;1.060701
9391.000000;1.059648
9390.000000;1.058789
9389.000000;1.058242
9388.000000;1.058013
9387.000000;1.057989
9386.000000;1.057988
9385.000000;1.057929
9384.000000;1.057904
9383.000000;1.057954
9382.000000;1.057872
9381.000000;1.057376
9380.000000;1.056450
9379.000000;1.055428
9378.000000;1.054749
9377.000000;1.054663
9376.000000;1.055040
9375.000000;1.055353
9374.000000;1.054988
9373.000000;1.053805
9372.000000;1.052353
9371.000000;1.051367
9370.000000;1.051079
9369.000000;1.051141
9368.000000;1.051145
9367.000000;1.050989
9366.000000;1.050720
9365.000000;1.050286
9364.000000;1.049613
9363.000000;1.048819
9362.000000;1.048178
9361.000000;1.047861
9360.000000;1.047810
9359.000000;1.047826
9358.000000;1.047726
9357.000000;1.047414
9356.000000;1.046897
9355.000000;1.046299
9354.000000;1.045826
9353.000000;1.045655
9352.000000;1.045765
9351.000000;1.045912
9350.000000;1.045837
9349.000000;1.045501
9348.000000;1.045068
9347.000000;1.044673
9346.000000;1.044340
9345.000000;1.044123
9344.000000;1.044120
9343.000000;1.044204
9342.000000;1.043942
9341.000000;1.043019
9340.000000;1.041723
9339.000000;1.040781
9338.000000;1.040686
9337.000000;1.041291
9336.000000;1.042029
9335.000000;1.042369
9334.000000;1.042062
9333.000000;1.041167
9332.000000;1.039981
9331.000000;1.038902
9330.000000;1.038250
9329.000000;1.038175
9328.000000;1.038665
9327.000000;1.039487
9326.000000;1.040144
9325.000000;1.040122
9324.000000;1.039327
9323.000000;1.038205
9322.000000;1.037318
9321.000000;1.036849
9320.000000;1.036551
9319.000000;1.036092
9318.000000;1.035347
9317.000000;1.034431
9316.000000;1.033569
9315.000000;1.032977
9314.000000;1.032758
9313.000000;1.032847
9312.000000;1.033043
9311.000000;1.033106
9310.000000;1.032913
9309.000000;1.032557
9308.000000;1.032308
9307.000000;1.032353
9306.000000;1.032569
9305.000000;1.032617
9304.000000;1.032329
9303.000000;1.031904
9302.000000;1.031639
9301.000000;1.031549
9300.000000;1.031411
9299.000000;1.031112
9298.000000;1.030776
9297.000000;1.030468
9296.000000;1.029954
9295.000000;1.028956
9294.000000;1.027594
9293.000000;1.026401
9292.000000;1.025853
9291.000000;1.025952
9290.000000;1.026316
9289.000000;1.026557
9288.000000;1.026490
9287.000000;1.026075
9286.000000;1.025344
9285.000000;1.024451
9284.000000;1.023674
9283.000000;1.023258
9282.000000;1.023229
9281.000000;1.023387
9280.000000;1.023454
9279.000000;1.023254
9278.000000;1.022805
9277.000000;1.022297
9276.000000;1.021937
9275.000000;1.021795
9274.000000;1.021773
9273.000000;1.021735
9272.000000;1.021626
9271.000000;1.021454
9270.000000;1.021214
9269.000000;1.020879
9268.000000;1.020476
9267.000000;1.020094
9266.000000;1.019804
9265.000000;1.019576
9264.000000;1.019309
9263.000000;1.018937
9262.000000;1.018490
9261.000000;1.018056
9260.000000;1.017686
9259.000000;1.017342
9258.000000;1.016899
9257.000000;1.016212
9256.000000;1.015240
9255.000000;1.014189
9254.000000;1.013493
9253.000000;1.013487
9252.000000;1.014013
9251.000000;1.014458
9250.000000;1.014304
9249.000000;1.013617
9248.000000;1.012879
9247.000000;1.012432
9246.000000;1.012265
9245.000000;1.012252
9244.000000;1.012355
9243.000000;1.012522
9242.000000;1.012614
9241.000000;1.012570
9240.000000;1.012477
9239.000000;1.012348
9238.000000;1.011986
9237.000000;1.011261
9236.000000;1.010392
9235.000000;1.009769
9234.000000;1.009520
9233.000000;1.009438
9232.000000;1.009309
9231.000000;1.009111
9230.000000;1.008859
9229.000000;1.008441
9228.000000;1.007762
9227.000000;1.006963
9226.000000;1.006373
9225.000000;1.006221
9224.000000;1.006417
9223.000000;1.006612
9222.000000;1.006468
9221.000000;1.005926
9220.000000;1.005208
9219.000000;1.004569
9218.000000;1.004070
9217.000000;1.003628
9216.000000;1.003221
9215.000000;1.002950
9214.000000;1.002889
9213.000000;1.002960
9212.000000;1.003005
9211.000000;1.002950
9210.000000;1.002836
9209.000000;1.002696
9208.000000;1.002460
9207.000000;1.002044
9206.000000;1.001511
9205.000000;1.001062
9204.000000;1.000786
9203.000000;1.000491
9202.000000;0.999916
9201.000000;0.999104
9200.000000;0.998450
9199.000000;0.998274
9198.000000;0.998465
9197.000000;0.998605
9196.000000;0.998398
9195.000000;0.997892
9194.000000;0.997326
9193.000000;0.996880
9192.000000;0.996556
9191.000000;0.996243
9190.000000;0.995861
9189.000000;0.995485
9188.000000;0.995284
9187.000000;0.995292
9186.000000;0.995305
9185.000000;0.995088
9184.000000;0.994619
9183.000000;0.994054
9182.000000;0.993518
9181.000000;0.993067
9180.000000;0.992796
9179.000000;0.992775
9178.000000;0.992818
9177.000000;0.992506
9176.000000;0.991617
9175.000000;0.990474
9174.000000;0.989702
9173.000000;0.989642
9172.000000;0.990086
9171.000000;0.990567
9170.000000;0.990780
9169.000000;0.990651
9168.000000;0.990151
9167.000000;0.989266
9166.000000;0.988172
9165.000000;0.987259
9164.000000;0.986835
9163.000000;0.986836
9162.000000;0.986947
9161.000000;0.986939
9160.000000;0.986798
9159.000000;0.986554
9158.000000;0.986188
9157.000000;0.985769
9156.000000;0.985503
9155.000000;0.985526
9154.000000;0.985711
9153.000000;0.985787
9152.000000;0.985611
9151.000000;0.985252
9150.000000;0.984868
9149.000000;0.984589
9148.000000;0.984465
9147.000000;0.984442
9146.000000;0.984384
9145.000000;0.984179
9144.000000;0.983822
9143.000000;0.983353
9142.000000;0.982784
9141.000000;0.982166
9140.000000;0.981664
9139.000000;0.981450
9138.000000;0.981514
9137.000000;0.981645
9136.000000;0.981607
9135.000000;0.981297
9134.000000;0.980774
9133.000000;0.980198
9132.000000;0.979718
9131.000000;0.979353
9130.000000;0.978976
9129.000000;0.978470
9128.000000;0.977861
9127.000000;0.977299
9126.000000;0.976925
9125.000000;0.976792
9124.000000;0.976826
9123.000000;0.976821
9122.000000;0.976549
9121.000000;0.975990
9120.000000;0.975397
9119.000000;0.975048
9118.000000;0.974958
9117.000000;0.974915
9116.000000;0.974760
9115.000000;0.974534
9114.000000;0.974378
9113.000000;0.974368
9112.000000;0.974449
9111.000000;0.974470
9110.000000;0.974266
9109.000000;0.973786
9108.000000;0.973101
9107.000000;0.972313
9106.000000;0.971501
9105.000000;0.970791
9104.000000;0.970345
9103.000000;0.970187
9102.000000;0.970131
9101.000000;0.970009
9100.000000;0.969889
9099.000000;0.969927
9098.000000;0.970050
9097.000000;0.969972
9096.000000;0.969532
9095.000000;0.968871
9094.000000;0.968252
9093.000000;0.967817
9092.000000;0.967557
9091.000000;0.967390
9090.000000;0.967225
9089.000000;0.967041
9088.000000;0.966900
9087.000000;0.966832
9086.000000;0.966716
9085.000000;0.966399
9084.000000;0.965925
9083.000000;0.965531
9082.000000;0.965377
9081.000000;0.965363
9080.000000;0.965220
9079.000000;0.964737
9078.000000;0.963939
9077.000000;0.963121
9076.000000;0.962691
9075.000000;0.962833
9074.000000;0.963307
9073.000000;0.963680
9072.000000;0.963759
9071.000000;0.963679
9070.000000;0.963603
9069.000000;0.963485
9068.000000;0.963168
9067.000000;0.962578
9066.000000;0.961783
9065.000000;0.960971
9064.000000;0.960397
9063.000000;0.960196
9062.000000;0.960184
9061.000000;0.960003
9060.000000;0.959546
9059.000000;0.959113
9058.000000;0.959041
9057.000000;0.959282
9056.000000;0.959461
9055.000000;0.959289
9054.000000;0.958778
9053.000000;0.958105
