Criado como novo conjunto de dados;"Jao_teste_celulas.spp","7023.5 Secs"
cm-1;Abs
10000.000000;1.304845
9999.000000;1.304635
9998.000000;1.305392
9997.000000;1.306776
9996.000000;1.308118
9995.000000;1.309135
9994.000000;1.309618
9993.000000;1.309534
9992.000000;1.308804
9991.000000;1.307550
9990.000000;1.306003
9989.000000;1.304424
9988.000000;1.302990
9987.000000;1.301834
9986.000000;1.301063
9985.000000;1.300702
9984.000000;1.300646
9983.000000;1.300743
9982.000000;1.300898
9981.000000;1.301063
9980.000000;1.301139
9979.000000;1.300988
9978.000000;1.300585
9977.000000;1.300102
9976.000000;1.299728
9975.000000;1.299418
9974.000000;1.298917
9973.000000;1.298049
9972.000000;1.296918
9971.000000;1.295787
9970.000000;1.294880
9969.000000;1.294357
9968.000000;1.294357
9967.000000;1.294873
9966.000000;1.295567
9965.000000;1.295856
9964.000000;1.295285
9963.000000;1.293838
9962.000000;1.291956
9961.000000;1.290346
9960.000000;1.289630
9959.000000;1.289923
9958.000000;1.290714
9957.000000;1.291290
9956.000000;1.291354
9955.000000;1.291130
9954.000000;1.290923
9953.000000;1.290814
9952.000000;1.290853
9951.000000;1.291202
9950.000000;1.291806
9949.000000;1.292110
9948.000000;1.291451
9947.000000;1.289826
9946.000000;1.288018
9945.000000;1.286851
9944.000000;1.286464
9943.000000;1.286357
9942.000000;1.286040
9941.000000;1.285445
9940.000000;1.284768
9939.000000;1.284113
9938.000000;1.283445
9937.000000;1.282798
9936.000000;1.282288
9935.000000;1.281871
9934.000000;1.281331
9933.000000;1.280665
9932.000000;1.280307
9931.000000;1.280634
9930.000000;1.281266
9929.000000;1.281215
9928.000000;1.279905
9927.000000;1.277882
9926.000000;1.276320
9925.000000;1.275950
9924.000000;1.276577
9923.000000;1.277483
9922.000000;1.278097
9921.000000;1.278282
9920.000000;1.278118
9919.000000;1.277539
9918.000000;1.276341
9917.000000;1.274580
9916.000000;1.272817
9915.000000;1.271673
9914.000000;1.271177
9913.000000;1.270824
9912.000000;1.270319
9911.000000;1.269911
9910.000000;1.269797
9909.000000;1.269615
9908.000000;1.268912
9907.000000;1.267925
9906.000000;1.267420
9905.000000;1.267779
9904.000000;1.268611
9903.000000;1.269287
9902.000000;1.269510
9901.000000;1.269233
9900.000000;1.268379
9899.000000;1.266995
9898.000000;1.265505
9897.000000;1.264476
9896.000000;1.264091
9895.000000;1.264039
9894.000000;1.263958
9893.000000;1.263881
9892.000000;1.264120
9891.000000;1.264775
9890.000000;1.265491
9889.000000;1.265776
9888.000000;1.265492
9887.000000;1.264863
9886.000000;1.264012
9885.000000;1.262719
9884.000000;1.260856
9883.000000;1.258915
9882.000000;1.257756
9881.000000;1.257762
9880.000000;1.258419
9879.000000;1.258817
9878.000000;1.258482
9877.000000;1.257649
9876.000000;1.256830
9875.000000;1.256219
9874.000000;1.255524
9873.000000;1.254353
9872.000000;1.252792
9871.000000;1.251498
9870.000000;1.251114
9869.000000;1.251614
9868.000000;1.252357
9867.000000;1.252766
9866.000000;1.252773
9865.000000;1.252561
9864.000000;1.252166
9863.000000;1.251559
9862.000000;1.250942
9861.000000;1.250648
9860.000000;1.250746
9859.000000;1.250966
9858.000000;1.251072
9857.000000;1.251114
9856.000000;1.251143
9855.000000;1.250877
9854.000000;1.249942
9853.000000;1.248476
9852.000000;1.247210
9851.000000;1.246757
9850.000000;1.246968
9849.000000;1.247160
9848.000000;1.246932
9847.000000;1.246505
9846.000000;1.246234
9845.000000;1.246082
9844.000000;1.245763
9843.000000;1.245218
9842.000000;1.244636
9841.000000;1.244056
9840.000000;1.243262
9839.000000;1.242143
9838.000000;1.240991
9837.000000;1.240306
9836.000000;1.240352
9835.000000;1.240927
9834.000000;1.241512
9833.000000;1.241649
9832.000000;1.241284
9831.000000;1.240751
9830.000000;1.240354
9829.000000;1.240043
9828.000000;1.239576
9827.000000;1.238885
9826.000000;1.238082
9825.000000;1.237186
9824.000000;1.236139
9823.000000;1.235129
9822.000000;1.234576
9821.000000;1.234613
9820.000000;1.234822
9819.000000;1.234728
9818.000000;1.234355
9817.000000;1.234008
9816.000000;1.233644
9815.000000;1.232846
9814.000000;1.231470
9813.000000;1.229966
9812.000000;1.228918
9811.000000;1.228522
9810.000000;1.228653
9809.000000;1.229208
9808.000000;1.230102
9807.000000;1.230999
9806.000000;1.231333
9805.000000;1.230725
9804.000000;1.229370
9803.000000;1.227973
9802.000000;1.227281
9801.000000;1.227534
9800.000000;1.228234
9799.000000;1.228502
9798.000000;1.227799
9797.000000;1.226339
9796.000000;1.224769
9795.000000;1.223587
9794.000000;1.222943
9793.000000;1.222824
9792.000000;1.223083
9791.000000;1.223288
9790.000000;1.222903
9789.000000;1.221855
9788.000000;1.220728
9787.000000;1.220137
9786.000000;1.220066
9785.000000;1.220045
9784.000000;1.219872
9783.000000;1.219798
9782.000000;1.219995
9781.000000;1.220180
9780.000000;1.219943
9779.000000;1.219247
9778.000000;1.218361
9777.000000;1.217481
9776.000000;1.216649
9775.000000;1.215968
9774.000000;1.215603
9773.000000;1.215486
9772.000000;1.215249
9771.000000;1.214591
9770.000000;1.213637
9769.000000;1.212807
9768.000000;1.212354
9767.000000;1.212144
9766.000000;1.211857
9765.000000;1.211335
9764.000000;1.210687
9763.000000;1.210141
9762.000000;1.209844
9761.000000;1.209776
9760.000000;1.209756
9759.000000;1.209522
9758.000000;1.208945
9757.000000;1.208296
9756.000000;1.208147
9755.000000;1.208785
9754.000000;1.209717
9753.000000;1.210021
9752.000000;1.209348
9751.000000;1.208356
9750.000000;1.207912
9749.000000;1.207997
9748.000000;1.207763
9747.000000;1.206673
9746.000000;1.205191
9745.000000;1.204116
9744.000000;1.203577
9743.000000;1.203042
9742.000000;1.202219
9741.000000;1.201468
9740.000000;1.201205
9739.000000;1.201257
9738.000000;1.201126
9737.000000;1.200727
9736.000000;1.200511
9735.000000;1.200824
9734.000000;1.201394
9733.000000;1.201607
9732.000000;1.201149
9731.000000;1.200263
9730.000000;1.199406
9729.000000;1.198793
9728.000000;1.198264
9727.000000;1.197537
9726.000000;1.196576
9725.000000;1.195709
9724.000000;1.195328
9723.000000;1.195472
9722.000000;1.195774
9721.000000;1.195852
9720.000000;1.195669
9719.000000;1.195446
9718.000000;1.195323
9717.000000;1.195203
9716.000000;1.194886
9715.000000;1.194273
9714.000000;1.193480
9713.000000;1.192805
9712.000000;1.192502
9711.000000;1.192471
9710.000000;1.192286
9709.000000;1.191644
9708.000000;1.190709
9707.000000;1.189847
9706.000000;1.189125
9705.000000;1.188364
9704.000000;1.187610
9703.000000;1.187204
9702.000000;1.187270
9701.000000;1.187446
9700.000000;1.187327
9699.000000;1.186973
9698.000000;1.186687
9697.000000;1.186474
9696.000000;1.186054
9695.000000;1.185390
9694.000000;1.184875
9693.000000;1.184875
9692.000000;1.185277
9691.000000;1.185650
9690.000000;1.185729
9689.000000;1.185608
9688.000000;1.185469
9687.000000;1.185256
9686.000000;1.184695
9685.000000;1.183649
9684.000000;1.182365
9683.000000;1.181266
9682.000000;1.180510
9681.000000;1.179857
9680.000000;1.179013
9679.000000;1.177997
9678.000000;1.177082
9677.000000;1.176491
9676.000000;1.176264
9675.000000;1.176340
9674.000000;1.176590
9673.000000;1.176804
9672.000000;1.176818
9671.000000;1.176706
9670.000000;1.176700
9669.000000;1.176849
9668.000000;1.176877
9667.000000;1.176479
9666.000000;1.175665
9665.000000;1.174698
9664.000000;1.173735
9663.000000;1.172701
9662.000000;1.171590
9661.000000;1.170727
9660.000000;1.170553
9659.000000;1.171142
9658.000000;1.172075
9657.000000;1.172849
9656.000000;1.173268
9655.000000;1.173343
9654.000000;1.173007
9653.000000;1.172200
9652.000000;1.171190
9651.000000;1.170460
9650.000000;1.170175
9649.000000;1.169971
9648.000000;1.169416
9647.000000;1.168483
9646.000000;1.167419
9645.000000;1.166381
9644.000000;1.165486
9643.000000;1.165043
9642.000000;1.165340
9641.000000;1.166134
9640.000000;1.166625
9639.000000;1.166122
9638.000000;1.164638
9637.000000;1.162831
9636.000000;1.161480
9635.000000;1.160990
9634.000000;1.161181
9633.000000;1.161416
9632.000000;1.161088
9631.000000;1.160143
9630.000000;1.159094
9629.000000;1.158487
9628.000000;1.158429
9627.000000;1.158603
9626.000000;1.158623
9625.000000;1.158322
9624.000000;1.157848
9623.000000;1.157503
9622.000000;1.157387
9621.000000;1.157187
9620.000000;1.156499
9619.000000;1.155430
9618.000000;1.154632
9617.000000;1.154532
9616.000000;1.154711
9615.000000;1.154333
9614.000000;1.153182
9613.000000;1.151979
9612.000000;1.151571
9611.000000;1.152030
9610.000000;1.152697
9609.000000;1.152941
9608.000000;1.152703
9607.000000;1.152361
9606.000000;1.152288
9605.000000;1.152604
9604.000000;1.153143
9603.000000;1.153526
9602.000000;1.153344
9601.000000;1.152460
9600.000000;1.151149
9599.000000;1.149842
9598.000000;1.148738
9597.000000;1.147792
9596.000000;1.147029
9595.000000;1.146650
9594.000000;1.146718
9593.000000;1.146947
9592.000000;1.147010
9591.000000;1.146944
9590.000000;1.146984
9589.000000;1.147072
9588.000000;1.146821
9587.000000;1.146028
9586.000000;1.144978
9585.000000;1.144102
9584.000000;1.143527
9583.000000;1.143103
9582.000000;1.142700
9581.000000;1.142303
9580.000000;1.141951
9579.000000;1.141714
9578.000000;1.141656
9577.000000;1.141672
9576.000000;1.141493
9575.000000;1.141040
9574.000000;1.140653
9573.000000;1.140717
9572.000000;1.141058
9571.000000;1.140950
9570.000000;1.139853
9569.000000;1.138006
9568.000000;1.136251
9567.000000;1.135371
9566.000000;1.135533
9565.000000;1.136173
9564.000000;1.136398
9563.000000;1.135716
9562.000000;1.134422
9561.000000;1.133167
9560.000000;1.132241
9559.000000;1.131553
9558.000000;1.131254
9557.000000;1.131858
9556.000000;1.133459
9555.000000;1.135151
9554.000000;1.135722
9553.000000;1.134905
9552.000000;1.133550
9551.000000;1.132549
9550.000000;1.132002
9549.000000;1.131501
9548.000000;1.130824
9547.000000;1.130083
9546.000000;1.129458
9545.000000;1.129045
9544.000000;1.128860
9543.000000;1.128765
9542.000000;1.128496
9541.000000;1.127955
9540.000000;1.127414
9539.000000;1.127195
9538.000000;1.127187
9537.000000;1.126904
9536.000000;1.126078
9535.000000;1.125008
9534.000000;1.124267
9533.000000;1.124188
9532.000000;1.124649
9531.000000;1.125200
9530.000000;1.125315
9529.000000;1.124705
9528.000000;1.123536
9527.000000;1.122285
9526.000000;1.121299
9525.000000;1.120547
9524.000000;1.119854
9523.000000;1.119229
9522.000000;1.118811
9521.000000;1.118595
9520.000000;1.118433
9519.000000;1.118306
9518.000000;1.118382
9517.000000;1.118709
9516.000000;1.119043
9515.000000;1.119121
9514.000000;1.118966
9513.000000;1.118747
9512.000000;1.118396
9511.000000;1.117601
9510.000000;1.116262
9509.000000;1.114781
9508.000000;1.113763
9507.000000;1.113492
9506.000000;1.113779
9505.000000;1.114240
9504.000000;1.114600
9503.000000;1.114727
9502.000000;1.114540
9501.000000;1.113991
9500.000000;1.113151
9499.000000;1.112257
9498.000000;1.111610
9497.000000;1.111384
9496.000000;1.111474
9495.000000;1.111563
9494.000000;1.111374
9493.000000;1.110847
9492.000000;1.110074
9491.000000;1.109135
9490.000000;1.108116
9489.000000;1.107228
9488.000000;1.106734
9487.000000;1.106694
9486.000000;1.106858
9485.000000;1.106883
9484.000000;1.106632
9483.000000;1.106235
9482.000000;1.105942
9481.000000;1.105963
9480.000000;1.106323
9479.000000;1.106806
9478.000000;1.107099
9477.000000;1.107109
9476.000000;1.107049
9475.000000;1.107105
9474.000000;1.107115
9473.000000;1.106727
9472.000000;1.105866
9471.000000;1.104833
9470.000000;1.103956
9469.000000;1.103291
9468.000000;1.102716
9467.000000;1.102148
9466.000000;1.101572
9465.000000;1.101005
9464.000000;1.100525
9463.000000;1.100226
9462.000000;1.100047
9461.000000;1.099742
9460.000000;1.099156
9459.000000;1.098466
9458.000000;1.098006
9457.000000;1.097913
9456.000000;1.098063
9455.000000;1.098301
9454.000000;1.098562
9453.000000;1.098755
9452.000000;1.098712
9451.000000;1.098349
9450.000000;1.097763
9449.000000;1.097062
9448.000000;1.096215
9447.000000;1.095202
9446.000000;1.094280
9445.000000;1.093873
9444.000000;1.094092
9443.000000;1.094483
9442.000000;1.094397
9441.000000;1.093617
9440.000000;1.092544
9439.000000;1.091755
9438.000000;1.091480
9437.000000;1.091549
9436.000000;1.091693
9435.000000;1.091786
9434.000000;1.091838
9433.000000;1.091875
9432.000000;1.091884
9431.000000;1.091788
9430.000000;1.091455
9429.000000;1.090802
9428.000000;1.089930
9427.000000;1.089121
9426.000000;1.088637
9425.000000;1.088497
9424.000000;1.088449
9423.000000;1.088161
9422.000000;1.087484
9421.000000;1.086576
9420.000000;1.085773
9419.000000;1.085305
9418.000000;1.085144
9417.000000;1.085107
9416.000000;1.085052
9415.000000;1.084921
9414.000000;1.084652
9413.000000;1.084177
9412.000000;1.083536
9411.000000;1.082894
9410.000000;1.082413
9409.000000;1.082129
9408.000000;1.081970
9407.000000;1.081823
9406.000000;1.081585
9405.000000;1.081225
9404.000000;1.080850
9403.000000;1.080632
9402.000000;1.080642
9401.000000;1.080749
9400.000000;1.080705
9399.000000;1.080295
9398.000000;1.079452
9397.000000;1.078348
9396.000000;1.077371
9395.000000;1.076864
9394.000000;1.076803
9393.000000;1.076787
9392.000000;1.076463
9391.000000;1.075893
9390.000000;1.075431
9389.000000;1.075272
9388.000000;1.075248
9387.000000;1.075048
9386.000000;1.074557
9385.000000;1.073952
9384.000000;1.073510
9383.000000;1.073336
9382.000000;1.073278
9381.000000;1.073109
9380.000000;1.072803
9379.000000;1.072538
9378.000000;1.072417
9377.000000;1.072291
9376.000000;1.071959
9375.000000;1.071464
9374.000000;1.071066
9373.000000;1.070952
9372.000000;1.071064
9371.000000;1.071199
9370.000000;1.071148
9369.000000;1.070753
9368.000000;1.070002
9367.000000;1.069130
9366.000000;1.068495
9365.000000;1.068259
9364.000000;1.068227
9363.000000;1.068076
9362.000000;1.067673
9361.000000;1.067111
9360.000000;1.066524
9359.000000;1.065970
9358.000000;1.065485
9357.000000;1.065117
9356.000000;1.064844
9355.000000;1.064543
9354.000000;1.064096
9353.000000;1.063507
9352.000000;1.062887
9351.000000;1.062331
9350.000000;1.061890
9349.000000;1.061628
9348.000000;1.061617
9347.000000;1.061799
9346.000000;1.061925
9345.000000;1.061731
9344.000000;1.061193
9343.000000;1.060556
9342.000000;1.060048
9341.000000;1.059649
9340.000000;1.059165
9339.000000;1.058522
9338.000000;1.057888
9337.000000;1.057475
9336.000000;1.057272
9335.000000;1.057064
9334.000000;1.056710
9333.000000;1.056313
9332.000000;1.056045
9331.000000;1.055867
9330.000000;1.055566
9329.000000;1.055095
9328.000000;1.054728
9327.000000;1.054747
9326.000000;1.055085
9325.000000;1.055394
9324.000000;1.055384
9323.000000;1.054975
9322.000000;1.054215
9321.000000;1.053275
9320.000000;1.052513
9319.000000;1.052277
9318.000000;1.052533
9317.000000;1.052852
9316.000000;1.052839
9315.000000;1.052434
9314.000000;1.051754
9313.000000;1.050900
9312.000000;1.050082
9311.000000;1.049697
9310.000000;1.049963
9309.000000;1.050547
9308.000000;1.050791
9307.000000;1.050354
9306.000000;1.049491
9305.000000;1.048717
9304.000000;1.048360
9303.000000;1.048386
9302.000000;1.048460
9301.000000;1.048194
9300.000000;1.047477
9299.000000;1.046620
9298.000000;1.046043
9297.000000;1.045859
9296.000000;1.045882
9295.000000;1.045987
9294.000000;1.046217
9293.000000;1.046529
9292.000000;1.046666
9291.000000;1.046392
9290.000000;1.045742
9289.000000;1.044946
9288.000000;1.044241
9287.000000;1.043805
9286.000000;1.043664
9285.000000;1.043580
9284.000000;1.043180
9283.000000;1.042351
9282.000000;1.041386
9281.000000;1.040626
9280.000000;1.040090
9279.000000;1.039610
9278.000000;1.039209
9277.000000;1.039128
9276.000000;1.039485
9275.000000;1.040054
9274.000000;1.040395
9273.000000;1.040144
9272.000000;1.039226
9271.000000;1.037941
9270.000000;1.036834
9269.000000;1.036337
9268.000000;1.036462
9267.000000;1.036840
9266.000000;1.037020
9265.000000;1.036747
9264.000000;1.036055
9263.000000;1.035240
9262.000000;1.034693
9261.000000;1.034637
9260.000000;1.034972
9259.000000;1.035411
9258.000000;1.035727
9257.000000;1.035809
9256.000000;1.035565
9255.000000;1.034933
9254.000000;1.034002
9253.000000;1.032990
9252.000000;1.032085
9251.000000;1.031374
9250.000000;1.030935
9249.000000;1.030867
9248.000000;1.031158
9247.000000;1.031598
9246.000000;1.031882
9245.000000;1.031781
9244.000000;1.031240
9243.000000;1.030383
9242.000000;1.029457
9241.000000;1.028689
9240.000000;1.028145
9239.000000;1.027744
9238.000000;1.027421
9237.000000;1.027204
9236.000000;1.027119
9235.000000;1.027107
9234.000000;1.027102
9233.000000;1.027133
9232.000000;1.027247
9231.000000;1.027373
9230.000000;1.027336
9229.000000;1.027042
9228.000000;1.026580
9227.000000;1.026130
9226.000000;1.025778
9225.000000;1.025454
9224.000000;1.025022
9223.000000;1.024419
9222.000000;1.023702
9221.000000;1.023002
9220.000000;1.022464
9219.000000;1.022170
9218.000000;1.022082
9217.000000;1.022036
9216.000000;1.021864
9215.000000;1.021548
9214.000000;1.021200
9213.000000;1.020885
9212.000000;1.020538
9211.000000;1.020134
9210.000000;1.019853
9209.000000;1.019913
9208.000000;1.020209
9207.000000;1.020271
9206.000000;1.019700
9205.000000;1.018635
9204.000000;1.017686
9203.000000;1.017379
9202.000000;1.017701
9201.000000;1.018156
9200.000000;1.018238
9199.000000;1.017796
9198.000000;1.016999
9197.000000;1.016083
9196.000000;1.015214
9195.000000;1.014554
9194.000000;1.014240
9193.000000;1.014236
9192.000000;1.014302
9191.000000;1.014246
9190.000000;1.014130
9189.000000;1.014133
9188.000000;1.014229
9187.000000;1.014129
9186.000000;1.013565
9185.000000;1.012553
9184.000000;1.011394
9183.000000;1.010498
9182.000000;1.010164
9181.000000;1.010381
9180.000000;1.010808
9179.000000;1.011053
9178.000000;1.011031
9177.000000;1.010956
9176.000000;1.010977
9175.000000;1.010948
9174.000000;1.010658
9173.000000;1.010142
9172.000000;1.009653
9171.000000;1.009364
9170.000000;1.009218
9169.000000;1.009030
9168.000000;1.008650
9167.000000;1.008064
9166.000000;1.007418
9165.000000;1.006930
9164.000000;1.006677
9163.000000;1.006482
9162.000000;1.006083
9161.000000;1.005455
9160.000000;1.004869
9159.000000;1.004617
9158.000000;1.004703
9157.000000;1.004842
9156.000000;1.004722
9155.000000;1.004261
9154.000000;1.003638
9153.000000;1.003102
9152.000000;1.002767
9151.000000;1.002552
9150.000000;1.002315
9149.000000;1.001981
9148.000000;1.001579
9147.000000;1.001190
9146.000000;1.000912
9145.000000;1.000804
9144.000000;1.000817
9143.000000;1.000812
9142.000000;1.000704
9141.000000;1.000580
9140.000000;1.000590
9139.000000;1.000721
9138.000000;1.000762
9137.000000;1.000544
9136.000000;1.000152
9135.000000;0.999839
9134.000000;0.999720
9133.000000;0.999619
9132.000000;0.999266
9131.000000;0.998609
9130.000000;0.997890
9129.000000;0.997397
9128.000000;0.997198
9127.000000;0.997128
9126.000000;0.996990
9125.000000;0.996708
9124.000000;0.996331
9123.000000;0.995962
9122.000000;0.995702
9121.000000;0.995571
9120.000000;0.995465
9119.000000;0.995244
9118.000000;0.994898
9117.000000;0.994533
9116.000000;0.994207
9115.000000;0.993825
9114.000000;0.993247
9113.000000;0.992465
9112.000000;0.991649
9111.000000;0.991044
9110.000000;0.990804
9109.000000;0.990877
9108.000000;0.991057
9107.000000;0.991221
9106.000000;0.991465
9105.000000;0.991908
9104.000000;0.992366
9103.000000;0.992418
9102.000000;0.991876
9101.000000;0.991026
9100.000000;0.990299
9099.000000;0.989816
9098.000000;0.989388
9097.000000;0.988875
9096.000000;0.988363
9095.000000;0.988025
9094.000000;0.987956
9093.000000;0.988142
9092.000000;0.988431
9091.000000;0.988507
9090.000000;0.988009
9089.000000;0.986829
9088.000000;0.985314
9087.000000;0.984146
9086.000000;0.983898
9085.000000;0.984571
9084.000000;0.985537
9083.000000;0.986059
9082.000000;0.985942
9081.000000;0.985555
9080.000000;0.985229
9079.000000;0.984877
9078.000000;0.984323
9077.000000;0.983740
9076.000000;0.983479
9075.000000;0.983556
9074.000000;0.983603
9073.000000;0.983275
9072.000000;0.982519
9071.000000;0.981485
9070.000000;0.980424
9069.000000;0.979642
9068.000000;0.979296
9067.000000;0.979189
9066.000000;0.979006
9065.000000;0.978760
9064.000000;0.978754
9063.000000;0.979063
9062.000000;0.979316
9061.000000;0.979135
9060.000000;0.978549
9059.000000;0.977833
9058.000000;0.977167
9057.000000;0.976624
9056.000000;0.976292
9055.000000;0.976158
9054.000000;0.975993
9053.000000;0.975569
