Criado como novo conjunto de dados;"Jao_teste_celulas.spp","5823.0 Secs"
cm-1;Abs
10000.000000;1.143839
9999.000000;1.143528
9998.000000;1.142268
9997.000000;1.140589
9996.000000;1.139223
9995.000000;1.138306
9994.000000;1.137724
9993.000000;1.137145
9992.000000;1.136544
9991.000000;1.136005
9990.000000;1.135586
9989.000000;1.135269
9988.000000;1.135123
9987.000000;1.135210
9986.000000;1.135385
9985.000000;1.135408
9984.000000;1.135272
9983.000000;1.135143
9982.000000;1.134927
9981.000000;1.134215
9980.000000;1.132825
9979.000000;1.131218
9978.000000;1.130128
9977.000000;1.129910
9976.000000;1.130341
9975.000000;1.130930
9974.000000;1.131248
9973.000000;1.131110
9972.000000;1.130638
9971.000000;1.130129
9970.000000;1.129710
9969.000000;1.129176
9968.000000;1.128284
9967.000000;1.127136
9966.000000;1.126117
9965.000000;1.125470
9964.000000;1.125071
9963.000000;1.124656
9962.000000;1.124158
9961.000000;1.123762
9960.000000;1.123694
9959.000000;1.123975
9958.000000;1.124369
9957.000000;1.124536
9956.000000;1.124266
9955.000000;1.123574
9954.000000;1.122613
9953.000000;1.121583
9952.000000;1.120692
9951.000000;1.120069
9950.000000;1.119648
9949.000000;1.119213
9948.000000;1.118643
9947.000000;1.118060
9946.000000;1.117654
9945.000000;1.117403
9944.000000;1.117068
9943.000000;1.116459
9942.000000;1.115663
9941.000000;1.114959
9940.000000;1.114561
9939.000000;1.114460
9938.000000;1.114484
9937.000000;1.114438
9936.000000;1.114162
9935.000000;1.113530
9934.000000;1.112542
9933.000000;1.111493
9932.000000;1.110870
9931.000000;1.110902
9930.000000;1.111258
9929.000000;1.111365
9928.000000;1.111006
9927.000000;1.110424
9926.000000;1.109909
9925.000000;1.109513
9924.000000;1.109207
9923.000000;1.109057
9922.000000;1.109076
9921.000000;1.109080
9920.000000;1.108850
9919.000000;1.108391
9918.000000;1.107886
9917.000000;1.107465
9916.000000;1.107099
9915.000000;1.106647
9914.000000;1.105939
9913.000000;1.104933
9912.000000;1.103855
9911.000000;1.103089
9910.000000;1.102820
9909.000000;1.102843
9908.000000;1.102766
9907.000000;1.102309
9906.000000;1.101376
9905.000000;1.100056
9904.000000;1.098716
9903.000000;1.097925
9902.000000;1.098031
9901.000000;1.098796
9900.000000;1.099561
9899.000000;1.099760
9898.000000;1.099252
9897.000000;1.098303
9896.000000;1.097422
9895.000000;1.097092
9894.000000;1.097408
9893.000000;1.097934
9892.000000;1.098045
9891.000000;1.097450
9890.000000;1.096324
9889.000000;1.095028
9888.000000;1.093890
9887.000000;1.093181
9886.000000;1.092994
9885.000000;1.093081
9884.000000;1.092991
9883.000000;1.092474
9882.000000;1.091640
9881.000000;1.090696
9880.000000;1.089721
9879.000000;1.088780
9878.000000;1.088075
9877.000000;1.087774
9876.000000;1.087782
9875.000000;1.087820
9874.000000;1.087721
9873.000000;1.087543
9872.000000;1.087417
9871.000000;1.087407
9870.000000;1.087502
9869.000000;1.087626
9868.000000;1.087599
9867.000000;1.087207
9866.000000;1.086400
9865.000000;1.085397
9864.000000;1.084535
9863.000000;1.083973
9862.000000;1.083599
9861.000000;1.083223
9860.000000;1.082805
9859.000000;1.082459
9858.000000;1.082273
9857.000000;1.082216
9856.000000;1.082220
9855.000000;1.082239
9854.000000;1.082146
9853.000000;1.081697
9852.000000;1.080710
9851.000000;1.079328
9850.000000;1.078006
9849.000000;1.077172
9848.000000;1.076924
9847.000000;1.077032
9846.000000;1.077194
9845.000000;1.077232
9844.000000;1.077089
9843.000000;1.076708
9842.000000;1.076010
9841.000000;1.075041
9840.000000;1.074105
9839.000000;1.073636
9838.000000;1.073853
9837.000000;1.074546
9836.000000;1.075255
9835.000000;1.075653
9834.000000;1.075694
9833.000000;1.075406
9832.000000;1.074706
9831.000000;1.073546
9830.000000;1.072162
9829.000000;1.071001
9828.000000;1.070321
9827.000000;1.070009
9826.000000;1.069836
9825.000000;1.069750
9824.000000;1.069766
9823.000000;1.069692
9822.000000;1.069211
9821.000000;1.068282
9820.000000;1.067236
9819.000000;1.066366
9818.000000;1.065653
9817.000000;1.065019
9816.000000;1.064602
9815.000000;1.064525
9814.000000;1.064555
9813.000000;1.064325
9812.000000;1.063817
9811.000000;1.063324
9810.000000;1.062939
9809.000000;1.062464
9808.000000;1.061897
9807.000000;1.061608
9806.000000;1.061833
9805.000000;1.062259
9804.000000;1.062389
9803.000000;1.062093
9802.000000;1.061546
9801.000000;1.060840
9800.000000;1.060001
9799.000000;1.059273
9798.000000;1.058963
9797.000000;1.058932
9796.000000;1.058582
9795.000000;1.057503
9794.000000;1.055944
9793.000000;1.054564
9792.000000;1.053846
9791.000000;1.053839
9790.000000;1.054292
9789.000000;1.054892
9788.000000;1.055373
9787.000000;1.055486
9786.000000;1.054984
9785.000000;1.053826
9784.000000;1.052444
9783.000000;1.051599
9782.000000;1.051669
9781.000000;1.052130
9780.000000;1.052051
9779.000000;1.051147
9778.000000;1.050074
9777.000000;1.049590
9776.000000;1.049712
9775.000000;1.049861
9774.000000;1.049584
9773.000000;1.048883
9772.000000;1.048011
9771.000000;1.047243
9770.000000;1.046828
9769.000000;1.046864
9768.000000;1.047156
9767.000000;1.047341
9766.000000;1.047219
9765.000000;1.046884
9764.000000;1.046511
9763.000000;1.046131
9762.000000;1.045629
9761.000000;1.044905
9760.000000;1.044023
9759.000000;1.043221
9758.000000;1.042750
9757.000000;1.042632
9756.000000;1.042616
9755.000000;1.042448
9754.000000;1.042141
9753.000000;1.041880
9752.000000;1.041719
9751.000000;1.041504
9750.000000;1.041086
9749.000000;1.040486
9748.000000;1.039841
9747.000000;1.039294
9746.000000;1.038972
9745.000000;1.038918
9744.000000;1.039005
9743.000000;1.039005
9742.000000;1.038796
9741.000000;1.038432
9740.000000;1.037992
9739.000000;1.037492
9738.000000;1.036982
9737.000000;1.036599
9736.000000;1.036384
9735.000000;1.036163
9734.000000;1.035729
9733.000000;1.035090
9732.000000;1.034410
9731.000000;1.033758
9730.000000;1.033039
9729.000000;1.032144
9728.000000;1.031081
9727.000000;1.029984
9726.000000;1.029110
9725.000000;1.028760
9724.000000;1.029034
9723.000000;1.029615
9722.000000;1.029943
9721.000000;1.029687
9720.000000;1.029004
9719.000000;1.028317
9718.000000;1.027900
9717.000000;1.027686
9716.000000;1.027386
9715.000000;1.026776
9714.000000;1.025974
9713.000000;1.025407
9712.000000;1.025389
9711.000000;1.025704
9710.000000;1.025750
9709.000000;1.025166
9708.000000;1.024185
9707.000000;1.023292
9706.000000;1.022677
9705.000000;1.022152
9704.000000;1.021490
9703.000000;1.020672
9702.000000;1.019848
9701.000000;1.019200
9700.000000;1.018816
9699.000000;1.018643
9698.000000;1.018562
9697.000000;1.018539
9696.000000;1.018609
9695.000000;1.018697
9694.000000;1.018597
9693.000000;1.018250
9692.000000;1.017894
9691.000000;1.017765
9690.000000;1.017746
9689.000000;1.017496
9688.000000;1.016862
9687.000000;1.015993
9686.000000;1.015120
9685.000000;1.014430
9684.000000;1.014074
9683.000000;1.014050
9682.000000;1.014078
9681.000000;1.013833
9680.000000;1.013337
9679.000000;1.012895
9678.000000;1.012635
9677.000000;1.012342
9676.000000;1.011806
9675.000000;1.011092
9674.000000;1.010388
9673.000000;1.009819
9672.000000;1.009495
9671.000000;1.009509
9670.000000;1.009705
9669.000000;1.009675
9668.000000;1.009180
9667.000000;1.008456
9666.000000;1.007890
9665.000000;1.007550
9664.000000;1.007230
9663.000000;1.006809
9662.000000;1.006352
9661.000000;1.005933
9660.000000;1.005571
9659.000000;1.005283
9658.000000;1.005020
9657.000000;1.004646
9656.000000;1.004132
9655.000000;1.003672
9654.000000;1.003414
9653.000000;1.003190
9652.000000;1.002756
9651.000000;1.002219
9650.000000;1.001933
9649.000000;1.001990
9648.000000;1.002063
9647.000000;1.001797
9646.000000;1.001146
9645.000000;1.000330
9644.000000;0.999656
9643.000000;0.999382
9642.000000;0.999492
9641.000000;0.999568
9640.000000;0.999136
9639.000000;0.998220
9638.000000;0.997313
9637.000000;0.996735
9636.000000;0.996290
9635.000000;0.995663
9634.000000;0.994911
9633.000000;0.994357
9632.000000;0.994184
9631.000000;0.994325
9630.000000;0.994605
9629.000000;0.994763
9628.000000;0.994490
9627.000000;0.993696
9626.000000;0.992694
9625.000000;0.991890
9624.000000;0.991334
9623.000000;0.990763
9622.000000;0.990037
9621.000000;0.989339
9620.000000;0.988894
9619.000000;0.988672
9618.000000;0.988458
9617.000000;0.988133
9616.000000;0.987805
9615.000000;0.987685
9614.000000;0.987847
9613.000000;0.988124
9612.000000;0.988272
9611.000000;0.988249
9610.000000;0.988215
9609.000000;0.988224
9608.000000;0.988067
9607.000000;0.987554
9606.000000;0.986829
9605.000000;0.986196
9604.000000;0.985687
9603.000000;0.985058
9602.000000;0.984223
9601.000000;0.983471
9600.000000;0.983100
9599.000000;0.983009
9598.000000;0.982844
9597.000000;0.982475
9596.000000;0.982152
9595.000000;0.982136
9594.000000;0.982316
9593.000000;0.982289
9592.000000;0.981786
9591.000000;0.980951
9590.000000;0.980146
9589.000000;0.979550
9588.000000;0.979055
9587.000000;0.978533
9586.000000;0.978059
9585.000000;0.977796
9584.000000;0.977724
9583.000000;0.977625
9582.000000;0.977314
9581.000000;0.976773
9580.000000;0.976100
9579.000000;0.975435
9578.000000;0.974974
9577.000000;0.974887
9576.000000;0.975124
9575.000000;0.975360
9574.000000;0.975245
9573.000000;0.974712
9572.000000;0.974010
9571.000000;0.973443
9570.000000;0.973090
9569.000000;0.972769
9568.000000;0.972250
9567.000000;0.971500
9566.000000;0.970742
9565.000000;0.970238
9564.000000;0.970040
9563.000000;0.969962
9562.000000;0.969765
9561.000000;0.969343
9560.000000;0.968750
9559.000000;0.968136
9558.000000;0.967637
9557.000000;0.967259
9556.000000;0.966882
9555.000000;0.966439
9554.000000;0.966074
9553.000000;0.965966
9552.000000;0.965990
9551.000000;0.965737
9550.000000;0.965000
9549.000000;0.964118
9548.000000;0.963651
9547.000000;0.963748
9546.000000;0.963992
9545.000000;0.963871
9544.000000;0.963284
9543.000000;0.962565
9542.000000;0.962105
9541.000000;0.961985
9540.000000;0.961937
9539.000000;0.961636
9538.000000;0.961052
9537.000000;0.960488
9536.000000;0.960202
9535.000000;0.960063
9534.000000;0.959708
9533.000000;0.959042
9532.000000;0.958384
9531.000000;0.958065
9530.000000;0.958036
9529.000000;0.958027
9528.000000;0.957945
9527.000000;0.957916
9526.000000;0.957963
9525.000000;0.957876
9524.000000;0.957480
9523.000000;0.956888
9522.000000;0.956337
9521.000000;0.955866
9520.000000;0.955307
9519.000000;0.954598
9518.000000;0.953936
9517.000000;0.953512
9516.000000;0.953197
9515.000000;0.952620
9514.000000;0.951629
9513.000000;0.950561
9512.000000;0.949941
9511.000000;0.949921
9510.000000;0.950098
9509.000000;0.949948
9508.000000;0.949397
9507.000000;0.948873
9506.000000;0.948813
9505.000000;0.949197
9504.000000;0.949579
9503.000000;0.949512
9502.000000;0.948875
9501.000000;0.947908
9500.000000;0.947020
9499.000000;0.946557
9498.000000;0.946564
9497.000000;0.946681
9496.000000;0.946385
9495.000000;0.945491
9494.000000;0.944416
9493.000000;0.943818
9492.000000;0.943936
9491.000000;0.944349
9490.000000;0.944428
9489.000000;0.943956
9488.000000;0.943247
9487.000000;0.942714
9486.000000;0.942447
9485.000000;0.942250
9484.000000;0.941997
9483.000000;0.941822
9482.000000;0.941900
9481.000000;0.942112
9480.000000;0.942072
9479.000000;0.941559
9478.000000;0.940824
9477.000000;0.940310
9476.000000;0.940108
9475.000000;0.939878
9474.000000;0.939359
9473.000000;0.938766
9472.000000;0.938487
9471.000000;0.938531
9470.000000;0.938469
9469.000000;0.937949
9468.000000;0.937073
9467.000000;0.936232
9466.000000;0.935721
9465.000000;0.935569
9464.000000;0.935589
9463.000000;0.935485
9462.000000;0.935052
9461.000000;0.934396
9460.000000;0.933884
9459.000000;0.933756
9458.000000;0.933838
9457.000000;0.933755
9456.000000;0.933370
9455.000000;0.932855
9454.000000;0.932368
9453.000000;0.931881
9452.000000;0.931391
9451.000000;0.931068
9450.000000;0.931038
9449.000000;0.931105
9448.000000;0.930897
9447.000000;0.930281
9446.000000;0.929492
9445.000000;0.928814
9444.000000;0.928292
9443.000000;0.927819
9442.000000;0.927385
9441.000000;0.927088
9440.000000;0.926945
9439.000000;0.926827
9438.000000;0.926641
9437.000000;0.926460
9436.000000;0.926387
9435.000000;0.926347
9434.000000;0.926119
9433.000000;0.925621
9432.000000;0.925054
9431.000000;0.924698
9430.000000;0.924591
9429.000000;0.924465
9428.000000;0.924023
9427.000000;0.923259
9426.000000;0.922493
9425.000000;0.922092
9424.000000;0.922136
9423.000000;0.922345
9422.000000;0.922319
9421.000000;0.921872
9420.000000;0.921139
9419.000000;0.920377
9418.000000;0.919713
9417.000000;0.919108
9416.000000;0.918531
9415.000000;0.918046
9414.000000;0.917699
9413.000000;0.917366
9412.000000;0.916842
9411.000000;0.916115
9410.000000;0.915485
9409.000000;0.915305
9408.000000;0.915588
9407.000000;0.915924
9406.000000;0.915851
9405.000000;0.915300
9404.000000;0.914628
9403.000000;0.914251
9402.000000;0.914281
9401.000000;0.914500
9400.000000;0.914594
9399.000000;0.914371
9398.000000;0.913849
9397.000000;0.913234
9396.000000;0.912816
9395.000000;0.912776
9394.000000;0.913048
9393.000000;0.913341
9392.000000;0.913338
9391.000000;0.912894
9390.000000;0.912106
9389.000000;0.911238
9388.000000;0.910563
9387.000000;0.910193
9386.000000;0.909995
9385.000000;0.909709
9384.000000;0.909195
9383.000000;0.908569
9382.000000;0.908072
9381.000000;0.907809
9380.000000;0.907646
9379.000000;0.907362
9378.000000;0.906852
9377.000000;0.906206
9376.000000;0.905635
9375.000000;0.905349
9374.000000;0.905407
9373.000000;0.905609
9372.000000;0.905582
9371.000000;0.905094
9370.000000;0.904287
9369.000000;0.903519
9368.000000;0.902984
9367.000000;0.902585
9366.000000;0.902203
9365.000000;0.901930
9364.000000;0.901933
9363.000000;0.902187
9362.000000;0.902487
9361.000000;0.902677
9360.000000;0.902761
9359.000000;0.902767
9358.000000;0.902652
9357.000000;0.902358
9356.000000;0.901886
9355.000000;0.901296
9354.000000;0.900684
9353.000000;0.900157
9352.000000;0.899721
9351.000000;0.899246
9350.000000;0.898645
9349.000000;0.898077
9348.000000;0.897799
9347.000000;0.897808
9346.000000;0.897801
9345.000000;0.897534
9344.000000;0.897060
9343.000000;0.896517
9342.000000;0.895905
9341.000000;0.895228
9340.000000;0.894670
9339.000000;0.894401
9338.000000;0.894276
9337.000000;0.893980
9336.000000;0.893452
9335.000000;0.892959
9334.000000;0.892730
9333.000000;0.892729
9332.000000;0.892788
9331.000000;0.892779
9330.000000;0.892573
9329.000000;0.892047
9328.000000;0.891260
9327.000000;0.890510
9326.000000;0.890088
9325.000000;0.889979
9324.000000;0.889894
9323.000000;0.889577
9322.000000;0.889055
9321.000000;0.888615
9320.000000;0.888546
9319.000000;0.888819
9318.000000;0.889033
9317.000000;0.888769
9316.000000;0.888047
9315.000000;0.887312
9314.000000;0.886941
9313.000000;0.886889
9312.000000;0.886872
9311.000000;0.886722
9310.000000;0.886425
9309.000000;0.885977
9308.000000;0.885398
9307.000000;0.884854
9306.000000;0.884542
9305.000000;0.884464
9304.000000;0.884428
9303.000000;0.884313
9302.000000;0.884152
9301.000000;0.883964
9300.000000;0.883655
9299.000000;0.883189
9298.000000;0.882721
9297.000000;0.882437
9296.000000;0.882306
9295.000000;0.882119
9294.000000;0.881727
9293.000000;0.881160
9292.000000;0.880519
9291.000000;0.879872
9290.000000;0.879298
9289.000000;0.878928
9288.000000;0.878839
9287.000000;0.878933
9286.000000;0.878981
9285.000000;0.878830
9284.000000;0.878513
9283.000000;0.878165
9282.000000;0.877887
9281.000000;0.877706
9280.000000;0.877604
9279.000000;0.877490
9278.000000;0.877186
9277.000000;0.876559
9276.000000;0.875714
9275.000000;0.874990
9274.000000;0.874686
9273.000000;0.874788
9272.000000;0.874978
9271.000000;0.874901
9270.000000;0.874426
9269.000000;0.873724
9268.000000;0.873126
9267.000000;0.872876
9266.000000;0.872955
9265.000000;0.873114
9264.000000;0.873074
9263.000000;0.872708
9262.000000;0.872068
9261.000000;0.871363
9260.000000;0.870882
9259.000000;0.870793
9258.000000;0.870920
9257.000000;0.870817
9256.000000;0.870180
9255.000000;0.869173
9254.000000;0.868258
9253.000000;0.867748
9252.000000;0.867611
9251.000000;0.867638
9250.000000;0.867625
9249.000000;0.867406
9248.000000;0.866881
9247.000000;0.866157
9246.000000;0.865553
9245.000000;0.865338
9244.000000;0.865462
9243.000000;0.865605
9242.000000;0.865485
9241.000000;0.865056
9240.000000;0.864464
9239.000000;0.863889
9238.000000;0.863475
9237.000000;0.863324
9236.000000;0.863449
9235.000000;0.863715
9234.000000;0.863879
9233.000000;0.863753
9232.000000;0.863345
9231.000000;0.862845
9230.000000;0.862457
9229.000000;0.862241
9228.000000;0.862073
9227.000000;0.861731
9226.000000;0.861069
9225.000000;0.860188
9224.000000;0.859434
9223.000000;0.859115
9222.000000;0.859187
9221.000000;0.859266
9220.000000;0.859026
9219.000000;0.858534
9218.000000;0.858123
9217.000000;0.857983
9216.000000;0.857974
9215.000000;0.857809
9214.000000;0.857332
9213.000000;0.856592
9212.000000;0.855763
9211.000000;0.855050
9210.000000;0.854607
9209.000000;0.854486
9208.000000;0.854625
9207.000000;0.854854
9206.000000;0.854944
9205.000000;0.854716
9204.000000;0.854218
9203.000000;0.853726
9202.000000;0.853485
9201.000000;0.853440
9200.000000;0.853335
9199.000000;0.853087
9198.000000;0.852905
9197.000000;0.852969
9196.000000;0.853108
9195.000000;0.852942
9194.000000;0.852317
9193.000000;0.851483
9192.000000;0.850827
9191.000000;0.850512
9190.000000;0.850410
9189.000000;0.850329
9188.000000;0.850226
9187.000000;0.850184
9186.000000;0.850202
9185.000000;0.850090
9184.000000;0.849628
9183.000000;0.848840
9182.000000;0.848035
9181.000000;0.847543
9180.000000;0.847409
9179.000000;0.847388
9178.000000;0.847202
9177.000000;0.846796
9176.000000;0.846353
9175.000000;0.846064
9174.000000;0.845916
9173.000000;0.845735
9172.000000;0.845428
9171.000000;0.845104
9170.000000;0.844887
9169.000000;0.844709
9168.000000;0.844421
9167.000000;0.844062
9166.000000;0.843861
9165.000000;0.843921
9164.000000;0.844069
9163.000000;0.844075
9162.000000;0.843886
9161.000000;0.843538
9160.000000;0.842990
9159.000000;0.842204
9158.000000;0.841339
9157.000000;0.840705
9156.000000;0.840473
9155.000000;0.840523
9154.000000;0.840581
9153.000000;0.840433
9152.000000;0.840028
9151.000000;0.839459
9150.000000;0.838873
9149.000000;0.838395
9148.000000;0.838110
9147.000000;0.838064
9146.000000;0.838185
9145.000000;0.838236
9144.000000;0.837995
9143.000000;0.837574
9142.000000;0.837392
9141.000000;0.837683
9140.000000;0.838135
9139.000000;0.838211
9138.000000;0.837753
9137.000000;0.837083
9136.000000;0.836562
9135.000000;0.836271
9134.000000;0.836141
9133.000000;0.836133
9132.000000;0.836155
9131.000000;0.836013
9130.000000;0.835606
9129.000000;0.835067
9128.000000;0.834596
9127.000000;0.834217
9126.000000;0.833811
9125.000000;0.833315
9124.000000;0.832752
9123.000000;0.832150
9122.000000;0.831535
9121.000000;0.830978
9120.000000;0.830563
9119.000000;0.830301
9118.000000;0.830139
9117.000000;0.830008
9116.000000;0.829811
9115.000000;0.829478
9114.000000;0.829103
9113.000000;0.828957
9112.000000;0.829217
9111.000000;0.829686
9110.000000;0.829941
9109.000000;0.829735
9108.000000;0.829169
9107.000000;0.828484
9106.000000;0.827844
9105.000000;0.827342
9104.000000;0.827060
9103.000000;0.826996
9102.000000;0.827009
9101.000000;0.826912
9100.000000;0.826598
9099.000000;0.826065
9098.000000;0.825401
9097.000000;0.824795
9096.000000;0.824472
9095.000000;0.824491
9094.000000;0.824626
9093.000000;0.824586
9092.000000;0.824339
9091.000000;0.824128
9090.000000;0.824119
9089.000000;0.824155
9088.000000;0.823946
9087.000000;0.823423
9086.000000;0.822818
9085.000000;0.822382
9084.000000;0.822150
9083.000000;0.822000
9082.000000;0.821822
9081.000000;0.821575
9080.000000;0.821229
9079.000000;0.820784
9078.000000;0.820337
9077.000000;0.820036
9076.000000;0.819932
9075.000000;0.819929
9074.000000;0.819888
9073.000000;0.819758
9072.000000;0.819578
9071.000000;0.819398
9070.000000;0.819206
9069.000000;0.818927
9068.000000;0.818464
9067.000000;0.817799
9066.000000;0.817069
9065.000000;0.816494
9064.000000;0.816208
9063.000000;0.816165
9062.000000;0.816215
9061.000000;0.816204
9060.000000;0.816038
9059.000000;0.815722
9058.000000;0.815379
9057.000000;0.815175
9056.000000;0.815153
9055.000000;0.815171
9054.000000;0.815029
9053.000000;0.814613
