Criado como novo conjunto de dados;"Jao_teste_celulas.spp","9784.1 Secs"
cm-1;Abs
10000.000000;1.744254
9999.000000;1.743128
9998.000000;1.741423
9997.000000;1.740565
9996.000000;1.741407
9995.000000;1.742703
9994.000000;1.742755
9993.000000;1.740980
9992.000000;1.738356
9991.000000;1.736026
9990.000000;1.734566
9989.000000;1.734067
9988.000000;1.734381
9987.000000;1.735067
9986.000000;1.735553
9985.000000;1.735518
9984.000000;1.735007
9983.000000;1.734219
9982.000000;1.733358
9981.000000;1.732628
9980.000000;1.732135
9979.000000;1.731767
9978.000000;1.731336
9977.000000;1.730763
9976.000000;1.730042
9975.000000;1.729235
9974.000000;1.728740
9973.000000;1.729245
9972.000000;1.730882
9971.000000;1.732496
9970.000000;1.732389
9969.000000;1.730133
9968.000000;1.727145
9967.000000;1.725219
9966.000000;1.724918
9965.000000;1.725602
9964.000000;1.726478
9963.000000;1.727166
9962.000000;1.727515
9961.000000;1.727460
9960.000000;1.727124
9959.000000;1.726616
9958.000000;1.725627
9957.000000;1.723622
9956.000000;1.720733
9955.000000;1.718086
9954.000000;1.716903
9953.000000;1.717445
9952.000000;1.718956
9951.000000;1.720408
9950.000000;1.721064
9949.000000;1.720601
9948.000000;1.719213
9947.000000;1.717706
9946.000000;1.717084
9945.000000;1.717688
9944.000000;1.718789
9943.000000;1.719282
9942.000000;1.718780
9941.000000;1.717809
9940.000000;1.716916
9939.000000;1.715910
9938.000000;1.714207
9937.000000;1.711803
9936.000000;1.709593
9935.000000;1.708562
9934.000000;1.708778
9933.000000;1.709294
9932.000000;1.709023
9931.000000;1.707673
9930.000000;1.705878
9929.000000;1.704512
9928.000000;1.703945
9927.000000;1.703844
9926.000000;1.703645
9925.000000;1.703346
9924.000000;1.703749
9923.000000;1.705597
9922.000000;1.708407
9921.000000;1.710449
9920.000000;1.710251
9919.000000;1.708069
9918.000000;1.705609
9917.000000;1.704450
9916.000000;1.704968
9915.000000;1.706412
9914.000000;1.707514
9913.000000;1.707165
9912.000000;1.705124
9911.000000;1.702289
9910.000000;1.700023
9909.000000;1.699110
9908.000000;1.699506
9907.000000;1.700848
9906.000000;1.702650
9905.000000;1.704061
9904.000000;1.704240
9903.000000;1.703352
9902.000000;1.702541
9901.000000;1.702435
9900.000000;1.702236
9899.000000;1.700835
9898.000000;1.698383
9897.000000;1.696070
9896.000000;1.694736
9895.000000;1.694410
9894.000000;1.694962
9893.000000;1.696348
9892.000000;1.698100
9891.000000;1.699208
9890.000000;1.698856
9889.000000;1.697038
9888.000000;1.694481
9887.000000;1.692403
9886.000000;1.692058
9885.000000;1.693626
9884.000000;1.695446
9883.000000;1.695244
9882.000000;1.692668
9881.000000;1.689917
9880.000000;1.689280
9879.000000;1.690628
9878.000000;1.691773
9877.000000;1.690949
9876.000000;1.688602
9875.000000;1.686866
9874.000000;1.687502
9873.000000;1.690105
9872.000000;1.692080
9871.000000;1.690873
9870.000000;1.686656
9869.000000;1.682225
9868.000000;1.680056
9867.000000;1.680147
9866.000000;1.680811
9865.000000;1.680779
9864.000000;1.679930
9863.000000;1.678599
9862.000000;1.677196
9861.000000;1.676259
9860.000000;1.676040
9859.000000;1.676097
9858.000000;1.675888
9857.000000;1.675628
9856.000000;1.675885
9855.000000;1.676405
9854.000000;1.676167
9853.000000;1.674800
9852.000000;1.673170
9851.000000;1.672242
9850.000000;1.671973
9849.000000;1.671765
9848.000000;1.671474
9847.000000;1.671404
9846.000000;1.671518
9845.000000;1.671276
9844.000000;1.670339
9843.000000;1.669163
9842.000000;1.668701
9841.000000;1.669613
9840.000000;1.671688
9839.000000;1.673862
9838.000000;1.674864
9837.000000;1.674060
9836.000000;1.671771
9835.000000;1.668949
9834.000000;1.666702
9833.000000;1.665926
9832.000000;1.666851
9831.000000;1.668715
9830.000000;1.670120
9829.000000;1.670084
9828.000000;1.668841
9827.000000;1.667539
9826.000000;1.667234
9825.000000;1.668137
9824.000000;1.669568
9823.000000;1.670482
9822.000000;1.670217
9821.000000;1.668870
9820.000000;1.666975
9819.000000;1.664942
9818.000000;1.663055
9817.000000;1.661847
9816.000000;1.661875
9815.000000;1.662866
9814.000000;1.663613
9813.000000;1.663276
9812.000000;1.662508
9811.000000;1.662587
9810.000000;1.663549
9809.000000;1.663895
9808.000000;1.662390
9807.000000;1.659638
9806.000000;1.657442
9805.000000;1.656966
9804.000000;1.657838
9803.000000;1.658700
9802.000000;1.658339
9801.000000;1.656547
9800.000000;1.654238
9799.000000;1.652550
9798.000000;1.651701
9797.000000;1.650888
9796.000000;1.649514
9795.000000;1.648126
9794.000000;1.647669
9793.000000;1.648168
9792.000000;1.648871
9791.000000;1.649540
9790.000000;1.650740
9789.000000;1.652598
9788.000000;1.654097
9787.000000;1.654211
9786.000000;1.653218
9785.000000;1.652253
9784.000000;1.651926
9783.000000;1.651902
9782.000000;1.651543
9781.000000;1.650435
9780.000000;1.648518
9779.000000;1.646277
9778.000000;1.644668
9777.000000;1.644302
9776.000000;1.644692
9775.000000;1.644748
9774.000000;1.643952
9773.000000;1.642656
9772.000000;1.641318
9771.000000;1.640039
9770.000000;1.638868
9769.000000;1.638070
9768.000000;1.637910
9767.000000;1.638364
9766.000000;1.639052
9765.000000;1.639382
9764.000000;1.638965
9763.000000;1.638100
9762.000000;1.637627
9761.000000;1.637919
9760.000000;1.638311
9759.000000;1.638076
9758.000000;1.637600
9757.000000;1.637712
9756.000000;1.638157
9755.000000;1.637890
9754.000000;1.636900
9753.000000;1.636423
9752.000000;1.636948
9751.000000;1.637281
9750.000000;1.636309
9749.000000;1.634649
9748.000000;1.633567
9747.000000;1.633134
9746.000000;1.632561
9745.000000;1.631760
9744.000000;1.631382
9743.000000;1.631596
9742.000000;1.631918
9741.000000;1.632136
9740.000000;1.632373
9739.000000;1.632203
9738.000000;1.630744
9737.000000;1.627992
9736.000000;1.625330
9735.000000;1.624314
9734.000000;1.625334
9733.000000;1.627468
9732.000000;1.629198
9731.000000;1.629333
9730.000000;1.627835
9729.000000;1.625854
9728.000000;1.624545
9727.000000;1.623843
9726.000000;1.622835
9725.000000;1.621294
9724.000000;1.620181
9723.000000;1.620433
9722.000000;1.621793
9721.000000;1.623144
9720.000000;1.623687
9719.000000;1.623495
9718.000000;1.623114
9717.000000;1.622875
9716.000000;1.622559
9715.000000;1.621697
9714.000000;1.620297
9713.000000;1.619099
9712.000000;1.618819
9711.000000;1.619304
9710.000000;1.619809
9709.000000;1.619992
9708.000000;1.620099
9707.000000;1.620212
9706.000000;1.619949
9705.000000;1.619120
9704.000000;1.618097
9703.000000;1.617206
9702.000000;1.616282
9701.000000;1.615153
9700.000000;1.614163
9699.000000;1.613746
9698.000000;1.613768
9697.000000;1.613719
9696.000000;1.613417
9695.000000;1.613171
9694.000000;1.613362
9693.000000;1.614168
9692.000000;1.615545
9691.000000;1.617049
9690.000000;1.617717
9689.000000;1.616549
9688.000000;1.613444
9687.000000;1.609575
9686.000000;1.606638
9685.000000;1.605611
9684.000000;1.606122
9683.000000;1.606858
9682.000000;1.606642
9681.000000;1.605193
9680.000000;1.602990
9679.000000;1.600780
9678.000000;1.599373
9677.000000;1.599507
9676.000000;1.601332
9675.000000;1.603984
9674.000000;1.606113
9673.000000;1.607080
9672.000000;1.607426
9671.000000;1.608054
9670.000000;1.609203
9669.000000;1.610266
9668.000000;1.610239
9667.000000;1.608333
9666.000000;1.604687
9665.000000;1.600766
9664.000000;1.598562
9663.000000;1.598907
9662.000000;1.600629
9661.000000;1.601702
9660.000000;1.601220
9659.000000;1.599959
9658.000000;1.599083
9657.000000;1.598859
9656.000000;1.598741
9655.000000;1.598225
9654.000000;1.597282
9653.000000;1.596154
9652.000000;1.595044
9651.000000;1.594041
9650.000000;1.593147
9649.000000;1.592387
9648.000000;1.591976
9647.000000;1.592261
9646.000000;1.593261
9645.000000;1.594303
9644.000000;1.594429
9643.000000;1.593338
9642.000000;1.591707
9641.000000;1.590392
9640.000000;1.589511
9639.000000;1.588636
9638.000000;1.587717
9637.000000;1.587262
9636.000000;1.587478
9635.000000;1.587710
9634.000000;1.587136
9633.000000;1.585817
9632.000000;1.584654
9631.000000;1.584442
9630.000000;1.585262
9629.000000;1.586641
9628.000000;1.587911
9627.000000;1.588478
9626.000000;1.588131
9625.000000;1.587228
9624.000000;1.586371
9623.000000;1.585792
9622.000000;1.585199
9621.000000;1.584280
9620.000000;1.583177
9619.000000;1.582356
9618.000000;1.582133
9617.000000;1.582359
9616.000000;1.582469
9615.000000;1.581924
9614.000000;1.580776
9613.000000;1.579705
9612.000000;1.579283
9611.000000;1.579286
9610.000000;1.578952
9609.000000;1.577892
9608.000000;1.576464
9607.000000;1.575203
9606.000000;1.574290
9605.000000;1.573705
9604.000000;1.573432
9603.000000;1.573247
9602.000000;1.572679
9601.000000;1.571659
9600.000000;1.570946
9599.000000;1.571326
9598.000000;1.572456
9597.000000;1.573046
9596.000000;1.572340
9595.000000;1.571024
9594.000000;1.570389
9593.000000;1.570933
9592.000000;1.572077
9591.000000;1.573028
9590.000000;1.573511
9589.000000;1.573679
9588.000000;1.573676
9587.000000;1.573487
9586.000000;1.573046
9585.000000;1.572314
9584.000000;1.571346
9583.000000;1.570413
9582.000000;1.569940
9581.000000;1.570065
9580.000000;1.570306
9579.000000;1.569895
9578.000000;1.568424
9577.000000;1.566023
9576.000000;1.563127
9575.000000;1.560395
9574.000000;1.558674
9573.000000;1.558472
9572.000000;1.559359
9571.000000;1.560317
9570.000000;1.560781
9569.000000;1.560958
9568.000000;1.561112
9567.000000;1.561149
9566.000000;1.561140
9565.000000;1.561575
9564.000000;1.562580
9563.000000;1.563405
9562.000000;1.563302
9561.000000;1.562541
9560.000000;1.561858
9559.000000;1.561234
9558.000000;1.560068
9557.000000;1.558384
9556.000000;1.556984
9555.000000;1.556344
9554.000000;1.556152
9553.000000;1.556103
9552.000000;1.556395
9551.000000;1.557100
9550.000000;1.557712
9549.000000;1.557784
9548.000000;1.557614
9547.000000;1.557783
9546.000000;1.558300
9545.000000;1.558638
9544.000000;1.558418
9543.000000;1.557650
9542.000000;1.556496
9541.000000;1.555111
9540.000000;1.553597
9539.000000;1.551893
9538.000000;1.549906
9537.000000;1.547970
9536.000000;1.546904
9535.000000;1.547266
9534.000000;1.548642
9533.000000;1.549907
9532.000000;1.550177
9531.000000;1.549332
9530.000000;1.547751
9529.000000;1.545928
9528.000000;1.544368
9527.000000;1.543511
9526.000000;1.543456
9525.000000;1.543780
9524.000000;1.543743
9523.000000;1.542881
9522.000000;1.541502
9521.000000;1.540496
9520.000000;1.540509
9519.000000;1.541278
9518.000000;1.541965
9517.000000;1.542087
9516.000000;1.541844
9515.000000;1.541581
9514.000000;1.541319
9513.000000;1.541031
9512.000000;1.540894
9511.000000;1.540850
9510.000000;1.540253
9509.000000;1.538473
9508.000000;1.535922
9507.000000;1.534068
9506.000000;1.534101
9505.000000;1.535740
9504.000000;1.537509
9503.000000;1.538149
9502.000000;1.537650
9501.000000;1.536909
9500.000000;1.536639
9499.000000;1.536801
9498.000000;1.536952
9497.000000;1.536777
9496.000000;1.536185
9495.000000;1.535197
9494.000000;1.534031
9493.000000;1.533127
9492.000000;1.532765
9491.000000;1.532761
9490.000000;1.532831
9489.000000;1.533172
9488.000000;1.534213
9487.000000;1.535701
9486.000000;1.536533
9485.000000;1.535818
9484.000000;1.533886
9483.000000;1.532006
9482.000000;1.531224
9481.000000;1.531409
9480.000000;1.531294
9479.000000;1.529590
9478.000000;1.526330
9477.000000;1.523142
9476.000000;1.521952
9475.000000;1.523248
9474.000000;1.525729
9473.000000;1.527636
9472.000000;1.528188
9471.000000;1.527636
9470.000000;1.526463
9469.000000;1.525086
9468.000000;1.524087
9467.000000;1.524077
9466.000000;1.525123
9465.000000;1.526570
9464.000000;1.527611
9463.000000;1.527952
9462.000000;1.527817
9461.000000;1.527423
9460.000000;1.526630
9459.000000;1.525190
9458.000000;1.523264
9457.000000;1.521532
9456.000000;1.520640
9455.000000;1.520581
9454.000000;1.520774
9453.000000;1.520722
9452.000000;1.520421
9451.000000;1.520125
9450.000000;1.519955
9449.000000;1.519842
9448.000000;1.519602
9447.000000;1.518952
9446.000000;1.517736
9445.000000;1.516223
9444.000000;1.514945
9443.000000;1.514167
9442.000000;1.513758
9441.000000;1.513598
9440.000000;1.513743
9439.000000;1.514024
9438.000000;1.513951
9437.000000;1.513439
9436.000000;1.513261
9435.000000;1.514202
9434.000000;1.515867
9433.000000;1.516873
9432.000000;1.516309
9431.000000;1.514558
9430.000000;1.512561
9429.000000;1.510809
9428.000000;1.509360
9427.000000;1.508404
9426.000000;1.508312
9425.000000;1.509102
9424.000000;1.510194
9423.000000;1.510886
9422.000000;1.510952
9421.000000;1.510675
9420.000000;1.510316
9419.000000;1.509699
9418.000000;1.508512
9417.000000;1.506950
9416.000000;1.505726
9415.000000;1.505321
9414.000000;1.505497
9413.000000;1.505771
9412.000000;1.506159
9411.000000;1.506981
9410.000000;1.508025
9409.000000;1.508447
9408.000000;1.507755
9407.000000;1.506506
9406.000000;1.505581
9405.000000;1.505029
9404.000000;1.504096
9403.000000;1.502395
9402.000000;1.500552
9401.000000;1.499499
9400.000000;1.499450
9399.000000;1.499840
9398.000000;1.500019
9397.000000;1.499678
9396.000000;1.498804
9395.000000;1.497684
9394.000000;1.496941
9393.000000;1.497102
9392.000000;1.497906
9391.000000;1.498374
9390.000000;1.497875
9389.000000;1.496845
9388.000000;1.496090
9387.000000;1.495655
9386.000000;1.494915
9385.000000;1.493634
9384.000000;1.492377
9383.000000;1.491819
9382.000000;1.492073
9381.000000;1.492791
9380.000000;1.493540
9379.000000;1.493943
9378.000000;1.493754
9377.000000;1.493073
9376.000000;1.492311
9375.000000;1.491799
9374.000000;1.491600
9373.000000;1.491777
9372.000000;1.492449
9371.000000;1.493384
9370.000000;1.493942
9369.000000;1.493758
9368.000000;1.493208
9367.000000;1.492818
9366.000000;1.492473
9365.000000;1.491651
9364.000000;1.490279
9363.000000;1.488878
9362.000000;1.487861
9361.000000;1.487064
9360.000000;1.486075
9359.000000;1.484774
9358.000000;1.483500
9357.000000;1.482831
9356.000000;1.483140
9355.000000;1.484142
9354.000000;1.484969
9353.000000;1.484986
9352.000000;1.484495
9351.000000;1.484342
9350.000000;1.484843
9349.000000;1.485446
9348.000000;1.485476
9347.000000;1.484817
9346.000000;1.483718
9345.000000;1.482356
9344.000000;1.480932
9343.000000;1.479900
9342.000000;1.479623
9341.000000;1.479863
9340.000000;1.479936
9339.000000;1.479468
9338.000000;1.478763
9337.000000;1.478337
9336.000000;1.478231
9335.000000;1.477955
9334.000000;1.477050
9333.000000;1.475635
9332.000000;1.474369
9331.000000;1.473916
9330.000000;1.474478
9329.000000;1.475799
9328.000000;1.477463
9327.000000;1.479081
9326.000000;1.480206
9325.000000;1.480300
9324.000000;1.479022
9323.000000;1.476604
9322.000000;1.473830
9321.000000;1.471583
9320.000000;1.470342
9319.000000;1.469996
9318.000000;1.470029
9317.000000;1.469908
9316.000000;1.469444
9315.000000;1.468877
9314.000000;1.468654
9313.000000;1.469049
9312.000000;1.469916
9311.000000;1.470820
9310.000000;1.471453
9309.000000;1.471832
9308.000000;1.471985
9307.000000;1.471607
9306.000000;1.470381
9305.000000;1.468647
9304.000000;1.467369
9303.000000;1.467103
9302.000000;1.467247
9301.000000;1.466739
9300.000000;1.465463
9299.000000;1.464453
9298.000000;1.464520
9297.000000;1.465168
9296.000000;1.465285
9295.000000;1.464605
9294.000000;1.463895
9293.000000;1.463701
9292.000000;1.463577
9291.000000;1.462857
9290.000000;1.461760
9289.000000;1.461150
9288.000000;1.461358
9287.000000;1.461772
9286.000000;1.461668
9285.000000;1.461031
9284.000000;1.460326
9283.000000;1.459811
9282.000000;1.459399
9281.000000;1.458995
9280.000000;1.458619
9279.000000;1.458223
9278.000000;1.457722
9277.000000;1.457284
9276.000000;1.457336
9275.000000;1.458062
9274.000000;1.458990
9273.000000;1.459270
9272.000000;1.458483
9271.000000;1.457115
9270.000000;1.456156
9269.000000;1.456152
9268.000000;1.456718
9267.000000;1.457006
9266.000000;1.456574
9265.000000;1.455629
9264.000000;1.454494
9263.000000;1.453229
9262.000000;1.451927
9261.000000;1.451030
9260.000000;1.450971
9259.000000;1.451648
9258.000000;1.452530
9257.000000;1.453165
9256.000000;1.453344
9255.000000;1.452959
9254.000000;1.452151
9253.000000;1.451505
9252.000000;1.451567
9251.000000;1.452039
9250.000000;1.451947
9249.000000;1.450845
9248.000000;1.449436
9247.000000;1.448695
9246.000000;1.448685
9245.000000;1.448617
9244.000000;1.447941
9243.000000;1.446958
9242.000000;1.446317
9241.000000;1.446269
9240.000000;1.446562
9239.000000;1.446851
9238.000000;1.447062
9237.000000;1.447374
9236.000000;1.447935
9235.000000;1.448613
9234.000000;1.449054
9233.000000;1.448968
9232.000000;1.448331
9231.000000;1.447379
9230.000000;1.446472
9229.000000;1.445872
9228.000000;1.445469
9227.000000;1.444788
9226.000000;1.443509
9225.000000;1.442010
9224.000000;1.441099
9223.000000;1.441115
9222.000000;1.441574
9221.000000;1.441848
9220.000000;1.441860
9219.000000;1.441856
9218.000000;1.441759
9217.000000;1.441255
9216.000000;1.440441
9215.000000;1.439943
9214.000000;1.440209
9213.000000;1.440965
9212.000000;1.441514
9211.000000;1.441447
9210.000000;1.440912
9209.000000;1.440314
9208.000000;1.439943
9207.000000;1.439881
9206.000000;1.440068
9205.000000;1.440315
9204.000000;1.440230
9203.000000;1.439322
9202.000000;1.437421
9201.000000;1.435044
9200.000000;1.433105
9199.000000;1.432171
9198.000000;1.432118
9197.000000;1.432545
9196.000000;1.433227
9195.000000;1.433991
9194.000000;1.434396
9193.000000;1.433976
9192.000000;1.432815
9191.000000;1.431596
9190.000000;1.430985
9189.000000;1.431129
9188.000000;1.431753
9187.000000;1.432477
9186.000000;1.432934
9185.000000;1.432829
9184.000000;1.432101
9183.000000;1.431020
9182.000000;1.430028
9181.000000;1.429469
9180.000000;1.429371
9179.000000;1.429417
9178.000000;1.429140
9177.000000;1.428278
9176.000000;1.427055
9175.000000;1.426060
9174.000000;1.425756
9173.000000;1.426082
9172.000000;1.426548
9171.000000;1.426685
9170.000000;1.426412
9169.000000;1.425979
9168.000000;1.425566
9167.000000;1.425031
9166.000000;1.424146
9165.000000;1.423018
9164.000000;1.422108
9163.000000;1.421769
9162.000000;1.421906
9161.000000;1.422140
9160.000000;1.422168
9159.000000;1.421888
9158.000000;1.421346
9157.000000;1.420795
9156.000000;1.420690
9155.000000;1.421315
9154.000000;1.422343
9153.000000;1.422947
9152.000000;1.422498
9151.000000;1.421106
9150.000000;1.419473
9149.000000;1.418299
9148.000000;1.417809
9147.000000;1.417725
9146.000000;1.417625
9145.000000;1.417373
9144.000000;1.417212
9143.000000;1.417350
9142.000000;1.417525
9141.000000;1.417205
9140.000000;1.416286
9139.000000;1.415346
9138.000000;1.415047
9137.000000;1.415392
9136.000000;1.415756
9135.000000;1.415629
9134.000000;1.415133
9133.000000;1.414723
9132.000000;1.414525
9131.000000;1.414186
9130.000000;1.413424
9129.000000;1.412525
9128.000000;1.412108
9127.000000;1.412425
9126.000000;1.413085
9125.000000;1.413548
9124.000000;1.413739
9123.000000;1.413981
9122.000000;1.414342
9121.000000;1.414330
9120.000000;1.413413
9119.000000;1.411744
9118.000000;1.410110
9117.000000;1.409128
9116.000000;1.408656
9115.000000;1.408087
9114.000000;1.407120
9113.000000;1.406070
9112.000000;1.405443
9111.000000;1.405463
9110.000000;1.406007
9109.000000;1.406745
9108.000000;1.407179
9107.000000;1.406825
9106.000000;1.405700
9105.000000;1.404557
9104.000000;1.404270
9103.000000;1.404968
9102.000000;1.405995
9101.000000;1.406668
9100.000000;1.406721
9099.000000;1.406055
9098.000000;1.404610
9097.000000;1.402784
9096.000000;1.401527
9095.000000;1.401533
9094.000000;1.402490
9093.000000;1.403452
9092.000000;1.403827
9091.000000;1.403681
9090.000000;1.403215
9089.000000;1.402452
9088.000000;1.401518
9087.000000;1.400824
9086.000000;1.400754
9085.000000;1.401276
9084.000000;1.401916
9083.000000;1.402044
9082.000000;1.401312
9081.000000;1.399993
9080.000000;1.398846
9079.000000;1.398420
9078.000000;1.398502
9077.000000;1.398451
9076.000000;1.398025
9075.000000;1.397592
9074.000000;1.397527
9073.000000;1.397738
9072.000000;1.397930
9071.000000;1.398029
9070.000000;1.398127
9069.000000;1.398183
9068.000000;1.398023
9067.000000;1.397569
9066.000000;1.396900
9065.000000;1.396133
9064.000000;1.395340
9063.000000;1.394528
9062.000000;1.393684
9061.000000;1.392901
9060.000000;1.392396
9059.000000;1.392271
9058.000000;1.392289
9057.000000;1.392049
9056.000000;1.391432
9055.000000;1.390675
9054.000000;1.389986
9053.000000;1.389289
