Criado como novo conjunto de dados;"Jao_teste_celulas.spp","9484.1 Secs"
cm-1;Abs
10000.000000;1.560274
9999.000000;1.561022
9998.000000;1.561774
9997.000000;1.562521
9996.000000;1.563281
9995.000000;1.564019
9994.000000;1.564822
9993.000000;1.565743
9992.000000;1.566422
9991.000000;1.566523
9990.000000;1.565767
9989.000000;1.564479
9988.000000;1.563369
9987.000000;1.562755
9986.000000;1.562267
9985.000000;1.561553
9984.000000;1.560907
9983.000000;1.560795
9982.000000;1.561026
9981.000000;1.560854
9980.000000;1.559944
9979.000000;1.558744
9978.000000;1.557773
9977.000000;1.556953
9976.000000;1.555959
9975.000000;1.555009
9974.000000;1.554809
9973.000000;1.555662
9972.000000;1.556981
9971.000000;1.557855
9970.000000;1.557878
9969.000000;1.557263
9968.000000;1.556291
9967.000000;1.554937
9966.000000;1.553015
9965.000000;1.550522
9964.000000;1.547852
9963.000000;1.545810
9962.000000;1.545255
9961.000000;1.546422
9960.000000;1.548491
9959.000000;1.550067
9958.000000;1.550296
9957.000000;1.549484
9956.000000;1.548501
9955.000000;1.547692
9954.000000;1.546545
9953.000000;1.544433
9952.000000;1.541542
9951.000000;1.538968
9950.000000;1.537888
9949.000000;1.538649
9948.000000;1.540602
9947.000000;1.542694
9946.000000;1.544152
9945.000000;1.544680
9944.000000;1.544348
9943.000000;1.543472
9942.000000;1.542466
9941.000000;1.541605
9940.000000;1.540895
9939.000000;1.540272
9938.000000;1.539815
9937.000000;1.539608
9936.000000;1.539491
9935.000000;1.539184
9934.000000;1.538682
9933.000000;1.538321
9932.000000;1.538372
9931.000000;1.538693
9930.000000;1.538859
9929.000000;1.538564
9928.000000;1.537891
9927.000000;1.537292
9926.000000;1.537233
9925.000000;1.537743
9924.000000;1.538350
9923.000000;1.538536
9922.000000;1.538114
9921.000000;1.537130
9920.000000;1.535649
9919.000000;1.533891
9918.000000;1.532363
9917.000000;1.531449
9916.000000;1.530987
9915.000000;1.530539
9914.000000;1.529976
9913.000000;1.529446
9912.000000;1.528883
9911.000000;1.528076
9910.000000;1.527221
9909.000000;1.526906
9908.000000;1.527368
9907.000000;1.528162
9906.000000;1.528719
9905.000000;1.528820
9904.000000;1.528376
9903.000000;1.527290
9902.000000;1.525843
9901.000000;1.524726
9900.000000;1.524279
9899.000000;1.524107
9898.000000;1.523842
9897.000000;1.523869
9896.000000;1.524741
9895.000000;1.526157
9894.000000;1.527100
9893.000000;1.526901
9892.000000;1.525715
9891.000000;1.524098
9890.000000;1.522611
9889.000000;1.521705
9888.000000;1.521411
9887.000000;1.521147
9886.000000;1.520355
9885.000000;1.519379
9884.000000;1.519098
9883.000000;1.519584
9882.000000;1.519678
9881.000000;1.518223
9880.000000;1.515440
9879.000000;1.512761
9878.000000;1.511513
9877.000000;1.511938
9876.000000;1.513239
9875.000000;1.514323
9874.000000;1.514605
9873.000000;1.514209
9872.000000;1.513458
9871.000000;1.512386
9870.000000;1.510940
9869.000000;1.509440
9868.000000;1.508460
9867.000000;1.508265
9866.000000;1.508711
9865.000000;1.509687
9864.000000;1.511222
9863.000000;1.512966
9862.000000;1.513933
9861.000000;1.513165
9860.000000;1.510638
9859.000000;1.507358
9858.000000;1.504617
9857.000000;1.503170
9856.000000;1.502875
9855.000000;1.502950
9854.000000;1.502796
9853.000000;1.502651
9852.000000;1.503249
9851.000000;1.504756
9850.000000;1.506307
9849.000000;1.506777
9848.000000;1.505889
9847.000000;1.504338
9846.000000;1.502977
9845.000000;1.502093
9844.000000;1.501381
9843.000000;1.500375
9842.000000;1.498918
9841.000000;1.497308
9840.000000;1.496039
9839.000000;1.495413
9838.000000;1.495482
9837.000000;1.496271
9836.000000;1.497747
9835.000000;1.499467
9834.000000;1.500564
9833.000000;1.500409
9832.000000;1.499215
9831.000000;1.497806
9830.000000;1.496851
9829.000000;1.496425
9828.000000;1.496169
9827.000000;1.495730
9826.000000;1.495139
9825.000000;1.494840
9824.000000;1.495243
9823.000000;1.496135
9822.000000;1.496700
9821.000000;1.496347
9820.000000;1.495333
9819.000000;1.494261
9818.000000;1.493242
9817.000000;1.491965
9816.000000;1.490448
9815.000000;1.489255
9814.000000;1.488862
9813.000000;1.489145
9812.000000;1.489664
9811.000000;1.490156
9810.000000;1.490504
9809.000000;1.490461
9808.000000;1.489806
9807.000000;1.488763
9806.000000;1.487916
9805.000000;1.487663
9804.000000;1.487910
9803.000000;1.488352
9802.000000;1.488865
9801.000000;1.489460
9800.000000;1.490012
9799.000000;1.490275
9798.000000;1.490075
9797.000000;1.489303
9796.000000;1.487827
9795.000000;1.485706
9794.000000;1.483494
9793.000000;1.482068
9792.000000;1.481913
9791.000000;1.482557
9790.000000;1.482825
9789.000000;1.481760
9788.000000;1.479432
9787.000000;1.476890
9786.000000;1.475301
9785.000000;1.475017
9784.000000;1.475414
9783.000000;1.475628
9782.000000;1.475420
9781.000000;1.475221
9780.000000;1.475420
9779.000000;1.475903
9778.000000;1.476348
9777.000000;1.476676
9776.000000;1.476986
9775.000000;1.477208
9774.000000;1.477097
9773.000000;1.476493
9772.000000;1.475397
9771.000000;1.473890
9770.000000;1.472200
9769.000000;1.470819
9768.000000;1.470285
9767.000000;1.470747
9766.000000;1.471844
9765.000000;1.472965
9764.000000;1.473586
9763.000000;1.473447
9762.000000;1.472602
9761.000000;1.471378
9760.000000;1.470153
9759.000000;1.469102
9758.000000;1.468142
9757.000000;1.467087
9756.000000;1.465835
9755.000000;1.464519
9754.000000;1.463564
9753.000000;1.463422
9752.000000;1.464066
9751.000000;1.464851
9750.000000;1.465087
9749.000000;1.464709
9748.000000;1.464162
9747.000000;1.463770
9746.000000;1.463539
9745.000000;1.463519
9744.000000;1.463894
9743.000000;1.464525
9742.000000;1.464743
9741.000000;1.463858
9740.000000;1.461831
9739.000000;1.459339
9738.000000;1.457301
9737.000000;1.456367
9736.000000;1.456588
9735.000000;1.457417
9734.000000;1.458182
9733.000000;1.458668
9732.000000;1.459091
9731.000000;1.459440
9730.000000;1.459179
9729.000000;1.457947
9728.000000;1.456357
9727.000000;1.455633
9726.000000;1.456379
9725.000000;1.457919
9724.000000;1.458973
9723.000000;1.458854
9722.000000;1.457898
9721.000000;1.456832
9720.000000;1.456011
9719.000000;1.455302
9718.000000;1.454450
9717.000000;1.453364
9716.000000;1.452075
9715.000000;1.450678
9714.000000;1.449433
9713.000000;1.448734
9712.000000;1.448701
9711.000000;1.448812
9710.000000;1.448213
9709.000000;1.446552
9708.000000;1.444426
9707.000000;1.442846
9706.000000;1.442363
9705.000000;1.442757
9704.000000;1.443460
9703.000000;1.444147
9702.000000;1.444890
9701.000000;1.445786
9700.000000;1.446521
9699.000000;1.446494
9698.000000;1.445471
9697.000000;1.444004
9696.000000;1.443037
9695.000000;1.443040
9694.000000;1.443618
9693.000000;1.443984
9692.000000;1.443694
9691.000000;1.442906
9690.000000;1.442097
9689.000000;1.441657
9688.000000;1.441661
9687.000000;1.441858
9686.000000;1.441804
9685.000000;1.441084
9684.000000;1.439564
9683.000000;1.437631
9682.000000;1.436136
9681.000000;1.435783
9680.000000;1.436351
9679.000000;1.436707
9678.000000;1.435927
9677.000000;1.434349
9676.000000;1.433128
9675.000000;1.432800
9674.000000;1.432737
9673.000000;1.432163
9672.000000;1.431257
9671.000000;1.430866
9670.000000;1.431377
9669.000000;1.432290
9668.000000;1.432881
9667.000000;1.432936
9666.000000;1.432703
9665.000000;1.432348
9664.000000;1.431749
9663.000000;1.430848
9662.000000;1.430018
9661.000000;1.429830
9660.000000;1.430414
9659.000000;1.431123
9658.000000;1.431077
9657.000000;1.430069
9656.000000;1.428747
9655.000000;1.427911
9654.000000;1.427874
9653.000000;1.428426
9652.000000;1.429032
9651.000000;1.428982
9650.000000;1.427745
9649.000000;1.425497
9648.000000;1.423143
9647.000000;1.421637
9646.000000;1.421375
9645.000000;1.422206
9644.000000;1.423635
9643.000000;1.424822
9642.000000;1.424872
9641.000000;1.423643
9640.000000;1.422077
9639.000000;1.421266
9638.000000;1.421328
9637.000000;1.421518
9636.000000;1.421351
9635.000000;1.421133
9634.000000;1.421341
9633.000000;1.421937
9632.000000;1.422463
9631.000000;1.422458
9630.000000;1.421607
9629.000000;1.419820
9628.000000;1.417482
9627.000000;1.415417
9626.000000;1.414297
9625.000000;1.414095
9624.000000;1.414195
9623.000000;1.414019
9622.000000;1.413479
9621.000000;1.412926
9620.000000;1.412763
9619.000000;1.413043
9618.000000;1.413367
9617.000000;1.413247
9616.000000;1.412608
9615.000000;1.411800
9614.000000;1.411080
9613.000000;1.410318
9612.000000;1.409368
9611.000000;1.408527
9610.000000;1.408331
9609.000000;1.408865
9608.000000;1.409513
9607.000000;1.409545
9606.000000;1.408881
9605.000000;1.408122
9604.000000;1.407880
9603.000000;1.408191
9602.000000;1.408589
9601.000000;1.408672
9600.000000;1.408481
9599.000000;1.408303
9598.000000;1.408209
9597.000000;1.407890
9596.000000;1.406980
9595.000000;1.405501
9594.000000;1.403925
9593.000000;1.402797
9592.000000;1.402262
9591.000000;1.401952
9590.000000;1.401393
9589.000000;1.400535
9588.000000;1.399848
9587.000000;1.399795
9586.000000;1.400295
9585.000000;1.400802
9584.000000;1.400870
9583.000000;1.400538
9582.000000;1.400149
9581.000000;1.399901
9580.000000;1.399629
9579.000000;1.398979
9578.000000;1.397787
9577.000000;1.396319
9576.000000;1.395123
9575.000000;1.394605
9574.000000;1.394759
9573.000000;1.395285
9572.000000;1.395910
9571.000000;1.396577
9570.000000;1.397374
9569.000000;1.398311
9568.000000;1.399044
9567.000000;1.398848
9566.000000;1.397151
9565.000000;1.394328
9564.000000;1.391701
9563.000000;1.390396
9562.000000;1.390301
9561.000000;1.390419
9560.000000;1.390160
9559.000000;1.389837
9558.000000;1.389858
9557.000000;1.390027
9556.000000;1.389876
9555.000000;1.389255
9554.000000;1.388230
9553.000000;1.386806
9552.000000;1.385244
9551.000000;1.384371
9550.000000;1.384884
9549.000000;1.386360
9548.000000;1.387493
9547.000000;1.387504
9546.000000;1.386856
9545.000000;1.386340
9544.000000;1.385992
9543.000000;1.385360
9542.000000;1.384486
9541.000000;1.384016
9540.000000;1.384361
9539.000000;1.385171
9538.000000;1.385775
9537.000000;1.385849
9536.000000;1.385464
9535.000000;1.384727
9534.000000;1.383657
9533.000000;1.382347
9532.000000;1.381034
9531.000000;1.379947
9530.000000;1.379120
9529.000000;1.378402
9528.000000;1.377689
9527.000000;1.377133
9526.000000;1.377027
9525.000000;1.377387
9524.000000;1.377723
9523.000000;1.377414
9522.000000;1.376381
9521.000000;1.375265
9520.000000;1.374857
9519.000000;1.375409
9518.000000;1.376490
9517.000000;1.377405
9516.000000;1.377682
9515.000000;1.377269
9514.000000;1.376429
9513.000000;1.375496
9512.000000;1.374685
9511.000000;1.374095
9510.000000;1.373813
9509.000000;1.373876
9508.000000;1.374123
9507.000000;1.374205
9506.000000;1.373846
9505.000000;1.373047
9504.000000;1.371989
9503.000000;1.370843
9502.000000;1.369825
9501.000000;1.369286
9500.000000;1.369468
9499.000000;1.370091
9498.000000;1.370375
9497.000000;1.369707
9496.000000;1.368265
9495.000000;1.366889
9494.000000;1.366303
9493.000000;1.366521
9492.000000;1.366923
9491.000000;1.366829
9490.000000;1.365992
9489.000000;1.364655
9488.000000;1.363242
9487.000000;1.362080
9486.000000;1.361387
9485.000000;1.361382
9484.000000;1.362234
9483.000000;1.363823
9482.000000;1.365600
9481.000000;1.366763
9480.000000;1.366708
9479.000000;1.365416
9478.000000;1.363413
9477.000000;1.361381
9476.000000;1.359773
9475.000000;1.358718
9474.000000;1.358216
9473.000000;1.358283
9472.000000;1.358763
9471.000000;1.359151
9470.000000;1.358863
9469.000000;1.357790
9468.000000;1.356469
9467.000000;1.355591
9466.000000;1.355415
9465.000000;1.355710
9464.000000;1.356129
9463.000000;1.356491
9462.000000;1.356730
9461.000000;1.356779
9460.000000;1.356598
9459.000000;1.356225
9458.000000;1.355730
9457.000000;1.355155
9456.000000;1.354585
9455.000000;1.354205
9454.000000;1.354173
9453.000000;1.354432
9452.000000;1.354684
9451.000000;1.354564
9450.000000;1.353837
9449.000000;1.352514
9448.000000;1.350914
9447.000000;1.349588
9446.000000;1.348985
9445.000000;1.349075
9444.000000;1.349344
9443.000000;1.349231
9442.000000;1.348591
9441.000000;1.347749
9440.000000;1.347166
9439.000000;1.347027
9438.000000;1.347051
9437.000000;1.346678
9436.000000;1.345600
9435.000000;1.344157
9434.000000;1.343074
9433.000000;1.342738
9432.000000;1.342942
9431.000000;1.343416
9430.000000;1.344239
9429.000000;1.345384
9428.000000;1.346156
9427.000000;1.345683
9426.000000;1.344039
9425.000000;1.342306
9424.000000;1.341373
9423.000000;1.341135
9422.000000;1.341041
9421.000000;1.340913
9420.000000;1.340835
9419.000000;1.340643
9418.000000;1.340131
9417.000000;1.339590
9416.000000;1.339611
9415.000000;1.340334
9414.000000;1.341294
9413.000000;1.342002
9412.000000;1.342261
9411.000000;1.341889
9410.000000;1.340670
9409.000000;1.338827
9408.000000;1.337138
9407.000000;1.336240
9406.000000;1.335985
9405.000000;1.335707
9404.000000;1.334987
9403.000000;1.333992
9402.000000;1.333192
9401.000000;1.332941
9400.000000;1.333266
9399.000000;1.333896
9398.000000;1.334493
9397.000000;1.334911
9396.000000;1.335201
9395.000000;1.335348
9394.000000;1.335206
9393.000000;1.334755
9392.000000;1.334239
9391.000000;1.333876
9390.000000;1.333589
9389.000000;1.333123
9388.000000;1.332319
9387.000000;1.331155
9386.000000;1.329737
9385.000000;1.328421
9384.000000;1.327793
9383.000000;1.328203
9382.000000;1.329283
9381.000000;1.330129
9380.000000;1.330055
9379.000000;1.329149
9378.000000;1.328081
9377.000000;1.327437
9376.000000;1.327216
9375.000000;1.326938
9374.000000;1.326232
9373.000000;1.325299
9372.000000;1.324675
9371.000000;1.324566
9370.000000;1.324624
9369.000000;1.324438
9368.000000;1.323979
9367.000000;1.323452
9366.000000;1.322922
9365.000000;1.322342
9364.000000;1.321765
9363.000000;1.321318
9362.000000;1.321123
9361.000000;1.321410
9360.000000;1.322442
9359.000000;1.323980
9358.000000;1.325063
9357.000000;1.324808
9356.000000;1.323421
9355.000000;1.321945
9354.000000;1.320995
9353.000000;1.320214
9352.000000;1.319051
9351.000000;1.317586
9350.000000;1.316351
9349.000000;1.315747
9348.000000;1.315904
9347.000000;1.316779
9346.000000;1.317989
9345.000000;1.318758
9344.000000;1.318490
9343.000000;1.317380
9342.000000;1.316189
9341.000000;1.315470
9340.000000;1.315193
9339.000000;1.314962
9338.000000;1.314363
9337.000000;1.313273
9336.000000;1.312107
9335.000000;1.311662
9334.000000;1.312324
9333.000000;1.313439
9332.000000;1.313805
9331.000000;1.312882
9330.000000;1.311259
9329.000000;1.309904
9328.000000;1.309322
9327.000000;1.309454
9326.000000;1.309950
9325.000000;1.310282
9324.000000;1.309916
9323.000000;1.308753
9322.000000;1.307307
9321.000000;1.306231
9320.000000;1.305741
9319.000000;1.305619
9318.000000;1.305637
9317.000000;1.305773
9316.000000;1.306109
9315.000000;1.306703
9314.000000;1.307482
9313.000000;1.308099
9312.000000;1.308068
9311.000000;1.307259
9310.000000;1.306137
9309.000000;1.305248
9308.000000;1.304551
9307.000000;1.303585
9306.000000;1.302261
9305.000000;1.301114
9304.000000;1.300657
9303.000000;1.300825
9302.000000;1.301220
9301.000000;1.301633
9300.000000;1.302063
9299.000000;1.302406
9298.000000;1.302430
9297.000000;1.302062
9296.000000;1.301504
9295.000000;1.301042
9294.000000;1.300807
9293.000000;1.300676
9292.000000;1.300302
9291.000000;1.299385
9290.000000;1.298045
9289.000000;1.296843
9288.000000;1.296260
9287.000000;1.296231
9286.000000;1.296358
9285.000000;1.296468
9284.000000;1.296709
9283.000000;1.297095
9282.000000;1.297262
9281.000000;1.296837
9280.000000;1.295843
9279.000000;1.294650
9278.000000;1.293675
9277.000000;1.293244
9276.000000;1.293498
9275.000000;1.294152
9274.000000;1.294439
9273.000000;1.293694
9272.000000;1.292136
9271.000000;1.290832
9270.000000;1.290672
9269.000000;1.291446
9268.000000;1.292086
9267.000000;1.291803
9266.000000;1.290859
9265.000000;1.290180
9264.000000;1.290364
9263.000000;1.291193
9262.000000;1.292007
9261.000000;1.292335
9260.000000;1.292110
9259.000000;1.291433
9258.000000;1.290401
9257.000000;1.289264
9256.000000;1.288515
9255.000000;1.288535
9254.000000;1.289078
9253.000000;1.289330
9252.000000;1.288668
9251.000000;1.287283
9250.000000;1.285871
9249.000000;1.284800
9248.000000;1.283849
9247.000000;1.282764
9246.000000;1.281755
9245.000000;1.281254
9244.000000;1.281400
9243.000000;1.282008
9242.000000;1.282888
9241.000000;1.283879
9240.000000;1.284621
9239.000000;1.284641
9238.000000;1.283849
9237.000000;1.282736
9236.000000;1.281941
9235.000000;1.281673
9234.000000;1.281653
9233.000000;1.281529
9232.000000;1.281253
9231.000000;1.281093
9230.000000;1.281345
9229.000000;1.281999
9228.000000;1.282678
9227.000000;1.282921
9226.000000;1.282532
9225.000000;1.281630
9224.000000;1.280467
9223.000000;1.279331
9222.000000;1.278529
9221.000000;1.278232
9220.000000;1.278253
9219.000000;1.278154
9218.000000;1.277616
9217.000000;1.276646
9216.000000;1.275451
9215.000000;1.274288
9214.000000;1.273452
9213.000000;1.273171
9212.000000;1.273422
9211.000000;1.273985
9210.000000;1.274661
9209.000000;1.275248
9208.000000;1.275381
9207.000000;1.274776
9206.000000;1.273715
9205.000000;1.272862
9204.000000;1.272422
9203.000000;1.271875
9202.000000;1.270809
9201.000000;1.269657
9200.000000;1.269212
9199.000000;1.269684
9198.000000;1.270606
9197.000000;1.271449
9196.000000;1.271878
9195.000000;1.271572
9194.000000;1.270394
9193.000000;1.268824
9192.000000;1.267738
9191.000000;1.267588
9190.000000;1.268038
9189.000000;1.268464
9188.000000;1.268515
9187.000000;1.268130
9186.000000;1.267353
9185.000000;1.266330
9184.000000;1.265330
9183.000000;1.264607
9182.000000;1.264328
9181.000000;1.264586
9180.000000;1.265248
9179.000000;1.265803
9178.000000;1.265708
9177.000000;1.264996
9176.000000;1.264267
9175.000000;1.263968
9174.000000;1.263950
9173.000000;1.263832
9172.000000;1.263509
9171.000000;1.263070
9170.000000;1.262457
9169.000000;1.261522
9168.000000;1.260398
9167.000000;1.259573
9166.000000;1.259551
9165.000000;1.260425
9164.000000;1.261688
9163.000000;1.262436
9162.000000;1.261942
9161.000000;1.260233
9160.000000;1.258112
9159.000000;1.256557
9158.000000;1.256079
9157.000000;1.256490
9156.000000;1.257075
9155.000000;1.257032
9154.000000;1.256105
9153.000000;1.254906
9152.000000;1.254403
9151.000000;1.254977
9150.000000;1.256101
9149.000000;1.256998
9148.000000;1.257415
9147.000000;1.257619
9146.000000;1.257876
9145.000000;1.258151
9144.000000;1.258181
9143.000000;1.257671
9142.000000;1.256509
9141.000000;1.254948
9140.000000;1.253534
9139.000000;1.252754
9138.000000;1.252765
9137.000000;1.253383
9136.000000;1.254142
9135.000000;1.254374
9134.000000;1.253592
9133.000000;1.251978
9132.000000;1.250309
9131.000000;1.249269
9130.000000;1.248985
9129.000000;1.249226
9128.000000;1.249684
9127.000000;1.249950
9126.000000;1.249639
9125.000000;1.248879
9124.000000;1.248346
9123.000000;1.248447
9122.000000;1.248711
9121.000000;1.248387
9120.000000;1.247434
9119.000000;1.246459
9118.000000;1.245831
9117.000000;1.245399
9116.000000;1.245050
9115.000000;1.244965
9114.000000;1.245181
9113.000000;1.245333
9112.000000;1.245084
9111.000000;1.244577
9110.000000;1.244238
9109.000000;1.244306
9108.000000;1.244658
9107.000000;1.244928
9106.000000;1.244748
9105.000000;1.244059
9104.000000;1.243273
9103.000000;1.242929
9102.000000;1.243155
9101.000000;1.243611
9100.000000;1.243959
9099.000000;1.244142
9098.000000;1.244176
9097.000000;1.243966
9096.000000;1.243482
9095.000000;1.242890
9094.000000;1.242355
9093.000000;1.241908
9092.000000;1.241570
9091.000000;1.241375
9090.000000;1.241167
9089.000000;1.240651
9088.000000;1.239824
9087.000000;1.239092
9086.000000;1.238774
9085.000000;1.238688
9084.000000;1.238495
9083.000000;1.238210
9082.000000;1.238075
9081.000000;1.238058
9080.000000;1.237854
9079.000000;1.237338
9078.000000;1.236716
9077.000000;1.236199
9076.000000;1.235778
9075.000000;1.235365
9074.000000;1.234944
9073.000000;1.234490
9072.000000;1.233953
9071.000000;1.233372
9070.000000;1.232904
9069.000000;1.232678
9068.000000;1.232737
9067.000000;1.233092
9066.000000;1.233661
9065.000000;1.234107
9064.000000;1.233974
9063.000000;1.233149
9062.000000;1.232083
9061.000000;1.231365
9060.000000;1.231127
9059.000000;1.231011
9058.000000;1.230678
9057.000000;1.230232
9056.000000;1.230089
9055.000000;1.230513
9054.000000;1.231352
9053.000000;1.232219
