Criado como novo conjunto de dados;"Jao_teste_celulas.spp","422.0 Secs"
cm-1;Abs
10000.000000;0.803590
9999.000000;0.802894
9998.000000;0.802200
9997.000000;0.801505
9996.000000;0.800814
9995.000000;0.800118
9994.000000;0.799447
9993.000000;0.798922
9992.000000;0.798624
9991.000000;0.798544
9990.000000;0.798465
9989.000000;0.798125
9988.000000;0.797544
9987.000000;0.797014
9986.000000;0.796652
9985.000000;0.796192
9984.000000;0.795415
9983.000000;0.794582
9982.000000;0.794119
9981.000000;0.793990
9980.000000;0.793768
9979.000000;0.793296
9978.000000;0.792901
9977.000000;0.792812
9976.000000;0.792735
9975.000000;0.792228
9974.000000;0.791247
9973.000000;0.790086
9972.000000;0.788978
9971.000000;0.788042
9970.000000;0.787455
9969.000000;0.787341
9968.000000;0.787490
9967.000000;0.787493
9966.000000;0.787215
9965.000000;0.786901
9964.000000;0.786736
9963.000000;0.786541
9962.000000;0.786048
9961.000000;0.785291
9960.000000;0.784534
9959.000000;0.783915
9958.000000;0.783389
9957.000000;0.782946
9956.000000;0.782686
9955.000000;0.782624
9954.000000;0.782571
9953.000000;0.782278
9952.000000;0.781628
9951.000000;0.780660
9950.000000;0.779505
9949.000000;0.778391
9948.000000;0.777624
9947.000000;0.777453
9946.000000;0.777873
9945.000000;0.778588
9944.000000;0.779173
9943.000000;0.779292
9942.000000;0.778820
9941.000000;0.777793
9940.000000;0.776328
9939.000000;0.774632
9938.000000;0.773043
9937.000000;0.771934
9936.000000;0.771491
9935.000000;0.771566
9934.000000;0.771815
9933.000000;0.771947
9932.000000;0.771848
9931.000000;0.771522
9930.000000;0.771008
9929.000000;0.770348
9928.000000;0.769559
9927.000000;0.768625
9926.000000;0.767582
9925.000000;0.766611
9924.000000;0.765950
9923.000000;0.765648
9922.000000;0.765473
9921.000000;0.765127
9920.000000;0.764544
9919.000000;0.763941
9918.000000;0.763602
9917.000000;0.763600
9916.000000;0.763694
9915.000000;0.763496
9914.000000;0.762788
9913.000000;0.761736
9912.000000;0.760774
9911.000000;0.760246
9910.000000;0.760151
9909.000000;0.760220
9908.000000;0.760157
9907.000000;0.759812
9906.000000;0.759185
9905.000000;0.758362
9904.000000;0.757490
9903.000000;0.756766
9902.000000;0.756378
9901.000000;0.756371
9900.000000;0.756564
9899.000000;0.756672
9898.000000;0.756537
9897.000000;0.756202
9896.000000;0.755739
9895.000000;0.755086
9894.000000;0.754185
9893.000000;0.753186
9892.000000;0.752350
9891.000000;0.751752
9890.000000;0.751242
9889.000000;0.750733
9888.000000;0.750372
9887.000000;0.750298
9886.000000;0.750361
9885.000000;0.750245
9884.000000;0.749829
9883.000000;0.749278
9882.000000;0.748769
9881.000000;0.748259
9880.000000;0.747596
9879.000000;0.746803
9878.000000;0.746124
9877.000000;0.745779
9876.000000;0.745711
9875.000000;0.745645
9874.000000;0.745373
9873.000000;0.744942
9872.000000;0.744537
9871.000000;0.744226
9870.000000;0.743903
9869.000000;0.743430
9868.000000;0.742771
9867.000000;0.741993
9866.000000;0.741197
9865.000000;0.740468
9864.000000;0.739833
9863.000000;0.739276
9862.000000;0.738799
9861.000000;0.738443
9860.000000;0.738195
9859.000000;0.737925
9858.000000;0.737489
9857.000000;0.736900
9856.000000;0.736299
9855.000000;0.735762
9854.000000;0.735257
9853.000000;0.734805
9852.000000;0.734538
9851.000000;0.734502
9850.000000;0.734495
9849.000000;0.734208
9848.000000;0.733536
9847.000000;0.732656
9846.000000;0.731813
9845.000000;0.731093
9844.000000;0.730451
9843.000000;0.729902
9842.000000;0.729572
9841.000000;0.729528
9840.000000;0.729591
9839.000000;0.729424
9838.000000;0.728837
9837.000000;0.727986
9836.000000;0.727218
9835.000000;0.726771
9834.000000;0.726631
9833.000000;0.726589
9832.000000;0.726361
9831.000000;0.725729
9830.000000;0.724722
9829.000000;0.723639
9828.000000;0.722822
9827.000000;0.722384
9826.000000;0.722193
9825.000000;0.722050
9824.000000;0.721813
9823.000000;0.721422
9822.000000;0.720953
9821.000000;0.720612
9820.000000;0.720532
9819.000000;0.720578
9818.000000;0.720475
9817.000000;0.720123
9816.000000;0.719642
9815.000000;0.719146
9814.000000;0.718621
9813.000000;0.718062
9812.000000;0.717538
9811.000000;0.717075
9810.000000;0.716602
9809.000000;0.716112
9808.000000;0.715719
9807.000000;0.715471
9806.000000;0.715222
9805.000000;0.714791
9804.000000;0.714193
9803.000000;0.713619
9802.000000;0.713206
9801.000000;0.712883
9800.000000;0.712423
9799.000000;0.711667
9798.000000;0.710727
9797.000000;0.709940
9796.000000;0.709520
9795.000000;0.709327
9794.000000;0.709079
9793.000000;0.708717
9792.000000;0.708384
9791.000000;0.708083
9790.000000;0.707606
9789.000000;0.706849
9788.000000;0.705989
9787.000000;0.705254
9786.000000;0.704710
9785.000000;0.704344
9784.000000;0.704147
9783.000000;0.703978
9782.000000;0.703570
9781.000000;0.702840
9780.000000;0.702054
9779.000000;0.701521
9778.000000;0.701238
9777.000000;0.701000
9776.000000;0.700725
9775.000000;0.700458
9774.000000;0.700166
9773.000000;0.699734
9772.000000;0.699165
9771.000000;0.698596
9770.000000;0.698113
9769.000000;0.697697
9768.000000;0.697345
9767.000000;0.697104
9766.000000;0.696955
9765.000000;0.696771
9764.000000;0.696446
9763.000000;0.696017
9762.000000;0.695618
9761.000000;0.695300
9760.000000;0.694934
9759.000000;0.694310
9758.000000;0.693423
9757.000000;0.692604
9756.000000;0.692215
9755.000000;0.692197
9754.000000;0.692073
9753.000000;0.691495
9752.000000;0.690642
9751.000000;0.689968
9750.000000;0.689672
9749.000000;0.689545
9748.000000;0.689259
9747.000000;0.688657
9746.000000;0.687826
9745.000000;0.686990
9744.000000;0.686334
9743.000000;0.685846
9742.000000;0.685388
9741.000000;0.684937
9740.000000;0.684657
9739.000000;0.684632
9738.000000;0.684670
9737.000000;0.684507
9736.000000;0.684094
9735.000000;0.683537
9734.000000;0.682861
9733.000000;0.682060
9732.000000;0.681308
9731.000000;0.680851
9730.000000;0.680661
9729.000000;0.680421
9728.000000;0.679925
9727.000000;0.679322
9726.000000;0.678862
9725.000000;0.678550
9724.000000;0.678195
9723.000000;0.677728
9722.000000;0.677314
9721.000000;0.677112
9720.000000;0.677037
9719.000000;0.676805
9718.000000;0.676229
9717.000000;0.675397
9716.000000;0.674563
9715.000000;0.673887
9714.000000;0.673344
9713.000000;0.672855
9712.000000;0.672420
9711.000000;0.672096
9710.000000;0.671889
9709.000000;0.671705
9708.000000;0.671376
9707.000000;0.670760
9706.000000;0.669886
9705.000000;0.669031
9704.000000;0.668548
9703.000000;0.668556
9702.000000;0.668816
9701.000000;0.668954
9700.000000;0.668769
9699.000000;0.668330
9698.000000;0.667870
9697.000000;0.667594
9696.000000;0.667475
9695.000000;0.667208
9694.000000;0.666474
9693.000000;0.665331
9692.000000;0.664218
9691.000000;0.663522
9690.000000;0.663242
9689.000000;0.663151
9688.000000;0.663095
9687.000000;0.662985
9686.000000;0.662615
9685.000000;0.661756
9684.000000;0.660473
9683.000000;0.659201
9682.000000;0.658415
9681.000000;0.658272
9680.000000;0.658532
9679.000000;0.658788
9678.000000;0.658770
9677.000000;0.658494
9676.000000;0.658144
9675.000000;0.657815
9674.000000;0.657443
9673.000000;0.656969
9672.000000;0.656438
9671.000000;0.655891
9670.000000;0.655281
9669.000000;0.654586
9668.000000;0.653908
9667.000000;0.653339
9666.000000;0.652819
9665.000000;0.652242
9664.000000;0.651614
9663.000000;0.651022
9662.000000;0.650490
9661.000000;0.650014
9660.000000;0.649663
9659.000000;0.649515
9658.000000;0.649514
9657.000000;0.649501
9656.000000;0.649347
9655.000000;0.649004
9654.000000;0.648494
9653.000000;0.647959
9652.000000;0.647622
9651.000000;0.647535
9650.000000;0.647433
9649.000000;0.647003
9648.000000;0.646269
9647.000000;0.645531
9646.000000;0.644952
9645.000000;0.644412
9644.000000;0.643792
9643.000000;0.643201
9642.000000;0.642799
9641.000000;0.642546
9640.000000;0.642235
9639.000000;0.641733
9638.000000;0.641117
9637.000000;0.640612
9636.000000;0.640410
9635.000000;0.640499
9634.000000;0.640629
9633.000000;0.640518
9632.000000;0.640084
9631.000000;0.639449
9630.000000;0.638714
9629.000000;0.637889
9628.000000;0.637041
9627.000000;0.636372
9626.000000;0.636015
9625.000000;0.635840
9624.000000;0.635583
9623.000000;0.635168
9622.000000;0.634778
9621.000000;0.634591
9620.000000;0.634528
9619.000000;0.634346
9618.000000;0.633919
9617.000000;0.633345
9616.000000;0.632765
9615.000000;0.632192
9614.000000;0.631577
9613.000000;0.630969
9612.000000;0.630484
9611.000000;0.630128
9610.000000;0.629787
9609.000000;0.629418
9608.000000;0.629125
9607.000000;0.628959
9606.000000;0.628760
9605.000000;0.628316
9604.000000;0.627623
9603.000000;0.626885
9602.000000;0.626252
9601.000000;0.625686
9600.000000;0.625106
9599.000000;0.624561
9598.000000;0.624206
9597.000000;0.624099
9596.000000;0.624091
9595.000000;0.623917
9594.000000;0.623408
9593.000000;0.622606
9592.000000;0.621692
9591.000000;0.620861
9590.000000;0.620271
9589.000000;0.620016
9588.000000;0.620033
9587.000000;0.620071
9586.000000;0.619895
9585.000000;0.619530
9584.000000;0.619196
9583.000000;0.619009
9582.000000;0.618853
9581.000000;0.618558
9580.000000;0.618078
9579.000000;0.617447
9578.000000;0.616695
9577.000000;0.615916
9576.000000;0.615284
9575.000000;0.614921
9574.000000;0.614782
9573.000000;0.614734
9572.000000;0.614663
9571.000000;0.614469
9570.000000;0.614063
9569.000000;0.613463
9568.000000;0.612794
9567.000000;0.612126
9566.000000;0.611430
9565.000000;0.610766
9564.000000;0.610344
9563.000000;0.610263
9562.000000;0.610305
9561.000000;0.610158
9560.000000;0.609741
9559.000000;0.609175
9558.000000;0.608507
9557.000000;0.607682
9556.000000;0.606760
9555.000000;0.605955
9554.000000;0.605426
9553.000000;0.605136
9552.000000;0.604951
9551.000000;0.604773
9550.000000;0.604597
9549.000000;0.604504
9548.000000;0.604594
9547.000000;0.604824
9546.000000;0.604943
9545.000000;0.604700
9544.000000;0.604105
9543.000000;0.603390
9542.000000;0.602728
9541.000000;0.602105
9540.000000;0.601450
9539.000000;0.600769
9538.000000;0.600137
9537.000000;0.599670
9536.000000;0.599480
9535.000000;0.599559
9534.000000;0.599699
9533.000000;0.599625
9532.000000;0.599224
9531.000000;0.598592
9530.000000;0.597876
9529.000000;0.597186
9528.000000;0.596604
9527.000000;0.596145
9526.000000;0.595697
9525.000000;0.595128
9524.000000;0.594471
9523.000000;0.593896
9522.000000;0.593479
9521.000000;0.593135
9520.000000;0.592797
9519.000000;0.592536
9518.000000;0.592408
9517.000000;0.592306
9516.000000;0.592055
9515.000000;0.591608
9514.000000;0.591071
9513.000000;0.590573
9512.000000;0.590177
9511.000000;0.589868
9510.000000;0.589559
9509.000000;0.589147
9508.000000;0.588630
9507.000000;0.588144
9506.000000;0.587818
9505.000000;0.587611
9504.000000;0.587349
9503.000000;0.586938
9502.000000;0.586472
9501.000000;0.586089
9500.000000;0.585761
9499.000000;0.585320
9498.000000;0.584683
9497.000000;0.583999
9496.000000;0.583482
9495.000000;0.583162
9494.000000;0.582861
9493.000000;0.582430
9492.000000;0.581899
9491.000000;0.581401
9490.000000;0.581015
9489.000000;0.580724
9488.000000;0.580463
9487.000000;0.580164
9486.000000;0.579784
9485.000000;0.579349
9484.000000;0.578912
9483.000000;0.578460
9482.000000;0.577933
9481.000000;0.577341
9480.000000;0.576789
9479.000000;0.576345
9478.000000;0.575968
9477.000000;0.575618
9476.000000;0.575354
9475.000000;0.575227
9474.000000;0.575151
9473.000000;0.574982
9472.000000;0.574673
9471.000000;0.574281
9470.000000;0.573857
9469.000000;0.573414
9468.000000;0.572960
9467.000000;0.572499
9466.000000;0.572013
9465.000000;0.571524
9464.000000;0.571107
9463.000000;0.570799
9462.000000;0.570535
9461.000000;0.570238
9460.000000;0.569924
9459.000000;0.569643
9458.000000;0.569387
9457.000000;0.569117
9456.000000;0.568809
9455.000000;0.568406
9454.000000;0.567829
9453.000000;0.567128
9452.000000;0.566537
9451.000000;0.566230
9450.000000;0.566104
9449.000000;0.565933
9448.000000;0.565663
9447.000000;0.565402
9446.000000;0.565157
9445.000000;0.564788
9444.000000;0.564226
9443.000000;0.563582
9442.000000;0.562993
9441.000000;0.562492
9440.000000;0.562043
9439.000000;0.561595
9438.000000;0.561096
9437.000000;0.560565
9436.000000;0.560143
9435.000000;0.559940
9434.000000;0.559810
9433.000000;0.559477
9432.000000;0.558891
9431.000000;0.558331
9430.000000;0.558054
9429.000000;0.558005
9428.000000;0.557947
9427.000000;0.557738
9426.000000;0.557380
9425.000000;0.556917
9424.000000;0.556417
9423.000000;0.556007
9422.000000;0.555772
9421.000000;0.555631
9420.000000;0.555393
9419.000000;0.554935
9418.000000;0.554279
9417.000000;0.553546
9416.000000;0.552888
9415.000000;0.552426
9414.000000;0.552167
9413.000000;0.552003
9412.000000;0.551833
9411.000000;0.551664
9410.000000;0.551529
9409.000000;0.551364
9408.000000;0.551035
9407.000000;0.550500
9406.000000;0.549881
9405.000000;0.549353
9404.000000;0.548993
9403.000000;0.548736
9402.000000;0.548434
9401.000000;0.547965
9400.000000;0.547310
9399.000000;0.546566
9398.000000;0.545885
9397.000000;0.545396
9396.000000;0.545156
9395.000000;0.545142
9394.000000;0.545243
9393.000000;0.545313
9392.000000;0.545240
9391.000000;0.544991
9390.000000;0.544588
9389.000000;0.544071
9388.000000;0.543488
9387.000000;0.542897
9386.000000;0.542343
9385.000000;0.541848
9384.000000;0.541427
9383.000000;0.541095
9382.000000;0.540840
9381.000000;0.540603
9380.000000;0.540316
9379.000000;0.539954
9378.000000;0.539545
9377.000000;0.539136
9376.000000;0.538774
9375.000000;0.538488
9374.000000;0.538265
9373.000000;0.538036
9372.000000;0.537721
9371.000000;0.537306
9370.000000;0.536856
9369.000000;0.536422
9368.000000;0.535955
9367.000000;0.535379
9366.000000;0.534747
9365.000000;0.534243
9364.000000;0.533984
9363.000000;0.533864
9362.000000;0.533682
9361.000000;0.533376
9360.000000;0.533035
9359.000000;0.532710
9358.000000;0.532330
9357.000000;0.531872
9356.000000;0.531491
9355.000000;0.531362
9354.000000;0.531441
9353.000000;0.531467
9352.000000;0.531225
9351.000000;0.530721
9350.000000;0.530118
9349.000000;0.529550
9348.000000;0.529047
9347.000000;0.528554
9346.000000;0.528010
9345.000000;0.527410
9344.000000;0.526827
9343.000000;0.526353
9342.000000;0.526010
9341.000000;0.525735
9340.000000;0.525450
9339.000000;0.525114
9338.000000;0.524737
9337.000000;0.524354
9336.000000;0.524025
9335.000000;0.523814
9334.000000;0.523739
9333.000000;0.523731
9332.000000;0.523647
9331.000000;0.523343
9330.000000;0.522766
9329.000000;0.522002
9328.000000;0.521256
9327.000000;0.520740
9326.000000;0.520513
9325.000000;0.520415
9324.000000;0.520197
9323.000000;0.519756
9322.000000;0.519219
9321.000000;0.518766
9320.000000;0.518412
9319.000000;0.518040
9318.000000;0.517617
9317.000000;0.517255
9316.000000;0.517027
9315.000000;0.516820
9314.000000;0.516484
9313.000000;0.516027
9312.000000;0.515584
9311.000000;0.515204
9310.000000;0.514804
9309.000000;0.514324
9308.000000;0.513811
9307.000000;0.513355
9306.000000;0.512998
9305.000000;0.512724
9304.000000;0.512480
9303.000000;0.512181
9302.000000;0.511787
9301.000000;0.511364
9300.000000;0.511029
9299.000000;0.510844
9298.000000;0.510801
9297.000000;0.510869
9296.000000;0.510942
9295.000000;0.510786
9294.000000;0.510204
9293.000000;0.509288
9292.000000;0.508381
9291.000000;0.507739
9290.000000;0.507341
9289.000000;0.507033
9288.000000;0.506738
9287.000000;0.506455
9286.000000;0.506165
9285.000000;0.505844
9284.000000;0.505492
9283.000000;0.505088
9282.000000;0.504603
9281.000000;0.504104
9280.000000;0.503757
9279.000000;0.503633
9278.000000;0.503624
9277.000000;0.503608
9276.000000;0.503587
9275.000000;0.503567
9274.000000;0.503417
9273.000000;0.502994
9272.000000;0.502365
9271.000000;0.501761
9270.000000;0.501342
9269.000000;0.501068
9268.000000;0.500784
9267.000000;0.500350
9266.000000;0.499765
9265.000000;0.499222
9264.000000;0.498970
9263.000000;0.499005
9262.000000;0.498986
9261.000000;0.498589
9260.000000;0.497899
9259.000000;0.497291
9258.000000;0.496978
9257.000000;0.496842
9256.000000;0.496683
9255.000000;0.496450
9254.000000;0.496155
9253.000000;0.495746
9252.000000;0.495178
9251.000000;0.494546
9250.000000;0.494059
9249.000000;0.493867
9248.000000;0.493941
9247.000000;0.494068
9246.000000;0.493984
9245.000000;0.493580
9244.000000;0.492994
9243.000000;0.492461
9242.000000;0.492065
9241.000000;0.491698
9240.000000;0.491250
9239.000000;0.490762
9238.000000;0.490368
9237.000000;0.490133
9236.000000;0.489981
9235.000000;0.489754
9234.000000;0.489320
9233.000000;0.488679
9232.000000;0.487966
9231.000000;0.487346
9230.000000;0.486916
9229.000000;0.486689
9228.000000;0.486624
9227.000000;0.486605
9226.000000;0.486472
9225.000000;0.486167
9224.000000;0.485829
9223.000000;0.485660
9222.000000;0.485680
9221.000000;0.485713
9220.000000;0.485588
9219.000000;0.485276
9218.000000;0.484817
9217.000000;0.484247
9216.000000;0.483642
9215.000000;0.483123
9214.000000;0.482729
9213.000000;0.482352
9212.000000;0.481862
9211.000000;0.481267
9210.000000;0.480714
9209.000000;0.480342
9208.000000;0.480181
9207.000000;0.480159
9206.000000;0.480159
9205.000000;0.480094
9204.000000;0.479937
9203.000000;0.479683
9202.000000;0.479286
9201.000000;0.478708
9200.000000;0.478026
9199.000000;0.477428
9198.000000;0.477039
9197.000000;0.476814
9196.000000;0.476647
9195.000000;0.476524
9194.000000;0.476451
9193.000000;0.476306
9192.000000;0.475909
9191.000000;0.475273
9190.000000;0.474662
9189.000000;0.474322
9188.000000;0.474227
9187.000000;0.474172
9186.000000;0.474035
9185.000000;0.473817
9184.000000;0.473504
9183.000000;0.473048
9182.000000;0.472531
9181.000000;0.472175
9180.000000;0.472083
9179.000000;0.472067
9178.000000;0.471849
9177.000000;0.471383
9176.000000;0.470842
9175.000000;0.470361
9174.000000;0.469932
9173.000000;0.469544
9172.000000;0.469269
9171.000000;0.469113
9170.000000;0.468924
9169.000000;0.468549
9168.000000;0.468017
9167.000000;0.467482
9166.000000;0.467030
9165.000000;0.466629
9164.000000;0.466235
9163.000000;0.465844
9162.000000;0.465467
9161.000000;0.465107
9160.000000;0.464799
9159.000000;0.464599
9158.000000;0.464513
9157.000000;0.464461
9156.000000;0.464322
9155.000000;0.464037
9154.000000;0.463650
9153.000000;0.463275
9152.000000;0.462981
9151.000000;0.462731
9150.000000;0.462435
9149.000000;0.462080
9148.000000;0.461756
9147.000000;0.461554
9146.000000;0.461455
9145.000000;0.461328
9144.000000;0.461044
9143.000000;0.460576
9142.000000;0.460035
9141.000000;0.459584
9140.000000;0.459308
9139.000000;0.459148
9138.000000;0.458991
9137.000000;0.458802
9136.000000;0.458611
9135.000000;0.458399
9134.000000;0.458075
9133.000000;0.457610
9132.000000;0.457093
9131.000000;0.456623
9130.000000;0.456210
9129.000000;0.455822
9128.000000;0.455462
9127.000000;0.455140
9126.000000;0.454832
9125.000000;0.454513
9124.000000;0.454202
9123.000000;0.453934
9122.000000;0.453708
9121.000000;0.453508
9120.000000;0.453336
9119.000000;0.453174
9118.000000;0.452973
9117.000000;0.452700
9116.000000;0.452390
9115.000000;0.452073
9114.000000;0.451697
9113.000000;0.451189
9112.000000;0.450571
9111.000000;0.449976
9110.000000;0.449541
9109.000000;0.449296
9108.000000;0.449159
9107.000000;0.448995
9106.000000;0.448724
9105.000000;0.448371
9104.000000;0.448016
9103.000000;0.447685
9102.000000;0.447345
9101.000000;0.447008
9100.000000;0.446753
9099.000000;0.446628
9098.000000;0.446570
9097.000000;0.446472
9096.000000;0.446269
9095.000000;0.445921
9094.000000;0.445398
9093.000000;0.444748
9092.000000;0.444132
9091.000000;0.443695
9090.000000;0.443428
9089.000000;0.443212
9088.000000;0.442969
9087.000000;0.442701
9086.000000;0.442412
9085.000000;0.442087
9084.000000;0.441737
9083.000000;0.441408
9082.000000;0.441116
9081.000000;0.440859
9080.000000;0.440677
9079.000000;0.440631
9078.000000;0.440683
9077.000000;0.440654
9076.000000;0.440360
9075.000000;0.439804
9074.000000;0.439205
9073.000000;0.438802
9072.000000;0.438644
9071.000000;0.438548
9070.000000;0.438305
9069.000000;0.437891
9068.000000;0.437455
9067.000000;0.437110
9066.000000;0.436813
9065.000000;0.436464
9064.000000;0.436057
9063.000000;0.435673
9062.000000;0.435375
9061.000000;0.435154
9060.000000;0.434965
9059.000000;0.434773
9058.000000;0.434557
9057.000000;0.434297
9056.000000;0.433968
9055.000000;0.433544
9054.000000;0.433052
9053.000000;0.432596
