Criado como novo conjunto de dados;"Jao_teste_celulas.spp","11284.2 Secs"
cm-1;Abs
10000.000000;2.048177
9999.000000;2.047173
9998.000000;2.049642
9997.000000;2.053532
9996.000000;2.057007
9995.000000;2.059216
9994.000000;2.060308
9993.000000;2.060741
9992.000000;2.060601
9991.000000;2.059711
9990.000000;2.057991
9989.000000;2.055411
9988.000000;2.052015
9987.000000;2.048595
9986.000000;2.046736
9985.000000;2.047520
9984.000000;2.050467
9983.000000;2.054073
9982.000000;2.056839
9981.000000;2.057443
9980.000000;2.054981
9979.000000;2.050132
9978.000000;2.045194
9977.000000;2.041834
9976.000000;2.039496
9975.000000;2.036729
9974.000000;2.033553
9973.000000;2.031443
9972.000000;2.031259
9971.000000;2.032655
9970.000000;2.035060
9969.000000;2.037769
9968.000000;2.039391
9967.000000;2.038661
9966.000000;2.035932
9965.000000;2.032974
9964.000000;2.031582
9963.000000;2.033139
9962.000000;2.038392
9961.000000;2.045775
9960.000000;2.050562
9959.000000;2.048695
9958.000000;2.041919
9957.000000;2.036118
9956.000000;2.034545
9955.000000;2.035347
9954.000000;2.035522
9953.000000;2.034586
9952.000000;2.033351
9951.000000;2.031804
9950.000000;2.030089
9949.000000;2.029663
9948.000000;2.031471
9947.000000;2.034143
9946.000000;2.035618
9945.000000;2.035586
9944.000000;2.034750
9943.000000;2.032921
9942.000000;2.029766
9941.000000;2.026534
9940.000000;2.025034
9939.000000;2.025171
9938.000000;2.025083
9937.000000;2.023696
9936.000000;2.021781
9935.000000;2.020735
9934.000000;2.021623
9933.000000;2.025066
9932.000000;2.030682
9931.000000;2.036296
9930.000000;2.038729
9929.000000;2.036117
9928.000000;2.029377
9927.000000;2.021614
9926.000000;2.016493
9925.000000;2.016320
9924.000000;2.020266
9923.000000;2.024573
9922.000000;2.025693
9921.000000;2.023383
9920.000000;2.020086
9919.000000;2.017983
9918.000000;2.017917
9917.000000;2.020070
9916.000000;2.023719
9915.000000;2.026729
9914.000000;2.027111
9913.000000;2.025002
9912.000000;2.021662
9911.000000;2.017165
9910.000000;2.011142
9909.000000;2.005493
9908.000000;2.003686
9907.000000;2.006577
9906.000000;2.010871
9905.000000;2.012906
9904.000000;2.012739
9903.000000;2.013019
9902.000000;2.015074
9901.000000;2.018025
9900.000000;2.020756
9899.000000;2.022657
9898.000000;2.022914
9897.000000;2.020729
9896.000000;2.016565
9895.000000;2.012429
9894.000000;2.010379
9893.000000;2.010818
9892.000000;2.012324
9891.000000;2.013038
9890.000000;2.012007
9889.000000;2.009285
9888.000000;2.005366
9887.000000;2.001040
9886.000000;1.997596
9885.000000;1.996253
9884.000000;1.996936
9883.000000;1.998150
9882.000000;1.998531
9881.000000;1.998072
9880.000000;1.997498
9879.000000;1.997184
9878.000000;1.997286
9877.000000;1.998367
9876.000000;2.000516
9875.000000;2.001949
9874.000000;2.000398
9873.000000;1.996323
9872.000000;1.992989
9871.000000;1.992728
9870.000000;1.994424
9869.000000;1.995477
9868.000000;1.995383
9867.000000;1.996113
9866.000000;1.998972
9865.000000;2.002374
9864.000000;2.003399
9863.000000;2.001309
9862.000000;1.998851
9861.000000;1.999435
9860.000000;2.003304
9859.000000;2.007017
9858.000000;2.007005
9857.000000;2.003280
9856.000000;1.998811
9855.000000;1.995782
9854.000000;1.993691
9853.000000;1.990851
9852.000000;1.986723
9851.000000;1.982578
9850.000000;1.980603
9849.000000;1.982428
9848.000000;1.987566
9847.000000;1.993069
9846.000000;1.995730
9845.000000;1.995135
9844.000000;1.993630
9843.000000;1.993111
9842.000000;1.993083
9841.000000;1.992184
9840.000000;1.990534
9839.000000;1.989397
9838.000000;1.988808
9837.000000;1.987248
9836.000000;1.984121
9835.000000;1.981158
9834.000000;1.980610
9833.000000;1.982577
9832.000000;1.984702
9831.000000;1.984667
9830.000000;1.982734
9829.000000;1.981221
9828.000000;1.981521
9827.000000;1.982390
9826.000000;1.981544
9825.000000;1.978526
9824.000000;1.975212
9823.000000;1.973677
9822.000000;1.974388
9821.000000;1.976414
9820.000000;1.978390
9819.000000;1.979054
9818.000000;1.977974
9817.000000;1.976396
9816.000000;1.976638
9815.000000;1.979922
9814.000000;1.985034
9813.000000;1.989367
9812.000000;1.991001
9811.000000;1.989568
9810.000000;1.985680
9809.000000;1.980387
9808.000000;1.975251
9807.000000;1.971935
9806.000000;1.971260
9805.000000;1.973105
9804.000000;1.976987
9803.000000;1.981829
9802.000000;1.985337
9801.000000;1.985002
9800.000000;1.980778
9799.000000;1.976021
9798.000000;1.974531
9797.000000;1.976715
9796.000000;1.979290
9795.000000;1.979014
9794.000000;1.976074
9793.000000;1.973011
9792.000000;1.971130
9791.000000;1.969359
9790.000000;1.966508
9789.000000;1.963081
9788.000000;1.960110
9787.000000;1.957518
9786.000000;1.954981
9785.000000;1.953632
9784.000000;1.955169
9783.000000;1.959297
9782.000000;1.963394
9781.000000;1.964979
9780.000000;1.963659
9779.000000;1.960450
9778.000000;1.956591
9777.000000;1.953634
9776.000000;1.953329
9775.000000;1.956062
9774.000000;1.959717
9773.000000;1.961294
9772.000000;1.960030
9771.000000;1.958268
9770.000000;1.958973
9769.000000;1.962794
9768.000000;1.967292
9767.000000;1.968732
9766.000000;1.965474
9765.000000;1.959813
9764.000000;1.955877
9763.000000;1.955811
9762.000000;1.958288
9761.000000;1.960437
9760.000000;1.960776
9759.000000;1.959914
9758.000000;1.958927
9757.000000;1.958017
9756.000000;1.956763
9755.000000;1.954960
9754.000000;1.952981
9753.000000;1.951553
9752.000000;1.951132
9751.000000;1.951294
9750.000000;1.951040
9749.000000;1.950017
9748.000000;1.949137
9747.000000;1.949711
9746.000000;1.952036
9745.000000;1.955145
9744.000000;1.957971
9743.000000;1.960136
9742.000000;1.961474
9741.000000;1.961561
9740.000000;1.960323
9739.000000;1.958674
9738.000000;1.957801
9737.000000;1.957750
9736.000000;1.957225
9735.000000;1.955170
9734.000000;1.952358
9733.000000;1.950798
9732.000000;1.951393
9731.000000;1.952505
9730.000000;1.951307
9729.000000;1.946787
9728.000000;1.940965
9727.000000;1.936873
9726.000000;1.935869
9725.000000;1.937192
9724.000000;1.939585
9723.000000;1.942630
9722.000000;1.946196
9721.000000;1.949101
9720.000000;1.949433
9719.000000;1.946764
9718.000000;1.943392
9717.000000;1.942347
9716.000000;1.944247
9715.000000;1.946921
9714.000000;1.948254
9713.000000;1.948564
9712.000000;1.949460
9711.000000;1.950867
9710.000000;1.950428
9709.000000;1.946329
9708.000000;1.939822
9707.000000;1.934052
9706.000000;1.931118
9705.000000;1.930900
9704.000000;1.931997
9703.000000;1.932914
9702.000000;1.932455
9701.000000;1.929965
9700.000000;1.925842
9699.000000;1.921556
9698.000000;1.918699
9697.000000;1.917987
9696.000000;1.919225
9695.000000;1.921908
9694.000000;1.925496
9693.000000;1.929071
9692.000000;1.931204
9691.000000;1.931037
9690.000000;1.929471
9689.000000;1.928521
9688.000000;1.929377
9687.000000;1.931350
9686.000000;1.932651
9685.000000;1.932073
9684.000000;1.929924
9683.000000;1.927659
9682.000000;1.926815
9681.000000;1.927909
9680.000000;1.929902
9679.000000;1.930985
9678.000000;1.930293
9677.000000;1.928520
9676.000000;1.926658
9675.000000;1.924806
9674.000000;1.922750
9673.000000;1.920983
9672.000000;1.920105
9671.000000;1.919516
9670.000000;1.917914
9669.000000;1.915280
9668.000000;1.913343
9667.000000;1.913651
9666.000000;1.915880
9665.000000;1.918443
9664.000000;1.920283
9663.000000;1.921543
9662.000000;1.922753
9661.000000;1.923909
9660.000000;1.924483
9659.000000;1.924154
9658.000000;1.923394
9657.000000;1.923053
9656.000000;1.923174
9655.000000;1.922528
9654.000000;1.919801
9653.000000;1.915184
9652.000000;1.910257
9651.000000;1.906389
9650.000000;1.903840
9649.000000;1.902415
9648.000000;1.902281
9647.000000;1.903686
9646.000000;1.906156
9645.000000;1.908374
9644.000000;1.908985
9643.000000;1.907600
9642.000000;1.905233
9641.000000;1.903521
9640.000000;1.903195
9639.000000;1.903760
9638.000000;1.904988
9637.000000;1.907855
9636.000000;1.912828
9635.000000;1.917764
9634.000000;1.919260
9633.000000;1.916525
9632.000000;1.912200
9631.000000;1.908833
9630.000000;1.906222
9629.000000;1.902883
9628.000000;1.898765
9627.000000;1.895374
9626.000000;1.894035
9625.000000;1.895266
9624.000000;1.899041
9623.000000;1.904213
9622.000000;1.908010
9621.000000;1.907776
9620.000000;1.903803
9619.000000;1.899372
9618.000000;1.897634
9617.000000;1.899082
9616.000000;1.901809
9615.000000;1.903536
9614.000000;1.903407
9613.000000;1.902292
9612.000000;1.901664
9611.000000;1.902271
9610.000000;1.903683
9609.000000;1.904764
9608.000000;1.904525
9607.000000;1.902693
9606.000000;1.899817
9605.000000;1.897242
9604.000000;1.896448
9603.000000;1.897722
9602.000000;1.899680
9601.000000;1.900412
9600.000000;1.899024
9599.000000;1.896022
9598.000000;1.892646
9597.000000;1.890141
9596.000000;1.889159
9595.000000;1.889316
9594.000000;1.889518
9593.000000;1.889051
9592.000000;1.888113
9591.000000;1.887125
9590.000000;1.886065
9589.000000;1.885005
9588.000000;1.884735
9587.000000;1.886069
9586.000000;1.888718
9585.000000;1.891479
9584.000000;1.893333
9583.000000;1.893854
9582.000000;1.892860
9581.000000;1.890547
9580.000000;1.887978
9579.000000;1.886679
9578.000000;1.887401
9577.000000;1.889437
9576.000000;1.891067
9575.000000;1.890658
9574.000000;1.887843
9573.000000;1.884083
9572.000000;1.881804
9571.000000;1.882457
9570.000000;1.885345
9569.000000;1.888408
9568.000000;1.889942
9567.000000;1.889355
9566.000000;1.886847
9565.000000;1.883276
9564.000000;1.880280
9563.000000;1.879505
9562.000000;1.881143
9561.000000;1.883509
9560.000000;1.884341
9559.000000;1.882574
9558.000000;1.879070
9557.000000;1.875806
9556.000000;1.874163
9555.000000;1.873761
9554.000000;1.873115
9553.000000;1.871580
9552.000000;1.870176
9551.000000;1.870106
9550.000000;1.871148
9549.000000;1.872171
9548.000000;1.872659
9547.000000;1.872836
9546.000000;1.872716
9545.000000;1.872199
9544.000000;1.871897
9543.000000;1.872752
9542.000000;1.874691
9541.000000;1.876512
9540.000000;1.877280
9539.000000;1.877090
9538.000000;1.876387
9537.000000;1.875525
9536.000000;1.875136
9535.000000;1.875835
9534.000000;1.877176
9533.000000;1.877882
9532.000000;1.877575
9531.000000;1.877233
9530.000000;1.877310
9529.000000;1.876505
9528.000000;1.873467
9527.000000;1.869158
9526.000000;1.866349
9525.000000;1.866947
9524.000000;1.870405
9523.000000;1.874201
9522.000000;1.875430
9521.000000;1.872656
9520.000000;1.866965
9519.000000;1.861140
9518.000000;1.857535
9517.000000;1.856741
9516.000000;1.858059
9515.000000;1.860553
9514.000000;1.863290
9513.000000;1.865246
9512.000000;1.865882
9511.000000;1.865668
9510.000000;1.865327
9509.000000;1.864664
9508.000000;1.862894
9507.000000;1.860191
9506.000000;1.858136
9505.000000;1.858213
9504.000000;1.860193
9503.000000;1.862318
9502.000000;1.863005
9501.000000;1.862265
9500.000000;1.861348
9499.000000;1.861055
9498.000000;1.860860
9497.000000;1.859934
9496.000000;1.858497
9495.000000;1.857477
9494.000000;1.857079
9493.000000;1.856594
9492.000000;1.855770
9491.000000;1.855369
9490.000000;1.855807
9489.000000;1.856098
9488.000000;1.854949
9487.000000;1.852432
9486.000000;1.849671
9485.000000;1.847313
9484.000000;1.845352
9483.000000;1.844178
9482.000000;1.844596
9481.000000;1.846609
9480.000000;1.848907
9479.000000;1.850062
9478.000000;1.849857
9477.000000;1.849017
9476.000000;1.848117
9475.000000;1.847210
9474.000000;1.846032
9473.000000;1.844372
9472.000000;1.842614
9471.000000;1.841931
9470.000000;1.843467
9469.000000;1.846956
9468.000000;1.850457
9467.000000;1.851699
9466.000000;1.849636
9465.000000;1.844918
9464.000000;1.839408
9463.000000;1.835399
9462.000000;1.834541
9461.000000;1.836700
9460.000000;1.839909
9459.000000;1.841947
9458.000000;1.842190
9457.000000;1.841671
9456.000000;1.841364
9455.000000;1.841207
9454.000000;1.840941
9453.000000;1.841120
9452.000000;1.842662
9451.000000;1.845487
9450.000000;1.848062
9449.000000;1.848572
9448.000000;1.846576
9447.000000;1.843332
9446.000000;1.840498
9445.000000;1.838677
9444.000000;1.837281
9443.000000;1.835586
9442.000000;1.833649
9441.000000;1.832181
9440.000000;1.831727
9439.000000;1.832022
9438.000000;1.832074
9437.000000;1.830953
9436.000000;1.828747
9435.000000;1.826680
9434.000000;1.825952
9433.000000;1.826394
9432.000000;1.826586
9431.000000;1.825478
9430.000000;1.823598
9429.000000;1.822370
9428.000000;1.822613
9427.000000;1.823895
9426.000000;1.825034
9425.000000;1.825091
9424.000000;1.823993
9423.000000;1.822585
9422.000000;1.822073
9421.000000;1.823024
9420.000000;1.824880
9419.000000;1.826519
9418.000000;1.827197
9417.000000;1.826863
9416.000000;1.825907
9415.000000;1.824949
9414.000000;1.824593
9413.000000;1.825017
9412.000000;1.825884
9411.000000;1.826804
9410.000000;1.827579
9409.000000;1.827769
9408.000000;1.826573
9407.000000;1.823918
9406.000000;1.821372
9405.000000;1.821022
9404.000000;1.823244
9403.000000;1.826138
9402.000000;1.827465
9401.000000;1.826777
9400.000000;1.825341
9399.000000;1.824449
9398.000000;1.824345
9397.000000;1.824426
9396.000000;1.824023
9395.000000;1.823154
9394.000000;1.822700
9393.000000;1.823493
9392.000000;1.825010
9391.000000;1.825378
9390.000000;1.823227
9389.000000;1.819386
9388.000000;1.816176
9387.000000;1.815096
9386.000000;1.815617
9385.000000;1.816179
9384.000000;1.815922
9383.000000;1.815179
9382.000000;1.814578
9381.000000;1.814251
9380.000000;1.814055
9379.000000;1.814169
9378.000000;1.814910
9377.000000;1.815842
9376.000000;1.815706
9375.000000;1.813815
9374.000000;1.811069
9373.000000;1.808905
9372.000000;1.807561
9371.000000;1.806209
9370.000000;1.804838
9369.000000;1.804887
9368.000000;1.807392
9367.000000;1.811209
9366.000000;1.813822
9365.000000;1.813748
9364.000000;1.811483
9363.000000;1.808366
9362.000000;1.805390
9361.000000;1.803162
9360.000000;1.802181
9359.000000;1.802743
9358.000000;1.804727
9357.000000;1.807385
9356.000000;1.809268
9355.000000;1.808966
9354.000000;1.806532
9353.000000;1.803814
9352.000000;1.802801
9351.000000;1.803743
9350.000000;1.805274
9349.000000;1.806189
9348.000000;1.806483
9347.000000;1.806720
9346.000000;1.807187
9345.000000;1.807846
9344.000000;1.808397
9343.000000;1.808183
9342.000000;1.806656
9341.000000;1.804233
9340.000000;1.802131
9339.000000;1.801001
9338.000000;1.800322
9337.000000;1.799311
9336.000000;1.797834
9335.000000;1.796232
9334.000000;1.794886
9333.000000;1.794311
9332.000000;1.795122
9331.000000;1.797348
9330.000000;1.800058
9329.000000;1.802125
9328.000000;1.803120
9327.000000;1.803185
9326.000000;1.802564
9325.000000;1.801854
9324.000000;1.802032
9323.000000;1.803246
9322.000000;1.803947
9321.000000;1.802334
9320.000000;1.798764
9319.000000;1.795638
9318.000000;1.794617
9317.000000;1.794864
9316.000000;1.794273
9315.000000;1.791735
9314.000000;1.787993
9313.000000;1.784723
9312.000000;1.783104
9311.000000;1.783198
9310.000000;1.784407
9309.000000;1.786374
9308.000000;1.789270
9307.000000;1.792836
9306.000000;1.795419
9305.000000;1.794939
9304.000000;1.791281
9303.000000;1.786923
9302.000000;1.784562
9301.000000;1.784747
9300.000000;1.786220
9299.000000;1.787739
9298.000000;1.788756
9297.000000;1.788805
9296.000000;1.787504
9295.000000;1.785343
9294.000000;1.783443
9293.000000;1.782249
9292.000000;1.781254
9291.000000;1.780267
9290.000000;1.780115
9289.000000;1.781509
9288.000000;1.783842
9287.000000;1.785874
9286.000000;1.787199
9285.000000;1.788192
9284.000000;1.788799
9283.000000;1.788370
9282.000000;1.786757
9281.000000;1.784763
9280.000000;1.783238
9279.000000;1.782346
9278.000000;1.781835
9277.000000;1.781442
9276.000000;1.780834
9275.000000;1.779620
9274.000000;1.777794
9273.000000;1.775902
9272.000000;1.774542
9271.000000;1.774016
9270.000000;1.774663
9269.000000;1.776878
9268.000000;1.780266
9267.000000;1.783213
9266.000000;1.783973
9265.000000;1.782349
9264.000000;1.779775
9263.000000;1.777674
9262.000000;1.776379
9261.000000;1.775578
9260.000000;1.775170
9259.000000;1.775291
9258.000000;1.775650
9257.000000;1.775439
9256.000000;1.774257
9255.000000;1.772861
9254.000000;1.772507
9253.000000;1.773410
9252.000000;1.774243
9251.000000;1.773587
9250.000000;1.771723
9249.000000;1.770357
9248.000000;1.770554
9247.000000;1.771505
9246.000000;1.771580
9245.000000;1.770170
9244.000000;1.768145
9243.000000;1.766765
9242.000000;1.766620
9241.000000;1.767419
9240.000000;1.768305
9239.000000;1.768410
9238.000000;1.767501
9237.000000;1.766205
9236.000000;1.765379
9235.000000;1.765228
9234.000000;1.765149
9233.000000;1.764431
9232.000000;1.763023
9231.000000;1.761673
9230.000000;1.761270
9229.000000;1.761898
9228.000000;1.762616
9227.000000;1.762499
9226.000000;1.761750
9225.000000;1.761361
9224.000000;1.761658
9223.000000;1.761796
9222.000000;1.761121
9221.000000;1.760491
9220.000000;1.761431
9219.000000;1.764212
9218.000000;1.767409
9217.000000;1.769356
9216.000000;1.769542
9215.000000;1.768547
9214.000000;1.767117
9213.000000;1.765575
9212.000000;1.763883
9211.000000;1.762141
9210.000000;1.761002
9209.000000;1.761286
9208.000000;1.762828
9207.000000;1.764061
9206.000000;1.763445
9205.000000;1.761110
9204.000000;1.758541
9203.000000;1.756939
9202.000000;1.756485
9201.000000;1.756972
9200.000000;1.758263
9199.000000;1.759867
9198.000000;1.760738
9197.000000;1.760070
9196.000000;1.758133
9195.000000;1.756068
9194.000000;1.754966
9193.000000;1.755082
9192.000000;1.755628
9191.000000;1.755411
9190.000000;1.754116
9189.000000;1.752840
9188.000000;1.752780
9187.000000;1.753496
9186.000000;1.753236
9185.000000;1.751117
9184.000000;1.748119
9183.000000;1.745595
9182.000000;1.743807
9181.000000;1.742447
9180.000000;1.741813
9179.000000;1.742600
9178.000000;1.744751
9177.000000;1.747134
9176.000000;1.748411
9175.000000;1.747991
9174.000000;1.746283
9173.000000;1.744430
9172.000000;1.743608
9171.000000;1.744203
9170.000000;1.745606
9169.000000;1.746984
9168.000000;1.748103
9167.000000;1.749167
9166.000000;1.750094
9165.000000;1.750424
9164.000000;1.749819
9163.000000;1.748238
9162.000000;1.745768
9161.000000;1.742783
9160.000000;1.740193
9159.000000;1.739048
9158.000000;1.739721
9157.000000;1.741496
9156.000000;1.742948
9155.000000;1.742880
9154.000000;1.741229
9153.000000;1.739211
9152.000000;1.738379
9151.000000;1.739246
9150.000000;1.740837
9149.000000;1.741785
9148.000000;1.741841
9147.000000;1.742006
9146.000000;1.743174
9145.000000;1.744903
9144.000000;1.745683
9143.000000;1.744440
9142.000000;1.741684
9141.000000;1.739044
9140.000000;1.737759
9139.000000;1.737840
9138.000000;1.738728
9137.000000;1.740246
9136.000000;1.742299
9135.000000;1.743854
9134.000000;1.743294
9133.000000;1.740268
9132.000000;1.736420
9131.000000;1.733740
9130.000000;1.732798
9129.000000;1.732950
9128.000000;1.733596
9127.000000;1.734452
9126.000000;1.734948
9125.000000;1.734380
9124.000000;1.732794
9123.000000;1.731022
9122.000000;1.729756
9121.000000;1.729158
9120.000000;1.729286
9119.000000;1.730099
9118.000000;1.730956
9117.000000;1.730928
9116.000000;1.730003
9115.000000;1.729244
9114.000000;1.729346
9113.000000;1.729681
9112.000000;1.729328
9111.000000;1.728409
9110.000000;1.727625
9109.000000;1.726946
9108.000000;1.725830
9107.000000;1.724631
9106.000000;1.724659
9105.000000;1.726410
9104.000000;1.728496
9103.000000;1.728895
9102.000000;1.727038
9101.000000;1.724225
9100.000000;1.722261
9099.000000;1.722140
9098.000000;1.723683
9097.000000;1.725652
9096.000000;1.726226
9095.000000;1.724249
9094.000000;1.720611
9093.000000;1.717926
9092.000000;1.718247
9091.000000;1.721094
9090.000000;1.723941
9089.000000;1.724727
9088.000000;1.723553
9087.000000;1.721874
9086.000000;1.720704
9085.000000;1.720098
9084.000000;1.719887
9083.000000;1.720118
9082.000000;1.720634
9081.000000;1.720774
9080.000000;1.719979
9079.000000;1.718584
9078.000000;1.717657
9077.000000;1.717964
9076.000000;1.719219
9075.000000;1.720376
9074.000000;1.720629
9073.000000;1.720061
9072.000000;1.719312
9071.000000;1.718772
9070.000000;1.718298
9069.000000;1.717764
9068.000000;1.717575
9067.000000;1.718231
9066.000000;1.719475
9065.000000;1.720324
9064.000000;1.720146
9063.000000;1.719367
9062.000000;1.718701
9061.000000;1.718037
9060.000000;1.716689
9059.000000;1.714666
9058.000000;1.713006
9057.000000;1.712593
9056.000000;1.713096
9055.000000;1.713414
9054.000000;1.712851
9053.000000;1.711585
