Criado como novo conjunto de dados;"Jao_teste_celulas.spp","7383.6 Secs"
cm-1;Abs
10000.000000;1.407811
9999.000000;1.406909
9998.000000;1.405094
9997.000000;1.403890
9996.000000;1.404247
9995.000000;1.405132
9994.000000;1.405615
9993.000000;1.405890
9992.000000;1.406781
9991.000000;1.408110
9990.000000;1.409054
9989.000000;1.409260
9988.000000;1.409034
9987.000000;1.408540
9986.000000;1.407638
9985.000000;1.406383
9984.000000;1.405085
9983.000000;1.403850
9982.000000;1.402550
9981.000000;1.401238
9980.000000;1.400236
9979.000000;1.399780
9978.000000;1.399793
9977.000000;1.399964
9976.000000;1.399869
9975.000000;1.399202
9974.000000;1.398118
9973.000000;1.397158
9972.000000;1.396577
9971.000000;1.395970
9970.000000;1.394880
9969.000000;1.393569
9968.000000;1.392763
9967.000000;1.392781
9966.000000;1.393318
9965.000000;1.393981
9964.000000;1.394606
9963.000000;1.395019
9962.000000;1.394960
9961.000000;1.394403
9960.000000;1.393674
9959.000000;1.393060
9958.000000;1.392458
9957.000000;1.391502
9956.000000;1.389972
9955.000000;1.388040
9954.000000;1.386225
9953.000000;1.385114
9952.000000;1.384980
9951.000000;1.385588
9950.000000;1.386375
9949.000000;1.386819
9948.000000;1.386668
9947.000000;1.385968
9946.000000;1.384998
9945.000000;1.384142
9944.000000;1.383672
9943.000000;1.383613
9942.000000;1.383765
9941.000000;1.383738
9940.000000;1.383111
9939.000000;1.381875
9938.000000;1.380698
9937.000000;1.380399
9936.000000;1.381041
9935.000000;1.381851
9934.000000;1.382137
9933.000000;1.381927
9932.000000;1.381502
9931.000000;1.380732
9930.000000;1.379365
9929.000000;1.377685
9928.000000;1.376347
9927.000000;1.375667
9926.000000;1.375480
9925.000000;1.375595
9924.000000;1.375922
9923.000000;1.376170
9922.000000;1.375907
9921.000000;1.375128
9920.000000;1.374450
9919.000000;1.374518
9918.000000;1.375365
9917.000000;1.376400
9916.000000;1.376890
9915.000000;1.376410
9914.000000;1.375078
9913.000000;1.373448
9912.000000;1.372082
9911.000000;1.371202
9910.000000;1.370820
9909.000000;1.370971
9908.000000;1.371491
9907.000000;1.371636
9906.000000;1.370527
9905.000000;1.368252
9904.000000;1.366131
9903.000000;1.365469
9902.000000;1.366199
9901.000000;1.367085
9900.000000;1.367169
9899.000000;1.366677
9898.000000;1.366434
9897.000000;1.366794
9896.000000;1.367376
9895.000000;1.367589
9894.000000;1.367102
9893.000000;1.365936
9892.000000;1.364400
9891.000000;1.362993
9890.000000;1.362126
9889.000000;1.361825
9888.000000;1.361802
9887.000000;1.361836
9886.000000;1.361935
9885.000000;1.362051
9884.000000;1.361891
9883.000000;1.361269
9882.000000;1.360450
9881.000000;1.359835
9880.000000;1.359383
9879.000000;1.358671
9878.000000;1.357534
9877.000000;1.356407
9876.000000;1.355940
9875.000000;1.356358
9874.000000;1.357255
9873.000000;1.357891
9872.000000;1.357745
9871.000000;1.356978
9870.000000;1.356297
9869.000000;1.356115
9868.000000;1.355940
9867.000000;1.354957
9866.000000;1.353177
9865.000000;1.351541
9864.000000;1.350815
9863.000000;1.350868
9862.000000;1.351229
9861.000000;1.351794
9860.000000;1.352559
9859.000000;1.353075
9858.000000;1.352811
9857.000000;1.351888
9856.000000;1.350908
9855.000000;1.350144
9854.000000;1.349365
9853.000000;1.348408
9852.000000;1.347446
9851.000000;1.346639
9850.000000;1.345936
9849.000000;1.345332
9848.000000;1.344958
9847.000000;1.344829
9846.000000;1.344811
9845.000000;1.344941
9844.000000;1.345404
9843.000000;1.346074
9842.000000;1.346417
9841.000000;1.346037
9840.000000;1.345008
9839.000000;1.343501
9838.000000;1.341529
9837.000000;1.339378
9836.000000;1.337901
9835.000000;1.337785
9834.000000;1.338652
9833.000000;1.339333
9832.000000;1.339106
9831.000000;1.338325
9830.000000;1.337762
9829.000000;1.337683
9828.000000;1.337712
9827.000000;1.337352
9826.000000;1.336485
9825.000000;1.335438
9824.000000;1.334661
9823.000000;1.334289
9822.000000;1.333999
9821.000000;1.333416
9820.000000;1.332618
9819.000000;1.331997
9818.000000;1.331591
9817.000000;1.330887
9816.000000;1.329499
9815.000000;1.327851
9814.000000;1.326878
9813.000000;1.327112
9812.000000;1.328248
9811.000000;1.329543
9810.000000;1.330383
9809.000000;1.330556
9808.000000;1.330228
9807.000000;1.329807
9806.000000;1.329637
9805.000000;1.329741
9804.000000;1.329883
9803.000000;1.329868
9802.000000;1.329660
9801.000000;1.329251
9800.000000;1.328646
9799.000000;1.328037
9798.000000;1.327709
9797.000000;1.327628
9796.000000;1.327307
9795.000000;1.326289
9794.000000;1.324693
9793.000000;1.323132
9792.000000;1.322173
9791.000000;1.321985
9790.000000;1.322334
9789.000000;1.322681
9788.000000;1.322424
9787.000000;1.321383
9786.000000;1.320060
9785.000000;1.319181
9784.000000;1.318983
9783.000000;1.319116
9782.000000;1.319173
9781.000000;1.319021
9780.000000;1.318624
9779.000000;1.317943
9778.000000;1.317205
9777.000000;1.316966
9776.000000;1.317550
9775.000000;1.318523
9774.000000;1.318962
9773.000000;1.318296
9772.000000;1.316769
9771.000000;1.315139
9770.000000;1.314090
9769.000000;1.313817
9768.000000;1.313994
9767.000000;1.314121
9766.000000;1.314015
9765.000000;1.313857
9764.000000;1.313710
9763.000000;1.313201
9762.000000;1.311961
9761.000000;1.310234
9760.000000;1.308704
9759.000000;1.307704
9758.000000;1.306942
9757.000000;1.306115
9756.000000;1.305410
9755.000000;1.305146
9754.000000;1.305173
9753.000000;1.305037
9752.000000;1.304650
9751.000000;1.304397
9750.000000;1.304570
9749.000000;1.305038
9748.000000;1.305573
9747.000000;1.306153
9746.000000;1.306686
9745.000000;1.306700
9744.000000;1.305748
9743.000000;1.304090
9742.000000;1.302662
9741.000000;1.302251
9740.000000;1.302794
9739.000000;1.303523
9738.000000;1.303693
9737.000000;1.303194
9736.000000;1.302547
9735.000000;1.302303
9734.000000;1.302386
9733.000000;1.302111
9732.000000;1.301005
9731.000000;1.299466
9730.000000;1.298311
9729.000000;1.297719
9728.000000;1.297034
9727.000000;1.295753
9726.000000;1.294334
9725.000000;1.293674
9724.000000;1.293985
9723.000000;1.294563
9722.000000;1.294659
9721.000000;1.294278
9720.000000;1.294003
9719.000000;1.294238
9718.000000;1.294763
9717.000000;1.294992
9716.000000;1.294586
9715.000000;1.293713
9714.000000;1.292666
9713.000000;1.291419
9712.000000;1.289824
9711.000000;1.288197
9710.000000;1.287301
9709.000000;1.287524
9708.000000;1.288314
9707.000000;1.288727
9706.000000;1.288397
9705.000000;1.287708
9704.000000;1.287157
9703.000000;1.286908
9702.000000;1.286887
9701.000000;1.286923
9700.000000;1.286733
9699.000000;1.286122
9698.000000;1.285304
9697.000000;1.284747
9696.000000;1.284625
9695.000000;1.284639
9694.000000;1.284460
9693.000000;1.284076
9692.000000;1.283615
9691.000000;1.283148
9690.000000;1.282818
9689.000000;1.282859
9688.000000;1.283195
9687.000000;1.283271
9686.000000;1.282617
9685.000000;1.281476
9684.000000;1.280543
9683.000000;1.280206
9682.000000;1.280322
9681.000000;1.280655
9680.000000;1.281121
9679.000000;1.281518
9678.000000;1.281394
9677.000000;1.280468
9676.000000;1.279033
9675.000000;1.277689
9674.000000;1.276762
9673.000000;1.276122
9672.000000;1.275488
9671.000000;1.274735
9670.000000;1.273933
9669.000000;1.273274
9668.000000;1.272969
9667.000000;1.273072
9666.000000;1.273362
9665.000000;1.273559
9664.000000;1.273641
9663.000000;1.273736
9662.000000;1.273659
9661.000000;1.272909
9660.000000;1.271347
9659.000000;1.269657
9658.000000;1.268737
9657.000000;1.268711
9656.000000;1.268923
9655.000000;1.268863
9654.000000;1.268652
9653.000000;1.268485
9652.000000;1.268130
9651.000000;1.267381
9650.000000;1.266641
9649.000000;1.266475
9648.000000;1.266751
9647.000000;1.266723
9646.000000;1.265987
9645.000000;1.264905
9644.000000;1.264033
9643.000000;1.263553
9642.000000;1.263432
9641.000000;1.263680
9640.000000;1.264163
9639.000000;1.264401
9638.000000;1.263917
9637.000000;1.262725
9636.000000;1.261304
9635.000000;1.260177
9634.000000;1.259620
9633.000000;1.259597
9632.000000;1.259799
9631.000000;1.259847
9630.000000;1.259640
9629.000000;1.259437
9628.000000;1.259475
9627.000000;1.259603
9626.000000;1.259447
9625.000000;1.258858
9624.000000;1.258064
9623.000000;1.257420
9622.000000;1.257126
9621.000000;1.257090
9620.000000;1.256923
9619.000000;1.256149
9618.000000;1.254624
9617.000000;1.252782
9616.000000;1.251324
9615.000000;1.250610
9614.000000;1.250384
9613.000000;1.250072
9612.000000;1.249354
9611.000000;1.248499
9610.000000;1.248162
9609.000000;1.248770
9608.000000;1.250065
9607.000000;1.251304
9606.000000;1.251951
9605.000000;1.252008
9604.000000;1.251663
9603.000000;1.250939
9602.000000;1.249914
9601.000000;1.248992
9600.000000;1.248547
9599.000000;1.248394
9598.000000;1.247988
9597.000000;1.247194
9596.000000;1.246460
9595.000000;1.246137
9594.000000;1.245979
9593.000000;1.245547
9592.000000;1.244791
9591.000000;1.243962
9590.000000;1.243191
9589.000000;1.242506
9588.000000;1.242120
9587.000000;1.242273
9586.000000;1.242758
9585.000000;1.242973
9584.000000;1.242570
9583.000000;1.241805
9582.000000;1.241093
9581.000000;1.240543
9580.000000;1.240119
9579.000000;1.239978
9578.000000;1.240221
9577.000000;1.240445
9576.000000;1.239968
9575.000000;1.238617
9574.000000;1.237003
9573.000000;1.235884
9572.000000;1.235506
9571.000000;1.235684
9570.000000;1.236191
9569.000000;1.236770
9568.000000;1.236939
9567.000000;1.236242
9566.000000;1.234795
9565.000000;1.233301
9564.000000;1.232365
9563.000000;1.231971
9562.000000;1.231713
9561.000000;1.231396
9560.000000;1.231232
9559.000000;1.231488
9558.000000;1.232079
9557.000000;1.232531
9556.000000;1.232335
9555.000000;1.231375
9554.000000;1.230059
9553.000000;1.228994
9552.000000;1.228509
9551.000000;1.228485
9550.000000;1.228621
9549.000000;1.228791
9548.000000;1.229073
9547.000000;1.229483
9546.000000;1.229768
9545.000000;1.229537
9544.000000;1.228639
9543.000000;1.227357
9542.000000;1.226163
9541.000000;1.225283
9540.000000;1.224556
9539.000000;1.223776
9538.000000;1.223068
9537.000000;1.222804
9536.000000;1.223149
9535.000000;1.223824
9534.000000;1.224352
9533.000000;1.224461
9532.000000;1.224220
9531.000000;1.223885
9530.000000;1.223643
9529.000000;1.223431
9528.000000;1.222988
9527.000000;1.222158
9526.000000;1.221146
9525.000000;1.220368
9524.000000;1.219990
9523.000000;1.219730
9522.000000;1.219176
9521.000000;1.218210
9520.000000;1.217089
9519.000000;1.216199
9518.000000;1.215811
9517.000000;1.215945
9516.000000;1.216370
9515.000000;1.216752
9514.000000;1.216910
9513.000000;1.216860
9512.000000;1.216592
9511.000000;1.215924
9510.000000;1.214754
9509.000000;1.213370
9508.000000;1.212294
9507.000000;1.211818
9506.000000;1.211843
9505.000000;1.212092
9504.000000;1.212296
9503.000000;1.212223
9502.000000;1.211792
9501.000000;1.211235
9500.000000;1.210939
9499.000000;1.210982
9498.000000;1.210986
9497.000000;1.210574
9496.000000;1.209807
9495.000000;1.209001
9494.000000;1.208230
9493.000000;1.207317
9492.000000;1.206289
9491.000000;1.205564
9490.000000;1.205543
9489.000000;1.206172
9488.000000;1.207006
9487.000000;1.207630
9486.000000;1.207858
9485.000000;1.207614
9484.000000;1.206850
9483.000000;1.205719
9482.000000;1.204683
9481.000000;1.204242
9480.000000;1.204486
9479.000000;1.205017
9478.000000;1.205363
9477.000000;1.205372
9476.000000;1.205137
9475.000000;1.204677
9474.000000;1.203916
9473.000000;1.202973
9472.000000;1.202229
9471.000000;1.201969
9470.000000;1.202075
9469.000000;1.202154
9468.000000;1.201893
9467.000000;1.201210
9466.000000;1.200241
9465.000000;1.199334
9464.000000;1.198866
9463.000000;1.198802
9462.000000;1.198570
9461.000000;1.197699
9460.000000;1.196561
9459.000000;1.196038
9458.000000;1.196387
9457.000000;1.196863
9456.000000;1.196708
9455.000000;1.196133
9454.000000;1.195902
9453.000000;1.196199
9452.000000;1.196428
9451.000000;1.196095
9450.000000;1.195363
9449.000000;1.194587
9448.000000;1.193758
9447.000000;1.192740
9446.000000;1.191763
9445.000000;1.191252
9444.000000;1.191202
9443.000000;1.191056
9442.000000;1.190332
9441.000000;1.189180
9440.000000;1.188183
9439.000000;1.187722
9438.000000;1.187694
9437.000000;1.187819
9436.000000;1.187996
9435.000000;1.188266
9434.000000;1.188571
9433.000000;1.188745
9432.000000;1.188697
9431.000000;1.188412
9430.000000;1.187821
9429.000000;1.186878
9428.000000;1.185806
9427.000000;1.185004
9426.000000;1.184575
9425.000000;1.184197
9424.000000;1.183623
9423.000000;1.183094
9422.000000;1.182989
9421.000000;1.183245
9420.000000;1.183428
9419.000000;1.183300
9418.000000;1.182986
9417.000000;1.182602
9416.000000;1.182054
9415.000000;1.181285
9414.000000;1.180471
9413.000000;1.179908
9412.000000;1.179832
9411.000000;1.180310
9410.000000;1.181064
9409.000000;1.181417
9408.000000;1.180779
9407.000000;1.179332
9406.000000;1.177972
9405.000000;1.177413
9404.000000;1.177537
9403.000000;1.177692
9402.000000;1.177418
9401.000000;1.176787
9400.000000;1.176249
9399.000000;1.176231
9398.000000;1.176700
9397.000000;1.177027
9396.000000;1.176550
9395.000000;1.175353
9394.000000;1.174176
9393.000000;1.173453
9392.000000;1.172784
9391.000000;1.171624
9390.000000;1.170153
9389.000000;1.169086
9388.000000;1.168838
9387.000000;1.169251
9386.000000;1.169981
9385.000000;1.170781
9384.000000;1.171433
9383.000000;1.171752
9382.000000;1.171743
9381.000000;1.171536
9380.000000;1.171150
9379.000000;1.170508
9378.000000;1.169670
9377.000000;1.168855
9376.000000;1.168245
9375.000000;1.167890
9374.000000;1.167719
9373.000000;1.167475
9372.000000;1.166763
9371.000000;1.165446
9370.000000;1.163983
9369.000000;1.163104
9368.000000;1.163063
9367.000000;1.163402
9366.000000;1.163452
9365.000000;1.162938
9364.000000;1.162082
9363.000000;1.161334
9362.000000;1.161062
9361.000000;1.161347
9360.000000;1.161956
9359.000000;1.162550
9358.000000;1.162896
9357.000000;1.162853
9356.000000;1.162313
9355.000000;1.161341
9354.000000;1.160255
9353.000000;1.159355
9352.000000;1.158627
9351.000000;1.157924
9350.000000;1.157343
9349.000000;1.157097
9348.000000;1.157088
9347.000000;1.156952
9346.000000;1.156605
9345.000000;1.156383
9344.000000;1.156546
9343.000000;1.156909
9342.000000;1.157151
9341.000000;1.157178
9340.000000;1.156996
9339.000000;1.156472
9338.000000;1.155494
9337.000000;1.154270
9336.000000;1.153191
9335.000000;1.152491
9334.000000;1.152162
9333.000000;1.152109
9332.000000;1.152183
9331.000000;1.152165
9330.000000;1.151939
9329.000000;1.151672
9328.000000;1.151628
9327.000000;1.151831
9326.000000;1.152045
9325.000000;1.152050
9324.000000;1.151783
9323.000000;1.151204
9322.000000;1.150259
9321.000000;1.149092
9320.000000;1.148107
9319.000000;1.147639
9318.000000;1.147588
9317.000000;1.147521
9316.000000;1.147165
9315.000000;1.146700
9314.000000;1.146506
9313.000000;1.146696
9312.000000;1.147006
9311.000000;1.147104
9310.000000;1.146894
9309.000000;1.146476
9308.000000;1.146006
9307.000000;1.145669
9306.000000;1.145644
9305.000000;1.145869
9304.000000;1.145944
9303.000000;1.145507
9302.000000;1.144736
9301.000000;1.144240
9300.000000;1.144358
9299.000000;1.144782
9298.000000;1.145009
9297.000000;1.144968
9296.000000;1.144933
9295.000000;1.144968
9294.000000;1.144762
9293.000000;1.144062
9292.000000;1.143010
9291.000000;1.141961
9290.000000;1.141137
9289.000000;1.140573
9288.000000;1.140193
9287.000000;1.139806
9286.000000;1.139183
9285.000000;1.138348
9284.000000;1.137721
9283.000000;1.137706
9282.000000;1.138127
9281.000000;1.138349
9280.000000;1.138063
9279.000000;1.137712
9278.000000;1.137909
9277.000000;1.138586
9276.000000;1.139035
9275.000000;1.138755
9274.000000;1.137989
9273.000000;1.137308
9272.000000;1.136908
9271.000000;1.136486
9270.000000;1.135723
9269.000000;1.134678
9268.000000;1.133699
9267.000000;1.133055
9266.000000;1.132687
9265.000000;1.132314
9264.000000;1.131776
9263.000000;1.131259
9262.000000;1.131106
9261.000000;1.131404
9260.000000;1.131827
9259.000000;1.131912
9258.000000;1.131448
9257.000000;1.130577
9256.000000;1.129603
9255.000000;1.128765
9254.000000;1.128170
9253.000000;1.127836
9252.000000;1.127772
9251.000000;1.127966
9250.000000;1.128292
9249.000000;1.128478
9248.000000;1.128309
9247.000000;1.127845
9246.000000;1.127337
9245.000000;1.126912
9244.000000;1.126465
9243.000000;1.125933
9242.000000;1.125523
9241.000000;1.125548
9240.000000;1.126070
9239.000000;1.126780
9238.000000;1.127186
9237.000000;1.126924
9236.000000;1.125969
9235.000000;1.124646
9234.000000;1.123394
9233.000000;1.122505
9232.000000;1.122044
9231.000000;1.121959
9230.000000;1.122125
9229.000000;1.122326
9228.000000;1.122366
9227.000000;1.122236
9226.000000;1.122035
9225.000000;1.121729
9224.000000;1.121213
9223.000000;1.120638
9222.000000;1.120407
9221.000000;1.120675
9220.000000;1.121041
9219.000000;1.120938
9218.000000;1.120228
9217.000000;1.119262
9216.000000;1.118461
9215.000000;1.117996
9214.000000;1.117757
9213.000000;1.117458
9212.000000;1.116874
9211.000000;1.116108
9210.000000;1.115529
9209.000000;1.115301
9208.000000;1.115101
9207.000000;1.114488
9206.000000;1.113472
9205.000000;1.112524
9204.000000;1.112077
9203.000000;1.112184
9202.000000;1.112605
9201.000000;1.113007
9200.000000;1.113119
9199.000000;1.112865
9198.000000;1.112396
9197.000000;1.111924
9196.000000;1.111546
9195.000000;1.111276
9194.000000;1.111132
9193.000000;1.111054
9192.000000;1.110898
9191.000000;1.110640
9190.000000;1.110462
9189.000000;1.110437
9188.000000;1.110312
9187.000000;1.109856
9186.000000;1.109324
9185.000000;1.109207
9184.000000;1.109553
9183.000000;1.109849
9182.000000;1.109657
9181.000000;1.109111
9180.000000;1.108653
9179.000000;1.108459
9178.000000;1.108295
9177.000000;1.107849
9176.000000;1.107106
9175.000000;1.106382
9174.000000;1.105997
9173.000000;1.105889
9172.000000;1.105678
9171.000000;1.105177
9170.000000;1.104678
9169.000000;1.104545
9168.000000;1.104637
9167.000000;1.104450
9166.000000;1.103770
9165.000000;1.102895
9164.000000;1.102176
9163.000000;1.101644
9162.000000;1.101170
9161.000000;1.100731
9160.000000;1.100350
9159.000000;1.099969
9158.000000;1.099531
9157.000000;1.099100
9156.000000;1.098812
9155.000000;1.098739
9154.000000;1.098844
9153.000000;1.098963
9152.000000;1.098872
9151.000000;1.098535
9150.000000;1.098278
9149.000000;1.098482
9148.000000;1.099068
9147.000000;1.099474
9146.000000;1.099277
9145.000000;1.098660
9144.000000;1.098166
9143.000000;1.098096
9142.000000;1.098271
9141.000000;1.098259
9140.000000;1.097742
9139.000000;1.096742
9138.000000;1.095579
9137.000000;1.094615
9136.000000;1.094036
9135.000000;1.093862
9134.000000;1.094056
9133.000000;1.094451
9132.000000;1.094653
9131.000000;1.094303
9130.000000;1.093525
9129.000000;1.092888
9128.000000;1.092786
9127.000000;1.093008
9126.000000;1.093064
9125.000000;1.092786
9124.000000;1.092442
9123.000000;1.092289
9122.000000;1.092196
9121.000000;1.091785
9120.000000;1.090921
9119.000000;1.089973
9118.000000;1.089484
9117.000000;1.089561
9116.000000;1.089689
9115.000000;1.089279
9114.000000;1.088306
9113.000000;1.087257
9112.000000;1.086537
9111.000000;1.086150
9110.000000;1.085915
9109.000000;1.085729
9108.000000;1.085611
9107.000000;1.085674
9106.000000;1.086112
9105.000000;1.086990
9104.000000;1.087980
9103.000000;1.088509
9102.000000;1.088266
9101.000000;1.087422
9100.000000;1.086335
9099.000000;1.085295
9098.000000;1.084558
9097.000000;1.084294
9096.000000;1.084319
9095.000000;1.084155
9094.000000;1.083601
9093.000000;1.083020
9092.000000;1.082817
9091.000000;1.082819
9090.000000;1.082514
9089.000000;1.081816
9088.000000;1.081229
9087.000000;1.081165
9086.000000;1.081442
9085.000000;1.081533
9084.000000;1.081150
9083.000000;1.080444
9082.000000;1.079743
9081.000000;1.079253
9080.000000;1.078995
9079.000000;1.078900
9078.000000;1.078925
9077.000000;1.079040
9076.000000;1.079140
9075.000000;1.079036
9074.000000;1.078566
9073.000000;1.077711
9072.000000;1.076598
9071.000000;1.075432
9070.000000;1.074450
9069.000000;1.073880
9068.000000;1.073863
9067.000000;1.074356
9066.000000;1.075137
9065.000000;1.075923
9064.000000;1.076523
9063.000000;1.076897
9062.000000;1.077055
9061.000000;1.076906
9060.000000;1.076314
9059.000000;1.075342
9058.000000;1.074349
9057.000000;1.073682
9056.000000;1.073278
9055.000000;1.072770
9054.000000;1.072015
9053.000000;1.071399
