Criado como novo conjunto de dados;"Jao_teste_celulas.spp","3842.6 Secs"
cm-1;Abs
10000.000000;0.953090
9999.000000;0.952577
9998.000000;0.952380
9997.000000;0.952059
9996.000000;0.951231
9995.000000;0.950158
9994.000000;0.949360
9993.000000;0.949190
9992.000000;0.949399
9991.000000;0.949381
9990.000000;0.948733
9989.000000;0.947690
9988.000000;0.946830
9987.000000;0.946388
9986.000000;0.946062
9985.000000;0.945552
9984.000000;0.945003
9983.000000;0.944714
9982.000000;0.944609
9981.000000;0.944330
9980.000000;0.943784
9979.000000;0.943275
9978.000000;0.943050
9977.000000;0.942961
9976.000000;0.942672
9975.000000;0.942058
9974.000000;0.941288
9973.000000;0.940651
9972.000000;0.940341
9971.000000;0.940283
9970.000000;0.940161
9969.000000;0.939729
9968.000000;0.939137
9967.000000;0.938787
9966.000000;0.938788
9965.000000;0.938720
9964.000000;0.938078
9963.000000;0.936892
9962.000000;0.935749
9961.000000;0.935211
9960.000000;0.935318
9959.000000;0.935645
9958.000000;0.935743
9957.000000;0.935480
9956.000000;0.934957
9955.000000;0.934226
9954.000000;0.933236
9953.000000;0.932081
9952.000000;0.931137
9951.000000;0.930786
9950.000000;0.931045
9949.000000;0.931526
9948.000000;0.931761
9947.000000;0.931505
9946.000000;0.930814
9945.000000;0.929954
9944.000000;0.929196
9943.000000;0.928587
9942.000000;0.927909
9941.000000;0.926988
9940.000000;0.925973
9939.000000;0.925204
9938.000000;0.924842
9937.000000;0.924769
9936.000000;0.924813
9935.000000;0.924859
9934.000000;0.924736
9933.000000;0.924222
9932.000000;0.923276
9931.000000;0.922152
9930.000000;0.921198
9929.000000;0.920634
9928.000000;0.920523
9927.000000;0.920790
9926.000000;0.921171
9925.000000;0.921247
9924.000000;0.920706
9923.000000;0.919609
9922.000000;0.918392
9921.000000;0.917589
9920.000000;0.917469
9919.000000;0.917797
9918.000000;0.918012
9917.000000;0.917756
9916.000000;0.917195
9915.000000;0.916671
9914.000000;0.916173
9913.000000;0.915447
9912.000000;0.914546
9911.000000;0.913894
9910.000000;0.913695
9909.000000;0.913628
9908.000000;0.913323
9907.000000;0.912837
9906.000000;0.912427
9905.000000;0.912082
9904.000000;0.911582
9903.000000;0.910903
9902.000000;0.910258
9901.000000;0.909822
9900.000000;0.909601
9899.000000;0.909499
9898.000000;0.909314
9897.000000;0.908785
9896.000000;0.907893
9895.000000;0.907039
9894.000000;0.906670
9893.000000;0.906715
9892.000000;0.906647
9891.000000;0.906088
9890.000000;0.905175
9889.000000;0.904275
9888.000000;0.903565
9887.000000;0.902970
9886.000000;0.902357
9885.000000;0.901669
9884.000000;0.900952
9883.000000;0.900336
9882.000000;0.899966
9881.000000;0.899919
9880.000000;0.900162
9879.000000;0.900540
9878.000000;0.900759
9877.000000;0.900505
9876.000000;0.899758
9875.000000;0.898904
9874.000000;0.898371
9873.000000;0.898137
9872.000000;0.897783
9871.000000;0.897071
9870.000000;0.896268
9869.000000;0.895820
9868.000000;0.895821
9867.000000;0.895936
9866.000000;0.895764
9865.000000;0.895165
9864.000000;0.894295
9863.000000;0.893455
9862.000000;0.892924
9861.000000;0.892833
9860.000000;0.893091
9859.000000;0.893373
9858.000000;0.893243
9857.000000;0.892438
9856.000000;0.891146
9855.000000;0.889945
9854.000000;0.889348
9853.000000;0.889374
9852.000000;0.889618
9851.000000;0.889661
9850.000000;0.889330
9849.000000;0.888621
9848.000000;0.887601
9847.000000;0.886508
9846.000000;0.885743
9845.000000;0.885548
9844.000000;0.885683
9843.000000;0.885617
9842.000000;0.885090
9841.000000;0.884385
9840.000000;0.883942
9839.000000;0.883829
9838.000000;0.883747
9837.000000;0.883497
9836.000000;0.883224
9835.000000;0.883081
9834.000000;0.882855
9833.000000;0.882168
9832.000000;0.880992
9831.000000;0.879761
9830.000000;0.878916
9829.000000;0.878520
9828.000000;0.878364
9827.000000;0.878264
9826.000000;0.878140
9825.000000;0.877953
9824.000000;0.877706
9823.000000;0.877432
9822.000000;0.877074
9821.000000;0.876495
9820.000000;0.875710
9819.000000;0.875002
9818.000000;0.874650
9817.000000;0.874582
9816.000000;0.874445
9815.000000;0.873992
9814.000000;0.873276
9813.000000;0.872548
9812.000000;0.872069
9811.000000;0.871945
9810.000000;0.871959
9809.000000;0.871640
9808.000000;0.870721
9807.000000;0.869535
9806.000000;0.868757
9805.000000;0.868718
9804.000000;0.869136
9803.000000;0.869517
9802.000000;0.869618
9801.000000;0.869462
9800.000000;0.869116
9799.000000;0.868645
9798.000000;0.868136
9797.000000;0.867617
9796.000000;0.866989
9795.000000;0.866178
9794.000000;0.865286
9793.000000;0.864502
9792.000000;0.863915
9791.000000;0.863492
9790.000000;0.863214
9789.000000;0.863105
9788.000000;0.863105
9787.000000;0.862998
9786.000000;0.862522
9785.000000;0.861566
9784.000000;0.860286
9783.000000;0.859031
9782.000000;0.858131
9781.000000;0.857712
9780.000000;0.857696
9779.000000;0.857890
9778.000000;0.858033
9777.000000;0.857843
9776.000000;0.857183
9775.000000;0.856218
9774.000000;0.855287
9773.000000;0.854586
9772.000000;0.854061
9771.000000;0.853606
9770.000000;0.853188
9769.000000;0.852749
9768.000000;0.852157
9767.000000;0.851412
9766.000000;0.850765
9765.000000;0.850481
9764.000000;0.850506
9763.000000;0.850506
9762.000000;0.850239
9761.000000;0.849792
9760.000000;0.849432
9759.000000;0.849303
9758.000000;0.849277
9757.000000;0.849052
9756.000000;0.848426
9755.000000;0.847534
9754.000000;0.846768
9753.000000;0.846405
9752.000000;0.846345
9751.000000;0.846303
9750.000000;0.846171
9749.000000;0.846061
9748.000000;0.846021
9747.000000;0.845875
9746.000000;0.845440
9745.000000;0.844777
9744.000000;0.844144
9743.000000;0.843738
9742.000000;0.843537
9741.000000;0.843365
9740.000000;0.843077
9739.000000;0.842713
9738.000000;0.842469
9737.000000;0.842458
9736.000000;0.842488
9735.000000;0.842202
9734.000000;0.841497
9733.000000;0.840695
9732.000000;0.840167
9731.000000;0.839852
9730.000000;0.839285
9729.000000;0.838136
9728.000000;0.836580
9727.000000;0.835116
9726.000000;0.834120
9725.000000;0.833653
9724.000000;0.833587
9723.000000;0.833757
9722.000000;0.834011
9721.000000;0.834214
9720.000000;0.834273
9719.000000;0.834141
9718.000000;0.833783
9717.000000;0.833199
9716.000000;0.832496
9715.000000;0.831846
9714.000000;0.831322
9713.000000;0.830846
9712.000000;0.830366
9711.000000;0.830007
9710.000000;0.829921
9709.000000;0.829990
9708.000000;0.829847
9707.000000;0.829270
9706.000000;0.828426
9705.000000;0.827642
9704.000000;0.827044
9703.000000;0.826557
9702.000000;0.826169
9701.000000;0.825963
9700.000000;0.825880
9699.000000;0.825657
9698.000000;0.825107
9697.000000;0.824338
9696.000000;0.823601
9695.000000;0.823023
9694.000000;0.822580
9693.000000;0.822217
9692.000000;0.821855
9691.000000;0.821397
9690.000000;0.820875
9689.000000;0.820521
9688.000000;0.820489
9687.000000;0.820534
9686.000000;0.820228
9685.000000;0.819543
9684.000000;0.818975
9683.000000;0.818952
9682.000000;0.819291
9681.000000;0.819422
9680.000000;0.819032
9679.000000;0.818294
9678.000000;0.817536
9677.000000;0.816924
9676.000000;0.816474
9675.000000;0.816182
9674.000000;0.816002
9673.000000;0.815807
9672.000000;0.815471
9671.000000;0.814992
9670.000000;0.814498
9669.000000;0.814101
9668.000000;0.813782
9667.000000;0.813407
9666.000000;0.812898
9665.000000;0.812370
9664.000000;0.812029
9663.000000;0.811915
9662.000000;0.811802
9661.000000;0.811417
9660.000000;0.810696
9659.000000;0.809769
9658.000000;0.808787
9657.000000;0.807861
9656.000000;0.807107
9655.000000;0.806602
9654.000000;0.806283
9653.000000;0.806016
9652.000000;0.805759
9651.000000;0.805583
9650.000000;0.805518
9649.000000;0.805482
9648.000000;0.805374
9647.000000;0.805151
9646.000000;0.804804
9645.000000;0.804327
9644.000000;0.803722
9643.000000;0.802984
9642.000000;0.802110
9641.000000;0.801207
9640.000000;0.800515
9639.000000;0.800189
9638.000000;0.800102
9637.000000;0.799995
9636.000000;0.799806
9635.000000;0.799650
9634.000000;0.799500
9633.000000;0.799137
9632.000000;0.798484
9631.000000;0.797767
9630.000000;0.797231
9629.000000;0.796880
9628.000000;0.796615
9627.000000;0.796453
9626.000000;0.796408
9625.000000;0.796312
9624.000000;0.795957
9623.000000;0.795361
9622.000000;0.794718
9621.000000;0.794139
9620.000000;0.793601
9619.000000;0.793080
9618.000000;0.792579
9617.000000;0.792041
9616.000000;0.791403
9615.000000;0.790736
9614.000000;0.790216
9613.000000;0.789953
9612.000000;0.789935
9611.000000;0.790060
9610.000000;0.790127
9609.000000;0.789873
9608.000000;0.789230
9607.000000;0.788507
9606.000000;0.788143
9605.000000;0.788241
9604.000000;0.788467
9603.000000;0.788420
9602.000000;0.787978
9601.000000;0.787271
9600.000000;0.786484
9599.000000;0.785754
9598.000000;0.785159
9597.000000;0.784731
9596.000000;0.784513
9595.000000;0.784545
9594.000000;0.784734
9593.000000;0.784774
9592.000000;0.784362
9591.000000;0.783505
9590.000000;0.782494
9589.000000;0.781587
9588.000000;0.780880
9587.000000;0.780435
9586.000000;0.780314
9585.000000;0.780391
9584.000000;0.780348
9583.000000;0.780000
9582.000000;0.779485
9581.000000;0.779033
9580.000000;0.778666
9579.000000;0.778248
9578.000000;0.777722
9577.000000;0.777163
9576.000000;0.776657
9575.000000;0.776232
9574.000000;0.775863
9573.000000;0.775453
9572.000000;0.774918
9571.000000;0.774372
9570.000000;0.774096
9569.000000;0.774175
9568.000000;0.774257
9567.000000;0.773902
9566.000000;0.773132
9565.000000;0.772416
9564.000000;0.772112
9563.000000;0.772113
9562.000000;0.772080
9561.000000;0.771836
9560.000000;0.771406
9559.000000;0.770828
9558.000000;0.770094
9557.000000;0.769239
9556.000000;0.768364
9555.000000;0.767558
9554.000000;0.766875
9553.000000;0.766373
9552.000000;0.766087
9551.000000;0.765961
9550.000000;0.765870
9549.000000;0.765724
9548.000000;0.765515
9547.000000;0.765266
9546.000000;0.764993
9545.000000;0.764727
9544.000000;0.764507
9543.000000;0.764302
9542.000000;0.764003
9541.000000;0.763554
9540.000000;0.763074
9539.000000;0.762770
9538.000000;0.762705
9537.000000;0.762715
9536.000000;0.762572
9535.000000;0.762197
9534.000000;0.761685
9533.000000;0.761158
9532.000000;0.760662
9531.000000;0.760183
9530.000000;0.759707
9529.000000;0.759242
9528.000000;0.758790
9527.000000;0.758330
9526.000000;0.757835
9525.000000;0.757326
9524.000000;0.756879
9523.000000;0.756551
9522.000000;0.756297
9521.000000;0.756025
9520.000000;0.755751
9519.000000;0.755596
9518.000000;0.755571
9517.000000;0.755445
9516.000000;0.754943
9515.000000;0.754070
9514.000000;0.753142
9513.000000;0.752471
9512.000000;0.752098
9511.000000;0.751821
9510.000000;0.751412
9509.000000;0.750796
9508.000000;0.750109
9507.000000;0.749587
9506.000000;0.749355
9505.000000;0.749312
9504.000000;0.749256
9503.000000;0.749120
9502.000000;0.748988
9501.000000;0.748882
9500.000000;0.748664
9499.000000;0.748184
9498.000000;0.747457
9497.000000;0.746642
9496.000000;0.745919
9495.000000;0.745403
9494.000000;0.745090
9493.000000;0.744838
9492.000000;0.744496
9491.000000;0.744098
9490.000000;0.743824
9489.000000;0.743709
9488.000000;0.743514
9487.000000;0.742982
9486.000000;0.742132
9485.000000;0.741201
9484.000000;0.740418
9483.000000;0.739958
9482.000000;0.739988
9481.000000;0.740505
9480.000000;0.741148
9479.000000;0.741407
9478.000000;0.741075
9477.000000;0.740355
9476.000000;0.739509
9475.000000;0.738613
9474.000000;0.737723
9473.000000;0.737050
9472.000000;0.736772
9471.000000;0.736768
9470.000000;0.736714
9469.000000;0.736440
9468.000000;0.736031
9467.000000;0.735628
9466.000000;0.735266
9465.000000;0.734932
9464.000000;0.734662
9463.000000;0.734471
9462.000000;0.734278
9461.000000;0.733991
9460.000000;0.733651
9459.000000;0.733394
9458.000000;0.733244
9457.000000;0.733014
9456.000000;0.732507
9455.000000;0.731798
9454.000000;0.731221
9453.000000;0.731036
9452.000000;0.731145
9451.000000;0.731185
9450.000000;0.730864
9449.000000;0.730175
9448.000000;0.729350
9447.000000;0.728701
9446.000000;0.728470
9445.000000;0.728682
9444.000000;0.729058
9443.000000;0.729188
9442.000000;0.728863
9441.000000;0.728219
9440.000000;0.727507
9439.000000;0.726821
9438.000000;0.726127
9437.000000;0.725476
9436.000000;0.725015
9435.000000;0.724778
9434.000000;0.724584
9433.000000;0.724234
9432.000000;0.723741
9431.000000;0.723294
9430.000000;0.723019
9429.000000;0.722837
9428.000000;0.722570
9427.000000;0.722153
9426.000000;0.721709
9425.000000;0.721413
9424.000000;0.721287
9423.000000;0.721154
9422.000000;0.720808
9421.000000;0.720203
9420.000000;0.719464
9419.000000;0.718749
9418.000000;0.718150
9417.000000;0.717713
9416.000000;0.717451
9415.000000;0.717314
9414.000000;0.717186
9413.000000;0.716980
9412.000000;0.716692
9411.000000;0.716361
9410.000000;0.716014
9409.000000;0.715686
9408.000000;0.715423
9407.000000;0.715206
9406.000000;0.714900
9405.000000;0.714380
9404.000000;0.713704
9403.000000;0.713064
9402.000000;0.712577
9401.000000;0.712203
9400.000000;0.711891
9399.000000;0.711684
9398.000000;0.711590
9397.000000;0.711473
9396.000000;0.711173
9395.000000;0.710727
9394.000000;0.710343
9393.000000;0.710146
9392.000000;0.710023
9391.000000;0.709739
9390.000000;0.709166
9389.000000;0.708393
9388.000000;0.707683
9387.000000;0.707302
9386.000000;0.707311
9385.000000;0.707491
9384.000000;0.707518
9383.000000;0.707238
9382.000000;0.706744
9381.000000;0.706209
9380.000000;0.705740
9379.000000;0.705395
9378.000000;0.705192
9377.000000;0.705018
9376.000000;0.704669
9375.000000;0.704081
9374.000000;0.703436
9373.000000;0.702949
9372.000000;0.702613
9371.000000;0.702314
9370.000000;0.702096
9369.000000;0.702106
9368.000000;0.702261
9367.000000;0.702190
9366.000000;0.701616
9365.000000;0.700670
9364.000000;0.699701
9363.000000;0.698920
9362.000000;0.698358
9361.000000;0.698061
9360.000000;0.698080
9359.000000;0.698245
9358.000000;0.698157
9357.000000;0.697560
9356.000000;0.696672
9355.000000;0.696002
9354.000000;0.695860
9353.000000;0.696090
9352.000000;0.696295
9351.000000;0.696241
9350.000000;0.695976
9349.000000;0.695635
9348.000000;0.695234
9347.000000;0.694718
9346.000000;0.694118
9345.000000;0.693583
9344.000000;0.693249
9343.000000;0.693143
9342.000000;0.693178
9341.000000;0.693186
9340.000000;0.692944
9339.000000;0.692306
9338.000000;0.691385
9337.000000;0.690551
9336.000000;0.690150
9335.000000;0.690206
9334.000000;0.690416
9333.000000;0.690445
9332.000000;0.690179
9331.000000;0.689726
9330.000000;0.689245
9329.000000;0.688802
9328.000000;0.688377
9327.000000;0.687934
9326.000000;0.687463
9325.000000;0.686944
9324.000000;0.686333
9323.000000;0.685651
9322.000000;0.685050
9321.000000;0.684701
9320.000000;0.684589
9319.000000;0.684484
9318.000000;0.684165
9317.000000;0.683633
9316.000000;0.683068
9315.000000;0.682650
9314.000000;0.682502
9313.000000;0.682684
9312.000000;0.683089
9311.000000;0.683370
9310.000000;0.683183
9309.000000;0.682566
9308.000000;0.681953
9307.000000;0.681697
9306.000000;0.681671
9305.000000;0.681444
9304.000000;0.680778
9303.000000;0.679827
9302.000000;0.678887
9301.000000;0.678128
9300.000000;0.677576
9299.000000;0.677227
9298.000000;0.677056
9297.000000;0.677002
9296.000000;0.677009
9295.000000;0.677067
9294.000000;0.677142
9293.000000;0.677111
9292.000000;0.676844
9291.000000;0.676362
9290.000000;0.675833
9289.000000;0.675405
9288.000000;0.675079
9287.000000;0.674758
9286.000000;0.674376
9285.000000;0.673956
9284.000000;0.673583
9283.000000;0.673346
9282.000000;0.673282
9281.000000;0.673311
9280.000000;0.673252
9279.000000;0.672942
9278.000000;0.672370
9277.000000;0.671666
9276.000000;0.670992
9275.000000;0.670431
9274.000000;0.669989
9273.000000;0.669631
9272.000000;0.669307
9271.000000;0.668964
9270.000000;0.668562
9269.000000;0.668116
9268.000000;0.667699
9267.000000;0.667405
9266.000000;0.667272
9265.000000;0.667239
9264.000000;0.667189
9263.000000;0.667054
9262.000000;0.666852
9261.000000;0.666627
9260.000000;0.666356
9259.000000;0.665947
9258.000000;0.665352
9257.000000;0.664677
9256.000000;0.664150
9255.000000;0.663946
9254.000000;0.664006
9253.000000;0.664062
9252.000000;0.663899
9251.000000;0.663561
9250.000000;0.663216
9249.000000;0.662832
9248.000000;0.662164
9247.000000;0.661142
9246.000000;0.660135
9245.000000;0.659640
9244.000000;0.659737
9243.000000;0.660002
9242.000000;0.659978
9241.000000;0.659586
9240.000000;0.659076
9239.000000;0.658710
9238.000000;0.658581
9237.000000;0.658608
9236.000000;0.658613
9235.000000;0.658450
9234.000000;0.658147
9233.000000;0.657862
9232.000000;0.657671
9231.000000;0.657465
9230.000000;0.657110
9229.000000;0.656621
9228.000000;0.656097
9227.000000;0.655594
9226.000000;0.655158
9225.000000;0.654877
9224.000000;0.654777
9223.000000;0.654701
9222.000000;0.654438
9221.000000;0.653970
9220.000000;0.653477
9219.000000;0.653112
9218.000000;0.652873
9217.000000;0.652688
9216.000000;0.652508
9215.000000;0.652311
9214.000000;0.652096
9213.000000;0.651893
9212.000000;0.651689
9211.000000;0.651379
9210.000000;0.650882
9209.000000;0.650299
9208.000000;0.649831
9207.000000;0.649535
9206.000000;0.649277
9205.000000;0.648948
9204.000000;0.648593
9203.000000;0.648281
9202.000000;0.647960
9201.000000;0.647563
9200.000000;0.647151
9199.000000;0.646846
9198.000000;0.646672
9197.000000;0.646539
9196.000000;0.646362
9195.000000;0.646116
9194.000000;0.645807
9193.000000;0.645445
9192.000000;0.645038
9191.000000;0.644583
9190.000000;0.644094
9189.000000;0.643660
9188.000000;0.643405
9187.000000;0.643329
9186.000000;0.643238
9185.000000;0.642924
9184.000000;0.642393
9183.000000;0.641853
9182.000000;0.641479
9181.000000;0.641259
9180.000000;0.641052
9179.000000;0.640772
9178.000000;0.640463
9177.000000;0.640235
9176.000000;0.640113
9175.000000;0.639970
9174.000000;0.639635
9173.000000;0.639089
9172.000000;0.638520
9171.000000;0.638165
9170.000000;0.638107
9169.000000;0.638215
9168.000000;0.638253
9167.000000;0.638038
9166.000000;0.637558
9165.000000;0.636980
9164.000000;0.636514
9163.000000;0.636235
9162.000000;0.636056
9161.000000;0.635838
9160.000000;0.635475
9159.000000;0.634894
9158.000000;0.634098
9157.000000;0.633237
9156.000000;0.632555
9155.000000;0.632182
9154.000000;0.632037
9153.000000;0.631986
9152.000000;0.631994
9151.000000;0.632052
9150.000000;0.632058
9149.000000;0.631899
9148.000000;0.631600
9147.000000;0.631278
9146.000000;0.630983
9145.000000;0.630706
9144.000000;0.630503
9143.000000;0.630473
9142.000000;0.630588
9141.000000;0.630651
9140.000000;0.630465
9139.000000;0.629976
9138.000000;0.629266
9137.000000;0.628494
9136.000000;0.627866
9135.000000;0.627516
9134.000000;0.627383
9133.000000;0.627253
9132.000000;0.626977
9131.000000;0.626584
9130.000000;0.626173
9129.000000;0.625792
9128.000000;0.625466
9127.000000;0.625209
9126.000000;0.624965
9125.000000;0.624617
9124.000000;0.624165
9123.000000;0.623816
9122.000000;0.623768
9121.000000;0.623909
9120.000000;0.623871
9119.000000;0.623422
9118.000000;0.622719
9117.000000;0.622132
9116.000000;0.621871
9115.000000;0.621832
9114.000000;0.621784
9113.000000;0.621619
9112.000000;0.621402
9111.000000;0.621214
9110.000000;0.621016
9109.000000;0.620696
9108.000000;0.620203
9107.000000;0.619600
9106.000000;0.618971
9105.000000;0.618340
9104.000000;0.617719
9103.000000;0.617187
9102.000000;0.616869
9101.000000;0.616821
9100.000000;0.616961
9099.000000;0.617111
9098.000000;0.617117
9097.000000;0.616954
9096.000000;0.616734
9095.000000;0.616584
9094.000000;0.616498
9093.000000;0.616324
9092.000000;0.615948
9091.000000;0.615478
9090.000000;0.615159
9089.000000;0.615090
9088.000000;0.615078
9087.000000;0.614842
9086.000000;0.614341
9085.000000;0.613809
9084.000000;0.613475
9083.000000;0.613318
9082.000000;0.613162
9081.000000;0.612911
9080.000000;0.612601
9079.000000;0.612265
9078.000000;0.611858
9077.000000;0.611369
9076.000000;0.610892
9075.000000;0.610535
9074.000000;0.610291
9073.000000;0.610076
9072.000000;0.609839
9071.000000;0.609569
9070.000000;0.609236
9069.000000;0.608815
9068.000000;0.608360
9067.000000;0.607992
9066.000000;0.607774
9065.000000;0.607655
9064.000000;0.607553
9063.000000;0.607444
9062.000000;0.607345
9061.000000;0.607235
9060.000000;0.607023
9059.000000;0.606622
9058.000000;0.606056
9057.000000;0.605511
9056.000000;0.605217
9055.000000;0.605213
9054.000000;0.605248
9053.000000;0.605007
