Criado como novo conjunto de dados;"Jao_teste_celulas.spp","4322.7 Secs"
cm-1;Abs
10000.000000;0.880115
9999.000000;0.880172
9998.000000;0.880247
9997.000000;0.880285
9996.000000;0.880475
9995.000000;0.880646
9994.000000;0.880552
9993.000000;0.880278
9992.000000;0.879918
9991.000000;0.879580
9990.000000;0.879238
9989.000000;0.878744
9988.000000;0.877995
9987.000000;0.877153
9986.000000;0.876548
9985.000000;0.876328
9984.000000;0.876249
9983.000000;0.875907
9982.000000;0.875188
9981.000000;0.874406
9980.000000;0.873969
9979.000000;0.873927
9978.000000;0.873908
9977.000000;0.873525
9976.000000;0.872775
9975.000000;0.872001
9974.000000;0.871528
9973.000000;0.871411
9972.000000;0.871473
9971.000000;0.871448
9970.000000;0.871115
9969.000000;0.870430
9968.000000;0.869581
9967.000000;0.868820
9966.000000;0.868209
9965.000000;0.867634
9964.000000;0.867073
9963.000000;0.866718
9962.000000;0.866726
9961.000000;0.866986
9960.000000;0.867230
9959.000000;0.867313
9958.000000;0.867247
9957.000000;0.867040
9956.000000;0.866662
9955.000000;0.866159
9954.000000;0.865633
9953.000000;0.865087
9952.000000;0.864417
9951.000000;0.863621
9950.000000;0.862910
9949.000000;0.862525
9948.000000;0.862438
9947.000000;0.862313
9946.000000;0.861809
9945.000000;0.860932
9944.000000;0.860048
9943.000000;0.859516
9942.000000;0.859287
9941.000000;0.858937
9940.000000;0.858151
9939.000000;0.857102
9938.000000;0.856267
9937.000000;0.855930
9936.000000;0.855988
9935.000000;0.856202
9934.000000;0.856442
9933.000000;0.856644
9932.000000;0.856682
9931.000000;0.856444
9930.000000;0.855958
9929.000000;0.855350
9928.000000;0.854705
9927.000000;0.854079
9926.000000;0.853547
9925.000000;0.853115
9924.000000;0.852613
9923.000000;0.851865
9922.000000;0.851004
9921.000000;0.850429
9920.000000;0.850360
9919.000000;0.850544
9918.000000;0.850521
9917.000000;0.850121
9916.000000;0.849545
9915.000000;0.849001
9914.000000;0.848478
9913.000000;0.847923
9912.000000;0.847427
9911.000000;0.847080
9910.000000;0.846724
9909.000000;0.846059
9908.000000;0.845025
9907.000000;0.843924
9906.000000;0.843100
9905.000000;0.842587
9904.000000;0.842190
9903.000000;0.841818
9902.000000;0.841593
9901.000000;0.841612
9900.000000;0.841734
9899.000000;0.841723
9898.000000;0.841505
9897.000000;0.841208
9896.000000;0.840949
9895.000000;0.840706
9894.000000;0.840401
9893.000000;0.840024
9892.000000;0.839630
9891.000000;0.839277
9890.000000;0.839006
9889.000000;0.838826
9888.000000;0.838655
9887.000000;0.838334
9886.000000;0.837755
9885.000000;0.837003
9884.000000;0.836302
9883.000000;0.835857
9882.000000;0.835722
9881.000000;0.835771
9880.000000;0.835743
9879.000000;0.835376
9878.000000;0.834612
9877.000000;0.833664
9876.000000;0.832844
9875.000000;0.832302
9874.000000;0.831954
9873.000000;0.831635
9872.000000;0.831244
9871.000000;0.830785
9870.000000;0.830328
9869.000000;0.829928
9868.000000;0.829534
9867.000000;0.829007
9866.000000;0.828284
9865.000000;0.827513
9864.000000;0.826918
9863.000000;0.826579
9862.000000;0.826430
9861.000000;0.826432
9860.000000;0.826576
9859.000000;0.826731
9858.000000;0.826677
9857.000000;0.826389
9856.000000;0.826109
9855.000000;0.826024
9854.000000;0.825973
9853.000000;0.825625
9852.000000;0.824861
9851.000000;0.823851
9850.000000;0.822830
9849.000000;0.821950
9848.000000;0.821311
9847.000000;0.820945
9846.000000;0.820739
9845.000000;0.820493
9844.000000;0.820116
9843.000000;0.819692
9842.000000;0.819353
9841.000000;0.819169
9840.000000;0.819166
9839.000000;0.819311
9838.000000;0.819451
9837.000000;0.819362
9836.000000;0.818962
9835.000000;0.818412
9834.000000;0.817932
9833.000000;0.817544
9832.000000;0.817070
9831.000000;0.816355
9830.000000;0.815458
9829.000000;0.814605
9828.000000;0.813981
9827.000000;0.813564
9826.000000;0.813155
9825.000000;0.812600
9824.000000;0.811970
9823.000000;0.811459
9822.000000;0.811118
9821.000000;0.810794
9820.000000;0.810385
9819.000000;0.810058
9818.000000;0.810067
9817.000000;0.810406
9816.000000;0.810757
9815.000000;0.810817
9814.000000;0.810519
9813.000000;0.809905
9812.000000;0.808958
9811.000000;0.807726
9810.000000;0.806506
9809.000000;0.805686
9808.000000;0.805358
9807.000000;0.805250
9806.000000;0.805079
9805.000000;0.804833
9804.000000;0.804612
9803.000000;0.804369
9802.000000;0.803986
9801.000000;0.803513
9800.000000;0.803147
9799.000000;0.802967
9798.000000;0.802857
9797.000000;0.802698
9796.000000;0.802487
9795.000000;0.802245
9794.000000;0.801949
9793.000000;0.801611
9792.000000;0.801265
9791.000000;0.800833
9790.000000;0.800137
9789.000000;0.799168
9788.000000;0.798233
9787.000000;0.797671
9786.000000;0.797504
9785.000000;0.797459
9784.000000;0.797302
9783.000000;0.796998
9782.000000;0.796593
9781.000000;0.796119
9780.000000;0.795651
9779.000000;0.795329
9778.000000;0.795204
9777.000000;0.795109
9776.000000;0.794794
9775.000000;0.794201
9774.000000;0.793562
9773.000000;0.793168
9772.000000;0.793071
9771.000000;0.793027
9770.000000;0.792756
9769.000000;0.792207
9768.000000;0.791551
9767.000000;0.790942
9766.000000;0.790381
9765.000000;0.789814
9764.000000;0.789263
9763.000000;0.788803
9762.000000;0.788431
9761.000000;0.788030
9760.000000;0.787456
9759.000000;0.786701
9758.000000;0.785983
9757.000000;0.785623
9756.000000;0.785733
9755.000000;0.786026
9754.000000;0.786064
9753.000000;0.785695
9752.000000;0.785127
9751.000000;0.784572
9750.000000;0.783982
9749.000000;0.783215
9748.000000;0.782290
9747.000000;0.781366
9746.000000;0.780590
9745.000000;0.780099
9744.000000;0.779997
9743.000000;0.780167
9742.000000;0.780210
9741.000000;0.779830
9740.000000;0.779247
9739.000000;0.778982
9738.000000;0.779211
9737.000000;0.779547
9736.000000;0.779516
9735.000000;0.779050
9734.000000;0.778408
9733.000000;0.777788
9732.000000;0.777186
9731.000000;0.776568
9730.000000;0.775968
9729.000000;0.775423
9728.000000;0.774920
9727.000000;0.774468
9726.000000;0.774143
9725.000000;0.774019
9724.000000;0.774034
9723.000000;0.773975
9722.000000;0.773634
9721.000000;0.773001
9720.000000;0.772267
9719.000000;0.771634
9718.000000;0.771175
9717.000000;0.770849
9716.000000;0.770593
9715.000000;0.770322
9714.000000;0.769933
9713.000000;0.769412
9712.000000;0.768911
9711.000000;0.768609
9710.000000;0.768507
9709.000000;0.768423
9708.000000;0.768203
9707.000000;0.767862
9706.000000;0.767510
9705.000000;0.767227
9704.000000;0.766984
9703.000000;0.766663
9702.000000;0.766144
9701.000000;0.765454
9700.000000;0.764808
9699.000000;0.764398
9698.000000;0.764167
9697.000000;0.763852
9696.000000;0.763281
9695.000000;0.762534
9694.000000;0.761828
9693.000000;0.761332
9692.000000;0.761086
9691.000000;0.761009
9690.000000;0.760965
9689.000000;0.760878
9688.000000;0.760773
9687.000000;0.760650
9686.000000;0.760360
9685.000000;0.759767
9684.000000;0.758979
9683.000000;0.758277
9682.000000;0.757765
9681.000000;0.757272
9680.000000;0.756672
9679.000000;0.756122
9678.000000;0.755860
9677.000000;0.755880
9676.000000;0.755962
9675.000000;0.755930
9674.000000;0.755754
9673.000000;0.755453
9672.000000;0.755052
9671.000000;0.754641
9670.000000;0.754315
9669.000000;0.754036
9668.000000;0.753635
9667.000000;0.753031
9666.000000;0.752342
9665.000000;0.751744
9664.000000;0.751259
9663.000000;0.750765
9662.000000;0.750200
9661.000000;0.749666
9660.000000;0.749307
9659.000000;0.749140
9658.000000;0.749038
9657.000000;0.748867
9656.000000;0.748570
9655.000000;0.748152
9654.000000;0.747668
9653.000000;0.747252
9652.000000;0.747062
9651.000000;0.747093
9650.000000;0.747108
9649.000000;0.746842
9648.000000;0.746283
9647.000000;0.745672
9646.000000;0.745230
9645.000000;0.744959
9644.000000;0.744700
9643.000000;0.744288
9642.000000;0.743656
9641.000000;0.742877
9640.000000;0.742142
9639.000000;0.741599
9638.000000;0.741224
9637.000000;0.740898
9636.000000;0.740603
9635.000000;0.740410
9634.000000;0.740280
9633.000000;0.740032
9632.000000;0.739586
9631.000000;0.739089
9630.000000;0.738709
9629.000000;0.738406
9628.000000;0.738056
9627.000000;0.737689
9626.000000;0.737433
9625.000000;0.737263
9624.000000;0.737004
9623.000000;0.736590
9622.000000;0.736173
9621.000000;0.735867
9620.000000;0.735535
9619.000000;0.734963
9618.000000;0.734204
9617.000000;0.733597
9616.000000;0.733392
9615.000000;0.733459
9614.000000;0.733437
9613.000000;0.733119
9612.000000;0.732590
9611.000000;0.731997
9610.000000;0.731350
9609.000000;0.730636
9608.000000;0.730013
9607.000000;0.729712
9606.000000;0.729745
9605.000000;0.729838
9604.000000;0.729729
9603.000000;0.729414
9602.000000;0.729058
9601.000000;0.728749
9600.000000;0.728437
9599.000000;0.728050
9598.000000;0.727578
9597.000000;0.727066
9596.000000;0.726600
9595.000000;0.726276
9594.000000;0.726111
9593.000000;0.726009
9592.000000;0.725834
9591.000000;0.725516
9590.000000;0.725064
9589.000000;0.724523
9588.000000;0.723977
9587.000000;0.723522
9586.000000;0.723153
9585.000000;0.722707
9584.000000;0.722012
9583.000000;0.721130
9582.000000;0.720345
9581.000000;0.719868
9580.000000;0.719618
9579.000000;0.719346
9578.000000;0.718940
9577.000000;0.718552
9576.000000;0.718403
9575.000000;0.718508
9574.000000;0.718631
9573.000000;0.718507
9572.000000;0.718090
9571.000000;0.717551
9570.000000;0.717081
9569.000000;0.716744
9568.000000;0.716502
9567.000000;0.716283
9566.000000;0.715979
9565.000000;0.715497
9564.000000;0.714900
9563.000000;0.714454
9562.000000;0.714399
9561.000000;0.714636
9560.000000;0.714725
9559.000000;0.714290
9558.000000;0.713399
9557.000000;0.712488
9556.000000;0.711939
9555.000000;0.711758
9554.000000;0.711652
9553.000000;0.711336
9552.000000;0.710765
9551.000000;0.710112
9550.000000;0.709600
9549.000000;0.709359
9548.000000;0.709387
9547.000000;0.709567
9546.000000;0.709720
9545.000000;0.709662
9544.000000;0.709287
9543.000000;0.708630
9542.000000;0.707856
9541.000000;0.707136
9540.000000;0.706512
9539.000000;0.705894
9538.000000;0.705242
9537.000000;0.704702
9536.000000;0.704473
9535.000000;0.704506
9534.000000;0.704456
9533.000000;0.704014
9532.000000;0.703250
9531.000000;0.702524
9530.000000;0.702104
9529.000000;0.701984
9528.000000;0.702026
9527.000000;0.702116
9526.000000;0.702151
9525.000000;0.702007
9524.000000;0.701644
9523.000000;0.701159
9522.000000;0.700642
9521.000000;0.700056
9520.000000;0.699364
9519.000000;0.698731
9518.000000;0.698427
9517.000000;0.698505
9516.000000;0.698683
9515.000000;0.698619
9514.000000;0.698227
9513.000000;0.697655
9512.000000;0.697050
9511.000000;0.696430
9510.000000;0.695799
9509.000000;0.695234
9508.000000;0.694832
9507.000000;0.694607
9506.000000;0.694501
9505.000000;0.694443
9504.000000;0.694359
9503.000000;0.694154
9502.000000;0.693780
9501.000000;0.693311
9500.000000;0.692891
9499.000000;0.692599
9498.000000;0.692399
9497.000000;0.692226
9496.000000;0.692026
9495.000000;0.691712
9494.000000;0.691179
9493.000000;0.690439
9492.000000;0.689675
9491.000000;0.689104
9490.000000;0.688788
9489.000000;0.688615
9488.000000;0.688401
9487.000000;0.688008
9486.000000;0.687435
9485.000000;0.686884
9484.000000;0.686619
9483.000000;0.686675
9482.000000;0.686780
9481.000000;0.686675
9480.000000;0.686446
9479.000000;0.686367
9478.000000;0.686459
9477.000000;0.686420
9476.000000;0.686017
9475.000000;0.685368
9474.000000;0.684743
9473.000000;0.684260
9472.000000;0.683873
9471.000000;0.683527
9470.000000;0.683183
9469.000000;0.682787
9468.000000;0.682328
9467.000000;0.681893
9466.000000;0.681571
9465.000000;0.681321
9464.000000;0.681043
9463.000000;0.680722
9462.000000;0.680424
9461.000000;0.680184
9460.000000;0.679985
9459.000000;0.679800
9458.000000;0.679569
9457.000000;0.679178
9456.000000;0.678572
9455.000000;0.677893
9454.000000;0.677375
9453.000000;0.677092
9452.000000;0.676879
9451.000000;0.676567
9450.000000;0.676187
9449.000000;0.675897
9448.000000;0.675738
9447.000000;0.675556
9446.000000;0.675173
9445.000000;0.674594
9444.000000;0.674001
9443.000000;0.673556
9442.000000;0.673249
9441.000000;0.672968
9440.000000;0.672653
9439.000000;0.672339
9438.000000;0.672064
9437.000000;0.671814
9436.000000;0.671584
9435.000000;0.671372
9434.000000;0.671109
9433.000000;0.670666
9432.000000;0.670013
9431.000000;0.669293
9430.000000;0.668691
9429.000000;0.668282
9428.000000;0.668060
9427.000000;0.668023
9426.000000;0.668101
9425.000000;0.668092
9424.000000;0.667827
9423.000000;0.667407
9422.000000;0.667117
9421.000000;0.667074
9420.000000;0.667078
9419.000000;0.666847
9418.000000;0.666299
9417.000000;0.665541
9416.000000;0.664719
9415.000000;0.663976
9414.000000;0.663476
9413.000000;0.663319
9412.000000;0.663422
9411.000000;0.663590
9410.000000;0.663696
9409.000000;0.663744
9408.000000;0.663719
9407.000000;0.663490
9406.000000;0.662959
9405.000000;0.662234
9404.000000;0.661596
9403.000000;0.661243
9402.000000;0.661148
9401.000000;0.661125
9400.000000;0.660999
9399.000000;0.660687
9398.000000;0.660212
9397.000000;0.659684
9396.000000;0.659214
9395.000000;0.658796
9394.000000;0.658291
9393.000000;0.657621
9392.000000;0.656936
9391.000000;0.656495
9390.000000;0.656399
9389.000000;0.656501
9388.000000;0.656598
9387.000000;0.656615
9386.000000;0.656571
9385.000000;0.656459
9384.000000;0.656223
9383.000000;0.655836
9382.000000;0.655353
9381.000000;0.654903
9380.000000;0.654613
9379.000000;0.654462
9378.000000;0.654224
9377.000000;0.653650
9376.000000;0.652760
9375.000000;0.651880
9374.000000;0.651359
9373.000000;0.651282
9372.000000;0.651465
9371.000000;0.651638
9370.000000;0.651564
9369.000000;0.651143
9368.000000;0.650495
9367.000000;0.649911
9366.000000;0.649595
9365.000000;0.649475
9364.000000;0.649334
9363.000000;0.649055
9362.000000;0.648689
9361.000000;0.648339
9360.000000;0.648062
9359.000000;0.647846
9358.000000;0.647578
9357.000000;0.647093
9356.000000;0.646380
9355.000000;0.645675
9354.000000;0.645223
9353.000000;0.644983
9352.000000;0.644731
9351.000000;0.644422
9350.000000;0.644253
9349.000000;0.644337
9348.000000;0.644493
9347.000000;0.644465
9346.000000;0.644207
9345.000000;0.643841
9344.000000;0.643435
9343.000000;0.642948
9342.000000;0.642368
9341.000000;0.641805
9340.000000;0.641411
9339.000000;0.641256
9338.000000;0.641242
9337.000000;0.641160
9336.000000;0.640867
9335.000000;0.640431
9334.000000;0.640034
9333.000000;0.639744
9332.000000;0.639483
9331.000000;0.639209
9330.000000;0.638994
9329.000000;0.638847
9328.000000;0.638606
9327.000000;0.638153
9326.000000;0.637629
9325.000000;0.637270
9324.000000;0.637074
9323.000000;0.636807
9322.000000;0.636331
9321.000000;0.635784
9320.000000;0.635365
9319.000000;0.635096
9318.000000;0.634857
9317.000000;0.634585
9316.000000;0.634301
9315.000000;0.633996
9314.000000;0.633585
9313.000000;0.633031
9312.000000;0.632451
9311.000000;0.632052
9310.000000;0.631951
9309.000000;0.632079
9308.000000;0.632257
9307.000000;0.632358
9306.000000;0.632352
9305.000000;0.632222
9304.000000;0.631911
9303.000000;0.631402
9302.000000;0.630799
9301.000000;0.630246
9300.000000;0.629796
9299.000000;0.629413
9298.000000;0.629088
9297.000000;0.628858
9296.000000;0.628694
9295.000000;0.628462
9294.000000;0.628052
9293.000000;0.627503
9292.000000;0.626933
9291.000000;0.626410
9290.000000;0.625937
9289.000000;0.625549
9288.000000;0.625305
9287.000000;0.625196
9286.000000;0.625121
9285.000000;0.625006
9284.000000;0.624879
9283.000000;0.624794
9282.000000;0.624725
9281.000000;0.624591
9280.000000;0.624345
9279.000000;0.623988
9278.000000;0.623514
9277.000000;0.622939
9276.000000;0.622371
9275.000000;0.621979
9274.000000;0.621801
9273.000000;0.621650
9272.000000;0.621272
9271.000000;0.620631
9270.000000;0.619982
9269.000000;0.619618
9268.000000;0.619589
9267.000000;0.619688
9266.000000;0.619689
9265.000000;0.619559
9264.000000;0.619404
9263.000000;0.619282
9262.000000;0.619139
9261.000000;0.618924
9260.000000;0.618674
9259.000000;0.618439
9258.000000;0.618165
9257.000000;0.617741
9256.000000;0.617151
9255.000000;0.616521
9254.000000;0.615989
9253.000000;0.615571
9252.000000;0.615158
9251.000000;0.614626
9250.000000;0.613930
9249.000000;0.613156
9248.000000;0.612514
9247.000000;0.612228
9246.000000;0.612377
9245.000000;0.612825
9244.000000;0.613324
9243.000000;0.613676
9242.000000;0.613800
9241.000000;0.613708
9240.000000;0.613447
9239.000000;0.613060
9238.000000;0.612561
9237.000000;0.611940
9236.000000;0.611222
9235.000000;0.610507
9234.000000;0.609908
9233.000000;0.609466
9232.000000;0.609146
9231.000000;0.608907
9230.000000;0.608757
9229.000000;0.608735
9228.000000;0.608833
9227.000000;0.608951
9226.000000;0.608945
9225.000000;0.608763
9224.000000;0.608530
9223.000000;0.608440
9222.000000;0.608525
9221.000000;0.608568
9220.000000;0.608294
9219.000000;0.607641
9218.000000;0.606809
9217.000000;0.606066
9216.000000;0.605521
9215.000000;0.605058
9214.000000;0.604445
9213.000000;0.603565
9212.000000;0.602576
9211.000000;0.601818
9210.000000;0.601518
9209.000000;0.601596
9208.000000;0.601800
9207.000000;0.601975
9206.000000;0.602162
9205.000000;0.602464
9204.000000;0.602888
9203.000000;0.603313
9202.000000;0.603534
9201.000000;0.603381
9200.000000;0.602850
9199.000000;0.602120
9198.000000;0.601343
9197.000000;0.600465
9196.000000;0.599334
9195.000000;0.597979
9194.000000;0.596647
9193.000000;0.595589
9192.000000;0.594928
9191.000000;0.594761
9190.000000;0.595205
9189.000000;0.596224
9188.000000;0.597506
9187.000000;0.598634
9186.000000;0.599368
9185.000000;0.599701
9184.000000;0.599700
9183.000000;0.599381
9182.000000;0.598725
9181.000000;0.597725
9180.000000;0.596447
9179.000000;0.595089
9178.000000;0.593934
9177.000000;0.593149
9176.000000;0.592634
9175.000000;0.592165
9174.000000;0.591660
9173.000000;0.591253
9172.000000;0.591127
9171.000000;0.591361
9170.000000;0.591921
9169.000000;0.592681
9168.000000;0.593413
9167.000000;0.593853
9166.000000;0.593879
9165.000000;0.593590
9164.000000;0.593175
9163.000000;0.592743
9162.000000;0.592283
9161.000000;0.591748
9160.000000;0.591089
9159.000000;0.590246
9158.000000;0.589195
9157.000000;0.588027
9156.000000;0.586957
9155.000000;0.586195
9154.000000;0.585814
9153.000000;0.585732
9152.000000;0.585818
9151.000000;0.586024
9150.000000;0.586399
9149.000000;0.586988
9148.000000;0.587709
9147.000000;0.588353
9146.000000;0.588709
9145.000000;0.588699
9144.000000;0.588385
9143.000000;0.587852
9142.000000;0.587110
9141.000000;0.586137
9140.000000;0.584972
9139.000000;0.583745
9138.000000;0.582609
9137.000000;0.581681
9136.000000;0.581038
9135.000000;0.580702
9134.000000;0.580597
9133.000000;0.580584
9132.000000;0.580607
9131.000000;0.580781
9130.000000;0.581246
9129.000000;0.581936
9128.000000;0.582575
9127.000000;0.582927
9126.000000;0.582983
9125.000000;0.582872
9124.000000;0.582671
9123.000000;0.582350
9122.000000;0.581838
9121.000000;0.581075
9120.000000;0.580050
9119.000000;0.578880
9118.000000;0.577803
9117.000000;0.577029
9116.000000;0.576582
9115.000000;0.576348
9114.000000;0.576274
9113.000000;0.576422
9112.000000;0.576825
9111.000000;0.577362
9110.000000;0.577833
9109.000000;0.578101
9108.000000;0.578136
9107.000000;0.577965
9106.000000;0.577637
9105.000000;0.577213
9104.000000;0.576755
9103.000000;0.576295
9102.000000;0.575829
9101.000000;0.575321
9100.000000;0.574726
9099.000000;0.574037
9098.000000;0.573348
9097.000000;0.572844
9096.000000;0.572646
9095.000000;0.572670
9094.000000;0.572666
9093.000000;0.572459
9092.000000;0.572141
9091.000000;0.571965
9090.000000;0.572058
9089.000000;0.572268
9088.000000;0.572345
9087.000000;0.572223
9086.000000;0.572046
9085.000000;0.571934
9084.000000;0.571795
9083.000000;0.571425
9082.000000;0.570734
9081.000000;0.569838
9080.000000;0.568936
9079.000000;0.568172
9078.000000;0.567601
9077.000000;0.567226
9076.000000;0.567033
9075.000000;0.566974
9074.000000;0.566946
9073.000000;0.566832
9072.000000;0.566593
9071.000000;0.566323
9070.000000;0.566166
9069.000000;0.566161
9068.000000;0.566218
9067.000000;0.566247
9066.000000;0.566228
9065.000000;0.566129
9064.000000;0.565842
9063.000000;0.565308
9062.000000;0.564649
9061.000000;0.564090
9060.000000;0.563734
9059.000000;0.563498
9058.000000;0.563242
9057.000000;0.562886
9056.000000;0.562423
9055.000000;0.561920
9054.000000;0.561535
9053.000000;0.561428
