Criado como novo conjunto de dados;"Jao_teste_celulas.spp","1081.9 Secs"
cm-1;Abs
10000.000000;0.842895
9999.000000;0.842951
9998.000000;0.843127
9997.000000;0.842912
9996.000000;0.842117
9995.000000;0.841186
9994.000000;0.840633
9993.000000;0.840612
9992.000000;0.840854
9991.000000;0.841030
9990.000000;0.840926
9989.000000;0.840473
9988.000000;0.839782
9987.000000;0.839119
9986.000000;0.838682
9985.000000;0.838392
9984.000000;0.837961
9983.000000;0.837178
9982.000000;0.836084
9981.000000;0.834947
9980.000000;0.834121
9979.000000;0.833796
9978.000000;0.833801
9977.000000;0.833712
9976.000000;0.833270
9975.000000;0.832592
9974.000000;0.831910
9973.000000;0.831269
9972.000000;0.830628
9971.000000;0.830088
9970.000000;0.829765
9969.000000;0.829490
9968.000000;0.828920
9967.000000;0.827971
9966.000000;0.826960
9965.000000;0.826239
9964.000000;0.825879
9963.000000;0.825760
9962.000000;0.825797
9961.000000;0.825909
9960.000000;0.825917
9959.000000;0.825666
9958.000000;0.825242
9957.000000;0.824902
9956.000000;0.824762
9955.000000;0.824606
9954.000000;0.824077
9953.000000;0.823062
9952.000000;0.821848
9951.000000;0.820881
9950.000000;0.820393
9949.000000;0.820271
9948.000000;0.820235
9947.000000;0.820065
9946.000000;0.819678
9945.000000;0.819120
9944.000000;0.818542
9943.000000;0.818115
9942.000000;0.817883
9941.000000;0.817702
9940.000000;0.817369
9939.000000;0.816787
9938.000000;0.816043
9937.000000;0.815369
9936.000000;0.815028
9935.000000;0.815085
9934.000000;0.815253
9933.000000;0.815084
9932.000000;0.814416
9931.000000;0.813556
9930.000000;0.812927
9929.000000;0.812601
9928.000000;0.812271
9927.000000;0.811631
9926.000000;0.810706
9925.000000;0.809811
9924.000000;0.809206
9923.000000;0.808759
9922.000000;0.808025
9921.000000;0.806792
9920.000000;0.805505
9919.000000;0.804887
9918.000000;0.805099
9917.000000;0.805527
9916.000000;0.805536
9915.000000;0.805161
9914.000000;0.804815
9913.000000;0.804579
9912.000000;0.804130
9911.000000;0.803275
9910.000000;0.802197
9909.000000;0.801196
9908.000000;0.800480
9907.000000;0.800178
9906.000000;0.800264
9905.000000;0.800420
9904.000000;0.800246
9903.000000;0.799684
9902.000000;0.799013
9901.000000;0.798421
9900.000000;0.797865
9899.000000;0.797381
9898.000000;0.797208
9897.000000;0.797450
9896.000000;0.797831
9895.000000;0.797958
9894.000000;0.797655
9893.000000;0.796941
9892.000000;0.795902
9891.000000;0.794763
9890.000000;0.793879
9889.000000;0.793427
9888.000000;0.793189
9887.000000;0.792828
9886.000000;0.792290
9885.000000;0.791778
9884.000000;0.791413
9883.000000;0.791110
9882.000000;0.790742
9881.000000;0.790262
9880.000000;0.789665
9879.000000;0.788967
9878.000000;0.788179
9877.000000;0.787271
9876.000000;0.786219
9875.000000;0.785176
9874.000000;0.784491
9873.000000;0.784401
9872.000000;0.784757
9871.000000;0.785150
9870.000000;0.785275
9869.000000;0.785073
9868.000000;0.784622
9867.000000;0.784037
9866.000000;0.783440
9865.000000;0.782876
9864.000000;0.782268
9863.000000;0.781591
9862.000000;0.781024
9861.000000;0.780772
9860.000000;0.780774
9859.000000;0.780723
9858.000000;0.780395
9857.000000;0.779795
9856.000000;0.779007
9855.000000;0.778097
9854.000000;0.777182
9853.000000;0.776435
9852.000000;0.775929
9851.000000;0.775596
9850.000000;0.775388
9849.000000;0.775332
9848.000000;0.775384
9847.000000;0.775389
9846.000000;0.775243
9845.000000;0.774969
9844.000000;0.774537
9843.000000;0.773790
9842.000000;0.772685
9841.000000;0.771499
9840.000000;0.770618
9839.000000;0.770178
9838.000000;0.770023
9837.000000;0.769920
9836.000000;0.769697
9835.000000;0.769243
9834.000000;0.768589
9833.000000;0.767966
9832.000000;0.767600
9831.000000;0.767425
9830.000000;0.767157
9829.000000;0.766658
9828.000000;0.766051
9827.000000;0.765468
9826.000000;0.764887
9825.000000;0.764284
9824.000000;0.763774
9823.000000;0.763447
9822.000000;0.763192
9821.000000;0.762829
9820.000000;0.762329
9819.000000;0.761779
9818.000000;0.761204
9817.000000;0.760589
9816.000000;0.760004
9815.000000;0.759560
9814.000000;0.759248
9813.000000;0.758949
9812.000000;0.758587
9811.000000;0.758158
9810.000000;0.757668
9809.000000;0.757178
9808.000000;0.756856
9807.000000;0.756773
9806.000000;0.756691
9805.000000;0.756257
9804.000000;0.755474
9803.000000;0.754747
9802.000000;0.754395
9801.000000;0.754294
9800.000000;0.754111
9799.000000;0.753677
9798.000000;0.753006
9797.000000;0.752164
9796.000000;0.751329
9795.000000;0.750803
9794.000000;0.750673
9793.000000;0.750553
9792.000000;0.749964
9791.000000;0.748961
9790.000000;0.748112
9789.000000;0.747808
9788.000000;0.747853
9787.000000;0.747806
9786.000000;0.747479
9785.000000;0.746964
9784.000000;0.746414
9783.000000;0.745986
9782.000000;0.745849
9781.000000;0.745977
9780.000000;0.746000
9779.000000;0.745490
9778.000000;0.744469
9777.000000;0.743467
9776.000000;0.742964
9775.000000;0.742901
9774.000000;0.742798
9773.000000;0.742292
9772.000000;0.741470
9771.000000;0.740693
9770.000000;0.740201
9769.000000;0.739948
9768.000000;0.739746
9767.000000;0.739468
9766.000000;0.739083
9765.000000;0.738564
9764.000000;0.737902
9763.000000;0.737188
9762.000000;0.736584
9761.000000;0.736145
9760.000000;0.735753
9759.000000;0.735279
9758.000000;0.734789
9757.000000;0.734480
9756.000000;0.734416
9755.000000;0.734399
9754.000000;0.734139
9753.000000;0.733536
9752.000000;0.732786
9751.000000;0.732218
9750.000000;0.732020
9749.000000;0.732063
9748.000000;0.731975
9747.000000;0.731432
9746.000000;0.730404
9745.000000;0.729159
9744.000000;0.728033
9743.000000;0.727211
9742.000000;0.726701
9741.000000;0.726406
9740.000000;0.726204
9739.000000;0.726020
9738.000000;0.725880
9737.000000;0.725850
9736.000000;0.725848
9735.000000;0.725581
9734.000000;0.724830
9733.000000;0.723788
9732.000000;0.722964
9731.000000;0.722649
9730.000000;0.722609
9729.000000;0.722422
9728.000000;0.722011
9727.000000;0.721658
9726.000000;0.721524
9725.000000;0.721419
9724.000000;0.721103
9723.000000;0.720600
9722.000000;0.720097
9721.000000;0.719683
9720.000000;0.719344
9719.000000;0.719096
9718.000000;0.718936
9717.000000;0.718732
9716.000000;0.718317
9715.000000;0.717693
9714.000000;0.716992
9713.000000;0.716261
9712.000000;0.715448
9711.000000;0.714599
9710.000000;0.713905
9709.000000;0.713472
9708.000000;0.713195
9707.000000;0.712912
9706.000000;0.712582
9705.000000;0.712224
9704.000000;0.711802
9703.000000;0.711289
9702.000000;0.710764
9701.000000;0.710339
9700.000000;0.710022
9699.000000;0.709732
9698.000000;0.709429
9697.000000;0.709128
9696.000000;0.708806
9695.000000;0.708364
9694.000000;0.707717
9693.000000;0.706890
9692.000000;0.706049
9691.000000;0.705444
9690.000000;0.705225
9689.000000;0.705257
9688.000000;0.705163
9687.000000;0.704683
9686.000000;0.703988
9685.000000;0.703499
9684.000000;0.703387
9683.000000;0.703355
9682.000000;0.702987
9681.000000;0.702212
9680.000000;0.701356
9679.000000;0.700758
9678.000000;0.700459
9677.000000;0.700245
9676.000000;0.699899
9675.000000;0.699375
9674.000000;0.698814
9673.000000;0.698414
9672.000000;0.698266
9671.000000;0.698243
9670.000000;0.698080
9669.000000;0.697572
9668.000000;0.696749
9667.000000;0.695841
9666.000000;0.695094
9665.000000;0.694609
9664.000000;0.694312
9663.000000;0.694064
9662.000000;0.693801
9661.000000;0.693578
9660.000000;0.693429
9659.000000;0.693208
9658.000000;0.692669
9657.000000;0.691767
9656.000000;0.690808
9655.000000;0.690190
9654.000000;0.689984
9653.000000;0.689873
9652.000000;0.689507
9651.000000;0.688831
9650.000000;0.688063
9649.000000;0.687452
9648.000000;0.687114
9647.000000;0.687006
9646.000000;0.686961
9645.000000;0.686813
9644.000000;0.686547
9643.000000;0.686300
9642.000000;0.686153
9641.000000;0.685992
9640.000000;0.685652
9639.000000;0.685121
9638.000000;0.684499
9637.000000;0.683815
9636.000000;0.683035
9635.000000;0.682254
9634.000000;0.681674
9633.000000;0.681337
9632.000000;0.681002
9631.000000;0.680407
9630.000000;0.679592
9629.000000;0.678849
9628.000000;0.678394
9627.000000;0.678197
9626.000000;0.678100
9625.000000;0.678000
9624.000000;0.677870
9623.000000;0.677659
9622.000000;0.677271
9621.000000;0.676672
9620.000000;0.675985
9619.000000;0.675438
9618.000000;0.675167
9617.000000;0.675093
9616.000000;0.675027
9615.000000;0.674854
9614.000000;0.674563
9613.000000;0.674136
9612.000000;0.673527
9611.000000;0.672811
9610.000000;0.672229
9609.000000;0.671955
9608.000000;0.671880
9607.000000;0.671715
9606.000000;0.671321
9605.000000;0.670796
9604.000000;0.670261
9603.000000;0.669696
9602.000000;0.669073
9601.000000;0.668543
9600.000000;0.668297
9599.000000;0.668266
9598.000000;0.668099
9597.000000;0.667506
9596.000000;0.666564
9595.000000;0.665602
9594.000000;0.664850
9593.000000;0.664298
9592.000000;0.663857
9591.000000;0.663532
9590.000000;0.663353
9589.000000;0.663221
9588.000000;0.662954
9587.000000;0.662475
9586.000000;0.661906
9585.000000;0.661427
9584.000000;0.661082
9583.000000;0.660773
9582.000000;0.660419
9581.000000;0.660077
9580.000000;0.659854
9579.000000;0.659734
9578.000000;0.659550
9577.000000;0.659166
9576.000000;0.658646
9575.000000;0.658172
9574.000000;0.657802
9573.000000;0.657411
9572.000000;0.656901
9571.000000;0.656366
9570.000000;0.655945
9569.000000;0.655578
9568.000000;0.655055
9567.000000;0.654321
9566.000000;0.653610
9565.000000;0.653204
9564.000000;0.653134
9563.000000;0.653186
9562.000000;0.653124
9561.000000;0.652836
9560.000000;0.652310
9559.000000;0.651607
9558.000000;0.650895
9557.000000;0.650385
9556.000000;0.650149
9555.000000;0.650005
9554.000000;0.649643
9553.000000;0.648903
9552.000000;0.647939
9551.000000;0.647111
9550.000000;0.646710
9549.000000;0.646732
9548.000000;0.646890
9547.000000;0.646848
9546.000000;0.646495
9545.000000;0.645979
9544.000000;0.645498
9543.000000;0.645102
9542.000000;0.644742
9541.000000;0.644422
9540.000000;0.644200
9539.000000;0.644005
9538.000000;0.643605
9537.000000;0.642849
9536.000000;0.641910
9535.000000;0.641160
9534.000000;0.640802
9533.000000;0.640702
9532.000000;0.640573
9531.000000;0.640262
9530.000000;0.639819
9529.000000;0.639346
9528.000000;0.638864
9527.000000;0.638324
9526.000000;0.637711
9525.000000;0.637113
9524.000000;0.636659
9523.000000;0.636368
9522.000000;0.636096
9521.000000;0.635671
9520.000000;0.635091
9519.000000;0.634535
9518.000000;0.634176
9517.000000;0.634033
9516.000000;0.633998
9515.000000;0.633937
9514.000000;0.633742
9513.000000;0.633350
9512.000000;0.632792
9511.000000;0.632177
9510.000000;0.631596
9509.000000;0.631072
9508.000000;0.630632
9507.000000;0.630344
9506.000000;0.630198
9505.000000;0.630001
9504.000000;0.629522
9503.000000;0.628749
9502.000000;0.627925
9501.000000;0.627305
9500.000000;0.626949
9499.000000;0.626769
9498.000000;0.626679
9497.000000;0.626625
9496.000000;0.626509
9495.000000;0.626219
9494.000000;0.625743
9493.000000;0.625196
9492.000000;0.624693
9491.000000;0.624251
9490.000000;0.623849
9489.000000;0.623526
9488.000000;0.623326
9487.000000;0.623170
9486.000000;0.622878
9485.000000;0.622391
9484.000000;0.621879
9483.000000;0.621547
9482.000000;0.621390
9481.000000;0.621226
9480.000000;0.620940
9479.000000;0.620566
9478.000000;0.620127
9477.000000;0.619567
9476.000000;0.618900
9475.000000;0.618313
9474.000000;0.618019
9473.000000;0.618018
9472.000000;0.618101
9471.000000;0.618031
9470.000000;0.617691
9469.000000;0.617112
9468.000000;0.616439
9467.000000;0.615852
9466.000000;0.615437
9465.000000;0.615127
9464.000000;0.614784
9463.000000;0.614338
9462.000000;0.613804
9461.000000;0.613222
9460.000000;0.612639
9459.000000;0.612102
9458.000000;0.611628
9457.000000;0.611192
9456.000000;0.610785
9455.000000;0.610435
9454.000000;0.610132
9453.000000;0.609792
9452.000000;0.609341
9451.000000;0.608802
9450.000000;0.608274
9449.000000;0.607858
9448.000000;0.607636
9447.000000;0.607582
9446.000000;0.607459
9445.000000;0.606959
9444.000000;0.606082
9443.000000;0.605253
9442.000000;0.604880
9441.000000;0.604854
9440.000000;0.604689
9439.000000;0.604123
9438.000000;0.603391
9437.000000;0.602887
9436.000000;0.602750
9435.000000;0.602831
9434.000000;0.602898
9433.000000;0.602771
9432.000000;0.602403
9431.000000;0.601932
9430.000000;0.601565
9429.000000;0.601337
9428.000000;0.601040
9427.000000;0.600473
9426.000000;0.599660
9425.000000;0.598803
9424.000000;0.598083
9423.000000;0.597582
9422.000000;0.597309
9421.000000;0.597219
9420.000000;0.597240
9419.000000;0.597333
9418.000000;0.597445
9417.000000;0.597426
9416.000000;0.597099
9415.000000;0.596473
9414.000000;0.595777
9413.000000;0.595213
9412.000000;0.594774
9411.000000;0.594364
9410.000000;0.593966
9409.000000;0.593594
9408.000000;0.593194
9407.000000;0.592748
9406.000000;0.592378
9405.000000;0.592193
9404.000000;0.592074
9403.000000;0.591783
9402.000000;0.591257
9401.000000;0.590667
9400.000000;0.590182
9399.000000;0.589841
9398.000000;0.589628
9397.000000;0.589528
9396.000000;0.589438
9395.000000;0.589178
9394.000000;0.588682
9393.000000;0.588089
9392.000000;0.587579
9391.000000;0.587207
9390.000000;0.586942
9389.000000;0.586777
9388.000000;0.586688
9387.000000;0.586531
9386.000000;0.586116
9385.000000;0.585425
9384.000000;0.584675
9383.000000;0.584123
9382.000000;0.583827
9381.000000;0.583622
9380.000000;0.583298
9379.000000;0.582779
9378.000000;0.582130
9377.000000;0.581463
9376.000000;0.580869
9375.000000;0.580398
9374.000000;0.580060
9373.000000;0.579791
9372.000000;0.579485
9371.000000;0.579093
9370.000000;0.578662
9369.000000;0.578264
9368.000000;0.577911
9367.000000;0.577573
9366.000000;0.577253
9365.000000;0.576986
9364.000000;0.576749
9363.000000;0.576432
9362.000000;0.575951
9361.000000;0.575360
9360.000000;0.574822
9359.000000;0.574462
9358.000000;0.574253
9357.000000;0.574061
9356.000000;0.573797
9355.000000;0.573496
9354.000000;0.573233
9353.000000;0.572988
9352.000000;0.572639
9351.000000;0.572099
9350.000000;0.571443
9349.000000;0.570872
9348.000000;0.570556
9347.000000;0.570488
9346.000000;0.570476
9345.000000;0.570270
9344.000000;0.569777
9343.000000;0.569146
9342.000000;0.568619
9341.000000;0.568296
9340.000000;0.568080
9339.000000;0.567855
9338.000000;0.567619
9337.000000;0.567408
9336.000000;0.567171
9335.000000;0.566825
9334.000000;0.566388
9333.000000;0.565979
9332.000000;0.565682
9331.000000;0.565474
9330.000000;0.565271
9329.000000;0.565000
9328.000000;0.564617
9327.000000;0.564115
9326.000000;0.563535
9325.000000;0.562941
9324.000000;0.562360
9323.000000;0.561795
9322.000000;0.561280
9321.000000;0.560897
9320.000000;0.560693
9319.000000;0.560605
9318.000000;0.560508
9317.000000;0.560320
9316.000000;0.560059
9315.000000;0.559771
9314.000000;0.559448
9313.000000;0.559039
9312.000000;0.558536
9311.000000;0.558013
9310.000000;0.557527
9309.000000;0.557060
9308.000000;0.556609
9307.000000;0.556306
9306.000000;0.556311
9305.000000;0.556541
9304.000000;0.556633
9303.000000;0.556292
9302.000000;0.555630
9301.000000;0.555033
9300.000000;0.554730
9299.000000;0.554602
9298.000000;0.554406
9297.000000;0.554060
9296.000000;0.553646
9295.000000;0.553229
9294.000000;0.552780
9293.000000;0.552250
9292.000000;0.551659
9291.000000;0.551099
9290.000000;0.550665
9289.000000;0.550400
9288.000000;0.550271
9287.000000;0.550189
9286.000000;0.550059
9285.000000;0.549824
9284.000000;0.549493
9283.000000;0.549142
9282.000000;0.548854
9281.000000;0.548631
9280.000000;0.548363
9279.000000;0.547935
9278.000000;0.547349
9277.000000;0.546740
9276.000000;0.546246
9275.000000;0.545887
9274.000000;0.545560
9273.000000;0.545126
9272.000000;0.544520
9271.000000;0.543815
9270.000000;0.543191
9269.000000;0.542818
9268.000000;0.542735
9267.000000;0.542832
9266.000000;0.542919
9265.000000;0.542834
9264.000000;0.542522
9263.000000;0.542076
9262.000000;0.541668
9261.000000;0.541394
9260.000000;0.541179
9259.000000;0.540877
9258.000000;0.540446
9257.000000;0.539974
9256.000000;0.539532
9255.000000;0.539071
9254.000000;0.538531
9253.000000;0.537986
9252.000000;0.537620
9251.000000;0.537531
9250.000000;0.537592
9249.000000;0.537541
9248.000000;0.537200
9247.000000;0.536604
9246.000000;0.535932
9245.000000;0.535348
9244.000000;0.534920
9243.000000;0.534638
9242.000000;0.534439
9241.000000;0.534241
9240.000000;0.533991
9239.000000;0.533730
9238.000000;0.533542
9237.000000;0.533428
9236.000000;0.533277
9235.000000;0.533004
9234.000000;0.532660
9233.000000;0.532369
9232.000000;0.532174
9231.000000;0.532003
9230.000000;0.531736
9229.000000;0.531275
9228.000000;0.530593
9227.000000;0.529804
9226.000000;0.529136
9225.000000;0.528747
9224.000000;0.528576
9223.000000;0.528415
9222.000000;0.528146
9221.000000;0.527827
9220.000000;0.527572
9219.000000;0.527407
9218.000000;0.527261
9217.000000;0.527030
9216.000000;0.526646
9215.000000;0.526141
9214.000000;0.525656
9213.000000;0.525318
9212.000000;0.525099
9211.000000;0.524864
9210.000000;0.524553
9209.000000;0.524230
9208.000000;0.523938
9207.000000;0.523619
9206.000000;0.523221
9205.000000;0.522781
9204.000000;0.522339
9203.000000;0.521858
9202.000000;0.521326
9201.000000;0.520888
9200.000000;0.520730
9199.000000;0.520821
9198.000000;0.520872
9197.000000;0.520602
9196.000000;0.520038
9195.000000;0.519483
9194.000000;0.519197
9193.000000;0.519137
9192.000000;0.519026
9191.000000;0.518675
9190.000000;0.518181
9189.000000;0.517776
9188.000000;0.517542
9187.000000;0.517358
9186.000000;0.517093
9185.000000;0.516726
9184.000000;0.516277
9183.000000;0.515738
9182.000000;0.515173
9181.000000;0.514748
9180.000000;0.514561
9179.000000;0.514491
9178.000000;0.514333
9177.000000;0.514029
9176.000000;0.513665
9175.000000;0.513285
9174.000000;0.512851
9173.000000;0.512399
9172.000000;0.512067
9171.000000;0.511899
9170.000000;0.511732
9169.000000;0.511373
9168.000000;0.510849
9167.000000;0.510361
9166.000000;0.510027
9165.000000;0.509766
9164.000000;0.509450
9163.000000;0.509097
9162.000000;0.508841
9161.000000;0.508726
9160.000000;0.508612
9159.000000;0.508313
9158.000000;0.507793
9157.000000;0.507196
9156.000000;0.506694
9155.000000;0.506370
9154.000000;0.506230
9153.000000;0.506235
9152.000000;0.506294
9151.000000;0.506272
9150.000000;0.506080
9149.000000;0.505737
9148.000000;0.505301
9147.000000;0.504776
9146.000000;0.504167
9145.000000;0.503574
9144.000000;0.503150
9143.000000;0.502915
9142.000000;0.502718
9141.000000;0.502417
9140.000000;0.502055
9139.000000;0.501777
9138.000000;0.501609
9137.000000;0.501392
9136.000000;0.500953
9135.000000;0.500319
9134.000000;0.499702
9133.000000;0.499294
9132.000000;0.499111
9131.000000;0.499054
9130.000000;0.499044
9129.000000;0.499036
9128.000000;0.498940
9127.000000;0.498643
9126.000000;0.498164
9125.000000;0.497694
9124.000000;0.497403
9123.000000;0.497245
9122.000000;0.497028
9121.000000;0.496655
9120.000000;0.496200
9119.000000;0.495763
9118.000000;0.495369
9117.000000;0.495027
9116.000000;0.494793
9115.000000;0.494679
9114.000000;0.494580
9113.000000;0.494355
9112.000000;0.493980
9111.000000;0.493561
9110.000000;0.493196
9109.000000;0.492868
9108.000000;0.492504
9107.000000;0.492091
9106.000000;0.491716
9105.000000;0.491455
9104.000000;0.491261
9103.000000;0.490986
9102.000000;0.490565
9101.000000;0.490115
9100.000000;0.489821
9099.000000;0.489721
9098.000000;0.489667
9097.000000;0.489486
9096.000000;0.489110
9095.000000;0.488558
9094.000000;0.487905
9093.000000;0.487319
9092.000000;0.486996
9091.000000;0.486977
9090.000000;0.487041
9089.000000;0.486899
9088.000000;0.486485
9087.000000;0.485989
9086.000000;0.485622
9085.000000;0.485426
9084.000000;0.485301
9083.000000;0.485143
9082.000000;0.484913
9081.000000;0.484633
9080.000000;0.484346
9079.000000;0.484064
9078.000000;0.483745
9077.000000;0.483347
9076.000000;0.482904
9075.000000;0.482497
9074.000000;0.482155
9073.000000;0.481827
9072.000000;0.481485
9071.000000;0.481184
9070.000000;0.480965
9069.000000;0.480763
9068.000000;0.480476
9067.000000;0.480123
9066.000000;0.479850
9065.000000;0.479766
9064.000000;0.479810
9063.000000;0.479796
9062.000000;0.479564
9061.000000;0.479079
9060.000000;0.478446
9059.000000;0.477845
9058.000000;0.477426
9057.000000;0.477179
9056.000000;0.476936
9055.000000;0.476537
9054.000000;0.476022
9053.000000;0.475605
