Criado como novo conjunto de dados;"Jao_teste_celulas.spp","11044.4 Secs"
cm-1;Abs
10000.000000;2.028514
9999.000000;2.026461
9998.000000;2.024213
9997.000000;2.022400
9996.000000;2.018613
9995.000000;2.013281
9994.000000;2.009060
9993.000000;2.006096
9992.000000;2.004086
9991.000000;2.002811
9990.000000;2.002937
9989.000000;2.004830
9988.000000;2.007580
9987.000000;2.009152
9986.000000;2.008003
9985.000000;2.004689
9984.000000;2.001661
9983.000000;2.001286
9982.000000;2.003973
9981.000000;2.008013
9980.000000;2.010885
9979.000000;2.010805
9978.000000;2.007690
9977.000000;2.003412
9976.000000;2.000900
9975.000000;2.001958
9974.000000;2.005464
9973.000000;2.008182
9972.000000;2.007873
9971.000000;2.005098
9970.000000;2.001655
9969.000000;1.998420
9968.000000;1.995474
9967.000000;1.993458
9966.000000;1.993601
9965.000000;1.996356
9964.000000;2.000722
9963.000000;2.004895
9962.000000;2.007045
9961.000000;2.005793
9960.000000;2.001156
9959.000000;1.995315
9958.000000;1.991520
9957.000000;1.991508
9956.000000;1.994132
9955.000000;1.996993
9954.000000;1.999174
9953.000000;2.001490
9952.000000;2.004218
9951.000000;2.005984
9950.000000;2.005478
9949.000000;2.003226
9948.000000;2.000539
9947.000000;1.997475
9946.000000;1.993378
9945.000000;1.989012
9944.000000;1.986581
9943.000000;1.987403
9942.000000;1.990518
9941.000000;1.993770
9940.000000;1.995559
9939.000000;1.995229
9938.000000;1.992832
9937.000000;1.989479
9936.000000;1.987055
9935.000000;1.986535
9934.000000;1.986957
9933.000000;1.986743
9932.000000;1.985759
9931.000000;1.985290
9930.000000;1.986227
9929.000000;1.988164
9928.000000;1.990167
9927.000000;1.991505
9926.000000;1.991407
9925.000000;1.989021
9924.000000;1.984369
9923.000000;1.979084
9922.000000;1.975464
9921.000000;1.974580
9920.000000;1.975408
9919.000000;1.975871
9918.000000;1.974815
9917.000000;1.972950
9916.000000;1.971784
9915.000000;1.971951
9914.000000;1.972896
9913.000000;1.973947
9912.000000;1.974860
9911.000000;1.975109
9910.000000;1.973928
9909.000000;1.971823
9908.000000;1.970823
9907.000000;1.972071
9906.000000;1.974001
9905.000000;1.974201
9904.000000;1.972774
9903.000000;1.972205
9902.000000;1.973749
9901.000000;1.975637
9900.000000;1.975408
9899.000000;1.972831
9898.000000;1.969748
9897.000000;1.968014
9896.000000;1.968476
9895.000000;1.970957
9894.000000;1.974021
9893.000000;1.975440
9892.000000;1.974095
9891.000000;1.971332
9890.000000;1.969660
9889.000000;1.970195
9888.000000;1.971935
9887.000000;1.973181
9886.000000;1.972916
9885.000000;1.970951
9884.000000;1.967653
9883.000000;1.964002
9882.000000;1.961455
9881.000000;1.961269
9880.000000;1.963759
9879.000000;1.967997
9878.000000;1.972064
9877.000000;1.974039
9876.000000;1.973319
9875.000000;1.971012
9874.000000;1.968714
9873.000000;1.966914
9872.000000;1.964976
9871.000000;1.962671
9870.000000;1.961113
9869.000000;1.961584
9868.000000;1.963574
9867.000000;1.964726
9866.000000;1.963229
9865.000000;1.959986
9864.000000;1.957695
9863.000000;1.957867
9862.000000;1.959438
9861.000000;1.960415
9860.000000;1.960257
9859.000000;1.959887
9858.000000;1.959757
9857.000000;1.959107
9856.000000;1.957462
9855.000000;1.955840
9854.000000;1.955647
9853.000000;1.956975
9852.000000;1.958677
9851.000000;1.959660
9850.000000;1.959407
9849.000000;1.957704
9848.000000;1.954977
9847.000000;1.952789
9846.000000;1.952736
9845.000000;1.954333
9844.000000;1.955002
9843.000000;1.953242
9842.000000;1.950961
9841.000000;1.951086
9840.000000;1.953502
9839.000000;1.954972
9838.000000;1.953074
9837.000000;1.948750
9836.000000;1.944413
9835.000000;1.941145
9834.000000;1.938807
9833.000000;1.937561
9832.000000;1.937943
9831.000000;1.940052
9830.000000;1.943657
9829.000000;1.948515
9828.000000;1.953734
9827.000000;1.957419
9826.000000;1.958231
9825.000000;1.956949
9824.000000;1.955191
9823.000000;1.953041
9822.000000;1.949495
9821.000000;1.944963
9820.000000;1.941481
9819.000000;1.940197
9818.000000;1.940139
9817.000000;1.939812
9816.000000;1.938786
9815.000000;1.937266
9814.000000;1.935462
9813.000000;1.934237
9812.000000;1.935247
9811.000000;1.939280
9810.000000;1.945018
9809.000000;1.950212
9808.000000;1.953382
9807.000000;1.953749
9806.000000;1.950762
9805.000000;1.945131
9804.000000;1.939494
9803.000000;1.936451
9802.000000;1.936233
9801.000000;1.937259
9800.000000;1.938608
9799.000000;1.940531
9798.000000;1.942600
9797.000000;1.942922
9796.000000;1.939988
9795.000000;1.934584
9794.000000;1.929207
9793.000000;1.925864
9792.000000;1.924685
9791.000000;1.924424
9790.000000;1.924191
9789.000000;1.924551
9788.000000;1.926536
9787.000000;1.929523
9786.000000;1.930889
9785.000000;1.928702
9784.000000;1.924215
9783.000000;1.920586
9782.000000;1.919650
9781.000000;1.920935
9780.000000;1.923288
9779.000000;1.926228
9778.000000;1.929534
9777.000000;1.932558
9776.000000;1.934345
9775.000000;1.933978
9774.000000;1.930943
9773.000000;1.925880
9772.000000;1.920833
9771.000000;1.917857
9770.000000;1.917197
9769.000000;1.917506
9768.000000;1.917868
9767.000000;1.918666
9766.000000;1.920250
9765.000000;1.921812
9764.000000;1.922123
9763.000000;1.920768
9762.000000;1.918316
9761.000000;1.915937
9760.000000;1.915075
9759.000000;1.916544
9758.000000;1.919365
9757.000000;1.921146
9756.000000;1.920328
9755.000000;1.917542
9754.000000;1.914265
9753.000000;1.911087
9752.000000;1.908074
9751.000000;1.905952
9750.000000;1.905783
9749.000000;1.907683
9748.000000;1.910679
9747.000000;1.913734
9746.000000;1.916112
9745.000000;1.916882
9744.000000;1.915411
9743.000000;1.912671
9742.000000;1.910745
9741.000000;1.910560
9740.000000;1.910831
9739.000000;1.909993
9738.000000;1.908613
9737.000000;1.908775
9736.000000;1.911252
9735.000000;1.914307
9734.000000;1.915705
9733.000000;1.915067
9732.000000;1.913416
9731.000000;1.911233
9730.000000;1.908070
9729.000000;1.903915
9728.000000;1.899907
9727.000000;1.897248
9726.000000;1.896070
9725.000000;1.895811
9724.000000;1.896012
9723.000000;1.896298
9722.000000;1.896170
9721.000000;1.895466
9720.000000;1.894758
9719.000000;1.894793
9718.000000;1.895547
9717.000000;1.896123
9716.000000;1.895673
9715.000000;1.894284
9714.000000;1.893090
9713.000000;1.893634
9712.000000;1.896541
9711.000000;1.900409
9710.000000;1.902546
9709.000000;1.901494
9708.000000;1.898502
9707.000000;1.895926
9706.000000;1.894661
9705.000000;1.893813
9704.000000;1.892341
9703.000000;1.890253
9702.000000;1.888389
9701.000000;1.887745
9700.000000;1.888934
9699.000000;1.891526
9698.000000;1.893730
9697.000000;1.893540
9696.000000;1.890746
9695.000000;1.887328
9694.000000;1.885503
9693.000000;1.885759
9692.000000;1.886909
9691.000000;1.887598
9690.000000;1.887590
9689.000000;1.887805
9688.000000;1.889131
9687.000000;1.891127
9686.000000;1.892102
9685.000000;1.890823
9684.000000;1.887962
9683.000000;1.885424
9682.000000;1.884324
9681.000000;1.884190
9680.000000;1.883984
9679.000000;1.883189
9678.000000;1.881876
9677.000000;1.880386
9676.000000;1.879297
9675.000000;1.879256
9674.000000;1.880468
9673.000000;1.882443
9672.000000;1.884207
9671.000000;1.884535
9670.000000;1.882386
9669.000000;1.878089
9668.000000;1.874052
9667.000000;1.873143
9666.000000;1.875997
9665.000000;1.880292
9664.000000;1.882920
9663.000000;1.882790
9662.000000;1.881230
9661.000000;1.880018
9660.000000;1.879917
9659.000000;1.880836
9658.000000;1.882232
9657.000000;1.883099
9656.000000;1.882365
9655.000000;1.879849
9654.000000;1.876604
9653.000000;1.873859
9652.000000;1.871708
9651.000000;1.869260
9650.000000;1.866252
9649.000000;1.863911
9648.000000;1.863675
9647.000000;1.865459
9646.000000;1.867693
9645.000000;1.869022
9644.000000;1.869446
9643.000000;1.869616
9642.000000;1.869707
9641.000000;1.869524
9640.000000;1.869187
9639.000000;1.869014
9638.000000;1.868904
9637.000000;1.868335
9636.000000;1.866927
9635.000000;1.864775
9634.000000;1.862560
9633.000000;1.861501
9632.000000;1.862541
9631.000000;1.865116
9630.000000;1.867223
9629.000000;1.867519
9628.000000;1.867178
9627.000000;1.868524
9626.000000;1.871798
9625.000000;1.874375
9624.000000;1.873637
9623.000000;1.869829
9622.000000;1.865336
9621.000000;1.861971
9620.000000;1.859908
9619.000000;1.858657
9618.000000;1.858162
9617.000000;1.858812
9616.000000;1.860805
9615.000000;1.863636
9614.000000;1.866168
9613.000000;1.867337
9612.000000;1.867025
9611.000000;1.866203
9610.000000;1.866042
9609.000000;1.866675
9608.000000;1.866718
9607.000000;1.864313
9606.000000;1.859135
9605.000000;1.853146
9604.000000;1.848831
9603.000000;1.846773
9602.000000;1.845566
9601.000000;1.844250
9600.000000;1.843870
9599.000000;1.845801
9598.000000;1.849347
9597.000000;1.852171
9596.000000;1.852834
9595.000000;1.851666
9594.000000;1.849176
9593.000000;1.845366
9592.000000;1.841153
9591.000000;1.838836
9590.000000;1.840087
9589.000000;1.844133
9588.000000;1.848624
9587.000000;1.851861
9586.000000;1.853540
9585.000000;1.853795
9584.000000;1.852625
9583.000000;1.850274
9582.000000;1.847444
9581.000000;1.845041
9580.000000;1.843858
9579.000000;1.844140
9578.000000;1.845285
9577.000000;1.846272
9576.000000;1.846719
9575.000000;1.847192
9574.000000;1.848144
9573.000000;1.849041
9572.000000;1.849090
9571.000000;1.848372
9570.000000;1.847582
9569.000000;1.847052
9568.000000;1.846637
9567.000000;1.846174
9566.000000;1.845321
9565.000000;1.843240
9564.000000;1.839428
9563.000000;1.835077
9562.000000;1.832693
9561.000000;1.833802
9560.000000;1.837359
9559.000000;1.840745
9558.000000;1.842119
9557.000000;1.841560
9556.000000;1.840293
9555.000000;1.839489
9554.000000;1.839655
9553.000000;1.840400
9552.000000;1.840557
9551.000000;1.839085
9550.000000;1.836211
9549.000000;1.833386
9548.000000;1.831874
9547.000000;1.831528
9546.000000;1.831142
9545.000000;1.829793
9544.000000;1.827475
9543.000000;1.824722
9542.000000;1.822205
9541.000000;1.820680
9540.000000;1.820760
9539.000000;1.822487
9538.000000;1.825243
9537.000000;1.828047
9536.000000;1.829815
9535.000000;1.829719
9534.000000;1.827921
9533.000000;1.825813
9532.000000;1.824756
9531.000000;1.824520
9530.000000;1.823709
9529.000000;1.821865
9528.000000;1.820283
9527.000000;1.820309
9526.000000;1.821743
9525.000000;1.823586
9524.000000;1.825572
9523.000000;1.827875
9522.000000;1.829753
9521.000000;1.829834
9520.000000;1.827809
9519.000000;1.824771
9518.000000;1.821763
9517.000000;1.819030
9516.000000;1.816792
9515.000000;1.815642
9514.000000;1.815648
9513.000000;1.815874
9512.000000;1.815569
9511.000000;1.815434
9510.000000;1.816873
9509.000000;1.819926
9508.000000;1.822579
9507.000000;1.822587
9506.000000;1.820025
9505.000000;1.817418
9504.000000;1.816977
9503.000000;1.818130
9502.000000;1.818317
9501.000000;1.816241
9500.000000;1.813536
9499.000000;1.812520
9498.000000;1.813186
9497.000000;1.813547
9496.000000;1.812460
9495.000000;1.810746
9494.000000;1.809478
9493.000000;1.808656
9492.000000;1.808084
9491.000000;1.808357
9490.000000;1.810073
9489.000000;1.812565
9488.000000;1.814254
9487.000000;1.814276
9486.000000;1.813199
9485.000000;1.812201
9484.000000;1.811951
9483.000000;1.812162
9482.000000;1.811890
9481.000000;1.810437
9480.000000;1.808157
9479.000000;1.806203
9478.000000;1.805404
9477.000000;1.805607
9476.000000;1.806091
9475.000000;1.806340
9474.000000;1.806353
9473.000000;1.806483
9472.000000;1.807036
9471.000000;1.807795
9470.000000;1.808062
9469.000000;1.807479
9468.000000;1.806631
9467.000000;1.806327
9466.000000;1.806531
9465.000000;1.806643
9464.000000;1.806596
9463.000000;1.806815
9462.000000;1.807209
9461.000000;1.807057
9460.000000;1.805997
9459.000000;1.804336
9458.000000;1.802293
9457.000000;1.799925
9456.000000;1.797977
9455.000000;1.797581
9454.000000;1.798532
9453.000000;1.798918
9452.000000;1.797428
9451.000000;1.795211
9450.000000;1.794278
9449.000000;1.794744
9448.000000;1.794907
9447.000000;1.793702
9446.000000;1.791904
9445.000000;1.790817
9444.000000;1.790728
9443.000000;1.791141
9442.000000;1.792028
9441.000000;1.794126
9440.000000;1.797789
9439.000000;1.801828
9438.000000;1.804041
9437.000000;1.803316
9436.000000;1.800854
9435.000000;1.798684
9434.000000;1.797282
9433.000000;1.795498
9432.000000;1.792744
9431.000000;1.790132
9430.000000;1.788938
9429.000000;1.788943
9428.000000;1.789092
9427.000000;1.789100
9426.000000;1.789459
9425.000000;1.790262
9424.000000;1.791039
9423.000000;1.791646
9422.000000;1.792436
9421.000000;1.793474
9420.000000;1.794258
9419.000000;1.794290
9418.000000;1.793358
9417.000000;1.791239
9416.000000;1.787885
9415.000000;1.784085
9414.000000;1.781246
9413.000000;1.780328
9412.000000;1.781260
9411.000000;1.783228
9410.000000;1.785191
9409.000000;1.786319
9408.000000;1.786423
9407.000000;1.785957
9406.000000;1.785359
9405.000000;1.784483
9404.000000;1.782999
9403.000000;1.781334
9402.000000;1.780566
9401.000000;1.781218
9400.000000;1.782629
9399.000000;1.783609
9398.000000;1.783297
9397.000000;1.781443
9396.000000;1.778528
9395.000000;1.775795
9394.000000;1.774472
9393.000000;1.774546
9392.000000;1.774634
9391.000000;1.773509
9390.000000;1.771536
9389.000000;1.770192
9388.000000;1.770378
9387.000000;1.771695
9386.000000;1.773253
9385.000000;1.774693
9384.000000;1.776200
9383.000000;1.777806
9382.000000;1.779041
9381.000000;1.779253
9380.000000;1.778125
9379.000000;1.775977
9378.000000;1.773776
9377.000000;1.772743
9376.000000;1.773536
9375.000000;1.775562
9374.000000;1.777268
9373.000000;1.777554
9372.000000;1.776838
9371.000000;1.776414
9370.000000;1.776851
9369.000000;1.777433
9368.000000;1.777184
9367.000000;1.776074
9366.000000;1.774955
9365.000000;1.774650
9364.000000;1.775354
9363.000000;1.776551
9362.000000;1.777171
9361.000000;1.776199
9360.000000;1.773644
9359.000000;1.770761
9358.000000;1.768961
9357.000000;1.768693
9356.000000;1.769524
9355.000000;1.770806
9354.000000;1.771868
9353.000000;1.771997
9352.000000;1.771026
9351.000000;1.769865
9350.000000;1.769666
9349.000000;1.770288
9348.000000;1.770181
9347.000000;1.768018
9346.000000;1.764233
9345.000000;1.760763
9344.000000;1.759360
9343.000000;1.760205
9342.000000;1.761925
9341.000000;1.762847
9340.000000;1.762363
9339.000000;1.761030
9338.000000;1.759474
9337.000000;1.757775
9336.000000;1.756068
9335.000000;1.755049
9334.000000;1.755263
9333.000000;1.756162
9332.000000;1.756591
9331.000000;1.756193
9330.000000;1.755761
9329.000000;1.756076
9328.000000;1.756985
9327.000000;1.757806
9326.000000;1.758200
9325.000000;1.758420
9324.000000;1.758911
9323.000000;1.759787
9322.000000;1.760502
9321.000000;1.760074
9320.000000;1.758025
9319.000000;1.755197
9318.000000;1.753177
9317.000000;1.752774
9316.000000;1.753318
9315.000000;1.753426
9314.000000;1.752297
9313.000000;1.750369
9312.000000;1.748949
9311.000000;1.749072
9310.000000;1.750360
9309.000000;1.751142
9308.000000;1.750181
9307.000000;1.748076
9306.000000;1.746310
9305.000000;1.745262
9304.000000;1.744244
9303.000000;1.743417
9302.000000;1.744214
9301.000000;1.747132
9300.000000;1.750263
9299.000000;1.751302
9298.000000;1.750497
9297.000000;1.750160
9296.000000;1.751378
9295.000000;1.752640
9294.000000;1.751940
9293.000000;1.749229
9292.000000;1.746219
9291.000000;1.744501
9290.000000;1.744456
9289.000000;1.745304
9288.000000;1.745611
9287.000000;1.744231
9286.000000;1.741397
9285.000000;1.738728
9284.000000;1.737706
9283.000000;1.738265
9282.000000;1.739153
9281.000000;1.739444
9280.000000;1.739228
9279.000000;1.738988
9278.000000;1.739012
9277.000000;1.739499
9276.000000;1.740529
9275.000000;1.741555
9274.000000;1.741488
9273.000000;1.739868
9272.000000;1.737661
9271.000000;1.736369
9270.000000;1.736499
9269.000000;1.737320
9268.000000;1.737893
9267.000000;1.737765
9266.000000;1.736763
9265.000000;1.734945
9264.000000;1.733062
9263.000000;1.732310
9262.000000;1.733063
9261.000000;1.734253
9260.000000;1.734537
9259.000000;1.733875
9258.000000;1.733437
9257.000000;1.734034
9256.000000;1.735202
9255.000000;1.735927
9254.000000;1.735791
9253.000000;1.735178
9252.000000;1.734649
9251.000000;1.734413
9250.000000;1.734133
9249.000000;1.733037
9248.000000;1.730550
9247.000000;1.727199
9246.000000;1.724626
9245.000000;1.724239
9244.000000;1.725859
9243.000000;1.727877
9242.000000;1.728831
9241.000000;1.728728
9240.000000;1.728650
9239.000000;1.729228
9238.000000;1.729894
9237.000000;1.729697
9236.000000;1.728567
9235.000000;1.727441
9234.000000;1.727162
9233.000000;1.727591
9232.000000;1.727945
9231.000000;1.727727
9230.000000;1.727076
9229.000000;1.726338
9228.000000;1.725629
9227.000000;1.724879
9226.000000;1.724127
9225.000000;1.723700
9224.000000;1.724112
9223.000000;1.725600
9222.000000;1.727553
9221.000000;1.728617
9220.000000;1.727751
9219.000000;1.725262
9218.000000;1.722509
9217.000000;1.720641
9216.000000;1.719935
9215.000000;1.720180
9214.000000;1.721098
9213.000000;1.722186
9212.000000;1.722699
9211.000000;1.722290
9210.000000;1.721374
9209.000000;1.720477
9208.000000;1.719512
9207.000000;1.718137
9206.000000;1.716659
9205.000000;1.715882
9204.000000;1.715980
9203.000000;1.716090
9202.000000;1.715408
9201.000000;1.714349
9200.000000;1.714110
9199.000000;1.715127
9198.000000;1.716527
9197.000000;1.717274
9196.000000;1.717511
9195.000000;1.718242
9194.000000;1.719740
9193.000000;1.720749
9192.000000;1.719598
9191.000000;1.716002
9190.000000;1.711565
9189.000000;1.708566
9188.000000;1.708403
9187.000000;1.710795
9186.000000;1.713991
9185.000000;1.715920
9184.000000;1.715756
9183.000000;1.714524
9182.000000;1.713860
9181.000000;1.714215
9180.000000;1.714660
9179.000000;1.714389
9178.000000;1.713661
9177.000000;1.712857
9176.000000;1.711425
9175.000000;1.708760
9174.000000;1.705809
9173.000000;1.704601
9172.000000;1.705886
9171.000000;1.707976
9170.000000;1.708399
9169.000000;1.706382
9168.000000;1.703217
9167.000000;1.700645
9166.000000;1.699572
9165.000000;1.700070
9164.000000;1.701761
9163.000000;1.703975
9162.000000;1.705945
9161.000000;1.707044
9160.000000;1.706875
9159.000000;1.705429
9158.000000;1.703364
9157.000000;1.701791
9156.000000;1.701359
9155.000000;1.701684
9154.000000;1.702026
9153.000000;1.702375
9152.000000;1.703387
9151.000000;1.705191
9150.000000;1.706717
9149.000000;1.706548
9148.000000;1.704231
9147.000000;1.700570
9146.000000;1.696996
9145.000000;1.694779
9144.000000;1.694424
9143.000000;1.695457
9142.000000;1.696868
9141.000000;1.697961
9140.000000;1.698700
9139.000000;1.699268
9138.000000;1.699702
9137.000000;1.700057
9136.000000;1.700462
9135.000000;1.700759
9134.000000;1.700424
9133.000000;1.699245
9132.000000;1.697767
9131.000000;1.696585
9130.000000;1.695491
9129.000000;1.693905
9128.000000;1.692000
9127.000000;1.690731
9126.000000;1.690694
9125.000000;1.691474
9124.000000;1.692198
9123.000000;1.692391
9122.000000;1.692207
9121.000000;1.692093
9120.000000;1.692352
9119.000000;1.692815
9118.000000;1.692846
9117.000000;1.691912
9116.000000;1.690242
9115.000000;1.688638
9114.000000;1.687608
9113.000000;1.687044
9112.000000;1.686824
9111.000000;1.687196
9110.000000;1.688299
9109.000000;1.689648
9108.000000;1.690454
9107.000000;1.690329
9106.000000;1.689449
9105.000000;1.688181
9104.000000;1.686871
9103.000000;1.685860
9102.000000;1.685297
9101.000000;1.684916
9100.000000;1.684281
9099.000000;1.683272
9098.000000;1.682134
9097.000000;1.681059
9096.000000;1.680071
9095.000000;1.679449
9094.000000;1.679888
9093.000000;1.681827
9092.000000;1.684630
9091.000000;1.686862
9090.000000;1.687585
9089.000000;1.687212
9088.000000;1.686839
9087.000000;1.686928
9086.000000;1.687030
9085.000000;1.686655
9084.000000;1.685858
9083.000000;1.684825
9082.000000;1.683375
9081.000000;1.681370
9080.000000;1.679358
9079.000000;1.678190
9078.000000;1.678089
9077.000000;1.678580
9076.000000;1.679222
9075.000000;1.679995
9074.000000;1.680908
9073.000000;1.681606
9072.000000;1.681612
9071.000000;1.680886
9070.000000;1.679907
9069.000000;1.679289
9068.000000;1.679367
9067.000000;1.679946
9066.000000;1.680319
9065.000000;1.679796
9064.000000;1.678403
9063.000000;1.676859
9062.000000;1.675805
9061.000000;1.675352
9060.000000;1.675355
9059.000000;1.675709
9058.000000;1.676229
9057.000000;1.676511
9056.000000;1.676175
9055.000000;1.675166
9054.000000;1.673733
9053.000000;1.672237
