Criado como novo conjunto de dados;"Jao_teste_celulas.spp","3903.1 Secs"
cm-1;Abs
10000.000000;0.959346
9999.000000;0.958602
9998.000000;0.958064
9997.000000;0.957729
9996.000000;0.957740
9995.000000;0.958079
9994.000000;0.958340
9993.000000;0.958048
9992.000000;0.957180
9991.000000;0.956195
9990.000000;0.955555
9989.000000;0.955342
9988.000000;0.955322
9987.000000;0.955220
9986.000000;0.954889
9985.000000;0.954392
9984.000000;0.953975
9983.000000;0.953855
9982.000000;0.953941
9981.000000;0.953869
9980.000000;0.953379
9979.000000;0.952571
9978.000000;0.951742
9977.000000;0.951074
9976.000000;0.950600
9975.000000;0.950313
9974.000000;0.950146
9973.000000;0.949866
9972.000000;0.949213
9971.000000;0.948174
9970.000000;0.947031
9969.000000;0.946084
9968.000000;0.945425
9967.000000;0.944994
9966.000000;0.944731
9965.000000;0.944592
9964.000000;0.944450
9963.000000;0.944103
9962.000000;0.943419
9961.000000;0.942488
9960.000000;0.941614
9959.000000;0.941105
9958.000000;0.941013
9957.000000;0.941097
9956.000000;0.941079
9955.000000;0.940902
9954.000000;0.940676
9953.000000;0.940407
9952.000000;0.939883
9951.000000;0.938889
9950.000000;0.937504
9949.000000;0.936151
9948.000000;0.935353
9947.000000;0.935391
9946.000000;0.936096
9945.000000;0.936921
9944.000000;0.937267
9943.000000;0.936824
9942.000000;0.935683
9941.000000;0.934201
9940.000000;0.932817
9939.000000;0.931879
9938.000000;0.931489
9937.000000;0.931452
9936.000000;0.931445
9935.000000;0.931263
9934.000000;0.930886
9933.000000;0.930407
9932.000000;0.930015
9931.000000;0.929983
9930.000000;0.930420
9929.000000;0.930968
9928.000000;0.930999
9927.000000;0.930292
9926.000000;0.929334
9925.000000;0.928743
9924.000000;0.928505
9923.000000;0.928076
9922.000000;0.927201
9921.000000;0.926307
9920.000000;0.925969
9919.000000;0.926238
9918.000000;0.926672
9917.000000;0.926850
9916.000000;0.926638
9915.000000;0.926053
9914.000000;0.925115
9913.000000;0.923916
9912.000000;0.922683
9911.000000;0.921688
9910.000000;0.921095
9909.000000;0.920899
9908.000000;0.920914
9907.000000;0.920837
9906.000000;0.920443
9905.000000;0.919757
9904.000000;0.918966
9903.000000;0.918167
9902.000000;0.917308
9901.000000;0.916401
9900.000000;0.915655
9899.000000;0.915263
9898.000000;0.915146
9897.000000;0.915020
9896.000000;0.914721
9895.000000;0.914353
9894.000000;0.914098
9893.000000;0.913996
9892.000000;0.913910
9891.000000;0.913639
9890.000000;0.913023
9889.000000;0.912066
9888.000000;0.910996
9887.000000;0.910152
9886.000000;0.909711
9885.000000;0.909562
9884.000000;0.909508
9883.000000;0.909519
9882.000000;0.909648
9881.000000;0.909723
9880.000000;0.909322
9879.000000;0.908222
9878.000000;0.906803
9877.000000;0.905831
9876.000000;0.905787
9875.000000;0.906446
9874.000000;0.907116
9873.000000;0.907239
9872.000000;0.906784
9871.000000;0.906158
9870.000000;0.905787
9869.000000;0.905720
9868.000000;0.905552
9867.000000;0.904814
9866.000000;0.903488
9865.000000;0.902089
9864.000000;0.901150
9863.000000;0.900729
9862.000000;0.900503
9861.000000;0.900279
9860.000000;0.900168
9859.000000;0.900257
9858.000000;0.900354
9857.000000;0.900190
9856.000000;0.899750
9855.000000;0.899206
9854.000000;0.898632
9853.000000;0.897959
9852.000000;0.897169
9851.000000;0.896372
9850.000000;0.895683
9849.000000;0.895125
9848.000000;0.894679
9847.000000;0.894307
9846.000000;0.893919
9845.000000;0.893434
9844.000000;0.892891
9843.000000;0.892392
9842.000000;0.891948
9841.000000;0.891489
9840.000000;0.891017
9839.000000;0.890603
9838.000000;0.890239
9837.000000;0.889854
9836.000000;0.889514
9835.000000;0.889414
9834.000000;0.889537
9833.000000;0.889532
9832.000000;0.889105
9831.000000;0.888451
9830.000000;0.888060
9829.000000;0.888137
9828.000000;0.888359
9827.000000;0.888223
9826.000000;0.887471
9825.000000;0.886199
9824.000000;0.884712
9823.000000;0.883373
9822.000000;0.882471
9821.000000;0.882092
9820.000000;0.882099
9819.000000;0.882232
9818.000000;0.882242
9817.000000;0.881955
9816.000000;0.881326
9815.000000;0.880492
9814.000000;0.879727
9813.000000;0.879297
9812.000000;0.879281
9811.000000;0.879486
9810.000000;0.879557
9809.000000;0.879219
9808.000000;0.878477
9807.000000;0.877548
9806.000000;0.876603
9805.000000;0.875647
9804.000000;0.874672
9803.000000;0.873827
9802.000000;0.873312
9801.000000;0.873171
9800.000000;0.873293
9799.000000;0.873553
9798.000000;0.873828
9797.000000;0.873920
9796.000000;0.873639
9795.000000;0.873033
9794.000000;0.872408
9793.000000;0.872060
9792.000000;0.872041
9791.000000;0.872171
9790.000000;0.872157
9789.000000;0.871747
9788.000000;0.870908
9787.000000;0.869924
9786.000000;0.869197
9785.000000;0.868869
9784.000000;0.868746
9783.000000;0.868586
9782.000000;0.868352
9781.000000;0.868120
9780.000000;0.867888
9779.000000;0.867587
9778.000000;0.867161
9777.000000;0.866539
9776.000000;0.865681
9775.000000;0.864762
9774.000000;0.864174
9773.000000;0.864112
9772.000000;0.864236
9771.000000;0.863940
9770.000000;0.862967
9769.000000;0.861640
9768.000000;0.860503
9767.000000;0.859898
9766.000000;0.859838
9765.000000;0.860044
9764.000000;0.860061
9763.000000;0.859536
9762.000000;0.858554
9761.000000;0.857588
9760.000000;0.857042
9759.000000;0.856902
9758.000000;0.856866
9757.000000;0.856703
9756.000000;0.856374
9755.000000;0.855930
9754.000000;0.855417
9753.000000;0.854869
9752.000000;0.854304
9751.000000;0.853701
9750.000000;0.853046
9749.000000;0.852370
9748.000000;0.851747
9747.000000;0.851291
9746.000000;0.851130
9745.000000;0.851256
9744.000000;0.851365
9743.000000;0.851024
9742.000000;0.850136
9741.000000;0.849154
9740.000000;0.848655
9739.000000;0.848737
9738.000000;0.848983
9737.000000;0.848965
9736.000000;0.848612
9735.000000;0.848074
9734.000000;0.847446
9733.000000;0.846753
9732.000000;0.846049
9731.000000;0.845393
9730.000000;0.844751
9729.000000;0.844083
9728.000000;0.843493
9727.000000;0.843207
9726.000000;0.843340
9725.000000;0.843726
9724.000000;0.843998
9723.000000;0.843827
9722.000000;0.843123
9721.000000;0.842085
9720.000000;0.841084
9719.000000;0.840445
9718.000000;0.840259
9717.000000;0.840343
9716.000000;0.840378
9715.000000;0.840119
9714.000000;0.839542
9713.000000;0.838837
9712.000000;0.838270
9711.000000;0.838004
9710.000000;0.837988
9709.000000;0.837993
9708.000000;0.837756
9707.000000;0.837158
9706.000000;0.836299
9705.000000;0.835430
9704.000000;0.834767
9703.000000;0.834339
9702.000000;0.834000
9701.000000;0.833577
9700.000000;0.833018
9699.000000;0.832392
9698.000000;0.831781
9697.000000;0.831219
9696.000000;0.830749
9695.000000;0.830476
9694.000000;0.830483
9693.000000;0.830674
9692.000000;0.830779
9691.000000;0.830595
9690.000000;0.830184
9689.000000;0.829782
9688.000000;0.829534
9687.000000;0.829389
9686.000000;0.829231
9685.000000;0.829000
9684.000000;0.828640
9683.000000;0.828036
9682.000000;0.827145
9681.000000;0.826171
9680.000000;0.825481
9679.000000;0.825289
9678.000000;0.825432
9677.000000;0.825487
9676.000000;0.825121
9675.000000;0.824335
9674.000000;0.823408
9673.000000;0.822641
9672.000000;0.822147
9671.000000;0.821860
9670.000000;0.821669
9669.000000;0.821471
9668.000000;0.821141
9667.000000;0.820577
9666.000000;0.819836
9665.000000;0.819146
9664.000000;0.818683
9663.000000;0.818390
9662.000000;0.818083
9661.000000;0.817707
9660.000000;0.817357
9659.000000;0.817101
9658.000000;0.816890
9657.000000;0.816635
9656.000000;0.816257
9655.000000;0.815664
9654.000000;0.814822
9653.000000;0.813897
9652.000000;0.813193
9651.000000;0.812859
9650.000000;0.812735
9649.000000;0.812528
9648.000000;0.812078
9647.000000;0.811404
9646.000000;0.810605
9645.000000;0.809828
9644.000000;0.809254
9643.000000;0.808997
9642.000000;0.809017
9641.000000;0.809175
9640.000000;0.809311
9639.000000;0.809222
9638.000000;0.808698
9637.000000;0.807746
9636.000000;0.806713
9635.000000;0.806021
9634.000000;0.805774
9633.000000;0.805745
9632.000000;0.805704
9631.000000;0.805587
9630.000000;0.805336
9629.000000;0.804806
9628.000000;0.804001
9627.000000;0.803264
9626.000000;0.803002
9625.000000;0.803212
9624.000000;0.803435
9623.000000;0.803224
9622.000000;0.802575
9621.000000;0.801843
9620.000000;0.801316
9619.000000;0.800965
9618.000000;0.800611
9617.000000;0.800221
9616.000000;0.799936
9615.000000;0.799824
9614.000000;0.799714
9613.000000;0.799343
9612.000000;0.798644
9611.000000;0.797828
9610.000000;0.797181
9609.000000;0.796839
9608.000000;0.796736
9607.000000;0.796707
9606.000000;0.796599
9605.000000;0.796333
9604.000000;0.795912
9603.000000;0.795388
9602.000000;0.794811
9601.000000;0.794217
9600.000000;0.793652
9599.000000;0.793172
9598.000000;0.792796
9597.000000;0.792479
9596.000000;0.792146
9595.000000;0.791761
9594.000000;0.791361
9593.000000;0.791000
9592.000000;0.790663
9591.000000;0.790260
9590.000000;0.789730
9589.000000;0.789135
9588.000000;0.788592
9587.000000;0.788109
9586.000000;0.787562
9585.000000;0.786862
9584.000000;0.786092
9583.000000;0.785436
9582.000000;0.785034
9581.000000;0.784910
9580.000000;0.784987
9579.000000;0.785104
9578.000000;0.785077
9577.000000;0.784842
9576.000000;0.784499
9575.000000;0.784164
9574.000000;0.783842
9573.000000;0.783523
9572.000000;0.783305
9571.000000;0.783273
9570.000000;0.783299
9569.000000;0.783136
9568.000000;0.782693
9567.000000;0.782077
9566.000000;0.781365
9565.000000;0.780546
9564.000000;0.779715
9563.000000;0.779107
9562.000000;0.778833
9561.000000;0.778733
9560.000000;0.778617
9559.000000;0.778507
9558.000000;0.778484
9557.000000;0.778434
9556.000000;0.778150
9555.000000;0.777609
9554.000000;0.776958
9553.000000;0.776274
9552.000000;0.775533
9551.000000;0.774835
9550.000000;0.774431
9549.000000;0.774430
9548.000000;0.774593
9547.000000;0.774521
9546.000000;0.774018
9545.000000;0.773218
9544.000000;0.772438
9543.000000;0.771929
9542.000000;0.771718
9541.000000;0.771595
9540.000000;0.771296
9539.000000;0.770735
9538.000000;0.770059
9537.000000;0.769487
9536.000000;0.769123
9535.000000;0.768909
9534.000000;0.768693
9533.000000;0.768342
9532.000000;0.767853
9531.000000;0.767360
9530.000000;0.766999
9529.000000;0.766749
9528.000000;0.766452
9527.000000;0.765993
9526.000000;0.765398
9525.000000;0.764775
9524.000000;0.764248
9523.000000;0.763927
9522.000000;0.763835
9521.000000;0.763809
9520.000000;0.763605
9519.000000;0.763173
9518.000000;0.762739
9517.000000;0.762508
9516.000000;0.762379
9515.000000;0.762041
9514.000000;0.761319
9513.000000;0.760334
9512.000000;0.759358
9511.000000;0.758623
9510.000000;0.758219
9509.000000;0.758064
9508.000000;0.757957
9507.000000;0.757742
9506.000000;0.757421
9505.000000;0.757051
9504.000000;0.756575
9503.000000;0.755920
9502.000000;0.755237
9501.000000;0.754852
9500.000000;0.754902
9499.000000;0.755111
9498.000000;0.755063
9497.000000;0.754609
9496.000000;0.753934
9495.000000;0.753308
9494.000000;0.752879
9493.000000;0.752663
9492.000000;0.752582
9491.000000;0.752499
9490.000000;0.752334
9489.000000;0.752118
9488.000000;0.751892
9487.000000;0.751563
9486.000000;0.750998
9485.000000;0.750276
9484.000000;0.749702
9483.000000;0.749491
9482.000000;0.749516
9481.000000;0.749429
9480.000000;0.748982
9479.000000;0.748192
9478.000000;0.747273
9477.000000;0.746484
9476.000000;0.745977
9475.000000;0.745708
9474.000000;0.745496
9473.000000;0.745235
9472.000000;0.744984
9471.000000;0.744806
9470.000000;0.744595
9469.000000;0.744203
9468.000000;0.743719
9467.000000;0.743435
9466.000000;0.743468
9465.000000;0.743574
9464.000000;0.743436
9463.000000;0.743050
9462.000000;0.742649
9461.000000;0.742318
9460.000000;0.741859
9459.000000;0.741110
9458.000000;0.740240
9457.000000;0.739590
9456.000000;0.739285
9455.000000;0.739115
9454.000000;0.738838
9453.000000;0.738445
9452.000000;0.738106
9451.000000;0.737907
9450.000000;0.737761
9449.000000;0.737541
9448.000000;0.737216
9447.000000;0.736847
9446.000000;0.736514
9445.000000;0.736250
9444.000000;0.736006
9443.000000;0.735650
9442.000000;0.735090
9441.000000;0.734420
9440.000000;0.733889
9439.000000;0.733683
9438.000000;0.733760
9437.000000;0.733935
9436.000000;0.734053
9435.000000;0.734018
9434.000000;0.733721
9433.000000;0.733058
9432.000000;0.732070
9431.000000;0.730995
9430.000000;0.730131
9429.000000;0.729656
9428.000000;0.729546
9427.000000;0.729627
9426.000000;0.729695
9425.000000;0.729620
9424.000000;0.729369
9423.000000;0.728949
9422.000000;0.728378
9421.000000;0.727740
9420.000000;0.727171
9419.000000;0.726730
9418.000000;0.726331
9417.000000;0.725920
9416.000000;0.725648
9415.000000;0.725716
9414.000000;0.726033
9413.000000;0.726190
9412.000000;0.725857
9411.000000;0.725113
9410.000000;0.724304
9409.000000;0.723687
9408.000000;0.723305
9407.000000;0.723063
9406.000000;0.722798
9405.000000;0.722325
9404.000000;0.721583
9403.000000;0.720751
9402.000000;0.720084
9401.000000;0.719637
9400.000000;0.719235
9399.000000;0.718762
9398.000000;0.718378
9397.000000;0.718361
9396.000000;0.718774
9395.000000;0.719328
9394.000000;0.719577
9393.000000;0.719249
9392.000000;0.718426
9391.000000;0.717434
9390.000000;0.716571
9389.000000;0.715957
9388.000000;0.715589
9387.000000;0.715451
9386.000000;0.715480
9385.000000;0.715478
9384.000000;0.715197
9383.000000;0.714579
9382.000000;0.713857
9381.000000;0.713367
9380.000000;0.713254
9379.000000;0.713349
9378.000000;0.713308
9377.000000;0.712883
9376.000000;0.712113
9375.000000;0.711301
9374.000000;0.710779
9373.000000;0.710653
9372.000000;0.710738
9371.000000;0.710731
9370.000000;0.710454
9369.000000;0.709964
9368.000000;0.709455
9367.000000;0.709052
9366.000000;0.708703
9365.000000;0.708295
9364.000000;0.707851
9363.000000;0.707542
9362.000000;0.707454
9361.000000;0.707425
9360.000000;0.707209
9359.000000;0.706754
9358.000000;0.706226
9357.000000;0.705773
9356.000000;0.705393
9355.000000;0.705032
9354.000000;0.704706
9353.000000;0.704465
9352.000000;0.704314
9351.000000;0.704204
9350.000000;0.704050
9349.000000;0.703731
9348.000000;0.703178
9347.000000;0.702499
9346.000000;0.701930
9345.000000;0.701597
9344.000000;0.701385
9343.000000;0.701109
9342.000000;0.700731
9341.000000;0.700338
9340.000000;0.699996
9339.000000;0.699709
9338.000000;0.699474
9337.000000;0.699257
9336.000000;0.698968
9335.000000;0.698557
9334.000000;0.698129
9333.000000;0.697837
9332.000000;0.697680
9331.000000;0.697506
9330.000000;0.697219
9329.000000;0.696847
9328.000000;0.696415
9327.000000;0.695884
9326.000000;0.695277
9325.000000;0.694731
9324.000000;0.694326
9323.000000;0.693950
9322.000000;0.693463
9321.000000;0.692922
9320.000000;0.692525
9319.000000;0.692346
9318.000000;0.692241
9317.000000;0.692034
9316.000000;0.691702
9315.000000;0.691341
9314.000000;0.691003
9313.000000;0.690656
9312.000000;0.690266
9311.000000;0.689873
9310.000000;0.689530
9309.000000;0.689207
9308.000000;0.688798
9307.000000;0.688280
9306.000000;0.687811
9305.000000;0.687614
9304.000000;0.687721
9303.000000;0.687900
9302.000000;0.687872
9301.000000;0.687587
9300.000000;0.687229
9299.000000;0.686976
9298.000000;0.686820
9297.000000;0.686619
9296.000000;0.686276
9295.000000;0.685826
9294.000000;0.685376
9293.000000;0.684994
9292.000000;0.684648
9291.000000;0.684242
9290.000000;0.683709
9289.000000;0.683066
9288.000000;0.682404
9287.000000;0.681846
9286.000000;0.681491
9285.000000;0.681341
9284.000000;0.681265
9283.000000;0.681076
9282.000000;0.680712
9281.000000;0.680287
9280.000000;0.679947
9279.000000;0.679716
9278.000000;0.679529
9277.000000;0.679363
9276.000000;0.679225
9275.000000;0.679050
9274.000000;0.678736
9273.000000;0.678296
9272.000000;0.677873
9271.000000;0.677545
9270.000000;0.677236
9269.000000;0.676870
9268.000000;0.676515
9267.000000;0.676289
9266.000000;0.676187
9265.000000;0.676089
9264.000000;0.675926
9263.000000;0.675715
9262.000000;0.675467
9261.000000;0.675150
9260.000000;0.674743
9259.000000;0.674259
9258.000000;0.673700
9257.000000;0.673070
9256.000000;0.672418
9255.000000;0.671800
9254.000000;0.671195
9253.000000;0.670553
9252.000000;0.669939
9251.000000;0.669527
9250.000000;0.669395
9249.000000;0.669414
9248.000000;0.669386
9247.000000;0.669223
9246.000000;0.668946
9245.000000;0.668594
9244.000000;0.668208
9243.000000;0.667851
9242.000000;0.667554
9241.000000;0.667284
9240.000000;0.667000
9239.000000;0.666702
9238.000000;0.666352
9237.000000;0.665863
9236.000000;0.665261
9235.000000;0.664796
9234.000000;0.664726
9233.000000;0.664999
9232.000000;0.665285
9231.000000;0.665320
9230.000000;0.665119
9229.000000;0.664809
9228.000000;0.664403
9227.000000;0.663845
9226.000000;0.663172
9225.000000;0.662535
9224.000000;0.662105
9223.000000;0.661995
9222.000000;0.662186
9221.000000;0.662461
9220.000000;0.662504
9219.000000;0.662178
9218.000000;0.661658
9217.000000;0.661210
9216.000000;0.660881
9215.000000;0.660511
9214.000000;0.659986
9213.000000;0.659365
9212.000000;0.658777
9211.000000;0.658308
9210.000000;0.657985
9209.000000;0.657766
9208.000000;0.657520
9207.000000;0.657150
9206.000000;0.656760
9205.000000;0.656594
9204.000000;0.656707
9203.000000;0.656813
9202.000000;0.656549
9201.000000;0.655861
9200.000000;0.655037
9199.000000;0.654430
9198.000000;0.654188
9197.000000;0.654218
9196.000000;0.654273
9195.000000;0.654107
9194.000000;0.653652
9193.000000;0.653066
9192.000000;0.652569
9191.000000;0.652223
9190.000000;0.651956
9189.000000;0.651762
9188.000000;0.651725
9187.000000;0.651801
9186.000000;0.651730
9185.000000;0.651283
9184.000000;0.650556
9183.000000;0.649856
9182.000000;0.649345
9181.000000;0.648938
9180.000000;0.648554
9179.000000;0.648319
9178.000000;0.648401
9177.000000;0.648728
9176.000000;0.648995
9175.000000;0.648945
9174.000000;0.648571
9173.000000;0.648041
9172.000000;0.647499
9171.000000;0.646990
9170.000000;0.646502
9169.000000;0.646019
9168.000000;0.645553
9167.000000;0.645162
9166.000000;0.644933
9165.000000;0.644913
9164.000000;0.645036
9163.000000;0.645137
9162.000000;0.645031
9161.000000;0.644614
9160.000000;0.643924
9159.000000;0.643127
9158.000000;0.642416
9157.000000;0.641889
9156.000000;0.641515
9155.000000;0.641224
9154.000000;0.640987
9153.000000;0.640791
9152.000000;0.640579
9151.000000;0.640281
9150.000000;0.639921
9149.000000;0.639618
9148.000000;0.639452
9147.000000;0.639350
9146.000000;0.639163
9145.000000;0.638829
9144.000000;0.638426
9143.000000;0.638048
9142.000000;0.637711
9141.000000;0.637415
9140.000000;0.637235
9139.000000;0.637261
9138.000000;0.637421
9137.000000;0.637460
9136.000000;0.637168
9135.000000;0.636604
9134.000000;0.636005
9133.000000;0.635507
9132.000000;0.635062
9131.000000;0.634599
9130.000000;0.634149
9129.000000;0.633736
9128.000000;0.633284
9127.000000;0.632747
9126.000000;0.632279
9125.000000;0.632102
9124.000000;0.632221
9123.000000;0.632373
9122.000000;0.632324
9121.000000;0.632106
9120.000000;0.631900
9119.000000;0.631787
9118.000000;0.631686
9117.000000;0.631491
9116.000000;0.631173
9115.000000;0.630767
9114.000000;0.630339
9113.000000;0.629969
9112.000000;0.629716
9111.000000;0.629560
9110.000000;0.629394
9109.000000;0.629111
9108.000000;0.628700
9107.000000;0.628248
9106.000000;0.627820
9105.000000;0.627373
9104.000000;0.626819
9103.000000;0.626210
9102.000000;0.625760
9101.000000;0.625611
9100.000000;0.625607
9099.000000;0.625437
9098.000000;0.625028
9097.000000;0.624635
9096.000000;0.624490
9095.000000;0.624476
9094.000000;0.624289
9093.000000;0.623830
9092.000000;0.623309
9091.000000;0.622982
9090.000000;0.622935
9089.000000;0.623098
9088.000000;0.623322
9087.000000;0.623392
9086.000000;0.623117
9085.000000;0.622518
9084.000000;0.621864
9083.000000;0.621427
9082.000000;0.621235
9081.000000;0.621108
9080.000000;0.620871
9079.000000;0.620478
9078.000000;0.619976
9077.000000;0.619475
9076.000000;0.619118
9075.000000;0.619000
9074.000000;0.619055
9073.000000;0.619095
9072.000000;0.618965
9071.000000;0.618641
9070.000000;0.618181
9069.000000;0.617649
9068.000000;0.617102
9067.000000;0.616596
9066.000000;0.616171
9065.000000;0.615839
9064.000000;0.615622
9063.000000;0.615542
9062.000000;0.615550
9061.000000;0.615495
9060.000000;0.615207
9059.000000;0.614649
9058.000000;0.613964
9057.000000;0.613363
9056.000000;0.612987
9055.000000;0.612829
9054.000000;0.612785
9053.000000;0.612755
