Criado como novo conjunto de dados;"Jao_teste_celulas.spp","481.8 Secs"
cm-1;Abs
10000.000000;0.766391
9999.000000;0.766032
9998.000000;0.765668
9997.000000;0.765314
9996.000000;0.764944
9995.000000;0.764606
9994.000000;0.764177
9993.000000;0.763423
9992.000000;0.762601
9991.000000;0.761942
9990.000000;0.761526
9989.000000;0.761283
9988.000000;0.761079
9987.000000;0.760672
9986.000000;0.759861
9985.000000;0.758761
9984.000000;0.757807
9983.000000;0.757340
9982.000000;0.757261
9981.000000;0.757186
9980.000000;0.756852
9979.000000;0.756287
9978.000000;0.755660
9977.000000;0.755093
9976.000000;0.754628
9975.000000;0.754269
9974.000000;0.753989
9973.000000;0.753738
9972.000000;0.753485
9971.000000;0.753272
9970.000000;0.753194
9969.000000;0.753274
9968.000000;0.753350
9967.000000;0.753146
9966.000000;0.752543
9965.000000;0.751754
9964.000000;0.751150
9963.000000;0.750897
9962.000000;0.750818
9961.000000;0.750579
9960.000000;0.749979
9959.000000;0.749101
9958.000000;0.748257
9957.000000;0.747750
9956.000000;0.747595
9955.000000;0.747466
9954.000000;0.747029
9953.000000;0.746331
9952.000000;0.745740
9951.000000;0.745503
9950.000000;0.745484
9949.000000;0.745361
9948.000000;0.744964
9947.000000;0.744333
9946.000000;0.743585
9945.000000;0.742823
9944.000000;0.742126
9943.000000;0.741541
9942.000000;0.741097
9941.000000;0.740835
9940.000000;0.740736
9939.000000;0.740620
9938.000000;0.740227
9937.000000;0.739489
9936.000000;0.738603
9935.000000;0.737776
9934.000000;0.737028
9933.000000;0.736323
9932.000000;0.735748
9931.000000;0.735373
9930.000000;0.735061
9929.000000;0.734604
9928.000000;0.734034
9927.000000;0.733602
9926.000000;0.733399
9925.000000;0.733181
9924.000000;0.732631
9923.000000;0.731725
9922.000000;0.730798
9921.000000;0.730267
9920.000000;0.730315
9919.000000;0.730759
9918.000000;0.731184
9917.000000;0.731221
9916.000000;0.730731
9915.000000;0.729771
9914.000000;0.728530
9913.000000;0.727331
9912.000000;0.726531
9911.000000;0.726238
9910.000000;0.726166
9909.000000;0.725918
9908.000000;0.725374
9907.000000;0.724675
9906.000000;0.723925
9905.000000;0.723126
9904.000000;0.722410
9903.000000;0.722058
9902.000000;0.722172
9901.000000;0.722452
9900.000000;0.722432
9899.000000;0.721880
9898.000000;0.720939
9897.000000;0.719966
9896.000000;0.719284
9895.000000;0.718979
9894.000000;0.718864
9893.000000;0.718678
9892.000000;0.718354
9891.000000;0.718011
9890.000000;0.717683
9889.000000;0.717198
9888.000000;0.716403
9887.000000;0.715402
9886.000000;0.714461
9885.000000;0.713723
9884.000000;0.713130
9883.000000;0.712593
9882.000000;0.712182
9881.000000;0.712103
9880.000000;0.712474
9879.000000;0.713079
9878.000000;0.713387
9877.000000;0.712949
9876.000000;0.711820
9875.000000;0.710475
9874.000000;0.709337
9873.000000;0.708514
9872.000000;0.707984
9871.000000;0.707796
9870.000000;0.707946
9869.000000;0.708203
9868.000000;0.708255
9867.000000;0.707984
9866.000000;0.707481
9865.000000;0.706877
9864.000000;0.706262
9863.000000;0.705700
9862.000000;0.705176
9861.000000;0.704569
9860.000000;0.703810
9859.000000;0.703021
9858.000000;0.702394
9857.000000;0.701973
9856.000000;0.701657
9855.000000;0.701348
9854.000000;0.700959
9853.000000;0.700360
9852.000000;0.699495
9851.000000;0.698534
9850.000000;0.697744
9849.000000;0.697188
9848.000000;0.696740
9847.000000;0.696366
9846.000000;0.696199
9845.000000;0.696258
9844.000000;0.696300
9843.000000;0.696076
9842.000000;0.695612
9841.000000;0.695109
9840.000000;0.694693
9839.000000;0.694374
9838.000000;0.694155
9837.000000;0.694013
9836.000000;0.693811
9835.000000;0.693393
9834.000000;0.692775
9833.000000;0.692148
9832.000000;0.691658
9831.000000;0.691277
9830.000000;0.690892
9829.000000;0.690432
9828.000000;0.689898
9827.000000;0.689300
9826.000000;0.688636
9825.000000;0.687914
9824.000000;0.687199
9823.000000;0.686638
9822.000000;0.686391
9821.000000;0.686461
9820.000000;0.686585
9819.000000;0.686394
9818.000000;0.685746
9817.000000;0.684853
9816.000000;0.684057
9815.000000;0.683502
9814.000000;0.683049
9813.000000;0.682496
9812.000000;0.681813
9811.000000;0.681153
9810.000000;0.680682
9809.000000;0.680419
9808.000000;0.680241
9807.000000;0.680032
9806.000000;0.679802
9805.000000;0.679649
9804.000000;0.679586
9803.000000;0.679443
9802.000000;0.679012
9801.000000;0.678300
9800.000000;0.677596
9799.000000;0.677213
9798.000000;0.677173
9797.000000;0.677176
9796.000000;0.676916
9795.000000;0.676389
9794.000000;0.675861
9793.000000;0.675540
9792.000000;0.675338
9791.000000;0.674973
9790.000000;0.674294
9789.000000;0.673429
9788.000000;0.672618
9787.000000;0.671947
9786.000000;0.671315
9785.000000;0.670603
9784.000000;0.669798
9783.000000;0.668929
9782.000000;0.668029
9781.000000;0.667207
9780.000000;0.666665
9779.000000;0.666525
9778.000000;0.666664
9777.000000;0.666820
9776.000000;0.666825
9775.000000;0.666643
9774.000000;0.666241
9773.000000;0.665586
9772.000000;0.664800
9771.000000;0.664133
9770.000000;0.663716
9769.000000;0.663419
9768.000000;0.663054
9767.000000;0.662614
9766.000000;0.662232
9765.000000;0.661991
9764.000000;0.661864
9763.000000;0.661761
9762.000000;0.661523
9761.000000;0.660962
9760.000000;0.660056
9759.000000;0.659058
9758.000000;0.658259
9757.000000;0.657670
9756.000000;0.657095
9755.000000;0.656501
9754.000000;0.656117
9753.000000;0.656088
9752.000000;0.656194
9751.000000;0.656043
9750.000000;0.655466
9749.000000;0.654646
9748.000000;0.653923
9747.000000;0.653565
9746.000000;0.653630
9745.000000;0.653919
9744.000000;0.654057
9743.000000;0.653741
9742.000000;0.652965
9741.000000;0.651973
9740.000000;0.651019
9739.000000;0.650209
9738.000000;0.649557
9737.000000;0.649093
9736.000000;0.648863
9735.000000;0.648815
9734.000000;0.648756
9733.000000;0.648491
9732.000000;0.648038
9731.000000;0.647640
9730.000000;0.647464
9729.000000;0.647324
9728.000000;0.646833
9727.000000;0.645874
9726.000000;0.644788
9725.000000;0.644008
9724.000000;0.643631
9723.000000;0.643448
9722.000000;0.643291
9721.000000;0.643158
9720.000000;0.643045
9719.000000;0.642866
9718.000000;0.642561
9717.000000;0.642138
9716.000000;0.641586
9715.000000;0.640876
9714.000000;0.640136
9713.000000;0.639642
9712.000000;0.639526
9711.000000;0.639566
9710.000000;0.639387
9709.000000;0.638796
9708.000000;0.637868
9707.000000;0.636796
9706.000000;0.635790
9705.000000;0.635043
9704.000000;0.634638
9703.000000;0.634468
9702.000000;0.634367
9701.000000;0.634273
9700.000000;0.634165
9699.000000;0.633899
9698.000000;0.633300
9697.000000;0.632447
9696.000000;0.631671
9695.000000;0.631170
9694.000000;0.630778
9693.000000;0.630230
9692.000000;0.629536
9691.000000;0.628958
9690.000000;0.628669
9689.000000;0.628574
9688.000000;0.628453
9687.000000;0.628166
9686.000000;0.627710
9685.000000;0.627189
9684.000000;0.626732
9683.000000;0.626399
9682.000000;0.626107
9681.000000;0.625701
9680.000000;0.625104
9679.000000;0.624373
9678.000000;0.623641
9677.000000;0.623046
9676.000000;0.622685
9675.000000;0.622558
9674.000000;0.622533
9673.000000;0.622434
9672.000000;0.622170
9671.000000;0.621777
9670.000000;0.621346
9669.000000;0.620959
9668.000000;0.620658
9667.000000;0.620432
9666.000000;0.620225
9665.000000;0.620007
9664.000000;0.619781
9663.000000;0.619479
9662.000000;0.618923
9661.000000;0.618035
9660.000000;0.617048
9659.000000;0.616358
9658.000000;0.616110
9657.000000;0.616061
9656.000000;0.615874
9655.000000;0.615424
9654.000000;0.614763
9653.000000;0.613966
9652.000000;0.613139
9651.000000;0.612476
9650.000000;0.612102
9649.000000;0.611885
9648.000000;0.611563
9647.000000;0.611053
9646.000000;0.610525
9645.000000;0.610152
9644.000000;0.609908
9643.000000;0.609632
9642.000000;0.609211
9641.000000;0.608653
9640.000000;0.608060
9639.000000;0.607564
9638.000000;0.607251
9637.000000;0.607112
9636.000000;0.607061
9635.000000;0.607001
9634.000000;0.606825
9633.000000;0.606414
9632.000000;0.605748
9631.000000;0.605003
9630.000000;0.604426
9629.000000;0.604087
9628.000000;0.603811
9627.000000;0.603395
9626.000000;0.602807
9625.000000;0.602153
9624.000000;0.601551
9623.000000;0.601087
9622.000000;0.600784
9621.000000;0.600542
9620.000000;0.600178
9619.000000;0.599625
9618.000000;0.599021
9617.000000;0.598534
9616.000000;0.598183
9615.000000;0.597920
9614.000000;0.597779
9613.000000;0.597805
9612.000000;0.597877
9611.000000;0.597788
9610.000000;0.597485
9609.000000;0.597082
9608.000000;0.596626
9607.000000;0.596012
9606.000000;0.595197
9605.000000;0.594333
9604.000000;0.593599
9603.000000;0.593035
9602.000000;0.592627
9601.000000;0.592414
9600.000000;0.592384
9599.000000;0.592333
9598.000000;0.592023
9597.000000;0.591438
9596.000000;0.590763
9595.000000;0.590117
9594.000000;0.589457
9593.000000;0.588779
9592.000000;0.588255
9591.000000;0.588059
9590.000000;0.588131
9589.000000;0.588215
9588.000000;0.588096
9587.000000;0.587733
9586.000000;0.587171
9585.000000;0.586427
9584.000000;0.585535
9583.000000;0.584676
9582.000000;0.584147
9581.000000;0.584110
9580.000000;0.584390
9579.000000;0.584594
9578.000000;0.584461
9577.000000;0.584055
9576.000000;0.583584
9575.000000;0.583123
9574.000000;0.582579
9573.000000;0.581874
9572.000000;0.581064
9571.000000;0.580299
9570.000000;0.579755
9569.000000;0.579542
9568.000000;0.579581
9567.000000;0.579578
9566.000000;0.579236
9565.000000;0.578526
9564.000000;0.577678
9563.000000;0.576904
9562.000000;0.576228
9561.000000;0.575606
9560.000000;0.575080
9559.000000;0.574732
9558.000000;0.574550
9557.000000;0.574429
9556.000000;0.574268
9555.000000;0.574001
9554.000000;0.573585
9553.000000;0.573048
9552.000000;0.572511
9551.000000;0.572110
9550.000000;0.571879
9549.000000;0.571751
9548.000000;0.571636
9547.000000;0.571475
9546.000000;0.571221
9545.000000;0.570843
9544.000000;0.570337
9543.000000;0.569716
9542.000000;0.569006
9541.000000;0.568283
9540.000000;0.567653
9539.000000;0.567165
9538.000000;0.566771
9537.000000;0.566414
9536.000000;0.566112
9535.000000;0.565911
9534.000000;0.565792
9533.000000;0.565673
9532.000000;0.565477
9531.000000;0.565126
9530.000000;0.564536
9529.000000;0.563725
9528.000000;0.562911
9527.000000;0.562366
9526.000000;0.562146
9525.000000;0.562037
9524.000000;0.561802
9523.000000;0.561417
9522.000000;0.560998
9521.000000;0.560605
9520.000000;0.560200
9519.000000;0.559767
9518.000000;0.559365
9517.000000;0.559029
9516.000000;0.558691
9515.000000;0.558226
9514.000000;0.557601
9513.000000;0.556948
9512.000000;0.556474
9511.000000;0.556288
9510.000000;0.556285
9509.000000;0.556235
9508.000000;0.555989
9507.000000;0.555599
9506.000000;0.555225
9505.000000;0.554933
9504.000000;0.554624
9503.000000;0.554163
9502.000000;0.553558
9501.000000;0.552970
9500.000000;0.552559
9499.000000;0.552333
9498.000000;0.552156
9497.000000;0.551867
9496.000000;0.551376
9495.000000;0.550686
9494.000000;0.549890
9493.000000;0.549168
9492.000000;0.548707
9491.000000;0.548549
9490.000000;0.548521
9489.000000;0.548361
9488.000000;0.547959
9487.000000;0.547439
9486.000000;0.546976
9485.000000;0.546547
9484.000000;0.545947
9483.000000;0.545075
9482.000000;0.544176
9481.000000;0.543674
9480.000000;0.543741
9479.000000;0.544091
9478.000000;0.544261
9477.000000;0.544043
9476.000000;0.543569
9475.000000;0.543019
9474.000000;0.542410
9473.000000;0.541685
9472.000000;0.540903
9471.000000;0.540238
9470.000000;0.539832
9469.000000;0.539706
9468.000000;0.539775
9467.000000;0.539890
9466.000000;0.539899
9465.000000;0.539700
9464.000000;0.539265
9463.000000;0.538625
9462.000000;0.537883
9461.000000;0.537226
9460.000000;0.536817
9459.000000;0.536625
9458.000000;0.536426
9457.000000;0.536042
9456.000000;0.535526
9455.000000;0.535078
9454.000000;0.534818
9453.000000;0.534708
9452.000000;0.534615
9451.000000;0.534382
9450.000000;0.533901
9449.000000;0.533220
9448.000000;0.532532
9447.000000;0.531985
9446.000000;0.531532
9445.000000;0.531047
9444.000000;0.530539
9443.000000;0.530131
9442.000000;0.529850
9441.000000;0.529583
9440.000000;0.529234
9439.000000;0.528821
9438.000000;0.528392
9437.000000;0.527957
9436.000000;0.527536
9435.000000;0.527162
9434.000000;0.526792
9433.000000;0.526311
9432.000000;0.525675
9431.000000;0.525003
9430.000000;0.524473
9429.000000;0.524170
9428.000000;0.524060
9427.000000;0.524028
9426.000000;0.523914
9425.000000;0.523594
9424.000000;0.523083
9423.000000;0.522539
9422.000000;0.522126
9421.000000;0.521903
9420.000000;0.521838
9419.000000;0.521845
9418.000000;0.521792
9417.000000;0.521551
9416.000000;0.521119
9415.000000;0.520616
9414.000000;0.520154
9413.000000;0.519748
9412.000000;0.519397
9411.000000;0.519139
9410.000000;0.518965
9409.000000;0.518756
9408.000000;0.518389
9407.000000;0.517875
9406.000000;0.517312
9405.000000;0.516746
9404.000000;0.516160
9403.000000;0.515575
9402.000000;0.515067
9401.000000;0.514696
9400.000000;0.514467
9399.000000;0.514322
9398.000000;0.514118
9397.000000;0.513685
9396.000000;0.513024
9395.000000;0.512404
9394.000000;0.512151
9393.000000;0.512285
9392.000000;0.512468
9391.000000;0.512345
9390.000000;0.511864
9389.000000;0.511231
9388.000000;0.510630
9387.000000;0.510084
9386.000000;0.509542
9385.000000;0.509006
9384.000000;0.508550
9383.000000;0.508236
9382.000000;0.508061
9381.000000;0.507973
9380.000000;0.507915
9379.000000;0.507829
9378.000000;0.507634
9377.000000;0.507259
9376.000000;0.506730
9375.000000;0.506181
9374.000000;0.505739
9373.000000;0.505404
9372.000000;0.505073
9371.000000;0.504673
9370.000000;0.504215
9369.000000;0.503737
9368.000000;0.503259
9367.000000;0.502809
9366.000000;0.502425
9365.000000;0.502100
9364.000000;0.501752
9363.000000;0.501304
9362.000000;0.500759
9361.000000;0.500201
9360.000000;0.499719
9359.000000;0.499349
9358.000000;0.499073
9357.000000;0.498841
9356.000000;0.498599
9355.000000;0.498328
9354.000000;0.498062
9353.000000;0.497836
9352.000000;0.497611
9351.000000;0.497271
9350.000000;0.496714
9349.000000;0.495970
9348.000000;0.495220
9347.000000;0.494676
9346.000000;0.494436
9345.000000;0.494416
9344.000000;0.494435
9343.000000;0.494352
9342.000000;0.494132
9341.000000;0.493822
9340.000000;0.493483
9339.000000;0.493153
9338.000000;0.492836
9337.000000;0.492523
9336.000000;0.492174
9335.000000;0.491722
9334.000000;0.491113
9333.000000;0.490410
9332.000000;0.489821
9331.000000;0.489548
9330.000000;0.489561
9329.000000;0.489575
9328.000000;0.489296
9327.000000;0.488707
9326.000000;0.488048
9325.000000;0.487547
9324.000000;0.487225
9323.000000;0.486973
9322.000000;0.486740
9321.000000;0.486565
9320.000000;0.486480
9319.000000;0.486409
9318.000000;0.486202
9317.000000;0.485741
9316.000000;0.485044
9315.000000;0.484272
9314.000000;0.483631
9313.000000;0.483206
9312.000000;0.482891
9311.000000;0.482516
9310.000000;0.482056
9309.000000;0.481665
9308.000000;0.481498
9307.000000;0.481501
9306.000000;0.481440
9305.000000;0.481134
9304.000000;0.480625
9303.000000;0.480101
9302.000000;0.479698
9301.000000;0.479382
9300.000000;0.479035
9299.000000;0.478602
9298.000000;0.478140
9297.000000;0.477747
9296.000000;0.477453
9295.000000;0.477200
9294.000000;0.476907
9293.000000;0.476554
9292.000000;0.476189
9291.000000;0.475866
9290.000000;0.475581
9289.000000;0.475273
9288.000000;0.474893
9287.000000;0.474464
9286.000000;0.474076
9285.000000;0.473791
9284.000000;0.473552
9283.000000;0.473217
9282.000000;0.472716
9281.000000;0.472179
9280.000000;0.471849
9279.000000;0.471827
9278.000000;0.471937
9277.000000;0.471872
9276.000000;0.471482
9275.000000;0.470888
9274.000000;0.470327
9273.000000;0.469937
9272.000000;0.469709
9271.000000;0.469588
9270.000000;0.469556
9269.000000;0.469587
9268.000000;0.469565
9267.000000;0.469302
9266.000000;0.468661
9265.000000;0.467692
9264.000000;0.466633
9263.000000;0.465784
9262.000000;0.465345
9261.000000;0.465320
9260.000000;0.465527
9259.000000;0.465707
9258.000000;0.465651
9257.000000;0.465284
9256.000000;0.464675
9255.000000;0.463995
9254.000000;0.463442
9253.000000;0.463135
9252.000000;0.463021
9251.000000;0.462904
9250.000000;0.462628
9249.000000;0.462225
9248.000000;0.461863
9247.000000;0.461629
9246.000000;0.461441
9245.000000;0.461159
9244.000000;0.460738
9243.000000;0.460224
9242.000000;0.459687
9241.000000;0.459223
9240.000000;0.458945
9239.000000;0.458881
9238.000000;0.458888
9237.000000;0.458769
9236.000000;0.458469
9235.000000;0.458083
9234.000000;0.457673
9233.000000;0.457192
9232.000000;0.456631
9231.000000;0.456119
9230.000000;0.455794
9229.000000;0.455615
9228.000000;0.455420
9227.000000;0.455134
9226.000000;0.454825
9225.000000;0.454569
9224.000000;0.454331
9223.000000;0.454034
9222.000000;0.453670
9221.000000;0.453307
9220.000000;0.452996
9219.000000;0.452718
9218.000000;0.452411
9217.000000;0.452033
9216.000000;0.451601
9215.000000;0.451169
9214.000000;0.450774
9213.000000;0.450408
9212.000000;0.450054
9211.000000;0.449716
9210.000000;0.449398
9209.000000;0.449053
9208.000000;0.448644
9207.000000;0.448249
9206.000000;0.448030
9205.000000;0.448023
9204.000000;0.448018
9203.000000;0.447750
9202.000000;0.447197
9201.000000;0.446588
9200.000000;0.446121
9199.000000;0.445755
9198.000000;0.445354
9197.000000;0.444924
9196.000000;0.444600
9195.000000;0.444435
9194.000000;0.444329
9193.000000;0.444177
9192.000000;0.443997
9191.000000;0.443848
9190.000000;0.443702
9189.000000;0.443480
9188.000000;0.443161
9187.000000;0.442787
9186.000000;0.442381
9185.000000;0.441907
9184.000000;0.441361
9183.000000;0.440823
9182.000000;0.440408
9181.000000;0.440143
9180.000000;0.439920
9179.000000;0.439579
9178.000000;0.439066
9177.000000;0.438498
9176.000000;0.438055
9175.000000;0.437794
9174.000000;0.437611
9173.000000;0.437376
9172.000000;0.437077
9171.000000;0.436780
9170.000000;0.436504
9169.000000;0.436198
9168.000000;0.435835
9167.000000;0.435475
9166.000000;0.435194
9165.000000;0.434993
9164.000000;0.434811
9163.000000;0.434611
9162.000000;0.434419
9161.000000;0.434271
9160.000000;0.434116
9159.000000;0.433842
9158.000000;0.433404
9157.000000;0.432915
9156.000000;0.432545
9155.000000;0.432336
9154.000000;0.432166
9153.000000;0.431892
9152.000000;0.431483
9151.000000;0.430992
9150.000000;0.430487
9149.000000;0.430044
9148.000000;0.429747
9147.000000;0.429597
9146.000000;0.429470
9145.000000;0.429240
9144.000000;0.428918
9143.000000;0.428615
9142.000000;0.428378
9141.000000;0.428179
9140.000000;0.428008
9139.000000;0.427883
9138.000000;0.427748
9137.000000;0.427486
9136.000000;0.427086
9135.000000;0.426685
9134.000000;0.426389
9133.000000;0.426124
9132.000000;0.425753
9131.000000;0.425278
9130.000000;0.424822
9129.000000;0.424445
9128.000000;0.424071
9127.000000;0.423626
9126.000000;0.423155
9125.000000;0.422773
9124.000000;0.422522
9123.000000;0.422343
9122.000000;0.422167
9121.000000;0.421994
9120.000000;0.421845
9119.000000;0.421654
9118.000000;0.421276
9117.000000;0.420667
9116.000000;0.420014
9115.000000;0.419587
9114.000000;0.419460
9113.000000;0.419432
9112.000000;0.419257
9111.000000;0.418884
9110.000000;0.418429
9109.000000;0.417990
9108.000000;0.417577
9107.000000;0.417191
9106.000000;0.416871
9105.000000;0.416640
9104.000000;0.416478
9103.000000;0.416345
9102.000000;0.416205
9101.000000;0.416002
9100.000000;0.415693
9099.000000;0.415317
9098.000000;0.414988
9097.000000;0.414779
9096.000000;0.414633
9095.000000;0.414434
9094.000000;0.414144
9093.000000;0.413817
9092.000000;0.413501
9091.000000;0.413171
9090.000000;0.412785
9089.000000;0.412362
9088.000000;0.411957
9087.000000;0.411580
9086.000000;0.411174
9085.000000;0.410706
9084.000000;0.410243
9083.000000;0.409931
9082.000000;0.409855
9081.000000;0.409950
9080.000000;0.410025
9079.000000;0.409899
9078.000000;0.409536
9077.000000;0.409061
9076.000000;0.408652
9075.000000;0.408378
9074.000000;0.408162
9073.000000;0.407879
9072.000000;0.407493
9071.000000;0.407061
9070.000000;0.406647
9069.000000;0.406266
9068.000000;0.405934
9067.000000;0.405681
9066.000000;0.405485
9065.000000;0.405220
9064.000000;0.404755
9063.000000;0.404120
9062.000000;0.403509
9061.000000;0.403103
9060.000000;0.402917
9059.000000;0.402837
9058.000000;0.402767
9057.000000;0.402695
9056.000000;0.402625
9055.000000;0.402514
9054.000000;0.402311
9053.000000;0.402019
