Criado como novo conjunto de dados;"Jao_teste_celulas.spp","10744.4 Secs"
cm-1;Abs
10000.000000;2.008432
9999.000000;2.006976
9998.000000;2.005524
9997.000000;2.004076
9996.000000;2.002637
9995.000000;2.001195
9994.000000;1.999770
9993.000000;1.998327
9992.000000;1.996951
9991.000000;1.994012
9990.000000;1.990604
9989.000000;1.987009
9988.000000;1.982688
9987.000000;1.978143
9986.000000;1.975676
9985.000000;1.977290
9984.000000;1.981806
9983.000000;1.985348
9982.000000;1.985270
9981.000000;1.982735
9980.000000;1.980851
9979.000000;1.981491
9978.000000;1.984380
9977.000000;1.987927
9976.000000;1.990213
9975.000000;1.990030
9974.000000;1.987738
9973.000000;1.984678
9972.000000;1.981635
9971.000000;1.978683
9970.000000;1.976567
9969.000000;1.976742
9968.000000;1.979163
9967.000000;1.981093
9966.000000;1.979602
9965.000000;1.975123
9964.000000;1.971213
9963.000000;1.970698
9962.000000;1.972963
9961.000000;1.974962
9960.000000;1.974342
9959.000000;1.971486
9958.000000;1.968724
9957.000000;1.967813
9956.000000;1.968398
9955.000000;1.968861
9954.000000;1.968293
9953.000000;1.967223
9952.000000;1.966470
9951.000000;1.966086
9950.000000;1.965627
9949.000000;1.965038
9948.000000;1.965179
9947.000000;1.967340
9946.000000;1.971800
9945.000000;1.976732
9944.000000;1.979098
9943.000000;1.977413
9942.000000;1.973488
9941.000000;1.970683
9940.000000;1.970602
9939.000000;1.972063
9938.000000;1.972726
9937.000000;1.970944
9936.000000;1.966493
9935.000000;1.960986
9934.000000;1.957418
9933.000000;1.957855
9932.000000;1.961255
9931.000000;1.964378
9930.000000;1.965274
9929.000000;1.964788
9928.000000;1.964166
9927.000000;1.963066
9926.000000;1.961034
9925.000000;1.959094
9924.000000;1.958334
9923.000000;1.958037
9922.000000;1.956641
9921.000000;1.954188
9920.000000;1.952485
9919.000000;1.952863
9918.000000;1.954812
9917.000000;1.956734
9916.000000;1.957346
9915.000000;1.956636
9914.000000;1.956144
9913.000000;1.957864
9912.000000;1.961983
9911.000000;1.965793
9910.000000;1.965876
9909.000000;1.961708
9908.000000;1.956247
9907.000000;1.952913
9906.000000;1.952864
9905.000000;1.954874
9904.000000;1.956803
9903.000000;1.957008
9902.000000;1.955141
9901.000000;1.952230
9900.000000;1.949707
9899.000000;1.948095
9898.000000;1.947068
9897.000000;1.946531
9896.000000;1.946906
9895.000000;1.948193
9894.000000;1.949217
9893.000000;1.948397
9892.000000;1.945235
9891.000000;1.940724
9890.000000;1.936479
9889.000000;1.933649
9888.000000;1.932387
9887.000000;1.932074
9886.000000;1.932203
9885.000000;1.932968
9884.000000;1.934585
9883.000000;1.936412
9882.000000;1.937386
9881.000000;1.937223
9880.000000;1.936529
9879.000000;1.935627
9878.000000;1.934195
9877.000000;1.932331
9876.000000;1.931047
9875.000000;1.931046
9874.000000;1.931664
9873.000000;1.931888
9872.000000;1.932043
9871.000000;1.933364
9870.000000;1.935884
9869.000000;1.937797
9868.000000;1.937516
9867.000000;1.935688
9866.000000;1.934245
9865.000000;1.934123
9864.000000;1.934674
9863.000000;1.934689
9862.000000;1.933557
9861.000000;1.931649
9860.000000;1.929882
9859.000000;1.928874
9858.000000;1.928238
9857.000000;1.926977
9856.000000;1.924965
9855.000000;1.923606
9854.000000;1.924252
9853.000000;1.926143
9852.000000;1.926896
9851.000000;1.925430
9850.000000;1.923330
9849.000000;1.922541
9848.000000;1.922917
9847.000000;1.923184
9846.000000;1.923387
9845.000000;1.924718
9844.000000;1.927204
9843.000000;1.929311
9842.000000;1.930213
9841.000000;1.931020
9840.000000;1.932883
9839.000000;1.934887
9838.000000;1.935073
9837.000000;1.933136
9836.000000;1.930766
9835.000000;1.929313
9834.000000;1.928255
9833.000000;1.926182
9832.000000;1.922599
9831.000000;1.918448
9830.000000;1.915171
9829.000000;1.913568
9828.000000;1.913501
9827.000000;1.914532
9826.000000;1.916538
9825.000000;1.919360
9824.000000;1.922016
9823.000000;1.922984
9822.000000;1.921752
9821.000000;1.919672
9820.000000;1.918688
9819.000000;1.919380
9818.000000;1.920614
9817.000000;1.920942
9816.000000;1.920029
9815.000000;1.918657
9814.000000;1.917680
9813.000000;1.917211
9812.000000;1.916623
9811.000000;1.915162
9810.000000;1.912751
9809.000000;1.910430
9808.000000;1.909914
9807.000000;1.912359
9806.000000;1.917149
9805.000000;1.921795
9804.000000;1.923481
9803.000000;1.921296
9802.000000;1.916804
9801.000000;1.912201
9800.000000;1.908489
9799.000000;1.905747
9798.000000;1.904329
9797.000000;1.904754
9796.000000;1.906619
9795.000000;1.908530
9794.000000;1.909428
9793.000000;1.909431
9792.000000;1.908971
9791.000000;1.908112
9790.000000;1.907301
9789.000000;1.907435
9788.000000;1.908246
9787.000000;1.907722
9786.000000;1.904374
9785.000000;1.899394
9784.000000;1.895305
9783.000000;1.893225
9782.000000;1.892602
9781.000000;1.893000
9780.000000;1.894601
9779.000000;1.896768
9778.000000;1.897873
9777.000000;1.897416
9776.000000;1.896935
9775.000000;1.897816
9774.000000;1.899104
9773.000000;1.898581
9772.000000;1.895751
9771.000000;1.892712
9770.000000;1.891984
9769.000000;1.894125
9768.000000;1.897465
9767.000000;1.899849
9766.000000;1.900628
9765.000000;1.900929
9764.000000;1.901812
9763.000000;1.902570
9762.000000;1.901518
9761.000000;1.898425
9760.000000;1.895184
9759.000000;1.893602
9758.000000;1.893439
9757.000000;1.893328
9756.000000;1.893048
9755.000000;1.893666
9754.000000;1.895401
9753.000000;1.896549
9752.000000;1.895229
9751.000000;1.891825
9750.000000;1.888934
9749.000000;1.888735
9748.000000;1.890731
9747.000000;1.892318
9746.000000;1.891482
9745.000000;1.888677
9744.000000;1.885847
9743.000000;1.884008
9742.000000;1.882471
9741.000000;1.880523
9740.000000;1.879098
9739.000000;1.879962
9738.000000;1.883322
9737.000000;1.886884
9736.000000;1.887673
9735.000000;1.884814
9734.000000;1.880120
9733.000000;1.876020
9732.000000;1.873528
9731.000000;1.872278
9730.000000;1.871898
9729.000000;1.872675
9728.000000;1.874730
9727.000000;1.877196
9726.000000;1.878860
9725.000000;1.879489
9724.000000;1.879975
9723.000000;1.880980
9722.000000;1.881855
9721.000000;1.881358
9720.000000;1.879301
9719.000000;1.876974
9718.000000;1.875739
9717.000000;1.875514
9716.000000;1.874898
9715.000000;1.872934
9714.000000;1.870642
9713.000000;1.870407
9712.000000;1.873449
9711.000000;1.877935
9710.000000;1.880138
9709.000000;1.878141
9708.000000;1.873892
9707.000000;1.870929
9706.000000;1.870868
9705.000000;1.872659
9704.000000;1.874513
9703.000000;1.875550
9702.000000;1.875478
9701.000000;1.873857
9700.000000;1.870652
9699.000000;1.866996
9698.000000;1.864394
9697.000000;1.863248
9696.000000;1.862774
9695.000000;1.862382
9694.000000;1.862420
9693.000000;1.863247
9692.000000;1.864274
9691.000000;1.864431
9690.000000;1.863308
9689.000000;1.861572
9688.000000;1.860319
9687.000000;1.860194
9686.000000;1.861158
9685.000000;1.862801
9684.000000;1.864698
9683.000000;1.866595
9682.000000;1.868147
9681.000000;1.868437
9680.000000;1.866232
9679.000000;1.861326
9678.000000;1.855560
9677.000000;1.851811
9676.000000;1.851708
9675.000000;1.854320
9674.000000;1.856833
9673.000000;1.856747
9672.000000;1.853928
9671.000000;1.850701
9670.000000;1.849779
9669.000000;1.851949
9668.000000;1.855545
9667.000000;1.858084
9666.000000;1.858579
9665.000000;1.858033
9664.000000;1.857624
9663.000000;1.857085
9662.000000;1.855312
9661.000000;1.852301
9660.000000;1.849809
9659.000000;1.849538
9658.000000;1.851126
9657.000000;1.852557
9656.000000;1.852506
9655.000000;1.851815
9654.000000;1.852360
9653.000000;1.854760
9652.000000;1.857721
9651.000000;1.859591
9650.000000;1.859883
9649.000000;1.858960
9648.000000;1.857056
9647.000000;1.854303
9646.000000;1.851256
9645.000000;1.848649
9644.000000;1.846537
9643.000000;1.844265
9642.000000;1.841591
9641.000000;1.839302
9640.000000;1.838493
9639.000000;1.839556
9638.000000;1.841959
9637.000000;1.844612
9636.000000;1.846391
9635.000000;1.846730
9634.000000;1.845998
9633.000000;1.845014
9632.000000;1.843964
9631.000000;1.842256
9630.000000;1.839822
9629.000000;1.838010
9628.000000;1.838426
9627.000000;1.841106
9626.000000;1.844396
9625.000000;1.846652
9624.000000;1.847474
9623.000000;1.847126
9622.000000;1.845597
9621.000000;1.842949
9620.000000;1.840103
9619.000000;1.838416
9618.000000;1.838351
9617.000000;1.839012
9616.000000;1.839060
9615.000000;1.837832
9614.000000;1.835582
9613.000000;1.832885
9612.000000;1.830081
9611.000000;1.827479
9610.000000;1.825691
9609.000000;1.825292
9608.000000;1.826296
9607.000000;1.828176
9606.000000;1.830283
9605.000000;1.831985
9604.000000;1.832587
9603.000000;1.831661
9602.000000;1.829546
9601.000000;1.827031
9600.000000;1.824374
9599.000000;1.821186
9598.000000;1.817757
9597.000000;1.815873
9596.000000;1.817343
9595.000000;1.821719
9594.000000;1.826170
9593.000000;1.828038
9592.000000;1.827212
9591.000000;1.825623
9590.000000;1.824949
9589.000000;1.825318
9588.000000;1.825722
9587.000000;1.825053
9586.000000;1.822957
9585.000000;1.820198
9584.000000;1.818248
9583.000000;1.818143
9582.000000;1.819441
9581.000000;1.820584
9580.000000;1.820565
9579.000000;1.819872
9578.000000;1.819505
9577.000000;1.819389
9576.000000;1.818318
9575.000000;1.815635
9574.000000;1.812534
9573.000000;1.811095
9572.000000;1.812159
9571.000000;1.814614
9570.000000;1.816777
9569.000000;1.817941
9568.000000;1.818192
9567.000000;1.817374
9566.000000;1.815351
9565.000000;1.813118
9564.000000;1.812476
9563.000000;1.814326
9562.000000;1.817794
9561.000000;1.821155
9560.000000;1.823269
9559.000000;1.823879
9558.000000;1.823061
9557.000000;1.821142
9556.000000;1.818837
9555.000000;1.816736
9554.000000;1.814739
9553.000000;1.812579
9552.000000;1.810788
9551.000000;1.810386
9550.000000;1.811384
9549.000000;1.812241
9548.000000;1.811308
9547.000000;1.808614
9546.000000;1.805761
9545.000000;1.804256
9544.000000;1.804371
9543.000000;1.805401
9542.000000;1.806446
9541.000000;1.806897
9540.000000;1.806660
9539.000000;1.806202
9538.000000;1.806278
9537.000000;1.807295
9536.000000;1.808815
9535.000000;1.809860
9534.000000;1.809798
9533.000000;1.808740
9532.000000;1.807021
9531.000000;1.804755
9530.000000;1.802328
9529.000000;1.800874
9528.000000;1.801369
9527.000000;1.803072
9526.000000;1.803515
9525.000000;1.800862
9524.000000;1.796154
9523.000000;1.792397
9522.000000;1.791574
9521.000000;1.793223
9520.000000;1.795684
9519.000000;1.797826
9518.000000;1.799136
9517.000000;1.798978
9516.000000;1.796901
9515.000000;1.793550
9514.000000;1.790430
9513.000000;1.788548
9512.000000;1.787811
9511.000000;1.787938
9510.000000;1.789115
9509.000000;1.791174
9508.000000;1.792897
9507.000000;1.793231
9506.000000;1.792975
9505.000000;1.794105
9504.000000;1.797171
9503.000000;1.800251
9502.000000;1.800975
9501.000000;1.798949
9500.000000;1.795500
9499.000000;1.791814
9498.000000;1.788449
9497.000000;1.786242
9496.000000;1.786352
9495.000000;1.788902
9494.000000;1.792317
9493.000000;1.794705
9492.000000;1.795569
9491.000000;1.795557
9490.000000;1.794965
9489.000000;1.793403
9488.000000;1.790989
9487.000000;1.788887
9486.000000;1.788161
9485.000000;1.788549
9484.000000;1.788811
9483.000000;1.788217
9482.000000;1.787217
9481.000000;1.786471
9480.000000;1.785719
9479.000000;1.784147
9478.000000;1.781800
9477.000000;1.779971
9476.000000;1.779792
9475.000000;1.780801
9474.000000;1.781494
9473.000000;1.781187
9472.000000;1.780604
9471.000000;1.780514
9470.000000;1.780683
9469.000000;1.780555
9468.000000;1.780225
9467.000000;1.780068
9466.000000;1.779748
9465.000000;1.778397
9464.000000;1.775990
9463.000000;1.773796
9462.000000;1.773111
9461.000000;1.774026
9460.000000;1.775640
9459.000000;1.776959
9458.000000;1.777247
9457.000000;1.776118
9456.000000;1.773973
9455.000000;1.772166
9454.000000;1.772098
9453.000000;1.773941
9452.000000;1.776467
9451.000000;1.778243
9450.000000;1.778801
9449.000000;1.778499
9448.000000;1.777572
9447.000000;1.775771
9446.000000;1.772979
9445.000000;1.769802
9444.000000;1.767328
9443.000000;1.766356
9442.000000;1.766910
9441.000000;1.768418
9440.000000;1.770205
9439.000000;1.771790
9438.000000;1.772818
9437.000000;1.772968
9436.000000;1.772122
9435.000000;1.770639
9434.000000;1.769248
9433.000000;1.768426
9432.000000;1.767862
9431.000000;1.766815
9430.000000;1.765167
9429.000000;1.763659
9428.000000;1.762806
9427.000000;1.762128
9426.000000;1.761087
9425.000000;1.760512
9424.000000;1.762075
9423.000000;1.765875
9422.000000;1.769318
9421.000000;1.769354
9420.000000;1.765733
9419.000000;1.761092
9418.000000;1.757962
9417.000000;1.756739
9416.000000;1.756476
9415.000000;1.756566
9414.000000;1.757083
9413.000000;1.758113
9412.000000;1.759483
9411.000000;1.760945
9410.000000;1.762043
9409.000000;1.761913
9408.000000;1.759950
9407.000000;1.756835
9406.000000;1.754352
9405.000000;1.753915
9404.000000;1.755375
9403.000000;1.757265
9402.000000;1.758038
9401.000000;1.757055
9400.000000;1.754750
9399.000000;1.752196
9398.000000;1.750434
9397.000000;1.749893
9396.000000;1.750295
9395.000000;1.751095
9394.000000;1.751943
9393.000000;1.752666
9392.000000;1.753025
9391.000000;1.752868
9390.000000;1.752553
9389.000000;1.752730
9388.000000;1.753360
9387.000000;1.753203
9386.000000;1.750945
9385.000000;1.747043
9384.000000;1.743862
9383.000000;1.743461
9382.000000;1.745501
9381.000000;1.747704
9380.000000;1.748370
9379.000000;1.748011
9378.000000;1.748265
9377.000000;1.749724
9376.000000;1.751335
9375.000000;1.751719
9374.000000;1.750626
9373.000000;1.749028
9372.000000;1.748028
9371.000000;1.747744
9370.000000;1.747160
9369.000000;1.745275
9368.000000;1.742551
9367.000000;1.740786
9366.000000;1.741194
9365.000000;1.742888
9364.000000;1.743881
9363.000000;1.743551
9362.000000;1.743153
9361.000000;1.743686
9360.000000;1.744344
9359.000000;1.743605
9358.000000;1.741211
9357.000000;1.738343
9356.000000;1.736277
9355.000000;1.735682
9354.000000;1.736840
9353.000000;1.739427
9352.000000;1.741921
9351.000000;1.742267
9350.000000;1.739842
9349.000000;1.736215
9348.000000;1.733543
9347.000000;1.732720
9346.000000;1.733227
9345.000000;1.734027
9344.000000;1.734164
9343.000000;1.733173
9342.000000;1.731651
9341.000000;1.731081
9340.000000;1.732366
9339.000000;1.734643
9338.000000;1.736116
9337.000000;1.735973
9336.000000;1.734849
9335.000000;1.733492
9334.000000;1.731896
9333.000000;1.729959
9332.000000;1.728161
9331.000000;1.727120
9330.000000;1.726967
9329.000000;1.727598
9328.000000;1.729170
9327.000000;1.731823
9326.000000;1.735048
9325.000000;1.737626
9324.000000;1.738266
9323.000000;1.736393
9322.000000;1.732717
9321.000000;1.729133
9320.000000;1.727511
9319.000000;1.728085
9318.000000;1.729144
9317.000000;1.728748
9316.000000;1.726744
9315.000000;1.724720
9314.000000;1.724121
9313.000000;1.724885
9312.000000;1.725756
9311.000000;1.725517
9310.000000;1.723957
9309.000000;1.722025
9308.000000;1.721060
9307.000000;1.721545
9306.000000;1.722565
9305.000000;1.722719
9304.000000;1.721616
9303.000000;1.720213
9302.000000;1.719621
9301.000000;1.719893
9300.000000;1.720132
9299.000000;1.719421
9298.000000;1.717540
9297.000000;1.715152
9296.000000;1.713539
9295.000000;1.713791
9294.000000;1.715805
9293.000000;1.718145
9292.000000;1.719188
9291.000000;1.718389
9290.000000;1.716371
9289.000000;1.714102
9288.000000;1.712311
9287.000000;1.711406
9286.000000;1.711304
9285.000000;1.711297
9284.000000;1.710637
9283.000000;1.709534
9282.000000;1.709196
9281.000000;1.710630
9280.000000;1.713498
9279.000000;1.716245
9278.000000;1.717369
9277.000000;1.716546
9276.000000;1.714620
9275.000000;1.712651
9274.000000;1.711081
9273.000000;1.709821
9272.000000;1.708942
9271.000000;1.708823
9270.000000;1.709382
9269.000000;1.709548
9268.000000;1.708245
9267.000000;1.706019
9266.000000;1.704949
9265.000000;1.706394
9264.000000;1.709222
9263.000000;1.710811
9262.000000;1.709848
9261.000000;1.707610
9260.000000;1.706344
9259.000000;1.706984
9258.000000;1.708652
9257.000000;1.709849
9256.000000;1.709700
9255.000000;1.708262
9254.000000;1.706151
9253.000000;1.704170
9252.000000;1.703038
9251.000000;1.703103
9250.000000;1.704101
9249.000000;1.705254
9248.000000;1.705771
9247.000000;1.705313
9246.000000;1.704034
9245.000000;1.702286
9244.000000;1.700491
9243.000000;1.699231
9242.000000;1.698964
9241.000000;1.699386
9240.000000;1.699528
9239.000000;1.699019
9238.000000;1.698948
9237.000000;1.700609
9236.000000;1.703358
9235.000000;1.704629
9234.000000;1.702700
9233.000000;1.698848
9232.000000;1.695981
9231.000000;1.695678
9230.000000;1.697259
9229.000000;1.699238
9228.000000;1.700757
9227.000000;1.701506
9226.000000;1.701123
9225.000000;1.699395
9224.000000;1.696897
9223.000000;1.694884
9222.000000;1.694299
9221.000000;1.694835
9220.000000;1.695013
9219.000000;1.693433
9218.000000;1.690262
9217.000000;1.687335
9216.000000;1.686455
9215.000000;1.687706
9214.000000;1.689591
9213.000000;1.690593
9212.000000;1.690377
9211.000000;1.689607
9210.000000;1.689091
9209.000000;1.689226
9208.000000;1.689841
9207.000000;1.690323
9206.000000;1.690162
9205.000000;1.689572
9204.000000;1.689378
9203.000000;1.690131
9202.000000;1.691489
9201.000000;1.692481
9200.000000;1.692183
9199.000000;1.690282
9198.000000;1.687422
9197.000000;1.685055
9196.000000;1.684466
9195.000000;1.685609
9194.000000;1.687072
9193.000000;1.687387
9192.000000;1.686325
9191.000000;1.684761
9190.000000;1.683686
9189.000000;1.683616
9188.000000;1.684483
9187.000000;1.685642
9186.000000;1.686152
9185.000000;1.685469
9184.000000;1.683949
9183.000000;1.682556
9182.000000;1.682042
9181.000000;1.682358
9180.000000;1.682690
9179.000000;1.682053
9178.000000;1.680175
9177.000000;1.677919
9176.000000;1.676616
9175.000000;1.676921
9174.000000;1.678427
9173.000000;1.680270
9172.000000;1.681742
9171.000000;1.682390
9170.000000;1.682134
9169.000000;1.681468
9168.000000;1.680977
9167.000000;1.680437
9166.000000;1.678955
9165.000000;1.676363
9164.000000;1.673859
9163.000000;1.672803
9162.000000;1.673361
9161.000000;1.674759
9160.000000;1.676288
9159.000000;1.677405
9158.000000;1.677436
9157.000000;1.676193
9156.000000;1.674712
9155.000000;1.674433
9154.000000;1.675598
9153.000000;1.677134
9152.000000;1.677993
9151.000000;1.677880
9150.000000;1.676775
9149.000000;1.674735
9148.000000;1.672456
9147.000000;1.671133
9146.000000;1.671226
9145.000000;1.671888
9144.000000;1.672020
9143.000000;1.671457
9142.000000;1.670718
9141.000000;1.670037
9140.000000;1.669187
9139.000000;1.668040
9138.000000;1.666809
9137.000000;1.665834
9136.000000;1.665454
9135.000000;1.665934
9134.000000;1.667175
9133.000000;1.668653
9132.000000;1.669978
9131.000000;1.671403
9130.000000;1.673249
9129.000000;1.674862
9128.000000;1.674725
9127.000000;1.671979
9126.000000;1.667690
9125.000000;1.664210
9124.000000;1.663105
9123.000000;1.663938
9122.000000;1.665140
9121.000000;1.665736
9120.000000;1.665865
9119.000000;1.665862
9118.000000;1.665660
9117.000000;1.665340
9116.000000;1.665440
9115.000000;1.666066
9114.000000;1.666214
9113.000000;1.664767
9112.000000;1.661922
9111.000000;1.658972
9110.000000;1.656909
9109.000000;1.655990
9108.000000;1.656388
9107.000000;1.658173
9106.000000;1.660500
9105.000000;1.661897
9104.000000;1.661836
9103.000000;1.661114
9102.000000;1.660283
9101.000000;1.658670
9100.000000;1.655680
9099.000000;1.652315
9098.000000;1.650379
9097.000000;1.650499
9096.000000;1.651727
9095.000000;1.652868
9094.000000;1.653429
9093.000000;1.653318
9092.000000;1.652561
9091.000000;1.651629
9090.000000;1.651344
9089.000000;1.651966
9088.000000;1.652726
9087.000000;1.652686
9086.000000;1.651893
9085.000000;1.651297
9084.000000;1.651564
9083.000000;1.652245
9082.000000;1.652254
9081.000000;1.651156
9080.000000;1.649887
9079.000000;1.649939
9078.000000;1.651734
9077.000000;1.653940
9076.000000;1.654638
9075.000000;1.653246
9074.000000;1.650976
9073.000000;1.649364
9072.000000;1.648779
9071.000000;1.648577
9070.000000;1.648295
9069.000000;1.648181
9068.000000;1.648541
9067.000000;1.649089
9066.000000;1.649350
9065.000000;1.649464
9064.000000;1.650033
9063.000000;1.651118
9062.000000;1.651865
9061.000000;1.651437
9060.000000;1.649933
9059.000000;1.648088
9058.000000;1.646454
9057.000000;1.645320
9056.000000;1.645072
9055.000000;1.645931
9054.000000;1.647338
9053.000000;1.648225
