Criado como novo conjunto de dados;"Jao_teste_celulas.spp","4982.8 Secs"
cm-1;Abs
10000.000000;1.074373
9999.000000;1.074074
9998.000000;1.074009
9997.000000;1.073869
9996.000000;1.073473
9995.000000;1.072856
9994.000000;1.072023
9993.000000;1.071166
9992.000000;1.070568
9991.000000;1.070402
9990.000000;1.070551
9989.000000;1.070831
9988.000000;1.071141
9987.000000;1.071260
9986.000000;1.070723
9985.000000;1.069258
9984.000000;1.067317
9983.000000;1.065803
9982.000000;1.065183
9981.000000;1.065090
9980.000000;1.064897
9979.000000;1.064456
9978.000000;1.064100
9977.000000;1.064093
9976.000000;1.064323
9975.000000;1.064507
9974.000000;1.064473
9973.000000;1.064179
9972.000000;1.063624
9971.000000;1.062847
9970.000000;1.061984
9969.000000;1.061259
9968.000000;1.060847
9967.000000;1.060723
9966.000000;1.060650
9965.000000;1.060370
9964.000000;1.059848
9963.000000;1.059265
9962.000000;1.058748
9961.000000;1.058181
9960.000000;1.057416
9959.000000;1.056586
9958.000000;1.056041
9957.000000;1.055900
9956.000000;1.055851
9955.000000;1.055503
9954.000000;1.054881
9953.000000;1.054373
9952.000000;1.054202
9951.000000;1.054137
9950.000000;1.053814
9949.000000;1.053194
9948.000000;1.052505
9947.000000;1.051858
9946.000000;1.051163
9945.000000;1.050447
9944.000000;1.049965
9943.000000;1.049850
9942.000000;1.049849
9941.000000;1.049633
9940.000000;1.049242
9939.000000;1.048961
9938.000000;1.048790
9937.000000;1.048322
9936.000000;1.047257
9935.000000;1.045853
9934.000000;1.044727
9933.000000;1.044280
9932.000000;1.044413
9931.000000;1.044723
9930.000000;1.044863
9929.000000;1.044757
9928.000000;1.044558
9927.000000;1.044468
9926.000000;1.044544
9925.000000;1.044613
9924.000000;1.044358
9923.000000;1.043557
9922.000000;1.042348
9921.000000;1.041251
9920.000000;1.040782
9919.000000;1.040911
9918.000000;1.041004
9917.000000;1.040412
9916.000000;1.039134
9915.000000;1.037783
9914.000000;1.036996
9913.000000;1.036967
9912.000000;1.037430
9911.000000;1.037852
9910.000000;1.037702
9909.000000;1.036826
9908.000000;1.035664
9907.000000;1.034880
9906.000000;1.034681
9905.000000;1.034673
9904.000000;1.034443
9903.000000;1.034100
9902.000000;1.034046
9901.000000;1.034403
9900.000000;1.034892
9899.000000;1.035196
9898.000000;1.035239
9897.000000;1.035087
9896.000000;1.034783
9895.000000;1.034312
9894.000000;1.033645
9893.000000;1.032766
9892.000000;1.031721
9891.000000;1.030646
9890.000000;1.029690
9889.000000;1.028924
9888.000000;1.028355
9887.000000;1.027988
9886.000000;1.027817
9885.000000;1.027751
9884.000000;1.027611
9883.000000;1.027244
9882.000000;1.026663
9881.000000;1.026070
9880.000000;1.025699
9879.000000;1.025567
9878.000000;1.025390
9877.000000;1.024835
9876.000000;1.023845
9875.000000;1.022672
9874.000000;1.021646
9873.000000;1.021015
9872.000000;1.020939
9871.000000;1.021365
9870.000000;1.021858
9869.000000;1.021823
9868.000000;1.021086
9867.000000;1.020137
9866.000000;1.019602
9865.000000;1.019586
9864.000000;1.019667
9863.000000;1.019441
9862.000000;1.018909
9861.000000;1.018355
9860.000000;1.018009
9859.000000;1.017842
9858.000000;1.017599
9857.000000;1.017036
9856.000000;1.016206
9855.000000;1.015437
9854.000000;1.014968
9853.000000;1.014683
9852.000000;1.014301
9851.000000;1.013715
9850.000000;1.013051
9849.000000;1.012472
9848.000000;1.012091
9847.000000;1.011996
9846.000000;1.012131
9845.000000;1.012191
9844.000000;1.011872
9843.000000;1.011245
9842.000000;1.010727
9841.000000;1.010613
9840.000000;1.010771
9839.000000;1.010821
9838.000000;1.010488
9837.000000;1.009775
9836.000000;1.008904
9835.000000;1.008124
9834.000000;1.007488
9833.000000;1.006839
9832.000000;1.006092
9831.000000;1.005470
9830.000000;1.005287
9829.000000;1.005505
9828.000000;1.005701
9827.000000;1.005497
9826.000000;1.004866
9825.000000;1.003972
9824.000000;1.002935
9823.000000;1.001900
9822.000000;1.001168
9821.000000;1.001021
9820.000000;1.001386
9819.000000;1.001769
9818.000000;1.001590
9817.000000;1.000657
9816.000000;0.999344
9815.000000;0.998273
9814.000000;0.997751
9813.000000;0.997557
9812.000000;0.997311
9811.000000;0.996937
9810.000000;0.996624
9809.000000;0.996448
9808.000000;0.996292
9807.000000;0.996130
9806.000000;0.996090
9805.000000;0.996179
9804.000000;0.996158
9803.000000;0.995820
9802.000000;0.995226
9801.000000;0.994545
9800.000000;0.993851
9799.000000;0.993206
9798.000000;0.992768
9797.000000;0.992615
9796.000000;0.992579
9795.000000;0.992407
9794.000000;0.991999
9793.000000;0.991371
9792.000000;0.990527
9791.000000;0.989568
9790.000000;0.988792
9789.000000;0.988457
9788.000000;0.988476
9787.000000;0.988505
9786.000000;0.988314
9785.000000;0.987939
9784.000000;0.987522
9783.000000;0.987163
9782.000000;0.986881
9781.000000;0.986582
9780.000000;0.986088
9779.000000;0.985396
9778.000000;0.984834
9777.000000;0.984730
9776.000000;0.984923
9775.000000;0.984861
9774.000000;0.984248
9773.000000;0.983366
9772.000000;0.982661
9771.000000;0.982230
9770.000000;0.981869
9769.000000;0.981429
9768.000000;0.980930
9767.000000;0.980424
9766.000000;0.979935
9765.000000;0.979501
9764.000000;0.979114
9763.000000;0.978648
9762.000000;0.978004
9761.000000;0.977346
9760.000000;0.977008
9759.000000;0.977125
9758.000000;0.977419
9757.000000;0.977416
9756.000000;0.976849
9755.000000;0.975831
9754.000000;0.974747
9753.000000;0.973974
9752.000000;0.973616
9751.000000;0.973415
9750.000000;0.972987
9749.000000;0.972244
9748.000000;0.971528
9747.000000;0.971206
9746.000000;0.971207
9745.000000;0.971126
9744.000000;0.970763
9743.000000;0.970327
9742.000000;0.970022
9741.000000;0.969706
9740.000000;0.969187
9739.000000;0.968670
9738.000000;0.968574
9737.000000;0.968926
9736.000000;0.969265
9735.000000;0.969209
9734.000000;0.968865
9733.000000;0.968532
9732.000000;0.968273
9731.000000;0.967953
9730.000000;0.967514
9729.000000;0.966989
9728.000000;0.966346
9727.000000;0.965563
9726.000000;0.964780
9725.000000;0.964183
9724.000000;0.963781
9723.000000;0.963461
9722.000000;0.963212
9721.000000;0.963094
9720.000000;0.963013
9719.000000;0.962761
9718.000000;0.962286
9717.000000;0.961766
9716.000000;0.961368
9715.000000;0.961089
9714.000000;0.960861
9713.000000;0.960625
9712.000000;0.960271
9711.000000;0.959663
9710.000000;0.958826
9709.000000;0.958006
9708.000000;0.957421
9707.000000;0.957049
9706.000000;0.956700
9705.000000;0.956233
9704.000000;0.955684
9703.000000;0.955247
9702.000000;0.955132
9701.000000;0.955336
9700.000000;0.955565
9699.000000;0.955507
9698.000000;0.955174
9697.000000;0.954800
9696.000000;0.954416
9695.000000;0.953781
9694.000000;0.952824
9693.000000;0.951912
9692.000000;0.951456
9691.000000;0.951372
9690.000000;0.951162
9689.000000;0.950493
9688.000000;0.949556
9687.000000;0.948823
9686.000000;0.948565
9685.000000;0.948618
9684.000000;0.948571
9683.000000;0.948175
9682.000000;0.947558
9681.000000;0.947017
9680.000000;0.946671
9679.000000;0.946431
9678.000000;0.946257
9677.000000;0.946206
9676.000000;0.946180
9675.000000;0.945891
9674.000000;0.945251
9673.000000;0.944585
9672.000000;0.944263
9671.000000;0.944250
9670.000000;0.944215
9669.000000;0.943955
9668.000000;0.943519
9667.000000;0.943001
9666.000000;0.942467
9665.000000;0.942015
9664.000000;0.941678
9663.000000;0.941304
9662.000000;0.940751
9661.000000;0.940219
9660.000000;0.940084
9659.000000;0.940361
9658.000000;0.940545
9657.000000;0.940126
9656.000000;0.939104
9655.000000;0.937930
9654.000000;0.937076
9653.000000;0.936761
9652.000000;0.936879
9651.000000;0.937055
9650.000000;0.936886
9649.000000;0.936336
9648.000000;0.935831
9647.000000;0.935804
9646.000000;0.936141
9645.000000;0.936214
9644.000000;0.935520
9643.000000;0.934212
9642.000000;0.932946
9641.000000;0.932257
9640.000000;0.932151
9639.000000;0.932273
9638.000000;0.932339
9637.000000;0.932295
9636.000000;0.932147
9635.000000;0.931863
9634.000000;0.931503
9633.000000;0.931228
9632.000000;0.931049
9631.000000;0.930719
9630.000000;0.930070
9629.000000;0.929334
9628.000000;0.928892
9627.000000;0.928764
9626.000000;0.928604
9625.000000;0.928208
9624.000000;0.927738
9623.000000;0.927364
9622.000000;0.926963
9621.000000;0.926342
9620.000000;0.925571
9619.000000;0.924896
9618.000000;0.924418
9617.000000;0.924044
9616.000000;0.923690
9615.000000;0.923343
9614.000000;0.922943
9613.000000;0.922381
9612.000000;0.921685
9611.000000;0.921112
9610.000000;0.920962
9609.000000;0.921267
9608.000000;0.921664
9607.000000;0.921654
9606.000000;0.921066
9605.000000;0.920258
9604.000000;0.919778
9603.000000;0.919814
9602.000000;0.920040
9601.000000;0.919972
9600.000000;0.919376
9599.000000;0.918322
9598.000000;0.917034
9597.000000;0.915810
9596.000000;0.914976
9595.000000;0.914715
9594.000000;0.914926
9593.000000;0.915314
9592.000000;0.915600
9591.000000;0.915652
9590.000000;0.915458
9589.000000;0.915048
9588.000000;0.914454
9587.000000;0.913719
9586.000000;0.912966
9585.000000;0.912420
9584.000000;0.912247
9583.000000;0.912349
9582.000000;0.912418
9581.000000;0.912237
9580.000000;0.911831
9579.000000;0.911292
9578.000000;0.910619
9577.000000;0.909802
9576.000000;0.908962
9575.000000;0.908241
9574.000000;0.907617
9573.000000;0.906954
9572.000000;0.906219
9571.000000;0.905584
9570.000000;0.905324
9569.000000;0.905595
9568.000000;0.906244
9567.000000;0.906817
9566.000000;0.906877
9565.000000;0.906390
9564.000000;0.905704
9563.000000;0.905124
9562.000000;0.904645
9561.000000;0.904163
9560.000000;0.903736
9559.000000;0.903452
9558.000000;0.903206
9557.000000;0.902832
9556.000000;0.902367
9555.000000;0.901961
9554.000000;0.901572
9553.000000;0.901008
9552.000000;0.900277
9551.000000;0.899662
9550.000000;0.899362
9549.000000;0.899255
9548.000000;0.899072
9547.000000;0.898687
9546.000000;0.898156
9545.000000;0.897616
9544.000000;0.897214
9543.000000;0.897023
9542.000000;0.896918
9541.000000;0.896646
9540.000000;0.896126
9539.000000;0.895599
9538.000000;0.895374
9537.000000;0.895452
9536.000000;0.895503
9535.000000;0.895210
9534.000000;0.894551
9533.000000;0.893768
9532.000000;0.893122
9531.000000;0.892736
9530.000000;0.892619
9529.000000;0.892768
9528.000000;0.893135
9527.000000;0.893493
9526.000000;0.893439
9525.000000;0.892708
9524.000000;0.891486
9523.000000;0.890317
9522.000000;0.889634
9521.000000;0.889430
9520.000000;0.889388
9519.000000;0.889249
9518.000000;0.888995
9517.000000;0.888750
9516.000000;0.888585
9515.000000;0.888456
9514.000000;0.888273
9513.000000;0.887993
9512.000000;0.887586
9511.000000;0.886979
9510.000000;0.886126
9509.000000;0.885188
9508.000000;0.884491
9507.000000;0.884210
9506.000000;0.884144
9505.000000;0.883935
9504.000000;0.883477
9503.000000;0.882948
9502.000000;0.882508
9501.000000;0.882166
9500.000000;0.881962
9499.000000;0.882011
9498.000000;0.882222
9497.000000;0.882182
9496.000000;0.881541
9495.000000;0.880430
9494.000000;0.879333
9493.000000;0.878567
9492.000000;0.878086
9491.000000;0.877709
9490.000000;0.877359
9489.000000;0.877027
9488.000000;0.876710
9487.000000;0.876466
9486.000000;0.876418
9485.000000;0.876564
9484.000000;0.876672
9483.000000;0.876478
9482.000000;0.875987
9481.000000;0.875478
9480.000000;0.875203
9479.000000;0.875174
9478.000000;0.875227
9477.000000;0.875219
9476.000000;0.875104
9475.000000;0.874884
9474.000000;0.874590
9473.000000;0.874317
9472.000000;0.874198
9471.000000;0.874277
9470.000000;0.874423
9469.000000;0.874395
9468.000000;0.874010
9467.000000;0.873243
9466.000000;0.872216
9465.000000;0.871141
9464.000000;0.870269
9463.000000;0.869778
9462.000000;0.869644
9461.000000;0.869641
9460.000000;0.869534
9459.000000;0.869277
9458.000000;0.868981
9457.000000;0.868692
9456.000000;0.868307
9455.000000;0.867744
9454.000000;0.867120
9453.000000;0.866626
9452.000000;0.866272
9451.000000;0.865879
9450.000000;0.865363
9449.000000;0.864889
9448.000000;0.864632
9447.000000;0.864521
9446.000000;0.864347
9445.000000;0.864083
9444.000000;0.863873
9443.000000;0.863716
9442.000000;0.863394
9441.000000;0.862830
9440.000000;0.862328
9439.000000;0.862251
9438.000000;0.862517
9437.000000;0.862615
9436.000000;0.862154
9435.000000;0.861254
9434.000000;0.860376
9433.000000;0.859861
9432.000000;0.859710
9431.000000;0.859705
9430.000000;0.859639
9429.000000;0.859410
9428.000000;0.858998
9427.000000;0.858426
9426.000000;0.857768
9425.000000;0.857144
9424.000000;0.856636
9423.000000;0.856191
9422.000000;0.855669
9421.000000;0.855020
9420.000000;0.854361
9419.000000;0.853877
9418.000000;0.853681
9417.000000;0.853776
9416.000000;0.854050
9415.000000;0.854273
9414.000000;0.854231
9413.000000;0.853946
9412.000000;0.853668
9411.000000;0.853531
9410.000000;0.853346
9409.000000;0.852882
9408.000000;0.852253
9407.000000;0.851816
9406.000000;0.851714
9405.000000;0.851733
9404.000000;0.851614
9403.000000;0.851311
9402.000000;0.850893
9401.000000;0.850398
9400.000000;0.849902
9399.000000;0.849528
9398.000000;0.849285
9397.000000;0.849014
9396.000000;0.848646
9395.000000;0.848383
9394.000000;0.848467
9393.000000;0.848829
9392.000000;0.849115
9391.000000;0.849039
9390.000000;0.848583
9389.000000;0.847901
9388.000000;0.847157
9387.000000;0.846461
9386.000000;0.845836
9385.000000;0.845216
9384.000000;0.844548
9383.000000;0.843890
9382.000000;0.843350
9381.000000;0.842946
9380.000000;0.842608
9379.000000;0.842333
9378.000000;0.842217
9377.000000;0.842304
9376.000000;0.842463
9375.000000;0.842470
9374.000000;0.842214
9373.000000;0.841816
9372.000000;0.841543
9371.000000;0.841555
9370.000000;0.841675
9369.000000;0.841463
9368.000000;0.840637
9367.000000;0.839420
9366.000000;0.838382
9365.000000;0.837902
9364.000000;0.837870
9363.000000;0.837906
9362.000000;0.837762
9361.000000;0.837456
9360.000000;0.837104
9359.000000;0.836755
9358.000000;0.836375
9357.000000;0.835937
9356.000000;0.835481
9355.000000;0.835118
9354.000000;0.834927
9353.000000;0.834834
9352.000000;0.834626
9351.000000;0.834164
9350.000000;0.833522
9349.000000;0.832879
9348.000000;0.832307
9347.000000;0.831773
9346.000000;0.831326
9345.000000;0.831127
9344.000000;0.831212
9343.000000;0.831326
9342.000000;0.831136
9341.000000;0.830571
9340.000000;0.829877
9339.000000;0.829331
9338.000000;0.829006
9337.000000;0.828819
9336.000000;0.828715
9335.000000;0.828708
9334.000000;0.828804
9333.000000;0.828930
9332.000000;0.828956
9331.000000;0.828784
9330.000000;0.828426
9329.000000;0.828003
9328.000000;0.827590
9327.000000;0.827093
9326.000000;0.826361
9325.000000;0.825455
9324.000000;0.824682
9323.000000;0.824286
9322.000000;0.824184
9321.000000;0.824125
9320.000000;0.824025
9319.000000;0.823982
9318.000000;0.823983
9317.000000;0.823818
9316.000000;0.823350
9315.000000;0.822729
9314.000000;0.822194
9313.000000;0.821785
9312.000000;0.821412
9311.000000;0.821124
9310.000000;0.821118
9309.000000;0.821411
9308.000000;0.821689
9307.000000;0.821581
9306.000000;0.821050
9305.000000;0.820410
9304.000000;0.819968
9303.000000;0.819737
9302.000000;0.819493
9301.000000;0.819042
9300.000000;0.818403
9299.000000;0.817764
9298.000000;0.817323
9297.000000;0.817160
9296.000000;0.817210
9295.000000;0.817294
9294.000000;0.817235
9293.000000;0.816965
9292.000000;0.816568
9291.000000;0.816202
9290.000000;0.815968
9289.000000;0.815847
9288.000000;0.815746
9287.000000;0.815590
9286.000000;0.815363
9285.000000;0.815095
9284.000000;0.814793
9283.000000;0.814419
9282.000000;0.813927
9281.000000;0.813340
9280.000000;0.812744
9279.000000;0.812203
9278.000000;0.811722
9277.000000;0.811313
9276.000000;0.811032
9275.000000;0.810895
9274.000000;0.810774
9273.000000;0.810484
9272.000000;0.809983
9271.000000;0.809434
9270.000000;0.809024
9269.000000;0.808770
9268.000000;0.808557
9267.000000;0.808305
9266.000000;0.808065
9265.000000;0.807964
9264.000000;0.808078
9263.000000;0.808357
9262.000000;0.808633
9261.000000;0.808704
9260.000000;0.808450
9259.000000;0.807907
9258.000000;0.807237
9257.000000;0.806615
9256.000000;0.806112
9255.000000;0.805654
9254.000000;0.805141
9253.000000;0.804592
9252.000000;0.804118
9251.000000;0.803749
9250.000000;0.803349
9249.000000;0.802814
9248.000000;0.802271
9247.000000;0.801951
9246.000000;0.801865
9245.000000;0.801749
9244.000000;0.801369
9243.000000;0.800769
9242.000000;0.800164
9241.000000;0.799718
9240.000000;0.799515
9239.000000;0.799606
9238.000000;0.799930
9237.000000;0.800238
9236.000000;0.800255
9235.000000;0.799947
9234.000000;0.799522
9233.000000;0.799184
9232.000000;0.798996
9231.000000;0.798932
9230.000000;0.798923
9229.000000;0.798809
9228.000000;0.798403
9227.000000;0.797712
9226.000000;0.796988
9225.000000;0.796485
9224.000000;0.796206
9223.000000;0.795995
9222.000000;0.795803
9221.000000;0.795723
9220.000000;0.795777
9219.000000;0.795773
9218.000000;0.795474
9217.000000;0.794848
9216.000000;0.794108
9215.000000;0.793538
9214.000000;0.793276
9213.000000;0.793255
9212.000000;0.793294
9211.000000;0.793242
9210.000000;0.793075
9209.000000;0.792870
9208.000000;0.792717
9207.000000;0.792618
9206.000000;0.792454
9205.000000;0.792055
9204.000000;0.791345
9203.000000;0.790460
9202.000000;0.789721
9201.000000;0.789405
9200.000000;0.789518
9199.000000;0.789774
9198.000000;0.789807
9197.000000;0.789431
9196.000000;0.788743
9195.000000;0.788040
9194.000000;0.787597
9193.000000;0.787453
9192.000000;0.787368
9191.000000;0.787037
9190.000000;0.786412
9189.000000;0.785781
9188.000000;0.785463
9187.000000;0.785461
9186.000000;0.785475
9185.000000;0.785263
9184.000000;0.784899
9183.000000;0.784643
9182.000000;0.784598
9181.000000;0.784589
9180.000000;0.784354
9179.000000;0.783819
9178.000000;0.783175
9177.000000;0.782711
9176.000000;0.782560
9175.000000;0.782574
9174.000000;0.782461
9173.000000;0.782066
9172.000000;0.781522
9171.000000;0.781090
9170.000000;0.780887
9169.000000;0.780790
9168.000000;0.780608
9167.000000;0.780277
9166.000000;0.779878
9165.000000;0.779526
9164.000000;0.779273
9163.000000;0.779094
9162.000000;0.778924
9161.000000;0.778726
9160.000000;0.778527
9159.000000;0.778376
9158.000000;0.778245
9157.000000;0.778024
9156.000000;0.777664
9155.000000;0.777297
9154.000000;0.777117
9153.000000;0.777112
9152.000000;0.777009
9151.000000;0.776555
9150.000000;0.775816
9149.000000;0.775112
9148.000000;0.774666
9147.000000;0.774422
9146.000000;0.774234
9145.000000;0.774089
9144.000000;0.774054
9143.000000;0.774045
9142.000000;0.773827
9141.000000;0.773286
9140.000000;0.772611
9139.000000;0.772134
9138.000000;0.772013
9137.000000;0.772116
9136.000000;0.772168
9135.000000;0.771986
9134.000000;0.771609
9133.000000;0.771232
9132.000000;0.770991
9131.000000;0.770779
9130.000000;0.770340
9129.000000;0.769609
9128.000000;0.768907
9127.000000;0.768673
9126.000000;0.769004
9125.000000;0.769541
9124.000000;0.769831
9123.000000;0.769737
9122.000000;0.769418
9121.000000;0.769009
9120.000000;0.768475
9119.000000;0.767783
9118.000000;0.767070
9117.000000;0.766545
9116.000000;0.766260
9115.000000;0.766076
9114.000000;0.765858
9113.000000;0.765627
9112.000000;0.765468
9111.000000;0.765390
9110.000000;0.765339
9109.000000;0.765297
9108.000000;0.765256
9107.000000;0.765121
9106.000000;0.764775
9105.000000;0.764281
9104.000000;0.763889
9103.000000;0.763755
9102.000000;0.763745
9101.000000;0.763613
9100.000000;0.763326
9099.000000;0.763076
9098.000000;0.762990
9097.000000;0.762937
9096.000000;0.762682
9095.000000;0.762160
9094.000000;0.761546
9093.000000;0.761057
9092.000000;0.760742
9091.000000;0.760458
9090.000000;0.760066
9089.000000;0.759602
9088.000000;0.759228
9087.000000;0.759027
9086.000000;0.758905
9085.000000;0.758719
9084.000000;0.758434
9083.000000;0.758101
9082.000000;0.757763
9081.000000;0.757443
9080.000000;0.757174
9079.000000;0.756941
9078.000000;0.756651
9077.000000;0.756253
9076.000000;0.755843
9075.000000;0.755560
9074.000000;0.755386
9073.000000;0.755182
9072.000000;0.754919
9071.000000;0.754739
9070.000000;0.754748
9069.000000;0.754842
9068.000000;0.754812
9067.000000;0.754548
9066.000000;0.754097
9065.000000;0.753567
9064.000000;0.753043
9063.000000;0.752575
9062.000000;0.752200
9061.000000;0.751962
9060.000000;0.751874
9059.000000;0.751847
9058.000000;0.751698
9057.000000;0.751300
9056.000000;0.750716
9055.000000;0.750137
9054.000000;0.749726
9053.000000;0.749563
