Criado como novo conjunto de dados;"Jao_teste_celulas.spp","7803.7 Secs"
cm-1;Abs
10000.000000;1.457058
9999.000000;1.455564
9998.000000;1.454075
9997.000000;1.452592
9996.000000;1.451113
9995.000000;1.449639
9994.000000;1.448170
9993.000000;1.446707
9992.000000;1.445244
9991.000000;1.444051
9990.000000;1.443735
9989.000000;1.444676
9988.000000;1.446518
9987.000000;1.448045
9986.000000;1.447907
9985.000000;1.445792
9984.000000;1.442848
9983.000000;1.440812
9982.000000;1.440638
9981.000000;1.441785
9980.000000;1.442688
9979.000000;1.442078
9978.000000;1.440081
9977.000000;1.437983
9976.000000;1.436821
9975.000000;1.436378
9974.000000;1.435773
9973.000000;1.434859
9972.000000;1.434533
9971.000000;1.435540
9970.000000;1.437405
9969.000000;1.438870
9968.000000;1.439213
9967.000000;1.438798
9966.000000;1.438353
9965.000000;1.438077
9964.000000;1.437579
9963.000000;1.436526
9962.000000;1.435176
9961.000000;1.434156
9960.000000;1.433747
9959.000000;1.433537
9958.000000;1.432979
9957.000000;1.432173
9956.000000;1.431717
9955.000000;1.431708
9954.000000;1.431362
9953.000000;1.429970
9952.000000;1.427957
9951.000000;1.426513
9950.000000;1.426226
9949.000000;1.426513
9948.000000;1.426490
9947.000000;1.426007
9946.000000;1.425538
9945.000000;1.425344
9944.000000;1.425167
9943.000000;1.424737
9942.000000;1.424181
9941.000000;1.423700
9940.000000;1.423106
9939.000000;1.422040
9938.000000;1.420641
9937.000000;1.419656
9936.000000;1.419665
9935.000000;1.420444
9934.000000;1.421347
9933.000000;1.422105
9932.000000;1.422866
9931.000000;1.423515
9930.000000;1.423449
9929.000000;1.422321
9928.000000;1.420685
9927.000000;1.419552
9926.000000;1.419380
9925.000000;1.419715
9924.000000;1.419714
9923.000000;1.418840
9922.000000;1.417182
9921.000000;1.415380
9920.000000;1.414233
9919.000000;1.414092
9918.000000;1.414519
9917.000000;1.414689
9916.000000;1.414227
9915.000000;1.413521
9914.000000;1.413164
9913.000000;1.413300
9912.000000;1.413635
9911.000000;1.413905
9910.000000;1.414071
9909.000000;1.414057
9908.000000;1.413579
9907.000000;1.412400
9906.000000;1.410694
9905.000000;1.408988
9904.000000;1.407762
9903.000000;1.407163
9902.000000;1.406993
9901.000000;1.406885
9900.000000;1.406566
9899.000000;1.406097
9898.000000;1.405856
9897.000000;1.406122
9896.000000;1.406684
9895.000000;1.407030
9894.000000;1.406919
9893.000000;1.406580
9892.000000;1.406269
9891.000000;1.405910
9890.000000;1.405294
9889.000000;1.404383
9888.000000;1.403169
9887.000000;1.401432
9886.000000;1.399044
9885.000000;1.396482
9884.000000;1.394693
9883.000000;1.394309
9882.000000;1.395147
9881.000000;1.396500
9880.000000;1.397737
9879.000000;1.398560
9878.000000;1.398899
9877.000000;1.398797
9876.000000;1.398403
9875.000000;1.397908
9874.000000;1.397427
9873.000000;1.396946
9872.000000;1.396367
9871.000000;1.395582
9870.000000;1.394526
9869.000000;1.393242
9868.000000;1.391937
9867.000000;1.390935
9866.000000;1.390418
9865.000000;1.390105
9864.000000;1.389385
9863.000000;1.388059
9862.000000;1.386840
9861.000000;1.386695
9860.000000;1.387618
9859.000000;1.388473
9858.000000;1.388308
9857.000000;1.387427
9856.000000;1.386754
9855.000000;1.386545
9854.000000;1.386343
9853.000000;1.385974
9852.000000;1.385875
9851.000000;1.386315
9850.000000;1.386832
9849.000000;1.386706
9848.000000;1.385718
9847.000000;1.384280
9846.000000;1.383018
9845.000000;1.382345
9844.000000;1.382218
9843.000000;1.382227
9842.000000;1.382055
9841.000000;1.381828
9840.000000;1.381773
9839.000000;1.381736
9838.000000;1.381399
9837.000000;1.380868
9836.000000;1.380512
9835.000000;1.380292
9834.000000;1.379891
9833.000000;1.379493
9832.000000;1.379623
9831.000000;1.380012
9830.000000;1.379458
9829.000000;1.377403
9828.000000;1.374986
9827.000000;1.373805
9826.000000;1.374045
9825.000000;1.374497
9824.000000;1.374169
9823.000000;1.373153
9822.000000;1.371949
9821.000000;1.370771
9820.000000;1.369768
9819.000000;1.369314
9818.000000;1.369623
9817.000000;1.370338
9816.000000;1.370830
9815.000000;1.370846
9814.000000;1.370691
9813.000000;1.370786
9812.000000;1.371169
9811.000000;1.371423
9810.000000;1.371093
9809.000000;1.370166
9808.000000;1.369112
9807.000000;1.368432
9806.000000;1.368207
9805.000000;1.368112
9804.000000;1.367755
9803.000000;1.367007
9802.000000;1.366136
9801.000000;1.365668
9800.000000;1.365898
9799.000000;1.366464
9798.000000;1.366641
9797.000000;1.366188
9796.000000;1.365636
9795.000000;1.365533
9794.000000;1.365674
9793.000000;1.365383
9792.000000;1.364350
9791.000000;1.362902
9790.000000;1.361597
9789.000000;1.360838
9788.000000;1.360753
9787.000000;1.361039
9786.000000;1.361016
9785.000000;1.360234
9784.000000;1.359076
9783.000000;1.358403
9782.000000;1.358512
9781.000000;1.358744
9780.000000;1.358247
9779.000000;1.356896
9778.000000;1.355352
9777.000000;1.354417
9776.000000;1.354421
9775.000000;1.355028
9774.000000;1.355435
9773.000000;1.354939
9772.000000;1.353543
9771.000000;1.352035
9770.000000;1.351354
9769.000000;1.351792
9768.000000;1.352728
9767.000000;1.353119
9766.000000;1.352344
9765.000000;1.350709
9764.000000;1.349145
9763.000000;1.348392
9762.000000;1.348456
9761.000000;1.348802
9760.000000;1.348921
9759.000000;1.348690
9758.000000;1.348304
9757.000000;1.348016
9756.000000;1.347905
9755.000000;1.347802
9754.000000;1.347487
9753.000000;1.346998
9752.000000;1.346624
9751.000000;1.346482
9750.000000;1.346248
9749.000000;1.345487
9748.000000;1.344208
9747.000000;1.342911
9746.000000;1.342114
9745.000000;1.341964
9744.000000;1.342236
9743.000000;1.342550
9742.000000;1.342596
9741.000000;1.342286
9740.000000;1.341767
9739.000000;1.341238
9738.000000;1.340772
9737.000000;1.340348
9736.000000;1.339984
9735.000000;1.339725
9734.000000;1.339525
9733.000000;1.339243
9732.000000;1.338755
9731.000000;1.338086
9730.000000;1.337435
9729.000000;1.337040
9728.000000;1.336884
9727.000000;1.336607
9726.000000;1.335927
9725.000000;1.335173
9724.000000;1.335083
9723.000000;1.335937
9722.000000;1.337112
9721.000000;1.337664
9720.000000;1.337140
9719.000000;1.335694
9718.000000;1.333727
9717.000000;1.331734
9716.000000;1.330292
9715.000000;1.329744
9714.000000;1.329882
9713.000000;1.330185
9712.000000;1.330360
9711.000000;1.330410
9710.000000;1.330243
9709.000000;1.329581
9708.000000;1.328342
9707.000000;1.326934
9706.000000;1.326044
9705.000000;1.326124
9704.000000;1.326969
9703.000000;1.327733
9702.000000;1.327532
9701.000000;1.326234
9700.000000;1.324548
9699.000000;1.323215
9698.000000;1.322327
9697.000000;1.321569
9696.000000;1.320853
9695.000000;1.320381
9694.000000;1.320280
9693.000000;1.320525
9692.000000;1.321102
9691.000000;1.321865
9690.000000;1.322358
9689.000000;1.322184
9688.000000;1.321547
9687.000000;1.321025
9686.000000;1.320865
9685.000000;1.320861
9684.000000;1.320808
9683.000000;1.320579
9682.000000;1.319769
9681.000000;1.318003
9680.000000;1.315817
9679.000000;1.314552
9678.000000;1.314963
9677.000000;1.316316
9676.000000;1.317208
9675.000000;1.317031
9674.000000;1.316248
9673.000000;1.315543
9672.000000;1.315209
9671.000000;1.315216
9670.000000;1.315286
9669.000000;1.314914
9668.000000;1.313808
9667.000000;1.312423
9666.000000;1.311654
9665.000000;1.311828
9664.000000;1.312276
9663.000000;1.312122
9662.000000;1.311318
9661.000000;1.310605
9660.000000;1.310539
9659.000000;1.310867
9658.000000;1.310907
9657.000000;1.310332
9656.000000;1.309403
9655.000000;1.308550
9654.000000;1.307996
9653.000000;1.307798
9652.000000;1.307959
9651.000000;1.308271
9650.000000;1.308226
9649.000000;1.307404
9648.000000;1.305972
9647.000000;1.304541
9646.000000;1.303470
9645.000000;1.302564
9644.000000;1.301571
9643.000000;1.300731
9642.000000;1.300553
9641.000000;1.301135
9640.000000;1.301885
9639.000000;1.302012
9638.000000;1.301228
9637.000000;1.299986
9636.000000;1.299054
9635.000000;1.298835
9634.000000;1.299100
9633.000000;1.299367
9632.000000;1.299486
9631.000000;1.299710
9630.000000;1.300252
9629.000000;1.300913
9628.000000;1.301182
9627.000000;1.300659
9626.000000;1.299370
9625.000000;1.297807
9624.000000;1.296660
9623.000000;1.296384
9622.000000;1.296903
9621.000000;1.297763
9620.000000;1.298500
9619.000000;1.298751
9618.000000;1.298196
9617.000000;1.296780
9616.000000;1.295034
9615.000000;1.293791
9614.000000;1.293329
9613.000000;1.293009
9612.000000;1.292007
9611.000000;1.290318
9610.000000;1.288793
9609.000000;1.288292
9608.000000;1.288962
9607.000000;1.290257
9606.000000;1.291419
9605.000000;1.291961
9604.000000;1.291864
9603.000000;1.291403
9602.000000;1.290794
9601.000000;1.290062
9600.000000;1.289237
9599.000000;1.288470
9598.000000;1.287811
9597.000000;1.287084
9596.000000;1.286212
9595.000000;1.285547
9594.000000;1.285549
9593.000000;1.286147
9592.000000;1.286700
9591.000000;1.286680
9590.000000;1.286142
9589.000000;1.285415
9588.000000;1.284606
9587.000000;1.283666
9586.000000;1.282726
9585.000000;1.282063
9584.000000;1.281758
9583.000000;1.281629
9582.000000;1.281521
9581.000000;1.281442
9580.000000;1.281330
9579.000000;1.280953
9578.000000;1.280232
9577.000000;1.279468
9576.000000;1.278985
9575.000000;1.278628
9574.000000;1.277905
9573.000000;1.276677
9572.000000;1.275452
9571.000000;1.274843
9570.000000;1.274912
9569.000000;1.275206
9568.000000;1.275339
9567.000000;1.275331
9566.000000;1.275406
9565.000000;1.275632
9564.000000;1.275796
9563.000000;1.275600
9562.000000;1.274985
9561.000000;1.274294
9560.000000;1.274004
9559.000000;1.274176
9558.000000;1.274247
9557.000000;1.273506
9556.000000;1.271799
9555.000000;1.269692
9554.000000;1.268018
9553.000000;1.267355
9552.000000;1.267778
9551.000000;1.268829
9550.000000;1.269702
9549.000000;1.269713
9548.000000;1.268750
9547.000000;1.267270
9546.000000;1.265858
9545.000000;1.264845
9544.000000;1.264286
9543.000000;1.264068
9542.000000;1.264004
9541.000000;1.263982
9540.000000;1.264073
9539.000000;1.264364
9538.000000;1.264695
9537.000000;1.264768
9536.000000;1.264574
9535.000000;1.264450
9534.000000;1.264534
9533.000000;1.264390
9532.000000;1.263412
9531.000000;1.261551
9530.000000;1.259453
9529.000000;1.257900
9528.000000;1.257252
9527.000000;1.257330
9526.000000;1.257650
9525.000000;1.257806
9524.000000;1.257779
9523.000000;1.257896
9522.000000;1.258394
9521.000000;1.259060
9520.000000;1.259382
9519.000000;1.259059
9518.000000;1.258264
9517.000000;1.257403
9516.000000;1.256682
9515.000000;1.255958
9514.000000;1.254990
9513.000000;1.253828
9512.000000;1.252876
9511.000000;1.252513
9510.000000;1.252657
9509.000000;1.252864
9508.000000;1.252858
9507.000000;1.252755
9506.000000;1.252699
9505.000000;1.252513
9504.000000;1.251956
9503.000000;1.251196
9502.000000;1.250757
9501.000000;1.251011
9500.000000;1.251834
9499.000000;1.252680
9498.000000;1.252850
9497.000000;1.251865
9496.000000;1.249898
9495.000000;1.247841
9494.000000;1.246665
9493.000000;1.246573
9492.000000;1.246901
9491.000000;1.246891
9490.000000;1.246396
9489.000000;1.245770
9488.000000;1.245298
9487.000000;1.244979
9486.000000;1.244764
9485.000000;1.244735
9484.000000;1.244934
9483.000000;1.245128
9482.000000;1.244948
9481.000000;1.244327
9480.000000;1.243703
9479.000000;1.243580
9478.000000;1.243815
9477.000000;1.243584
9476.000000;1.242277
9475.000000;1.240336
9474.000000;1.238885
9473.000000;1.238536
9472.000000;1.238837
9471.000000;1.238955
9470.000000;1.238623
9469.000000;1.238184
9468.000000;1.237970
9467.000000;1.238010
9466.000000;1.238283
9465.000000;1.238842
9464.000000;1.239543
9463.000000;1.239894
9462.000000;1.239428
9461.000000;1.238211
9460.000000;1.236865
9459.000000;1.236075
9458.000000;1.236057
9457.000000;1.236416
9456.000000;1.236473
9455.000000;1.235834
9454.000000;1.234746
9453.000000;1.233866
9452.000000;1.233596
9451.000000;1.233658
9450.000000;1.233384
9449.000000;1.232412
9448.000000;1.231071
9447.000000;1.230078
9446.000000;1.229915
9445.000000;1.230459
9444.000000;1.231110
9443.000000;1.231287
9442.000000;1.230872
9441.000000;1.230194
9440.000000;1.229580
9439.000000;1.229010
9438.000000;1.228276
9437.000000;1.227364
9436.000000;1.226489
9435.000000;1.225763
9434.000000;1.225092
9433.000000;1.224486
9432.000000;1.224228
9431.000000;1.224491
9430.000000;1.224964
9429.000000;1.225150
9428.000000;1.224981
9427.000000;1.224812
9426.000000;1.224805
9425.000000;1.224643
9424.000000;1.223981
9423.000000;1.222942
9422.000000;1.221957
9421.000000;1.221291
9420.000000;1.220912
9419.000000;1.220693
9418.000000;1.220520
9417.000000;1.220248
9416.000000;1.219750
9415.000000;1.219048
9414.000000;1.218333
9413.000000;1.217865
9412.000000;1.217901
9411.000000;1.218532
9410.000000;1.219442
9409.000000;1.219925
9408.000000;1.219451
9407.000000;1.218262
9406.000000;1.217211
9405.000000;1.216922
9404.000000;1.217232
9403.000000;1.217458
9402.000000;1.217083
9401.000000;1.216168
9400.000000;1.215248
9399.000000;1.214874
9398.000000;1.215106
9397.000000;1.215345
9396.000000;1.214837
9395.000000;1.213497
9394.000000;1.212129
9393.000000;1.211646
9392.000000;1.212142
9391.000000;1.212877
9390.000000;1.213109
9389.000000;1.212719
9388.000000;1.212018
9387.000000;1.211240
9386.000000;1.210477
9385.000000;1.209962
9384.000000;1.210071
9383.000000;1.210853
9382.000000;1.211682
9381.000000;1.211603
9380.000000;1.210160
9379.000000;1.207907
9378.000000;1.206016
9377.000000;1.205351
9376.000000;1.205874
9375.000000;1.206846
9374.000000;1.207518
9373.000000;1.207658
9372.000000;1.207473
9371.000000;1.207175
9370.000000;1.206705
9369.000000;1.205912
9368.000000;1.204890
9367.000000;1.204035
9366.000000;1.203706
9365.000000;1.203868
9364.000000;1.204113
9363.000000;1.204057
9362.000000;1.203687
9361.000000;1.203330
9360.000000;1.203319
9359.000000;1.203677
9358.000000;1.204061
9357.000000;1.204014
9356.000000;1.203284
9355.000000;1.202014
9354.000000;1.200679
9353.000000;1.199788
9352.000000;1.199514
9351.000000;1.199502
9350.000000;1.199105
9349.000000;1.197966
9348.000000;1.196438
9347.000000;1.195299
9346.000000;1.195020
9345.000000;1.195370
9344.000000;1.195769
9343.000000;1.195904
9342.000000;1.195871
9341.000000;1.195811
9340.000000;1.195649
9339.000000;1.195234
9338.000000;1.194567
9337.000000;1.193780
9336.000000;1.192982
9335.000000;1.192231
9334.000000;1.191634
9333.000000;1.191398
9332.000000;1.191687
9331.000000;1.192367
9330.000000;1.192914
9329.000000;1.192753
9328.000000;1.191839
9327.000000;1.190828
9326.000000;1.190452
9325.000000;1.190728
9324.000000;1.190972
9323.000000;1.190635
9322.000000;1.189887
9321.000000;1.189276
9320.000000;1.189059
9319.000000;1.189072
9318.000000;1.189120
9317.000000;1.189204
9316.000000;1.189312
9315.000000;1.189215
9314.000000;1.188612
9313.000000;1.187468
9312.000000;1.186155
9311.000000;1.185253
9310.000000;1.185114
9309.000000;1.185522
9308.000000;1.185826
9307.000000;1.185495
9306.000000;1.184536
9305.000000;1.183351
9304.000000;1.182313
9303.000000;1.181634
9302.000000;1.181474
9301.000000;1.181907
9300.000000;1.182737
9299.000000;1.183532
9298.000000;1.183925
9297.000000;1.183838
9296.000000;1.183444
9295.000000;1.183020
9294.000000;1.182798
9293.000000;1.182758
9292.000000;1.182551
9291.000000;1.181823
9290.000000;1.180664
9289.000000;1.179565
9288.000000;1.178865
9287.000000;1.178433
9286.000000;1.178004
9285.000000;1.177581
9284.000000;1.177293
9283.000000;1.177016
9282.000000;1.176476
9281.000000;1.175730
9280.000000;1.175248
9279.000000;1.175339
9278.000000;1.175671
9277.000000;1.175580
9276.000000;1.174857
9275.000000;1.174047
9274.000000;1.173866
9273.000000;1.174377
9272.000000;1.174867
9271.000000;1.174563
9270.000000;1.173397
9269.000000;1.171967
9268.000000;1.170867
9267.000000;1.170236
9266.000000;1.169948
9265.000000;1.169972
9264.000000;1.170387
9263.000000;1.171137
9262.000000;1.171943
9261.000000;1.172452
9260.000000;1.172435
9259.000000;1.171923
9258.000000;1.171198
9257.000000;1.170545
9256.000000;1.169922
9255.000000;1.169021
9254.000000;1.167778
9253.000000;1.166630
9252.000000;1.166028
9251.000000;1.165826
9250.000000;1.165513
9249.000000;1.165017
9248.000000;1.164878
9247.000000;1.165469
9246.000000;1.166390
9245.000000;1.166895
9244.000000;1.166708
9243.000000;1.166141
9242.000000;1.165546
9241.000000;1.164987
9240.000000;1.164459
9239.000000;1.164075
9238.000000;1.163914
9237.000000;1.163857
9236.000000;1.163710
9235.000000;1.163386
9234.000000;1.162919
9233.000000;1.162395
9232.000000;1.161939
9231.000000;1.161672
9230.000000;1.161608
9229.000000;1.161642
9228.000000;1.161650
9227.000000;1.161544
9226.000000;1.161232
9225.000000;1.160677
9224.000000;1.160017
9223.000000;1.159471
9222.000000;1.159052
9221.000000;1.158539
9220.000000;1.157850
9219.000000;1.157275
9218.000000;1.157145
9217.000000;1.157390
9216.000000;1.157629
9215.000000;1.157618
9214.000000;1.157404
9213.000000;1.157075
9212.000000;1.156628
9211.000000;1.156101
9210.000000;1.155589
9209.000000;1.155027
9208.000000;1.154208
9207.000000;1.153138
9206.000000;1.152180
9205.000000;1.151699
9204.000000;1.151731
9203.000000;1.152126
9202.000000;1.152834
9201.000000;1.153792
9200.000000;1.154653
9199.000000;1.154943
9198.000000;1.154524
9197.000000;1.153677
9196.000000;1.152696
9195.000000;1.151607
9194.000000;1.150355
9193.000000;1.149104
9192.000000;1.148206
9191.000000;1.147940
9190.000000;1.148275
9189.000000;1.148843
9188.000000;1.149165
9187.000000;1.149022
9186.000000;1.148613
9185.000000;1.148206
9184.000000;1.147723
9183.000000;1.146892
9182.000000;1.145826
9181.000000;1.145137
9180.000000;1.145259
9179.000000;1.145866
9178.000000;1.146190
9177.000000;1.145865
9176.000000;1.145239
9175.000000;1.144860
9174.000000;1.144904
9173.000000;1.145152
9172.000000;1.145313
9171.000000;1.145218
9170.000000;1.144830
9169.000000;1.144221
9168.000000;1.143533
9167.000000;1.142866
9166.000000;1.142224
9165.000000;1.141629
9164.000000;1.141232
9163.000000;1.141190
9162.000000;1.141397
9161.000000;1.141474
9160.000000;1.141148
9159.000000;1.140593
9158.000000;1.140227
9157.000000;1.140192
9156.000000;1.140183
9155.000000;1.139882
9154.000000;1.139364
9153.000000;1.138952
9152.000000;1.138765
9151.000000;1.138632
9150.000000;1.138401
9149.000000;1.138128
9148.000000;1.137924
9147.000000;1.137760
9146.000000;1.137540
9145.000000;1.137252
9144.000000;1.136964
9143.000000;1.136705
9142.000000;1.136416
9141.000000;1.136008
9140.000000;1.135478
9139.000000;1.134983
9138.000000;1.134733
9137.000000;1.134772
9136.000000;1.134919
9135.000000;1.135010
9134.000000;1.135068
9133.000000;1.135059
9132.000000;1.134641
9131.000000;1.133487
9130.000000;1.131867
9129.000000;1.130576
9128.000000;1.130156
9127.000000;1.130454
9126.000000;1.130995
9125.000000;1.131463
9124.000000;1.131647
9123.000000;1.131287
9122.000000;1.130377
9121.000000;1.129393
9120.000000;1.128832
9119.000000;1.128636
9118.000000;1.128418
9117.000000;1.128145
9116.000000;1.128149
9115.000000;1.128458
9114.000000;1.128577
9113.000000;1.128129
9112.000000;1.127404
9111.000000;1.127020
9110.000000;1.127203
9109.000000;1.127587
9108.000000;1.127601
9107.000000;1.126939
9106.000000;1.125772
9105.000000;1.124623
9104.000000;1.123940
9103.000000;1.123714
9102.000000;1.123607
9101.000000;1.123436
9100.000000;1.123324
9099.000000;1.123333
9098.000000;1.123241
9097.000000;1.122897
9096.000000;1.122541
9095.000000;1.122468
9094.000000;1.122519
9093.000000;1.122266
9092.000000;1.121650
9091.000000;1.121117
9090.000000;1.121030
9089.000000;1.121233
9088.000000;1.121311
9087.000000;1.121071
9086.000000;1.120578
9085.000000;1.119907
9084.000000;1.119106
9083.000000;1.118359
9082.000000;1.117944
9081.000000;1.117977
9080.000000;1.118268
9079.000000;1.118482
9078.000000;1.118359
9077.000000;1.117807
9076.000000;1.116900
9075.000000;1.115853
9074.000000;1.114951
9073.000000;1.114384
9072.000000;1.114168
9071.000000;1.114192
9070.000000;1.114288
9069.000000;1.114233
9068.000000;1.113826
9067.000000;1.113118
9066.000000;1.112508
9065.000000;1.112412
9064.000000;1.112807
9063.000000;1.113237
9062.000000;1.113361
9061.000000;1.113326
9060.000000;1.113421
9059.000000;1.113505
9058.000000;1.113080
9057.000000;1.111976
9056.000000;1.110720
9055.000000;1.110012
9054.000000;1.109964
9053.000000;1.110042
