Criado como novo conjunto de dados;"Jao_teste_celulas.spp","8523.6 Secs"
cm-1;Abs
10000.000000;1.541485
9999.000000;1.541499
9998.000000;1.541513
9997.000000;1.541527
9996.000000;1.541542
9995.000000;1.541556
9994.000000;1.541569
9993.000000;1.541586
9992.000000;1.541595
9991.000000;1.541616
9990.000000;1.541618
9989.000000;1.541643
9988.000000;1.541277
9987.000000;1.540095
9986.000000;1.538309
9985.000000;1.536601
9984.000000;1.535825
9983.000000;1.536122
9982.000000;1.536552
9981.000000;1.535925
9980.000000;1.534138
9979.000000;1.532357
9978.000000;1.531818
9977.000000;1.532722
9976.000000;1.534229
9975.000000;1.535154
9974.000000;1.534697
9973.000000;1.533112
9972.000000;1.531833
9971.000000;1.532359
9970.000000;1.534575
9969.000000;1.536529
9968.000000;1.536375
9967.000000;1.534289
9966.000000;1.531958
9965.000000;1.530537
9964.000000;1.529791
9963.000000;1.529016
9962.000000;1.528039
9961.000000;1.527149
9960.000000;1.526589
9959.000000;1.526382
9958.000000;1.526291
9957.000000;1.525773
9956.000000;1.524369
9955.000000;1.522402
9954.000000;1.521020
9953.000000;1.521241
9952.000000;1.522947
9951.000000;1.524916
9950.000000;1.525773
9949.000000;1.524906
9948.000000;1.522675
9947.000000;1.520001
9946.000000;1.517762
9945.000000;1.516421
9944.000000;1.516044
9943.000000;1.516418
9942.000000;1.517044
9941.000000;1.517301
9940.000000;1.516939
9939.000000;1.516458
9938.000000;1.516666
9937.000000;1.517701
9936.000000;1.518733
9935.000000;1.518856
9934.000000;1.518053
9933.000000;1.517016
9932.000000;1.516229
9931.000000;1.515583
9930.000000;1.514776
9929.000000;1.513753
9928.000000;1.512676
9927.000000;1.511718
9926.000000;1.511051
9925.000000;1.510863
9924.000000;1.511229
9923.000000;1.511899
9922.000000;1.512275
9921.000000;1.511727
9920.000000;1.510135
9919.000000;1.508144
9918.000000;1.506748
9917.000000;1.506512
9916.000000;1.507203
9915.000000;1.508077
9914.000000;1.508427
9913.000000;1.507990
9912.000000;1.507079
9911.000000;1.506402
9910.000000;1.506511
9909.000000;1.507272
9908.000000;1.507924
9907.000000;1.507724
9906.000000;1.506476
9905.000000;1.504478
9904.000000;1.502311
9903.000000;1.500735
9902.000000;1.500352
9901.000000;1.501034
9900.000000;1.501921
9899.000000;1.502286
9898.000000;1.502195
9897.000000;1.502028
9896.000000;1.501687
9895.000000;1.500788
9894.000000;1.499465
9893.000000;1.498419
9892.000000;1.498093
9891.000000;1.498265
9890.000000;1.498518
9889.000000;1.498709
9888.000000;1.498759
9887.000000;1.498413
9886.000000;1.497550
9885.000000;1.496521
9884.000000;1.495863
9883.000000;1.495735
9882.000000;1.495739
9881.000000;1.495256
9880.000000;1.493910
9879.000000;1.491909
9878.000000;1.490060
9877.000000;1.489263
9876.000000;1.489726
9875.000000;1.490668
9874.000000;1.490963
9873.000000;1.490220
9872.000000;1.489207
9871.000000;1.489127
9870.000000;1.490396
9869.000000;1.492095
9868.000000;1.492735
9867.000000;1.491743
9866.000000;1.490017
9865.000000;1.488811
9864.000000;1.488330
9863.000000;1.487715
9862.000000;1.486257
9861.000000;1.484196
9860.000000;1.482384
9859.000000;1.481583
9858.000000;1.482174
9857.000000;1.484057
9856.000000;1.486469
9855.000000;1.488156
9854.000000;1.488203
9853.000000;1.486736
9852.000000;1.484608
9851.000000;1.482547
9850.000000;1.480825
9849.000000;1.479547
9848.000000;1.478885
9847.000000;1.478903
9846.000000;1.479324
9845.000000;1.479592
9844.000000;1.479205
9843.000000;1.478114
9842.000000;1.476860
9841.000000;1.476197
9840.000000;1.476418
9839.000000;1.477077
9838.000000;1.477453
9837.000000;1.477216
9836.000000;1.476566
9835.000000;1.475892
9834.000000;1.475483
9833.000000;1.475453
9832.000000;1.475775
9831.000000;1.476318
9830.000000;1.476866
9829.000000;1.477088
9828.000000;1.476595
9827.000000;1.475217
9826.000000;1.473320
9825.000000;1.471627
9824.000000;1.470574
9823.000000;1.470016
9822.000000;1.469572
9821.000000;1.469051
9820.000000;1.468480
9819.000000;1.467975
9818.000000;1.467729
9817.000000;1.467826
9816.000000;1.467924
9815.000000;1.467445
9814.000000;1.466308
9813.000000;1.465176
9812.000000;1.464703
9811.000000;1.464849
9810.000000;1.465180
9809.000000;1.465475
9808.000000;1.465643
9807.000000;1.465359
9806.000000;1.464396
9805.000000;1.463147
9804.000000;1.462274
9803.000000;1.461872
9802.000000;1.461466
9801.000000;1.460775
9800.000000;1.459966
9799.000000;1.459140
9798.000000;1.458146
9797.000000;1.457060
9796.000000;1.456407
9795.000000;1.456678
9794.000000;1.457817
9793.000000;1.459269
9792.000000;1.460327
9791.000000;1.460414
9790.000000;1.459387
9789.000000;1.457702
9788.000000;1.456063
9787.000000;1.454854
9786.000000;1.454078
9785.000000;1.453643
9784.000000;1.453366
9783.000000;1.452889
9782.000000;1.452134
9781.000000;1.451742
9780.000000;1.452456
9779.000000;1.454016
9778.000000;1.455221
9777.000000;1.455244
9776.000000;1.454310
9775.000000;1.452950
9774.000000;1.451344
9773.000000;1.449784
9772.000000;1.448983
9771.000000;1.449309
9770.000000;1.450144
9769.000000;1.450592
9768.000000;1.450475
9767.000000;1.450100
9766.000000;1.449401
9765.000000;1.448033
9764.000000;1.446148
9763.000000;1.444410
9762.000000;1.443282
9761.000000;1.442740
9760.000000;1.442605
9759.000000;1.442664
9758.000000;1.442538
9757.000000;1.441968
9756.000000;1.441328
9755.000000;1.441358
9754.000000;1.442234
9753.000000;1.443263
9752.000000;1.443653
9751.000000;1.443314
9750.000000;1.442785
9749.000000;1.442585
9748.000000;1.442741
9747.000000;1.442757
9746.000000;1.441986
9745.000000;1.440204
9744.000000;1.437877
9743.000000;1.435778
9742.000000;1.434377
9741.000000;1.433650
9740.000000;1.433306
9739.000000;1.433039
9738.000000;1.432752
9737.000000;1.432784
9736.000000;1.433713
9735.000000;1.435596
9734.000000;1.437520
9733.000000;1.438324
9732.000000;1.437769
9731.000000;1.436665
9730.000000;1.435871
9729.000000;1.435539
9728.000000;1.435279
9727.000000;1.434649
9726.000000;1.433411
9725.000000;1.431719
9724.000000;1.430177
9723.000000;1.429413
9722.000000;1.429484
9721.000000;1.429904
9720.000000;1.430178
9719.000000;1.430051
9718.000000;1.429311
9717.000000;1.427892
9716.000000;1.426387
9715.000000;1.425920
9714.000000;1.426992
9713.000000;1.428669
9712.000000;1.429336
9711.000000;1.428286
9710.000000;1.426293
9709.000000;1.424603
9708.000000;1.423675
9707.000000;1.423024
9706.000000;1.422127
9705.000000;1.421211
9704.000000;1.421038
9703.000000;1.421943
9702.000000;1.423341
9701.000000;1.424283
9700.000000;1.424343
9699.000000;1.423721
9698.000000;1.422689
9697.000000;1.421366
9696.000000;1.419939
9695.000000;1.418626
9694.000000;1.417343
9693.000000;1.415887
9692.000000;1.414584
9691.000000;1.414244
9690.000000;1.415089
9689.000000;1.416107
9688.000000;1.416020
9687.000000;1.414776
9686.000000;1.413570
9685.000000;1.413391
9684.000000;1.414022
9683.000000;1.414524
9682.000000;1.414303
9681.000000;1.413493
9680.000000;1.412527
9679.000000;1.411666
9678.000000;1.410925
9677.000000;1.410239
9676.000000;1.409658
9675.000000;1.409422
9674.000000;1.409781
9673.000000;1.410657
9672.000000;1.411491
9671.000000;1.411635
9670.000000;1.411001
9669.000000;1.410221
9668.000000;1.409956
9667.000000;1.410136
9666.000000;1.410118
9665.000000;1.409583
9664.000000;1.408928
9663.000000;1.408590
9662.000000;1.408351
9661.000000;1.407680
9660.000000;1.406601
9659.000000;1.405692
9658.000000;1.405226
9657.000000;1.404748
9656.000000;1.403724
9655.000000;1.402256
9654.000000;1.400965
9653.000000;1.400382
9652.000000;1.400679
9651.000000;1.401715
9650.000000;1.403032
9649.000000;1.403939
9648.000000;1.403926
9647.000000;1.403075
9646.000000;1.401981
9645.000000;1.401236
9644.000000;1.400991
9643.000000;1.400915
9642.000000;1.400520
9641.000000;1.399652
9640.000000;1.398680
9639.000000;1.398110
9638.000000;1.398002
9637.000000;1.397937
9636.000000;1.397598
9635.000000;1.397117
9634.000000;1.396702
9633.000000;1.396157
9632.000000;1.395101
9631.000000;1.393654
9630.000000;1.392607
9629.000000;1.392710
9628.000000;1.393801
9627.000000;1.394713
9626.000000;1.394228
9625.000000;1.392304
9624.000000;1.390244
9623.000000;1.389451
9622.000000;1.390064
9621.000000;1.390960
9620.000000;1.391045
9619.000000;1.390245
9618.000000;1.389153
9617.000000;1.388237
9616.000000;1.387751
9615.000000;1.387986
9614.000000;1.388961
9613.000000;1.389943
9612.000000;1.389872
9611.000000;1.388523
9610.000000;1.386885
9609.000000;1.386122
9608.000000;1.386385
9607.000000;1.386847
9606.000000;1.386734
9605.000000;1.386094
9604.000000;1.385525
9603.000000;1.385375
9602.000000;1.385391
9601.000000;1.385115
9600.000000;1.384472
9599.000000;1.383804
9598.000000;1.383360
9597.000000;1.383023
9596.000000;1.382609
9595.000000;1.382238
9594.000000;1.382136
9593.000000;1.382182
9592.000000;1.381927
9591.000000;1.381095
9590.000000;1.379872
9589.000000;1.378675
9588.000000;1.377840
9587.000000;1.377543
9586.000000;1.377784
9585.000000;1.378299
9584.000000;1.378637
9583.000000;1.378419
9582.000000;1.377534
9581.000000;1.376104
9580.000000;1.374485
9579.000000;1.373290
9578.000000;1.373088
9577.000000;1.373797
9576.000000;1.374507
9575.000000;1.374202
9574.000000;1.372729
9573.000000;1.370962
9572.000000;1.370008
9571.000000;1.370353
9570.000000;1.371604
9569.000000;1.372825
9568.000000;1.373162
9567.000000;1.372405
9566.000000;1.371104
9565.000000;1.370039
9564.000000;1.369494
9563.000000;1.369102
9562.000000;1.368444
9561.000000;1.367670
9560.000000;1.367350
9559.000000;1.367747
9558.000000;1.368420
9557.000000;1.368638
9556.000000;1.368129
9555.000000;1.367300
9554.000000;1.366741
9553.000000;1.366620
9552.000000;1.366647
9551.000000;1.366497
9550.000000;1.366097
9549.000000;1.365458
9548.000000;1.364468
9547.000000;1.363098
9546.000000;1.361705
9545.000000;1.360829
9544.000000;1.360615
9543.000000;1.360643
9542.000000;1.360486
9541.000000;1.360226
9540.000000;1.360219
9539.000000;1.360464
9538.000000;1.360533
9537.000000;1.360125
9536.000000;1.359393
9535.000000;1.358635
9534.000000;1.357949
9533.000000;1.357354
9532.000000;1.357024
9531.000000;1.357117
9530.000000;1.357474
9529.000000;1.357725
9528.000000;1.357723
9527.000000;1.357662
9526.000000;1.357724
9525.000000;1.357799
9524.000000;1.357650
9523.000000;1.357234
9522.000000;1.356760
9521.000000;1.356454
9520.000000;1.356272
9519.000000;1.355853
9518.000000;1.354823
9517.000000;1.353226
9516.000000;1.351595
9515.000000;1.350452
9514.000000;1.349799
9513.000000;1.349245
9512.000000;1.348583
9511.000000;1.348026
9510.000000;1.347786
9509.000000;1.347702
9508.000000;1.347472
9507.000000;1.347111
9506.000000;1.346954
9505.000000;1.347250
9504.000000;1.347914
9503.000000;1.348668
9502.000000;1.349234
9501.000000;1.349359
9500.000000;1.348831
9499.000000;1.347646
9498.000000;1.346113
9497.000000;1.344702
9496.000000;1.343752
9495.000000;1.343337
9494.000000;1.343327
9493.000000;1.343492
9492.000000;1.343525
9491.000000;1.343112
9490.000000;1.342150
9489.000000;1.340905
9488.000000;1.339834
9487.000000;1.339198
9486.000000;1.338863
9485.000000;1.338489
9484.000000;1.337855
9483.000000;1.337012
9482.000000;1.336272
9481.000000;1.336127
9480.000000;1.336939
9479.000000;1.338458
9478.000000;1.339718
9477.000000;1.339745
9476.000000;1.338526
9475.000000;1.337073
9474.000000;1.336368
9473.000000;1.336396
9472.000000;1.336325
9471.000000;1.335514
9470.000000;1.334135
9469.000000;1.332866
9468.000000;1.332185
9467.000000;1.332026
9466.000000;1.331942
9465.000000;1.331528
9464.000000;1.330758
9463.000000;1.330010
9462.000000;1.329711
9461.000000;1.329933
9460.000000;1.330446
9459.000000;1.331124
9458.000000;1.332050
9457.000000;1.333115
9456.000000;1.333763
9455.000000;1.333440
9454.000000;1.332224
9453.000000;1.330721
9452.000000;1.329363
9451.000000;1.328157
9450.000000;1.327154
9449.000000;1.326721
9448.000000;1.327020
9447.000000;1.327532
9446.000000;1.327497
9445.000000;1.326736
9444.000000;1.325684
9443.000000;1.324720
9442.000000;1.323950
9441.000000;1.323574
9440.000000;1.323883
9439.000000;1.324680
9438.000000;1.325186
9437.000000;1.324864
9436.000000;1.324068
9435.000000;1.323530
9434.000000;1.323485
9433.000000;1.323581
9432.000000;1.323379
9431.000000;1.322592
9430.000000;1.321115
9429.000000;1.319307
9428.000000;1.318065
9427.000000;1.318109
9426.000000;1.319152
9425.000000;1.320164
9424.000000;1.320516
9423.000000;1.320430
9422.000000;1.320280
9421.000000;1.319977
9420.000000;1.319250
9419.000000;1.318087
9418.000000;1.316645
9417.000000;1.315107
9416.000000;1.313909
9415.000000;1.313707
9414.000000;1.314662
9413.000000;1.315938
9412.000000;1.316350
9411.000000;1.315558
9410.000000;1.314285
9409.000000;1.313381
9408.000000;1.313020
9407.000000;1.312827
9406.000000;1.312463
9405.000000;1.311915
9404.000000;1.311364
9403.000000;1.310945
9402.000000;1.310624
9401.000000;1.310304
9400.000000;1.310030
9399.000000;1.309997
9398.000000;1.310281
9397.000000;1.310620
9396.000000;1.310613
9395.000000;1.310073
9394.000000;1.309084
9393.000000;1.307820
9392.000000;1.306517
9391.000000;1.305590
9390.000000;1.305491
9389.000000;1.306298
9388.000000;1.307494
9387.000000;1.308272
9386.000000;1.308096
9385.000000;1.307018
9384.000000;1.305571
9383.000000;1.304371
9382.000000;1.303698
9381.000000;1.303367
9380.000000;1.303003
9379.000000;1.302456
9378.000000;1.301909
9377.000000;1.301610
9376.000000;1.301533
9375.000000;1.301352
9374.000000;1.300771
9373.000000;1.299935
9372.000000;1.299394
9371.000000;1.299542
9370.000000;1.300135
9369.000000;1.300543
9368.000000;1.300496
9367.000000;1.300316
9366.000000;1.300306
9365.000000;1.300222
9364.000000;1.299680
9363.000000;1.298868
9362.000000;1.298441
9361.000000;1.298679
9360.000000;1.299121
9359.000000;1.299166
9358.000000;1.298733
9357.000000;1.298136
9356.000000;1.297527
9355.000000;1.296785
9354.000000;1.295885
9353.000000;1.295078
9352.000000;1.294624
9351.000000;1.294489
9350.000000;1.294382
9349.000000;1.294020
9348.000000;1.293285
9347.000000;1.292237
9346.000000;1.291125
9345.000000;1.290331
9344.000000;1.290125
9343.000000;1.290364
9342.000000;1.290554
9341.000000;1.290302
9340.000000;1.289672
9339.000000;1.288981
9338.000000;1.288364
9337.000000;1.287768
9336.000000;1.287307
9335.000000;1.287301
9334.000000;1.287783
9333.000000;1.288228
9332.000000;1.288064
9331.000000;1.287340
9330.000000;1.286619
9329.000000;1.286254
9328.000000;1.286081
9327.000000;1.285835
9326.000000;1.285525
9325.000000;1.285221
9324.000000;1.284699
9323.000000;1.283621
9322.000000;1.282047
9321.000000;1.280590
9320.000000;1.279937
9319.000000;1.280237
9318.000000;1.280996
9317.000000;1.281584
9316.000000;1.281847
9315.000000;1.282105
9314.000000;1.282544
9313.000000;1.282818
9312.000000;1.282472
9311.000000;1.281630
9310.000000;1.280910
9309.000000;1.280647
9308.000000;1.280520
9307.000000;1.280060
9306.000000;1.279191
9305.000000;1.278118
9304.000000;1.277023
9303.000000;1.276181
9302.000000;1.276072
9301.000000;1.276894
9300.000000;1.278054
9299.000000;1.278590
9298.000000;1.278193
9297.000000;1.277439
9296.000000;1.276941
9295.000000;1.276716
9294.000000;1.276564
9293.000000;1.276593
9292.000000;1.276962
9291.000000;1.277332
9290.000000;1.277014
9289.000000;1.275715
9288.000000;1.273910
9287.000000;1.272433
9286.000000;1.271837
9285.000000;1.272070
9284.000000;1.272584
9283.000000;1.272811
9282.000000;1.272679
9281.000000;1.272614
9280.000000;1.272911
9279.000000;1.273270
9278.000000;1.273146
9277.000000;1.272407
9276.000000;1.271349
9275.000000;1.270217
9274.000000;1.269117
9273.000000;1.268327
9272.000000;1.268185
9271.000000;1.268516
9270.000000;1.268613
9269.000000;1.268059
9268.000000;1.267281
9267.000000;1.266965
9266.000000;1.267187
9265.000000;1.267404
9264.000000;1.267151
9263.000000;1.266453
9262.000000;1.265684
9261.000000;1.265271
9260.000000;1.265426
9259.000000;1.265897
9258.000000;1.266061
9257.000000;1.265552
9256.000000;1.264701
9255.000000;1.264095
9254.000000;1.263861
9253.000000;1.263652
9252.000000;1.263200
9251.000000;1.262511
9250.000000;1.261605
9249.000000;1.260550
9248.000000;1.259792
9247.000000;1.259911
9246.000000;1.260829
9245.000000;1.261626
9244.000000;1.261449
9243.000000;1.260380
9242.000000;1.259155
9241.000000;1.258324
9240.000000;1.257972
9239.000000;1.257952
9238.000000;1.258023
9237.000000;1.257890
9236.000000;1.257470
9235.000000;1.257084
9234.000000;1.257097
9233.000000;1.257425
9232.000000;1.257631
9231.000000;1.257471
9230.000000;1.257098
9229.000000;1.256726
9228.000000;1.256355
9227.000000;1.255879
9226.000000;1.255267
9225.000000;1.254595
9224.000000;1.254014
9223.000000;1.253685
9222.000000;1.253587
9221.000000;1.253401
9220.000000;1.252816
9219.000000;1.251979
9218.000000;1.251444
9217.000000;1.251599
9216.000000;1.252273
9215.000000;1.252976
9214.000000;1.253355
9213.000000;1.253315
9212.000000;1.252853
9211.000000;1.251991
9210.000000;1.250853
9209.000000;1.249674
9208.000000;1.248702
9207.000000;1.248135
9206.000000;1.248073
9205.000000;1.248448
9204.000000;1.248982
9203.000000;1.249343
9202.000000;1.249369
9201.000000;1.249097
9200.000000;1.248592
9199.000000;1.247851
9198.000000;1.246893
9197.000000;1.245861
9196.000000;1.244945
9195.000000;1.244252
9194.000000;1.243778
9193.000000;1.243503
9192.000000;1.243406
9191.000000;1.243362
9190.000000;1.243196
9189.000000;1.242939
9188.000000;1.242923
9187.000000;1.243417
9186.000000;1.244186
9185.000000;1.244572
9184.000000;1.244080
9183.000000;1.242778
9182.000000;1.241133
9181.000000;1.239615
9180.000000;1.238545
9179.000000;1.238102
9178.000000;1.238228
9177.000000;1.238567
9176.000000;1.238693
9175.000000;1.238452
9174.000000;1.238021
9173.000000;1.237643
9172.000000;1.237403
9171.000000;1.237257
9170.000000;1.237169
9169.000000;1.237205
9168.000000;1.237475
9167.000000;1.237949
9166.000000;1.238329
9165.000000;1.238230
9164.000000;1.237583
9163.000000;1.236780
9162.000000;1.236290
9161.000000;1.236177
9160.000000;1.236089
9159.000000;1.235657
9158.000000;1.234797
9157.000000;1.233732
9156.000000;1.232891
9155.000000;1.232715
9154.000000;1.233317
9153.000000;1.234233
9152.000000;1.234672
9151.000000;1.234159
9150.000000;1.232905
9149.000000;1.231548
9148.000000;1.230610
9147.000000;1.230194
9146.000000;1.230041
9145.000000;1.229797
9144.000000;1.229320
9143.000000;1.228813
9142.000000;1.228633
9141.000000;1.228970
9140.000000;1.229701
9139.000000;1.230503
9138.000000;1.231002
9137.000000;1.230896
9136.000000;1.230100
9135.000000;1.228908
9134.000000;1.227892
9133.000000;1.227493
9132.000000;1.227636
9131.000000;1.227780
9130.000000;1.227402
9129.000000;1.226518
9128.000000;1.225686
9127.000000;1.225413
9126.000000;1.225593
9125.000000;1.225633
9124.000000;1.225161
9123.000000;1.224419
9122.000000;1.223866
9121.000000;1.223649
9120.000000;1.223650
9119.000000;1.223837
9118.000000;1.224191
9117.000000;1.224399
9116.000000;1.224050
9115.000000;1.223207
9114.000000;1.222456
9113.000000;1.222260
9112.000000;1.222499
9111.000000;1.222740
9110.000000;1.222708
9109.000000;1.222408
9108.000000;1.222043
9107.000000;1.221942
9106.000000;1.222269
9105.000000;1.222666
9104.000000;1.222447
9103.000000;1.221417
9102.000000;1.220236
9101.000000;1.219678
9100.000000;1.219745
9099.000000;1.219776
9098.000000;1.219261
9097.000000;1.218252
9096.000000;1.217117
9095.000000;1.216226
9094.000000;1.215825
9093.000000;1.215903
9092.000000;1.216167
9091.000000;1.216367
9090.000000;1.216569
9089.000000;1.216873
9088.000000;1.216986
9087.000000;1.216464
9086.000000;1.215346
9085.000000;1.214181
9084.000000;1.213388
9083.000000;1.212896
9082.000000;1.212467
9081.000000;1.212032
9080.000000;1.211628
9079.000000;1.211350
9078.000000;1.211469
9077.000000;1.212198
9076.000000;1.213177
9075.000000;1.213565
9074.000000;1.212934
9073.000000;1.211797
9072.000000;1.210936
9071.000000;1.210510
9070.000000;1.210132
9069.000000;1.209586
9068.000000;1.209033
9067.000000;1.208641
9066.000000;1.208414
9065.000000;1.208347
9064.000000;1.208403
9063.000000;1.208305
9062.000000;1.207711
9061.000000;1.206688
9060.000000;1.205758
9059.000000;1.205379
9058.000000;1.205559
9057.000000;1.206016
9056.000000;1.206467
9055.000000;1.206722
9054.000000;1.206687
9053.000000;1.206429
