Criado como novo conjunto de dados;"Jao_teste_celulas.spp","7143.8 Secs"
cm-1;Abs
10000.000000;1.360966
9999.000000;1.361825
9998.000000;1.362694
9997.000000;1.363551
9996.000000;1.364433
9995.000000;1.365272
9994.000000;1.366224
9993.000000;1.367241
9992.000000;1.367593
9991.000000;1.367322
9990.000000;1.366843
9989.000000;1.366718
9988.000000;1.367146
9987.000000;1.367847
9986.000000;1.368292
9985.000000;1.368146
9984.000000;1.367409
9983.000000;1.366227
9982.000000;1.364790
9981.000000;1.363380
9980.000000;1.362258
9979.000000;1.361426
9978.000000;1.360642
9977.000000;1.359736
9976.000000;1.358778
9975.000000;1.357957
9974.000000;1.357492
9973.000000;1.357590
9972.000000;1.358173
9971.000000;1.358649
9970.000000;1.358325
9969.000000;1.357208
9968.000000;1.356070
9967.000000;1.355564
9966.000000;1.355600
9965.000000;1.355732
9964.000000;1.355798
9963.000000;1.355819
9962.000000;1.355573
9961.000000;1.354756
9960.000000;1.353519
9959.000000;1.352456
9958.000000;1.352034
9957.000000;1.352240
9956.000000;1.352744
9955.000000;1.353131
9954.000000;1.353021
9953.000000;1.352252
9952.000000;1.351088
9951.000000;1.350068
9950.000000;1.349540
9949.000000;1.349406
9948.000000;1.349299
9947.000000;1.348923
9946.000000;1.348231
9945.000000;1.347406
9944.000000;1.346721
9943.000000;1.346317
9942.000000;1.346084
9941.000000;1.345844
9940.000000;1.345609
9939.000000;1.345552
9938.000000;1.345708
9937.000000;1.345851
9936.000000;1.345667
9935.000000;1.345006
9934.000000;1.343938
9933.000000;1.342656
9932.000000;1.341427
9931.000000;1.340569
9930.000000;1.340355
9929.000000;1.340790
9928.000000;1.341473
9927.000000;1.341769
9926.000000;1.341254
9925.000000;1.340013
9924.000000;1.338508
9923.000000;1.337277
9922.000000;1.336765
9921.000000;1.337149
9920.000000;1.338033
9919.000000;1.338482
9918.000000;1.337792
9917.000000;1.336270
9916.000000;1.334873
9915.000000;1.334065
9914.000000;1.333464
9913.000000;1.332719
9912.000000;1.332170
9911.000000;1.332244
9910.000000;1.332590
9909.000000;1.332381
9908.000000;1.331377
9907.000000;1.330184
9906.000000;1.329433
9905.000000;1.329183
9904.000000;1.329198
9903.000000;1.329392
9902.000000;1.329789
9901.000000;1.330292
9900.000000;1.330716
9899.000000;1.330941
9898.000000;1.330890
9897.000000;1.330464
9896.000000;1.329628
9895.000000;1.328517
9894.000000;1.327393
9893.000000;1.326473
9892.000000;1.325772
9891.000000;1.325116
9890.000000;1.324353
9889.000000;1.323551
9888.000000;1.322909
9887.000000;1.322427
9886.000000;1.321827
9885.000000;1.320986
9884.000000;1.320272
9883.000000;1.320166
9882.000000;1.320571
9881.000000;1.320785
9880.000000;1.320246
9879.000000;1.319094
9878.000000;1.317945
9877.000000;1.317285
9876.000000;1.317153
9875.000000;1.317245
9874.000000;1.317179
9873.000000;1.316779
9872.000000;1.316196
9871.000000;1.315748
9870.000000;1.315604
9869.000000;1.315714
9868.000000;1.315975
9867.000000;1.316305
9866.000000;1.316535
9865.000000;1.316410
9864.000000;1.315858
9863.000000;1.315124
9862.000000;1.314497
9861.000000;1.313952
9860.000000;1.313193
9859.000000;1.312029
9858.000000;1.310646
9857.000000;1.309521
9856.000000;1.309085
9855.000000;1.309390
9854.000000;1.310036
9853.000000;1.310424
9852.000000;1.310183
9851.000000;1.309401
9850.000000;1.308478
9849.000000;1.307748
9848.000000;1.307236
9847.000000;1.306734
9846.000000;1.306112
9845.000000;1.305555
9844.000000;1.305431
9843.000000;1.305883
9842.000000;1.306572
9841.000000;1.306918
9840.000000;1.306605
9839.000000;1.305775
9838.000000;1.304782
9837.000000;1.303861
9836.000000;1.303042
9835.000000;1.302287
9834.000000;1.301612
9833.000000;1.301029
9832.000000;1.300454
9831.000000;1.299722
9830.000000;1.298784
9829.000000;1.297867
9828.000000;1.297305
9827.000000;1.297180
9826.000000;1.297248
9825.000000;1.297230
9824.000000;1.297006
9823.000000;1.296505
9822.000000;1.295675
9821.000000;1.294749
9820.000000;1.294267
9819.000000;1.294528
9818.000000;1.295086
9817.000000;1.295148
9816.000000;1.294498
9815.000000;1.293718
9814.000000;1.293420
9813.000000;1.293551
9812.000000;1.293562
9811.000000;1.293034
9810.000000;1.292003
9809.000000;1.290855
9808.000000;1.290054
9807.000000;1.289842
9806.000000;1.290026
9805.000000;1.290149
9804.000000;1.289960
9803.000000;1.289636
9802.000000;1.289461
9801.000000;1.289425
9800.000000;1.289248
9799.000000;1.288677
9798.000000;1.287624
9797.000000;1.286143
9796.000000;1.284504
9795.000000;1.283200
9794.000000;1.282640
9793.000000;1.282756
9792.000000;1.283060
9791.000000;1.283102
9790.000000;1.282825
9789.000000;1.282486
9788.000000;1.282339
9787.000000;1.282389
9786.000000;1.282359
9785.000000;1.281911
9784.000000;1.280996
9783.000000;1.279987
9782.000000;1.279384
9781.000000;1.279389
9780.000000;1.279797
9779.000000;1.280232
9778.000000;1.280383
9777.000000;1.280071
9776.000000;1.279304
9775.000000;1.278353
9774.000000;1.277612
9773.000000;1.277273
9772.000000;1.277169
9771.000000;1.276967
9770.000000;1.276442
9769.000000;1.275575
9768.000000;1.274523
9767.000000;1.273574
9766.000000;1.272968
9765.000000;1.272648
9764.000000;1.272322
9763.000000;1.271912
9762.000000;1.271785
9761.000000;1.272276
9760.000000;1.273034
9759.000000;1.273155
9758.000000;1.272129
9757.000000;1.270467
9756.000000;1.269215
9755.000000;1.268950
9754.000000;1.269396
9753.000000;1.269903
9752.000000;1.270102
9751.000000;1.270070
9750.000000;1.270016
9749.000000;1.269928
9748.000000;1.269528
9747.000000;1.268555
9746.000000;1.267087
9745.000000;1.265567
9744.000000;1.264456
9743.000000;1.263903
9742.000000;1.263775
9741.000000;1.263907
9740.000000;1.264193
9739.000000;1.264476
9738.000000;1.264521
9737.000000;1.264194
9736.000000;1.263581
9735.000000;1.262874
9734.000000;1.262185
9733.000000;1.261538
9732.000000;1.260920
9731.000000;1.260231
9730.000000;1.259262
9729.000000;1.257943
9728.000000;1.256646
9727.000000;1.256032
9726.000000;1.256404
9725.000000;1.257271
9724.000000;1.257789
9723.000000;1.257659
9722.000000;1.257360
9721.000000;1.257349
9720.000000;1.257323
9719.000000;1.256634
9718.000000;1.255339
9717.000000;1.254301
9716.000000;1.254107
9715.000000;1.254282
9714.000000;1.253939
9713.000000;1.252951
9712.000000;1.252023
9711.000000;1.251661
9710.000000;1.251593
9709.000000;1.251332
9708.000000;1.250877
9707.000000;1.250556
9706.000000;1.250428
9705.000000;1.250182
9704.000000;1.249575
9703.000000;1.248765
9702.000000;1.248209
9701.000000;1.248283
9700.000000;1.248868
9699.000000;1.249248
9698.000000;1.248594
9697.000000;1.246773
9696.000000;1.244604
9695.000000;1.243150
9694.000000;1.242813
9693.000000;1.243188
9692.000000;1.243602
9691.000000;1.243648
9690.000000;1.243341
9689.000000;1.243045
9688.000000;1.243225
9687.000000;1.243996
9686.000000;1.244860
9685.000000;1.245085
9684.000000;1.244401
9683.000000;1.243181
9682.000000;1.241923
9681.000000;1.240785
9680.000000;1.239705
9679.000000;1.238718
9678.000000;1.237962
9677.000000;1.237506
9676.000000;1.237305
9675.000000;1.237275
9674.000000;1.237286
9673.000000;1.237173
9672.000000;1.236888
9671.000000;1.236570
9670.000000;1.236361
9669.000000;1.236164
9668.000000;1.235721
9667.000000;1.234893
9666.000000;1.233806
9665.000000;1.232782
9664.000000;1.232223
9663.000000;1.232449
9662.000000;1.233421
9661.000000;1.234554
9660.000000;1.235000
9659.000000;1.234296
9658.000000;1.232724
9657.000000;1.231039
9656.000000;1.229880
9655.000000;1.229447
9654.000000;1.229540
9653.000000;1.229784
9652.000000;1.229882
9651.000000;1.229790
9650.000000;1.229644
9649.000000;1.229489
9648.000000;1.229172
9647.000000;1.228577
9646.000000;1.227849
9645.000000;1.227221
9644.000000;1.226683
9643.000000;1.226031
9642.000000;1.225245
9641.000000;1.224601
9640.000000;1.224300
9639.000000;1.224160
9638.000000;1.223841
9637.000000;1.223271
9636.000000;1.222682
9635.000000;1.222253
9634.000000;1.221863
9633.000000;1.221233
9632.000000;1.220260
9631.000000;1.219196
9630.000000;1.218477
9629.000000;1.218349
9628.000000;1.218610
9627.000000;1.218798
9626.000000;1.218653
9625.000000;1.218305
9624.000000;1.217957
9623.000000;1.217582
9622.000000;1.217074
9621.000000;1.216528
9620.000000;1.216167
9619.000000;1.215979
9618.000000;1.215661
9617.000000;1.214959
9616.000000;1.213951
9615.000000;1.212951
9614.000000;1.212247
9613.000000;1.211948
9612.000000;1.211983
9611.000000;1.212156
9610.000000;1.212295
9609.000000;1.212352
9608.000000;1.212335
9607.000000;1.212194
9606.000000;1.211877
9605.000000;1.211456
9604.000000;1.211046
9603.000000;1.210639
9602.000000;1.210156
9601.000000;1.209625
9600.000000;1.209121
9599.000000;1.208542
9598.000000;1.207703
9597.000000;1.206747
9596.000000;1.206200
9595.000000;1.206418
9594.000000;1.207078
9593.000000;1.207392
9592.000000;1.206806
9591.000000;1.205443
9590.000000;1.203973
9589.000000;1.203136
9588.000000;1.203238
9587.000000;1.203927
9586.000000;1.204502
9585.000000;1.204571
9584.000000;1.204330
9583.000000;1.204121
9582.000000;1.203874
9581.000000;1.203228
9580.000000;1.202118
9579.000000;1.200972
9578.000000;1.200275
9577.000000;1.200142
9576.000000;1.200384
9575.000000;1.200787
9574.000000;1.201151
9573.000000;1.201191
9572.000000;1.200683
9571.000000;1.199804
9570.000000;1.199121
9569.000000;1.199030
9568.000000;1.199228
9567.000000;1.198920
9566.000000;1.197678
9565.000000;1.195959
9564.000000;1.194645
9563.000000;1.194159
9562.000000;1.194191
9561.000000;1.194164
9560.000000;1.193796
9559.000000;1.193231
9558.000000;1.192846
9557.000000;1.192964
9556.000000;1.193525
9555.000000;1.193950
9554.000000;1.193561
9553.000000;1.192282
9552.000000;1.190759
9551.000000;1.189727
9550.000000;1.189356
9549.000000;1.189275
9548.000000;1.189043
9547.000000;1.188507
9546.000000;1.187866
9545.000000;1.187538
9544.000000;1.187846
9543.000000;1.188638
9542.000000;1.189311
9541.000000;1.189342
9540.000000;1.188755
9539.000000;1.187974
9538.000000;1.187390
9537.000000;1.187198
9536.000000;1.187409
9535.000000;1.187746
9534.000000;1.187676
9533.000000;1.186927
9532.000000;1.185954
9531.000000;1.185538
9530.000000;1.185872
9529.000000;1.186312
9528.000000;1.186088
9527.000000;1.185001
9526.000000;1.183370
9525.000000;1.181625
9524.000000;1.180224
9523.000000;1.179657
9522.000000;1.180091
9521.000000;1.181004
9520.000000;1.181471
9519.000000;1.180987
9518.000000;1.179889
9517.000000;1.178868
9516.000000;1.178191
9515.000000;1.177533
9514.000000;1.176547
9513.000000;1.175408
9512.000000;1.174652
9511.000000;1.174566
9510.000000;1.174916
9509.000000;1.175302
9508.000000;1.175580
9507.000000;1.175854
9506.000000;1.176175
9505.000000;1.176432
9504.000000;1.176478
9503.000000;1.176196
9502.000000;1.175491
9501.000000;1.174424
9500.000000;1.173339
9499.000000;1.172645
9498.000000;1.172393
9497.000000;1.172213
9496.000000;1.171746
9495.000000;1.171031
9494.000000;1.170396
9493.000000;1.170083
9492.000000;1.170044
9491.000000;1.170037
9490.000000;1.169814
9489.000000;1.169264
9488.000000;1.168469
9487.000000;1.167646
9486.000000;1.167000
9485.000000;1.166640
9484.000000;1.166575
9483.000000;1.166721
9482.000000;1.166855
9481.000000;1.166708
9480.000000;1.166172
9479.000000;1.165436
9478.000000;1.164841
9477.000000;1.164620
9476.000000;1.164732
9475.000000;1.164881
9474.000000;1.164693
9473.000000;1.163987
9472.000000;1.162997
9471.000000;1.162249
9470.000000;1.162107
9469.000000;1.162413
9468.000000;1.162642
9467.000000;1.162413
9466.000000;1.161780
9465.000000;1.161064
9464.000000;1.160516
9463.000000;1.160193
9462.000000;1.160045
9461.000000;1.159959
9460.000000;1.159743
9459.000000;1.159253
9458.000000;1.158633
9457.000000;1.158270
9456.000000;1.158349
9455.000000;1.158524
9454.000000;1.158255
9453.000000;1.157440
9452.000000;1.156478
9451.000000;1.155686
9450.000000;1.154934
9449.000000;1.154051
9448.000000;1.153321
9447.000000;1.153228
9446.000000;1.153741
9445.000000;1.154182
9444.000000;1.153936
9443.000000;1.153046
9442.000000;1.152000
9441.000000;1.151165
9440.000000;1.150625
9439.000000;1.150387
9438.000000;1.150431
9437.000000;1.150578
9436.000000;1.150571
9435.000000;1.150371
9434.000000;1.150214
9433.000000;1.150248
9432.000000;1.150285
9431.000000;1.149998
9430.000000;1.149298
9429.000000;1.148385
9428.000000;1.147546
9427.000000;1.147017
9426.000000;1.146958
9425.000000;1.147321
9424.000000;1.147749
9423.000000;1.147825
9422.000000;1.147485
9421.000000;1.147022
9420.000000;1.146650
9419.000000;1.146274
9418.000000;1.145803
9417.000000;1.145451
9416.000000;1.145466
9415.000000;1.145703
9414.000000;1.145734
9413.000000;1.145345
9412.000000;1.144673
9411.000000;1.143847
9410.000000;1.142804
9409.000000;1.141559
9408.000000;1.140403
9407.000000;1.139646
9406.000000;1.139297
9405.000000;1.139130
9404.000000;1.138983
9403.000000;1.138838
9402.000000;1.138715
9401.000000;1.138632
9400.000000;1.138646
9399.000000;1.138789
9398.000000;1.138959
9397.000000;1.138927
9396.000000;1.138486
9395.000000;1.137599
9394.000000;1.136479
9393.000000;1.135514
9392.000000;1.134993
9391.000000;1.134848
9390.000000;1.134734
9389.000000;1.134399
9388.000000;1.133876
9387.000000;1.133293
9386.000000;1.132718
9385.000000;1.132278
9384.000000;1.132218
9383.000000;1.132600
9382.000000;1.133043
9381.000000;1.133012
9380.000000;1.132372
9379.000000;1.131463
9378.000000;1.130656
9377.000000;1.130016
9376.000000;1.129404
9375.000000;1.128721
9374.000000;1.128001
9373.000000;1.127423
9372.000000;1.127256
9371.000000;1.127638
9370.000000;1.128309
9369.000000;1.128666
9368.000000;1.128221
9367.000000;1.127060
9366.000000;1.125810
9365.000000;1.125131
9364.000000;1.125167
9363.000000;1.125459
9362.000000;1.125435
9361.000000;1.124994
9360.000000;1.124514
9359.000000;1.124273
9358.000000;1.124069
9357.000000;1.123547
9356.000000;1.122734
9355.000000;1.121987
9354.000000;1.121465
9353.000000;1.120970
9352.000000;1.120381
9351.000000;1.119966
9350.000000;1.120074
9349.000000;1.120649
9348.000000;1.121220
9347.000000;1.121341
9346.000000;1.120928
9345.000000;1.120217
9344.000000;1.119505
9343.000000;1.118959
9342.000000;1.118582
9341.000000;1.118284
9340.000000;1.117998
9339.000000;1.117768
9338.000000;1.117716
9337.000000;1.117894
9336.000000;1.118139
9335.000000;1.118113
9334.000000;1.117605
9333.000000;1.116792
9332.000000;1.116100
9331.000000;1.115797
9330.000000;1.115808
9329.000000;1.115932
9328.000000;1.116028
9327.000000;1.115905
9326.000000;1.115248
9325.000000;1.113963
9324.000000;1.112501
9323.000000;1.111542
9322.000000;1.111332
9321.000000;1.111493
9320.000000;1.111480
9319.000000;1.111040
9318.000000;1.110251
9317.000000;1.109376
9316.000000;1.108770
9315.000000;1.108706
9314.000000;1.109084
9313.000000;1.109436
9312.000000;1.109363
9311.000000;1.108923
9310.000000;1.108504
9309.000000;1.108384
9308.000000;1.108520
9307.000000;1.108668
9306.000000;1.108607
9305.000000;1.108303
9304.000000;1.107940
9303.000000;1.107755
9302.000000;1.107752
9301.000000;1.107642
9300.000000;1.107140
9299.000000;1.106289
9298.000000;1.105412
9297.000000;1.104790
9296.000000;1.104471
9295.000000;1.104350
9294.000000;1.104313
9293.000000;1.104251
9292.000000;1.104004
9291.000000;1.103421
9290.000000;1.102536
9289.000000;1.101677
9288.000000;1.101252
9287.000000;1.101328
9286.000000;1.101488
9285.000000;1.101261
9284.000000;1.100689
9283.000000;1.100297
9282.000000;1.100440
9281.000000;1.100866
9280.000000;1.100997
9279.000000;1.100536
9278.000000;1.099661
9277.000000;1.098739
9276.000000;1.098007
9275.000000;1.097464
9274.000000;1.096941
9273.000000;1.096285
9272.000000;1.095564
9271.000000;1.095084
9270.000000;1.095093
9269.000000;1.095472
9268.000000;1.095809
9267.000000;1.095779
9266.000000;1.095392
9265.000000;1.094890
9264.000000;1.094500
9263.000000;1.094308
9262.000000;1.094284
9261.000000;1.094347
9260.000000;1.094363
9259.000000;1.094141
9258.000000;1.093482
9257.000000;1.092361
9256.000000;1.091095
9255.000000;1.090185
9254.000000;1.089858
9253.000000;1.089823
9252.000000;1.089613
9251.000000;1.089148
9250.000000;1.088780
9249.000000;1.088743
9248.000000;1.088783
9247.000000;1.088517
9246.000000;1.088023
9245.000000;1.087820
9244.000000;1.088220
9243.000000;1.088892
9242.000000;1.089194
9241.000000;1.088823
9240.000000;1.088017
9239.000000;1.087138
9238.000000;1.086249
9237.000000;1.085200
9236.000000;1.084028
9235.000000;1.083131
9234.000000;1.082955
9233.000000;1.083545
9232.000000;1.084464
9231.000000;1.085130
9230.000000;1.085252
9229.000000;1.084936
9228.000000;1.084471
9227.000000;1.084069
9226.000000;1.083779
9225.000000;1.083539
9224.000000;1.083272
9223.000000;1.082947
9222.000000;1.082609
9221.000000;1.082320
9220.000000;1.082081
9219.000000;1.081796
9218.000000;1.081337
9217.000000;1.080636
9216.000000;1.079728
9215.000000;1.078769
9214.000000;1.078035
9213.000000;1.077802
9212.000000;1.078100
9211.000000;1.078588
9210.000000;1.078760
9209.000000;1.078374
9208.000000;1.077621
9207.000000;1.076862
9206.000000;1.076256
9205.000000;1.075726
9204.000000;1.075217
9203.000000;1.074867
9202.000000;1.074874
9201.000000;1.075224
9200.000000;1.075605
9199.000000;1.075627
9198.000000;1.075169
9197.000000;1.074514
9196.000000;1.074073
9195.000000;1.073950
9194.000000;1.073811
9193.000000;1.073253
9192.000000;1.072301
9191.000000;1.071455
9190.000000;1.071218
9189.000000;1.071593
9188.000000;1.072067
9187.000000;1.072081
9186.000000;1.071517
9185.000000;1.070731
9184.000000;1.070170
9183.000000;1.069972
9182.000000;1.069949
9181.000000;1.069873
9180.000000;1.069701
9179.000000;1.069546
9178.000000;1.069482
9177.000000;1.069430
9176.000000;1.069198
9175.000000;1.068664
9174.000000;1.067935
9173.000000;1.067311
9172.000000;1.067013
9171.000000;1.066954
9170.000000;1.066836
9169.000000;1.066501
9168.000000;1.066111
9167.000000;1.065936
9166.000000;1.066011
9165.000000;1.066066
9164.000000;1.065776
9163.000000;1.065072
9162.000000;1.064233
9161.000000;1.063642
9160.000000;1.063424
9159.000000;1.063360
9158.000000;1.063212
9157.000000;1.063028
9156.000000;1.062971
9155.000000;1.062894
9154.000000;1.062383
9153.000000;1.061320
9152.000000;1.060181
9151.000000;1.059591
9150.000000;1.059696
9149.000000;1.060135
9148.000000;1.060509
9147.000000;1.060649
9146.000000;1.060494
9145.000000;1.059976
9144.000000;1.059157
9143.000000;1.058328
9142.000000;1.057829
9141.000000;1.057735
9140.000000;1.057762
9139.000000;1.057518
9138.000000;1.056911
9137.000000;1.056286
9136.000000;1.056040
9135.000000;1.056104
9134.000000;1.056000
9133.000000;1.055507
9132.000000;1.055040
9131.000000;1.055136
9130.000000;1.055719
9129.000000;1.056158
9128.000000;1.056019
9127.000000;1.055436
9126.000000;1.054756
9125.000000;1.054158
9124.000000;1.053713
9123.000000;1.053506
9122.000000;1.053486
9121.000000;1.053402
9120.000000;1.053086
9119.000000;1.052666
9118.000000;1.052334
9117.000000;1.052027
9116.000000;1.051578
9115.000000;1.051082
9114.000000;1.050853
9113.000000;1.050964
9112.000000;1.051076
9111.000000;1.050806
9110.000000;1.050157
9109.000000;1.049455
9108.000000;1.048932
9107.000000;1.048514
9106.000000;1.048013
9105.000000;1.047413
9104.000000;1.046899
9103.000000;1.046660
9102.000000;1.046708
9101.000000;1.046875
9100.000000;1.046930
9099.000000;1.046739
9098.000000;1.046379
9097.000000;1.046107
9096.000000;1.046109
9095.000000;1.046261
9094.000000;1.046246
9093.000000;1.045952
9092.000000;1.045577
9091.000000;1.045278
9090.000000;1.044885
9089.000000;1.044166
9088.000000;1.043238
9087.000000;1.042470
9086.000000;1.042065
9085.000000;1.041955
9084.000000;1.042079
9083.000000;1.042443
9082.000000;1.042869
9081.000000;1.042965
9080.000000;1.042511
9079.000000;1.041697
9078.000000;1.040845
9077.000000;1.040095
9076.000000;1.039479
9075.000000;1.039117
9074.000000;1.039105
9073.000000;1.039310
9072.000000;1.039476
9071.000000;1.039479
9070.000000;1.039321
9069.000000;1.038960
9068.000000;1.038328
9067.000000;1.037511
9066.000000;1.036757
9065.000000;1.036276
9064.000000;1.036130
9063.000000;1.036235
9062.000000;1.036379
9061.000000;1.036282
9060.000000;1.035839
9059.000000;1.035296
9058.000000;1.035035
9057.000000;1.035146
9056.000000;1.035337
9055.000000;1.035291
9054.000000;1.034981
9053.000000;1.034590
