Criado como novo conjunto de dados;"Jao_teste_celulas.spp","10984.2 Secs"
cm-1;Abs
10000.000000;1.933660
9999.000000;1.936625
9998.000000;1.939530
9997.000000;1.942600
9996.000000;1.945427
9995.000000;1.948808
9994.000000;1.950643
9993.000000;1.947318
9992.000000;1.943416
9991.000000;1.941061
9990.000000;1.939592
9989.000000;1.937400
9988.000000;1.935146
9987.000000;1.934231
9986.000000;1.934328
9985.000000;1.933634
9984.000000;1.931565
9983.000000;1.929935
9982.000000;1.930795
9981.000000;1.933673
9980.000000;1.935602
9979.000000;1.934182
9978.000000;1.930398
9977.000000;1.927718
9976.000000;1.928468
9975.000000;1.931813
9974.000000;1.935162
9973.000000;1.936715
9972.000000;1.936260
9971.000000;1.934298
9970.000000;1.931604
9969.000000;1.929443
9968.000000;1.928920
9967.000000;1.929722
9966.000000;1.930231
9965.000000;1.929386
9964.000000;1.927953
9963.000000;1.927396
9962.000000;1.927931
9961.000000;1.928381
9960.000000;1.927561
9959.000000;1.925159
9958.000000;1.921535
9957.000000;1.917504
9956.000000;1.914376
9955.000000;1.913441
9954.000000;1.914905
9953.000000;1.917479
9952.000000;1.919383
9951.000000;1.919820
9950.000000;1.919487
9949.000000;1.919703
9948.000000;1.921052
9947.000000;1.922716
9946.000000;1.923220
9945.000000;1.921992
9944.000000;1.920039
9943.000000;1.918839
9942.000000;1.918651
9941.000000;1.918364
9940.000000;1.917172
9939.000000;1.915783
9938.000000;1.915555
9937.000000;1.916590
9936.000000;1.917066
9935.000000;1.914999
9934.000000;1.910671
9933.000000;1.906666
9932.000000;1.905341
9931.000000;1.906628
9930.000000;1.908471
9929.000000;1.909205
9928.000000;1.908974
9927.000000;1.908800
9926.000000;1.909052
9925.000000;1.909357
9924.000000;1.909550
9923.000000;1.909876
9922.000000;1.910211
9921.000000;1.909949
9920.000000;1.909033
9919.000000;1.908378
9918.000000;1.908725
9917.000000;1.909475
9916.000000;1.909137
9915.000000;1.907126
9914.000000;1.904706
9913.000000;1.903682
9912.000000;1.904372
9911.000000;1.905151
9910.000000;1.904162
9909.000000;1.901492
9908.000000;1.899345
9907.000000;1.899635
9906.000000;1.901550
9905.000000;1.902123
9904.000000;1.899523
9903.000000;1.895137
9902.000000;1.891749
9901.000000;1.890586
9900.000000;1.890952
9899.000000;1.891979
9898.000000;1.893483
9897.000000;1.895091
9896.000000;1.895784
9895.000000;1.895032
9894.000000;1.893677
9893.000000;1.893152
9892.000000;1.894132
9891.000000;1.895987
9890.000000;1.897233
9889.000000;1.896525
9888.000000;1.893733
9887.000000;1.890188
9886.000000;1.887436
9885.000000;1.885903
9884.000000;1.885274
9883.000000;1.885857
9882.000000;1.888494
9881.000000;1.892863
9880.000000;1.896850
9879.000000;1.898307
9878.000000;1.897042
9877.000000;1.894462
9876.000000;1.891623
9875.000000;1.888700
9874.000000;1.886044
9873.000000;1.884500
9872.000000;1.884479
9871.000000;1.885320
9870.000000;1.885821
9869.000000;1.885229
9868.000000;1.883730
9867.000000;1.882139
9866.000000;1.881001
9865.000000;1.879862
9864.000000;1.877767
9863.000000;1.874774
9862.000000;1.872595
9861.000000;1.873165
9860.000000;1.876661
9859.000000;1.881257
9858.000000;1.884625
9857.000000;1.885287
9856.000000;1.883067
9855.000000;1.879061
9854.000000;1.875141
9853.000000;1.872897
9852.000000;1.872672
9851.000000;1.873504
9850.000000;1.873971
9849.000000;1.873318
9848.000000;1.872154
9847.000000;1.871972
9846.000000;1.873479
9845.000000;1.875365
9844.000000;1.875374
9843.000000;1.873000
9842.000000;1.870416
9841.000000;1.870154
9840.000000;1.872519
9839.000000;1.875772
9838.000000;1.878128
9837.000000;1.878825
9836.000000;1.877837
9835.000000;1.875748
9834.000000;1.873819
9833.000000;1.873190
9832.000000;1.873794
9831.000000;1.874484
9830.000000;1.874073
9829.000000;1.871842
9828.000000;1.867592
9827.000000;1.862271
9826.000000;1.858205
9825.000000;1.857403
9824.000000;1.859475
9823.000000;1.862095
9822.000000;1.863599
9821.000000;1.864143
9820.000000;1.864158
9819.000000;1.863179
9818.000000;1.860931
9817.000000;1.858392
9816.000000;1.856838
9815.000000;1.856546
9814.000000;1.857119
9813.000000;1.858311
9812.000000;1.859708
9811.000000;1.860300
9810.000000;1.859411
9809.000000;1.857772
9808.000000;1.856850
9807.000000;1.857290
9806.000000;1.858555
9805.000000;1.859726
9804.000000;1.860047
9803.000000;1.858954
9802.000000;1.856494
9801.000000;1.853790
9800.000000;1.852354
9799.000000;1.852716
9798.000000;1.854049
9797.000000;1.855072
9796.000000;1.854990
9795.000000;1.853715
9794.000000;1.851939
9793.000000;1.851178
9792.000000;1.852817
9791.000000;1.856473
9790.000000;1.859667
9789.000000;1.859888
9788.000000;1.857028
9787.000000;1.853121
9786.000000;1.849974
9785.000000;1.847931
9784.000000;1.846699
9783.000000;1.846224
9782.000000;1.846157
9781.000000;1.845241
9780.000000;1.842444
9779.000000;1.838663
9778.000000;1.836415
9777.000000;1.837543
9776.000000;1.841610
9775.000000;1.846618
9774.000000;1.850772
9773.000000;1.853226
9772.000000;1.853626
9771.000000;1.851829
9770.000000;1.848268
9769.000000;1.844155
9768.000000;1.841035
9767.000000;1.839994
9766.000000;1.840964
9765.000000;1.842626
9764.000000;1.843411
9763.000000;1.843014
9762.000000;1.842641
9761.000000;1.843398
9760.000000;1.844699
9759.000000;1.844727
9758.000000;1.842375
9757.000000;1.838462
9756.000000;1.835167
9755.000000;1.834497
9754.000000;1.836838
9753.000000;1.840294
9752.000000;1.841786
9751.000000;1.839690
9750.000000;1.835296
9749.000000;1.830978
9748.000000;1.827462
9747.000000;1.823817
9746.000000;1.819871
9745.000000;1.817415
9744.000000;1.818572
9743.000000;1.823540
9742.000000;1.830095
9741.000000;1.834877
9740.000000;1.835468
9739.000000;1.832186
9738.000000;1.828063
9737.000000;1.826433
9736.000000;1.828153
9735.000000;1.831201
9734.000000;1.832957
9733.000000;1.832412
9732.000000;1.830062
9731.000000;1.826711
9730.000000;1.823211
9729.000000;1.820712
9728.000000;1.820154
9727.000000;1.821425
9726.000000;1.823446
9725.000000;1.825142
9724.000000;1.825992
9723.000000;1.825835
9722.000000;1.824860
9721.000000;1.823783
9720.000000;1.823271
9719.000000;1.823037
9718.000000;1.822034
9717.000000;1.819812
9716.000000;1.817320
9715.000000;1.816069
9714.000000;1.816736
9713.000000;1.818703
9712.000000;1.820760
9711.000000;1.822159
9710.000000;1.823017
9709.000000;1.823686
9708.000000;1.823874
9707.000000;1.822645
9706.000000;1.819445
9705.000000;1.814931
9704.000000;1.810625
9703.000000;1.807849
9702.000000;1.807079
9701.000000;1.808066
9700.000000;1.810151
9699.000000;1.812407
9698.000000;1.813890
9697.000000;1.814304
9696.000000;1.814416
9695.000000;1.815290
9694.000000;1.816800
9693.000000;1.817340
9692.000000;1.815667
9691.000000;1.812853
9690.000000;1.811492
9689.000000;1.812794
9688.000000;1.815167
9687.000000;1.816029
9686.000000;1.814509
9685.000000;1.811718
9684.000000;1.808917
9683.000000;1.806540
9682.000000;1.804720
9681.000000;1.803707
9680.000000;1.803465
9679.000000;1.803576
9678.000000;1.803887
9677.000000;1.804588
9676.000000;1.805440
9675.000000;1.805717
9674.000000;1.805288
9673.000000;1.805024
9672.000000;1.805589
9671.000000;1.806401
9670.000000;1.806447
9669.000000;1.805786
9668.000000;1.805483
9667.000000;1.806094
9666.000000;1.806841
9665.000000;1.806422
9664.000000;1.804412
9663.000000;1.801808
9662.000000;1.800221
9661.000000;1.800459
9660.000000;1.801838
9659.000000;1.802927
9658.000000;1.802931
9657.000000;1.802120
9656.000000;1.801041
9655.000000;1.799899
9654.000000;1.798857
9653.000000;1.798317
9652.000000;1.798425
9651.000000;1.798615
9650.000000;1.798109
9649.000000;1.796720
9648.000000;1.794850
9647.000000;1.792904
9646.000000;1.791178
9645.000000;1.790169
9644.000000;1.790354
9643.000000;1.791463
9642.000000;1.792444
9641.000000;1.792494
9640.000000;1.791915
9639.000000;1.791540
9638.000000;1.791497
9637.000000;1.791099
9636.000000;1.789979
9635.000000;1.788775
9634.000000;1.788276
9633.000000;1.788268
9632.000000;1.787873
9631.000000;1.786937
9630.000000;1.786272
9629.000000;1.786325
9628.000000;1.786451
9627.000000;1.786048
9626.000000;1.785680
9625.000000;1.786170
9624.000000;1.787066
9623.000000;1.787133
9622.000000;1.786224
9621.000000;1.785609
9620.000000;1.786218
9619.000000;1.787355
9618.000000;1.787573
9617.000000;1.786252
9616.000000;1.783887
9615.000000;1.781266
9614.000000;1.778827
9613.000000;1.776658
9612.000000;1.774854
9611.000000;1.773827
9610.000000;1.774252
9609.000000;1.776437
9608.000000;1.779723
9607.000000;1.782804
9606.000000;1.784682
9605.000000;1.784998
9604.000000;1.783655
9603.000000;1.780923
9602.000000;1.777981
9601.000000;1.776379
9600.000000;1.776435
9599.000000;1.776668
9598.000000;1.775341
9597.000000;1.772399
9596.000000;1.769523
9595.000000;1.768443
9594.000000;1.769375
9593.000000;1.770829
9592.000000;1.770807
9591.000000;1.768626
9590.000000;1.765704
9589.000000;1.764175
9588.000000;1.764765
9587.000000;1.766411
9586.000000;1.767800
9585.000000;1.768579
9584.000000;1.768852
9583.000000;1.768303
9582.000000;1.766454
9581.000000;1.763384
9580.000000;1.759760
9579.000000;1.756524
9578.000000;1.754822
9577.000000;1.755519
9576.000000;1.758231
9575.000000;1.761286
9574.000000;1.763274
9573.000000;1.764276
9572.000000;1.765026
9571.000000;1.765476
9570.000000;1.765107
9569.000000;1.764338
9568.000000;1.764521
9567.000000;1.766283
9566.000000;1.768557
9565.000000;1.769568
9564.000000;1.768492
9563.000000;1.765862
9562.000000;1.762739
9561.000000;1.759943
9560.000000;1.758029
9559.000000;1.757563
9558.000000;1.758821
9557.000000;1.760890
9556.000000;1.761658
9555.000000;1.759705
9554.000000;1.756196
9553.000000;1.753892
9552.000000;1.754213
9551.000000;1.756011
9550.000000;1.757351
9549.000000;1.757658
9548.000000;1.757520
9547.000000;1.757243
9546.000000;1.756680
9545.000000;1.755978
9544.000000;1.755462
9543.000000;1.754987
9542.000000;1.754244
9541.000000;1.753566
9540.000000;1.753599
9539.000000;1.754223
9538.000000;1.754594
9537.000000;1.754412
9536.000000;1.754479
9535.000000;1.755720
9534.000000;1.757916
9533.000000;1.759525
9532.000000;1.758814
9531.000000;1.755480
9530.000000;1.751291
9529.000000;1.748809
9528.000000;1.749104
9527.000000;1.750871
9526.000000;1.751988
9525.000000;1.751521
9524.000000;1.749799
9523.000000;1.747291
9522.000000;1.744534
9521.000000;1.742668
9520.000000;1.742649
9519.000000;1.743825
9518.000000;1.744370
9517.000000;1.743421
9516.000000;1.741878
9515.000000;1.740914
9514.000000;1.740703
9513.000000;1.740910
9512.000000;1.741377
9511.000000;1.741781
9510.000000;1.741463
9509.000000;1.740294
9508.000000;1.739152
9507.000000;1.738858
9506.000000;1.739124
9505.000000;1.739126
9504.000000;1.738667
9503.000000;1.738151
9502.000000;1.737697
9501.000000;1.736913
9500.000000;1.735441
9499.000000;1.733358
9498.000000;1.731187
9497.000000;1.729807
9496.000000;1.729946
9495.000000;1.731214
9494.000000;1.731960
9493.000000;1.730844
9492.000000;1.728542
9491.000000;1.727148
9490.000000;1.727858
9489.000000;1.729830
9488.000000;1.731358
9487.000000;1.731594
9486.000000;1.730938
9485.000000;1.730209
9484.000000;1.729941
9483.000000;1.730258
9482.000000;1.730872
9481.000000;1.731114
9480.000000;1.730381
9479.000000;1.728834
9478.000000;1.727517
9477.000000;1.727513
9476.000000;1.728928
9475.000000;1.730753
9474.000000;1.731733
9473.000000;1.731353
9472.000000;1.729963
9471.000000;1.728180
9470.000000;1.726527
9469.000000;1.725504
9468.000000;1.725418
9467.000000;1.725929
9466.000000;1.726083
9465.000000;1.725137
9464.000000;1.723320
9463.000000;1.721446
9462.000000;1.719758
9461.000000;1.717577
9460.000000;1.714432
9459.000000;1.711282
9458.000000;1.710010
9457.000000;1.711446
9456.000000;1.714217
9455.000000;1.716021
9454.000000;1.716066
9453.000000;1.715667
9452.000000;1.716241
9451.000000;1.717511
9450.000000;1.718174
9449.000000;1.717806
9448.000000;1.717182
9447.000000;1.716880
9446.000000;1.716511
9445.000000;1.715587
9444.000000;1.714459
9443.000000;1.713925
9442.000000;1.714209
9441.000000;1.714725
9440.000000;1.714765
9439.000000;1.714115
9438.000000;1.713103
9437.000000;1.712262
9436.000000;1.711889
9435.000000;1.711765
9434.000000;1.711354
9433.000000;1.710533
9432.000000;1.709978
9431.000000;1.710407
9430.000000;1.711428
9429.000000;1.711550
9428.000000;1.709640
9427.000000;1.706196
9426.000000;1.703046
9425.000000;1.701918
9424.000000;1.703299
9423.000000;1.706209
9422.000000;1.708827
9421.000000;1.709718
9420.000000;1.708921
9419.000000;1.707778
9418.000000;1.707525
9417.000000;1.708203
9416.000000;1.709045
9415.000000;1.709569
9414.000000;1.709816
9413.000000;1.709672
9412.000000;1.708692
9411.000000;1.706785
9410.000000;1.704554
9409.000000;1.702701
9408.000000;1.701485
9407.000000;1.700873
9406.000000;1.700788
9405.000000;1.700908
9404.000000;1.700740
9403.000000;1.700346
9402.000000;1.700565
9401.000000;1.701890
9400.000000;1.703430
9399.000000;1.703681
9398.000000;1.702288
9397.000000;1.700423
9396.000000;1.699433
9395.000000;1.699648
9394.000000;1.700527
9393.000000;1.701323
9392.000000;1.701457
9391.000000;1.700731
9390.000000;1.699529
9389.000000;1.698521
9388.000000;1.698014
9387.000000;1.697856
9386.000000;1.697868
9385.000000;1.697929
9384.000000;1.697726
9383.000000;1.696946
9382.000000;1.695835
9381.000000;1.694989
9380.000000;1.694477
9379.000000;1.693828
9378.000000;1.693074
9377.000000;1.693066
9376.000000;1.694298
9375.000000;1.695914
9374.000000;1.696496
9373.000000;1.695588
9372.000000;1.693838
9371.000000;1.691969
9370.000000;1.690341
9369.000000;1.689243
9368.000000;1.688817
9367.000000;1.688694
9366.000000;1.688325
9365.000000;1.687789
9364.000000;1.687816
9363.000000;1.688896
9362.000000;1.690667
9361.000000;1.692207
9360.000000;1.692691
9359.000000;1.691853
9358.000000;1.690166
9357.000000;1.688526
9356.000000;1.687388
9355.000000;1.686216
9354.000000;1.684191
9353.000000;1.681465
9352.000000;1.679240
9351.000000;1.678497
9350.000000;1.679092
9349.000000;1.680237
9348.000000;1.681314
9347.000000;1.681897
9346.000000;1.681516
9345.000000;1.680130
9344.000000;1.678694
9343.000000;1.678525
9342.000000;1.679828
9341.000000;1.681223
9340.000000;1.681092
9339.000000;1.679243
9338.000000;1.676930
9337.000000;1.675405
9336.000000;1.674947
9335.000000;1.675192
9334.000000;1.675824
9333.000000;1.676647
9332.000000;1.677387
9331.000000;1.677818
9330.000000;1.677895
9329.000000;1.677495
9328.000000;1.676347
9327.000000;1.674650
9326.000000;1.673439
9325.000000;1.673681
9324.000000;1.675126
9323.000000;1.676551
9322.000000;1.677119
9321.000000;1.676995
9320.000000;1.676666
9319.000000;1.676320
9318.000000;1.676020
9317.000000;1.675809
9316.000000;1.675346
9315.000000;1.674127
9314.000000;1.672384
9313.000000;1.671157
9312.000000;1.670980
9311.000000;1.671052
9310.000000;1.670266
9309.000000;1.668614
9308.000000;1.666960
9307.000000;1.665827
9306.000000;1.665150
9305.000000;1.664987
9304.000000;1.665637
9303.000000;1.666942
9302.000000;1.668071
9301.000000;1.668253
9300.000000;1.667466
9299.000000;1.666292
9298.000000;1.665336
9297.000000;1.664784
9296.000000;1.664307
9295.000000;1.663422
9294.000000;1.662180
9293.000000;1.661389
9292.000000;1.661853
9291.000000;1.663403
9290.000000;1.664937
9289.000000;1.665504
9288.000000;1.665117
9287.000000;1.664500
9286.000000;1.664249
9285.000000;1.664259
9284.000000;1.663883
9283.000000;1.662770
9282.000000;1.661571
9281.000000;1.661444
9280.000000;1.662622
9279.000000;1.663839
9278.000000;1.663618
9277.000000;1.661966
9276.000000;1.660274
9275.000000;1.659589
9274.000000;1.659523
9273.000000;1.658925
9272.000000;1.657227
9271.000000;1.654971
9270.000000;1.653222
9269.000000;1.652620
9268.000000;1.652967
9267.000000;1.653607
9266.000000;1.654088
9265.000000;1.654429
9264.000000;1.654778
9263.000000;1.654988
9262.000000;1.654720
9261.000000;1.653981
9260.000000;1.653329
9259.000000;1.653391
9258.000000;1.654144
9257.000000;1.654711
9256.000000;1.654083
9255.000000;1.652198
9254.000000;1.650120
9253.000000;1.648893
9252.000000;1.648454
9251.000000;1.648005
9250.000000;1.647220
9249.000000;1.646440
9248.000000;1.645727
9247.000000;1.644581
9246.000000;1.642916
9245.000000;1.641617
9244.000000;1.641605
9243.000000;1.642767
9242.000000;1.644286
9241.000000;1.645623
9240.000000;1.646654
9239.000000;1.647217
9238.000000;1.647182
9237.000000;1.646780
9236.000000;1.646270
9235.000000;1.645454
9234.000000;1.644040
9233.000000;1.642345
9232.000000;1.641111
9231.000000;1.640739
9230.000000;1.641111
9229.000000;1.641943
9228.000000;1.642865
9227.000000;1.643352
9226.000000;1.643138
9225.000000;1.642642
9224.000000;1.642468
9223.000000;1.642552
9222.000000;1.642264
9221.000000;1.641316
9220.000000;1.640025
9219.000000;1.638749
9218.000000;1.637616
9217.000000;1.636824
9216.000000;1.636687
9215.000000;1.637258
9214.000000;1.638210
9213.000000;1.639151
9212.000000;1.639756
9211.000000;1.639734
9210.000000;1.639120
9209.000000;1.638442
9208.000000;1.638105
9207.000000;1.637734
9206.000000;1.636620
9205.000000;1.634856
9204.000000;1.633458
9203.000000;1.633188
9202.000000;1.633666
9201.000000;1.633822
9200.000000;1.633035
9199.000000;1.631691
9198.000000;1.630747
9197.000000;1.630746
9196.000000;1.631162
9195.000000;1.630932
9194.000000;1.629793
9193.000000;1.628717
9192.000000;1.628681
9191.000000;1.629381
9190.000000;1.629711
9189.000000;1.629274
9188.000000;1.628671
9187.000000;1.628407
9186.000000;1.628379
9185.000000;1.628519
9184.000000;1.629101
9183.000000;1.630113
9182.000000;1.630957
9181.000000;1.631119
9180.000000;1.630659
9179.000000;1.629780
9178.000000;1.628454
9177.000000;1.626817
9176.000000;1.625421
9175.000000;1.624727
9174.000000;1.624644
9173.000000;1.624870
9172.000000;1.625350
9171.000000;1.626014
9170.000000;1.626402
9169.000000;1.625983
9168.000000;1.624628
9167.000000;1.622622
9166.000000;1.620495
9165.000000;1.618913
9164.000000;1.618357
9163.000000;1.618614
9162.000000;1.618761
9161.000000;1.618056
9160.000000;1.616818
9159.000000;1.616207
9158.000000;1.617109
9157.000000;1.619268
9156.000000;1.621465
9155.000000;1.622528
9154.000000;1.622247
9153.000000;1.621239
9152.000000;1.619918
9151.000000;1.617946
9150.000000;1.615070
9149.000000;1.612244
9148.000000;1.611309
9147.000000;1.613351
9146.000000;1.617474
9145.000000;1.621234
9144.000000;1.622381
9143.000000;1.620523
9142.000000;1.617333
9141.000000;1.615083
9140.000000;1.614813
9139.000000;1.615861
9138.000000;1.617001
9137.000000;1.617612
9136.000000;1.617543
9135.000000;1.616587
9134.000000;1.614886
9133.000000;1.613444
9132.000000;1.613254
9131.000000;1.614033
9130.000000;1.614634
9129.000000;1.614662
9128.000000;1.614745
9127.000000;1.615106
9126.000000;1.614950
9125.000000;1.613704
9124.000000;1.611963
9123.000000;1.610619
9122.000000;1.609693
9121.000000;1.608605
9120.000000;1.607104
9119.000000;1.605445
9118.000000;1.604124
9117.000000;1.603851
9116.000000;1.605256
9115.000000;1.608050
9114.000000;1.610820
9113.000000;1.612214
9112.000000;1.612137
9111.000000;1.611398
9110.000000;1.610589
9109.000000;1.609829
9108.000000;1.609194
9107.000000;1.608758
9106.000000;1.608345
9105.000000;1.607768
9104.000000;1.607207
9103.000000;1.606949
9102.000000;1.606846
9101.000000;1.606376
9100.000000;1.605196
9099.000000;1.603448
9098.000000;1.601733
9097.000000;1.600916
9096.000000;1.601575
9095.000000;1.603254
9094.000000;1.604596
9093.000000;1.604641
9092.000000;1.603791
9091.000000;1.603058
9090.000000;1.602741
9089.000000;1.602405
9088.000000;1.601951
9087.000000;1.601955
9086.000000;1.602814
9085.000000;1.604033
9084.000000;1.604585
9083.000000;1.603830
9082.000000;1.602054
9081.000000;1.600178
9080.000000;1.598971
9079.000000;1.598463
9078.000000;1.598121
9077.000000;1.597501
9076.000000;1.596519
9075.000000;1.595192
9074.000000;1.593640
9073.000000;1.592481
9072.000000;1.592614
9071.000000;1.594097
9070.000000;1.595636
9069.000000;1.595840
9068.000000;1.594889
9067.000000;1.594316
9066.000000;1.595140
9065.000000;1.596754
9064.000000;1.597662
9063.000000;1.596932
9062.000000;1.594816
9061.000000;1.592337
9060.000000;1.590521
9059.000000;1.589784
9058.000000;1.589793
9057.000000;1.589906
9056.000000;1.589829
9055.000000;1.589763
9054.000000;1.590011
9053.000000;1.590592
