Criado como novo conjunto de dados;"Jao_teste_celulas.spp","9124.0 Secs"
cm-1;Abs
10000.000000;1.436782
9999.000000;1.435220
9998.000000;1.433664
9997.000000;1.432113
9996.000000;1.430566
9995.000000;1.429028
9994.000000;1.427491
9993.000000;1.425966
9992.000000;1.424435
9991.000000;1.422929
9990.000000;1.421385
9989.000000;1.420084
9988.000000;1.419339
9987.000000;1.418800
9986.000000;1.418008
9985.000000;1.417026
9984.000000;1.416439
9983.000000;1.416707
9982.000000;1.417624
9981.000000;1.418408
9980.000000;1.418316
9979.000000;1.417228
9978.000000;1.415730
9977.000000;1.414604
9976.000000;1.414105
9975.000000;1.413703
9974.000000;1.412659
9973.000000;1.410907
9972.000000;1.409215
9971.000000;1.408414
9970.000000;1.408606
9969.000000;1.409238
9968.000000;1.409788
9967.000000;1.410170
9966.000000;1.410546
9965.000000;1.410994
9964.000000;1.411403
9963.000000;1.411588
9962.000000;1.411423
9961.000000;1.410852
9960.000000;1.409809
9959.000000;1.408214
9958.000000;1.406170
9957.000000;1.404177
9956.000000;1.402938
9955.000000;1.402775
9954.000000;1.403307
9953.000000;1.403846
9952.000000;1.404062
9951.000000;1.404118
9950.000000;1.404225
9949.000000;1.404261
9948.000000;1.403909
9947.000000;1.403087
9946.000000;1.402139
9945.000000;1.401516
9944.000000;1.401249
9943.000000;1.400891
9942.000000;1.400175
9941.000000;1.399583
9940.000000;1.399861
9939.000000;1.400853
9938.000000;1.401297
9937.000000;1.400174
9936.000000;1.397956
9935.000000;1.396089
9934.000000;1.395456
9933.000000;1.395730
9932.000000;1.395994
9931.000000;1.395550
9930.000000;1.394244
9929.000000;1.392554
9928.000000;1.391418
9927.000000;1.391475
9926.000000;1.392317
9925.000000;1.392801
9924.000000;1.392288
9923.000000;1.391243
9922.000000;1.390483
9921.000000;1.390257
9920.000000;1.390342
9919.000000;1.390609
9918.000000;1.391034
9917.000000;1.391377
9916.000000;1.391324
9915.000000;1.390858
9914.000000;1.390166
9913.000000;1.389247
9912.000000;1.388025
9911.000000;1.386807
9910.000000;1.386187
9909.000000;1.386306
9908.000000;1.386534
9907.000000;1.386176
9906.000000;1.385294
9905.000000;1.384557
9904.000000;1.384381
9903.000000;1.384545
9902.000000;1.384680
9901.000000;1.384796
9900.000000;1.385106
9899.000000;1.385499
9898.000000;1.385523
9897.000000;1.384929
9896.000000;1.383977
9895.000000;1.383115
9894.000000;1.382539
9893.000000;1.382186
9892.000000;1.381972
9891.000000;1.381820
9890.000000;1.381527
9889.000000;1.380813
9888.000000;1.379583
9887.000000;1.378039
9886.000000;1.376540
9885.000000;1.375434
9884.000000;1.374946
9883.000000;1.375056
9882.000000;1.375417
9881.000000;1.375510
9880.000000;1.374977
9879.000000;1.373830
9878.000000;1.372415
9877.000000;1.371213
9876.000000;1.370568
9875.000000;1.370512
9874.000000;1.370809
9873.000000;1.371118
9872.000000;1.371055
9871.000000;1.370272
9870.000000;1.368790
9869.000000;1.367267
9868.000000;1.366534
9867.000000;1.366661
9866.000000;1.366802
9865.000000;1.366267
9864.000000;1.365434
9863.000000;1.365140
9862.000000;1.365411
9861.000000;1.365438
9860.000000;1.364803
9859.000000;1.364126
9858.000000;1.364257
9857.000000;1.365259
9856.000000;1.366426
9855.000000;1.367031
9854.000000;1.366781
9853.000000;1.365836
9852.000000;1.364649
9851.000000;1.363621
9850.000000;1.362719
9849.000000;1.361613
9848.000000;1.360347
9847.000000;1.359552
9846.000000;1.359680
9845.000000;1.360265
9844.000000;1.360354
9843.000000;1.359632
9842.000000;1.358703
9841.000000;1.358207
9840.000000;1.358075
9839.000000;1.357820
9838.000000;1.357244
9837.000000;1.356566
9836.000000;1.355988
9835.000000;1.355438
9834.000000;1.354791
9833.000000;1.354136
9832.000000;1.353713
9831.000000;1.353658
9830.000000;1.353895
9829.000000;1.354197
9828.000000;1.354258
9827.000000;1.353819
9826.000000;1.352930
9825.000000;1.352119
9824.000000;1.352065
9823.000000;1.352913
9822.000000;1.353965
9821.000000;1.354247
9820.000000;1.353397
9819.000000;1.351881
9818.000000;1.350438
9817.000000;1.349572
9816.000000;1.349482
9815.000000;1.350033
9814.000000;1.350648
9813.000000;1.350558
9812.000000;1.349508
9811.000000;1.348122
9810.000000;1.347261
9809.000000;1.347053
9808.000000;1.346763
9807.000000;1.345653
9806.000000;1.343795
9805.000000;1.341958
9804.000000;1.340812
9803.000000;1.340402
9802.000000;1.340301
9801.000000;1.340135
9800.000000;1.339885
9799.000000;1.339771
9798.000000;1.339978
9797.000000;1.340498
9796.000000;1.341133
9795.000000;1.341558
9794.000000;1.341424
9793.000000;1.340512
9792.000000;1.338870
9791.000000;1.336859
9790.000000;1.335075
9789.000000;1.334119
9788.000000;1.334205
9787.000000;1.334916
9786.000000;1.335547
9785.000000;1.335785
9784.000000;1.335849
9783.000000;1.335848
9782.000000;1.335342
9781.000000;1.333879
9780.000000;1.331763
9779.000000;1.329850
9778.000000;1.328635
9777.000000;1.327975
9776.000000;1.327674
9775.000000;1.327897
9774.000000;1.328761
9773.000000;1.329862
9772.000000;1.330501
9771.000000;1.330286
9770.000000;1.329334
9769.000000;1.328015
9768.000000;1.326693
9767.000000;1.325639
9766.000000;1.325007
9765.000000;1.324810
9764.000000;1.324884
9763.000000;1.324847
9762.000000;1.324261
9761.000000;1.323044
9760.000000;1.321672
9759.000000;1.320782
9758.000000;1.320602
9757.000000;1.320942
9756.000000;1.321589
9755.000000;1.322314
9754.000000;1.322563
9753.000000;1.321747
9752.000000;1.320106
9751.000000;1.318770
9750.000000;1.318572
9749.000000;1.319126
9748.000000;1.319415
9747.000000;1.319041
9746.000000;1.318491
9745.000000;1.318341
9744.000000;1.318670
9743.000000;1.319169
9742.000000;1.319384
9741.000000;1.318868
9740.000000;1.317522
9739.000000;1.315920
9738.000000;1.314985
9737.000000;1.315161
9736.000000;1.316000
9735.000000;1.316588
9734.000000;1.316303
9733.000000;1.315270
9732.000000;1.314242
9731.000000;1.313937
9730.000000;1.314284
9729.000000;1.314385
9728.000000;1.313451
9727.000000;1.311711
9726.000000;1.310097
9725.000000;1.309149
9724.000000;1.308638
9723.000000;1.308242
9722.000000;1.308108
9721.000000;1.308504
9720.000000;1.309233
9719.000000;1.309768
9718.000000;1.309826
9717.000000;1.309556
9716.000000;1.309233
9715.000000;1.309019
9714.000000;1.308961
9713.000000;1.308975
9712.000000;1.308798
9711.000000;1.308132
9710.000000;1.306932
9709.000000;1.305465
9708.000000;1.304078
9707.000000;1.302979
9706.000000;1.302255
9705.000000;1.301994
9704.000000;1.302284
9703.000000;1.302989
9702.000000;1.303586
9701.000000;1.303406
9700.000000;1.302247
9699.000000;1.300751
9698.000000;1.299957
9697.000000;1.300367
9696.000000;1.301502
9695.000000;1.302380
9694.000000;1.302361
9693.000000;1.301469
9692.000000;1.300114
9691.000000;1.298783
9690.000000;1.297943
9689.000000;1.297859
9688.000000;1.298275
9687.000000;1.298425
9686.000000;1.297641
9685.000000;1.295998
9684.000000;1.294236
9683.000000;1.293068
9682.000000;1.292674
9681.000000;1.292786
9680.000000;1.293005
9679.000000;1.292954
9678.000000;1.292387
9677.000000;1.291426
9676.000000;1.290614
9675.000000;1.290441
9674.000000;1.290775
9673.000000;1.290963
9672.000000;1.290584
9671.000000;1.289894
9670.000000;1.289427
9669.000000;1.289315
9668.000000;1.289175
9667.000000;1.288612
9666.000000;1.287657
9665.000000;1.286708
9664.000000;1.286115
9663.000000;1.285908
9662.000000;1.285910
9661.000000;1.286086
9660.000000;1.286616
9659.000000;1.287482
9658.000000;1.288120
9657.000000;1.287818
9656.000000;1.286534
9655.000000;1.285018
9654.000000;1.283940
9653.000000;1.283225
9652.000000;1.282460
9651.000000;1.281710
9650.000000;1.281466
9649.000000;1.281809
9648.000000;1.282070
9647.000000;1.281505
9646.000000;1.280101
9645.000000;1.278564
9644.000000;1.277666
9643.000000;1.277706
9642.000000;1.278401
9641.000000;1.279093
9640.000000;1.279134
9639.000000;1.278288
9638.000000;1.276861
9637.000000;1.275455
9636.000000;1.274556
9635.000000;1.274298
9634.000000;1.274489
9633.000000;1.274819
9632.000000;1.275057
9631.000000;1.275090
9630.000000;1.274827
9629.000000;1.274193
9628.000000;1.273286
9627.000000;1.272434
9626.000000;1.271918
9625.000000;1.271714
9624.000000;1.271616
9623.000000;1.271531
9622.000000;1.271432
9621.000000;1.271073
9620.000000;1.270080
9619.000000;1.268466
9618.000000;1.266878
9617.000000;1.266121
9616.000000;1.266491
9615.000000;1.267607
9614.000000;1.268728
9613.000000;1.269132
9612.000000;1.268437
9611.000000;1.266899
9610.000000;1.265358
9609.000000;1.264642
9608.000000;1.264866
9607.000000;1.265355
9606.000000;1.265304
9605.000000;1.264499
9604.000000;1.263408
9603.000000;1.262665
9602.000000;1.262504
9601.000000;1.262593
9600.000000;1.262384
9599.000000;1.261661
9598.000000;1.260736
9597.000000;1.260077
9596.000000;1.259818
9595.000000;1.259746
9594.000000;1.259755
9593.000000;1.260064
9592.000000;1.260821
9591.000000;1.261625
9590.000000;1.261718
9589.000000;1.260778
9588.000000;1.259321
9587.000000;1.258155
9586.000000;1.257503
9585.000000;1.256860
9584.000000;1.255724
9583.000000;1.254278
9582.000000;1.253197
9581.000000;1.252874
9580.000000;1.253059
9579.000000;1.253201
9578.000000;1.252985
9577.000000;1.252471
9576.000000;1.251897
9575.000000;1.251469
9574.000000;1.251274
9573.000000;1.251218
9572.000000;1.251077
9571.000000;1.250742
9570.000000;1.250448
9569.000000;1.250599
9568.000000;1.251246
9567.000000;1.251833
9566.000000;1.251656
9565.000000;1.250647
9564.000000;1.249561
9563.000000;1.249225
9562.000000;1.249646
9561.000000;1.250014
9560.000000;1.249627
9559.000000;1.248682
9558.000000;1.247937
9557.000000;1.247688
9556.000000;1.247437
9555.000000;1.246662
9554.000000;1.245619
9553.000000;1.245035
9552.000000;1.245090
9551.000000;1.245092
9550.000000;1.244288
9549.000000;1.242744
9548.000000;1.241201
9547.000000;1.240228
9546.000000;1.239816
9545.000000;1.239703
9544.000000;1.239782
9543.000000;1.240061
9542.000000;1.240421
9541.000000;1.240635
9540.000000;1.240621
9539.000000;1.240524
9538.000000;1.240488
9537.000000;1.240418
9536.000000;1.240062
9535.000000;1.239308
9534.000000;1.238325
9533.000000;1.237380
9532.000000;1.236590
9531.000000;1.235920
9530.000000;1.235368
9529.000000;1.235006
9528.000000;1.234804
9527.000000;1.234579
9526.000000;1.234216
9525.000000;1.233826
9524.000000;1.233548
9523.000000;1.233272
9522.000000;1.232786
9521.000000;1.232156
9520.000000;1.231712
9519.000000;1.231572
9518.000000;1.231434
9517.000000;1.230979
9516.000000;1.230332
9515.000000;1.229905
9514.000000;1.229879
9513.000000;1.230021
9512.000000;1.229960
9511.000000;1.229476
9510.000000;1.228557
9509.000000;1.227357
9508.000000;1.226173
9507.000000;1.225304
9506.000000;1.224854
9505.000000;1.224695
9504.000000;1.224655
9503.000000;1.224693
9502.000000;1.224868
9501.000000;1.225213
9500.000000;1.225663
9499.000000;1.226042
9498.000000;1.226090
9497.000000;1.225597
9496.000000;1.224593
9495.000000;1.223390
9494.000000;1.222415
9493.000000;1.221945
9492.000000;1.221958
9491.000000;1.222204
9490.000000;1.222425
9489.000000;1.222537
9488.000000;1.222559
9487.000000;1.222384
9486.000000;1.221752
9485.000000;1.220573
9484.000000;1.219232
9483.000000;1.218378
9482.000000;1.218344
9481.000000;1.218837
9480.000000;1.219249
9479.000000;1.219235
9478.000000;1.218947
9477.000000;1.218712
9476.000000;1.218567
9475.000000;1.218181
9474.000000;1.217251
9473.000000;1.215893
9472.000000;1.214522
9471.000000;1.213394
9470.000000;1.212463
9469.000000;1.211665
9468.000000;1.211116
9467.000000;1.210879
9466.000000;1.210768
9465.000000;1.210619
9464.000000;1.210573
9463.000000;1.210803
9462.000000;1.211073
9461.000000;1.210962
9460.000000;1.210521
9459.000000;1.210293
9458.000000;1.210538
9457.000000;1.210804
9456.000000;1.210541
9455.000000;1.209857
9454.000000;1.209326
9453.000000;1.209166
9452.000000;1.208991
9451.000000;1.208394
9450.000000;1.207477
9449.000000;1.206660
9448.000000;1.206158
9447.000000;1.205824
9446.000000;1.205486
9445.000000;1.205254
9444.000000;1.205366
9443.000000;1.205763
9442.000000;1.205971
9441.000000;1.205498
9440.000000;1.204320
9439.000000;1.202859
9438.000000;1.201556
9437.000000;1.200634
9436.000000;1.200197
9435.000000;1.200263
9434.000000;1.200589
9433.000000;1.200738
9432.000000;1.200492
9431.000000;1.200064
9430.000000;1.199760
9429.000000;1.199562
9428.000000;1.199216
9427.000000;1.198594
9426.000000;1.197780
9425.000000;1.196926
9424.000000;1.196183
9423.000000;1.195684
9422.000000;1.195385
9421.000000;1.195049
9420.000000;1.194611
9419.000000;1.194423
9418.000000;1.194865
9417.000000;1.195768
9416.000000;1.196505
9415.000000;1.196669
9414.000000;1.196415
9413.000000;1.196067
9412.000000;1.195705
9411.000000;1.195276
9410.000000;1.194847
9409.000000;1.194484
9408.000000;1.194047
9407.000000;1.193338
9406.000000;1.192399
9405.000000;1.191485
9404.000000;1.190760
9403.000000;1.190179
9402.000000;1.189661
9401.000000;1.189258
9400.000000;1.189096
9399.000000;1.189202
9398.000000;1.189374
9397.000000;1.189250
9396.000000;1.188605
9395.000000;1.187663
9394.000000;1.187011
9393.000000;1.187085
9392.000000;1.187725
9391.000000;1.188333
9390.000000;1.188435
9389.000000;1.188001
9388.000000;1.187244
9387.000000;1.186275
9386.000000;1.185072
9385.000000;1.183691
9384.000000;1.182368
9383.000000;1.181351
9382.000000;1.180726
9381.000000;1.180473
9380.000000;1.180648
9379.000000;1.181362
9378.000000;1.182495
9377.000000;1.183532
9376.000000;1.183871
9375.000000;1.183369
9374.000000;1.182476
9373.000000;1.181756
9372.000000;1.181347
9371.000000;1.180950
9370.000000;1.180240
9369.000000;1.179189
9368.000000;1.178033
9367.000000;1.177083
9366.000000;1.176599
9365.000000;1.176671
9364.000000;1.177115
9363.000000;1.177502
9362.000000;1.177443
9361.000000;1.176915
9360.000000;1.176280
9359.000000;1.175934
9358.000000;1.175923
9357.000000;1.175932
9356.000000;1.175638
9355.000000;1.175043
9354.000000;1.174389
9353.000000;1.173836
9352.000000;1.173356
9351.000000;1.172906
9350.000000;1.172546
9349.000000;1.172267
9348.000000;1.171822
9347.000000;1.170920
9346.000000;1.169650
9345.000000;1.168572
9344.000000;1.168284
9343.000000;1.168873
9342.000000;1.169826
9341.000000;1.170429
9340.000000;1.170307
9339.000000;1.169680
9338.000000;1.169122
9337.000000;1.169000
9336.000000;1.169092
9335.000000;1.168831
9334.000000;1.167975
9333.000000;1.166909
9332.000000;1.166181
9331.000000;1.165903
9330.000000;1.165776
9329.000000;1.165590
9328.000000;1.165408
9327.000000;1.165267
9326.000000;1.165043
9325.000000;1.164728
9324.000000;1.164572
9323.000000;1.164732
9322.000000;1.164972
9321.000000;1.164919
9320.000000;1.164493
9319.000000;1.163890
9318.000000;1.163259
9317.000000;1.162650
9316.000000;1.162175
9315.000000;1.161928
9314.000000;1.161779
9313.000000;1.161505
9312.000000;1.161138
9311.000000;1.160904
9310.000000;1.160773
9309.000000;1.160362
9308.000000;1.159452
9307.000000;1.158341
9306.000000;1.157496
9305.000000;1.157011
9304.000000;1.156627
9303.000000;1.156162
9302.000000;1.155718
9301.000000;1.155494
9300.000000;1.155551
9299.000000;1.155728
9298.000000;1.155735
9297.000000;1.155378
9296.000000;1.154778
9295.000000;1.154306
9294.000000;1.154180
9293.000000;1.154221
9292.000000;1.154097
9291.000000;1.153718
9290.000000;1.153255
9289.000000;1.152860
9288.000000;1.152535
9287.000000;1.152239
9286.000000;1.151969
9285.000000;1.151747
9284.000000;1.151634
9283.000000;1.151713
9282.000000;1.151946
9281.000000;1.152086
9280.000000;1.151886
9279.000000;1.151384
9278.000000;1.150818
9277.000000;1.150294
9276.000000;1.149759
9275.000000;1.149303
9274.000000;1.149232
9273.000000;1.149653
9272.000000;1.150142
9271.000000;1.150066
9270.000000;1.149239
9269.000000;1.148115
9268.000000;1.147281
9267.000000;1.146902
9266.000000;1.146708
9265.000000;1.146414
9264.000000;1.145983
9263.000000;1.145496
9262.000000;1.144952
9261.000000;1.144337
9260.000000;1.143793
9259.000000;1.143540
9258.000000;1.143615
9257.000000;1.143819
9256.000000;1.143917
9255.000000;1.143745
9254.000000;1.143172
9253.000000;1.142217
9252.000000;1.141288
9251.000000;1.140978
9250.000000;1.141420
9249.000000;1.142008
9248.000000;1.142048
9247.000000;1.141531
9246.000000;1.140982
9245.000000;1.140690
9244.000000;1.140482
9243.000000;1.140261
9242.000000;1.140263
9241.000000;1.140590
9240.000000;1.140834
9239.000000;1.140456
9238.000000;1.139414
9237.000000;1.138156
9236.000000;1.137122
9235.000000;1.136452
9234.000000;1.136066
9233.000000;1.135745
9232.000000;1.135186
9231.000000;1.134228
9230.000000;1.133120
9229.000000;1.132374
9228.000000;1.132290
9227.000000;1.132697
9226.000000;1.133213
9225.000000;1.133617
9224.000000;1.133909
9223.000000;1.134084
9222.000000;1.133994
9221.000000;1.133488
9220.000000;1.132625
9219.000000;1.131678
9218.000000;1.130922
9217.000000;1.130409
9216.000000;1.130004
9215.000000;1.129654
9214.000000;1.129540
9213.000000;1.129853
9212.000000;1.130427
9211.000000;1.130709
9210.000000;1.130227
9209.000000;1.129071
9208.000000;1.127801
9207.000000;1.126893
9206.000000;1.126402
9205.000000;1.126190
9204.000000;1.126308
9203.000000;1.126909
9202.000000;1.127829
9201.000000;1.128538
9200.000000;1.128617
9199.000000;1.128148
9198.000000;1.127463
9197.000000;1.126697
9196.000000;1.125766
9195.000000;1.124704
9194.000000;1.123773
9193.000000;1.123236
9192.000000;1.123141
9191.000000;1.123323
9190.000000;1.123496
9189.000000;1.123397
9188.000000;1.123023
9187.000000;1.122730
9186.000000;1.122877
9185.000000;1.123329
9184.000000;1.123534
9183.000000;1.123174
9182.000000;1.122497
9181.000000;1.121855
9180.000000;1.121163
9179.000000;1.120118
9178.000000;1.118845
9177.000000;1.117976
9176.000000;1.117980
9175.000000;1.118598
9174.000000;1.119058
9173.000000;1.118804
9172.000000;1.117960
9171.000000;1.117133
9170.000000;1.116838
9169.000000;1.117101
9168.000000;1.117521
9167.000000;1.117640
9166.000000;1.117256
9165.000000;1.116437
9164.000000;1.115397
9163.000000;1.114373
9162.000000;1.113555
9161.000000;1.113033
9160.000000;1.112782
9159.000000;1.112720
9158.000000;1.112769
9157.000000;1.112842
9156.000000;1.112834
9155.000000;1.112655
9154.000000;1.112265
9153.000000;1.111692
9152.000000;1.111047
9151.000000;1.110527
9150.000000;1.110316
9149.000000;1.110453
9148.000000;1.110790
9147.000000;1.111114
9146.000000;1.111240
9145.000000;1.111039
9144.000000;1.110471
9143.000000;1.109662
9142.000000;1.108879
9141.000000;1.108343
9140.000000;1.108090
9139.000000;1.107988
9138.000000;1.107836
9137.000000;1.107480
9136.000000;1.106948
9135.000000;1.106505
9134.000000;1.106428
9133.000000;1.106672
9132.000000;1.106883
9131.000000;1.106816
9130.000000;1.106581
9129.000000;1.106355
9128.000000;1.106030
9127.000000;1.105324
9126.000000;1.104202
9125.000000;1.102979
9124.000000;1.102043
9123.000000;1.101601
9122.000000;1.101649
9121.000000;1.102008
9120.000000;1.102317
9119.000000;1.102235
9118.000000;1.101759
9117.000000;1.101262
9116.000000;1.101121
9115.000000;1.101344
9114.000000;1.101587
9113.000000;1.101489
9112.000000;1.100980
9111.000000;1.100291
9110.000000;1.099724
9109.000000;1.099400
9108.000000;1.099262
9107.000000;1.099236
9106.000000;1.099311
9105.000000;1.099407
9104.000000;1.099352
9103.000000;1.099079
9102.000000;1.098743
9101.000000;1.098489
9100.000000;1.098224
9099.000000;1.097776
9098.000000;1.097183
9097.000000;1.096602
9096.000000;1.096008
9095.000000;1.095257
9094.000000;1.094423
9093.000000;1.093795
9092.000000;1.093486
9091.000000;1.093306
9090.000000;1.093125
9089.000000;1.093095
9088.000000;1.093391
9087.000000;1.093917
9086.000000;1.094426
9085.000000;1.094752
9084.000000;1.094787
9083.000000;1.094423
9082.000000;1.093734
9081.000000;1.093048
9080.000000;1.092604
9079.000000;1.092254
9078.000000;1.091722
9077.000000;1.091059
9076.000000;1.090562
9075.000000;1.090297
9074.000000;1.089990
9073.000000;1.089423
9072.000000;1.088732
9071.000000;1.088246
9070.000000;1.088151
9069.000000;1.088354
9068.000000;1.088532
9067.000000;1.088356
9066.000000;1.087824
9065.000000;1.087361
9064.000000;1.087398
9063.000000;1.087827
9062.000000;1.088072
9061.000000;1.087747
9060.000000;1.087028
9059.000000;1.086321
9058.000000;1.085789
9057.000000;1.085336
9056.000000;1.084870
9055.000000;1.084376
9054.000000;1.083882
9053.000000;1.083502
