Criado como novo conjunto de dados;"Jao_teste_celulas.spp","11584.6 Secs"
cm-1;Abs
10000.000000;2.130191
9999.000000;2.128258
9998.000000;2.122339
9997.000000;2.116381
9996.000000;2.112760
9995.000000;2.110981
9994.000000;2.110332
9993.000000;2.111212
9992.000000;2.113387
9991.000000;2.114783
9990.000000;2.113675
9989.000000;2.111104
9988.000000;2.109658
9987.000000;2.110218
9986.000000;2.111244
9985.000000;2.111254
9984.000000;2.110585
9983.000000;2.110301
9982.000000;2.110273
9981.000000;2.109171
9980.000000;2.106534
9979.000000;2.103836
9978.000000;2.103014
9977.000000;2.104800
9976.000000;2.108714
9975.000000;2.113575
9974.000000;2.117627
9973.000000;2.119157
9972.000000;2.117809
9971.000000;2.115287
9970.000000;2.113642
9969.000000;2.113071
9968.000000;2.112340
9967.000000;2.110283
9966.000000;2.106321
9965.000000;2.100565
9964.000000;2.094101
9963.000000;2.088675
9962.000000;2.085293
9961.000000;2.083557
9960.000000;2.083118
9959.000000;2.084931
9958.000000;2.089776
9957.000000;2.096126
9956.000000;2.101139
9955.000000;2.103967
9954.000000;2.106520
9953.000000;2.110345
9952.000000;2.114139
9951.000000;2.115223
9950.000000;2.112804
9949.000000;2.108886
9948.000000;2.106245
9947.000000;2.105975
9946.000000;2.106923
9945.000000;2.107327
9944.000000;2.106727
9943.000000;2.106009
9942.000000;2.105508
9941.000000;2.104105
9940.000000;2.101306
9939.000000;2.098884
9938.000000;2.098799
9937.000000;2.100223
9936.000000;2.100101
9935.000000;2.096589
9934.000000;2.090737
9933.000000;2.084997
9932.000000;2.081748
9931.000000;2.082922
9930.000000;2.088787
9929.000000;2.096659
9928.000000;2.102488
9927.000000;2.104386
9926.000000;2.103409
9925.000000;2.100946
9924.000000;2.097557
9923.000000;2.094709
9922.000000;2.094745
9921.000000;2.097582
9920.000000;2.099337
9919.000000;2.096316
9918.000000;2.089473
9917.000000;2.082884
9916.000000;2.079108
9915.000000;2.078181
9914.000000;2.079735
9913.000000;2.083577
9912.000000;2.088443
9911.000000;2.092177
9910.000000;2.093490
9909.000000;2.092430
9908.000000;2.089319
9907.000000;2.084649
9906.000000;2.079982
9905.000000;2.077407
9904.000000;2.077486
9903.000000;2.078467
9902.000000;2.078161
9901.000000;2.076354
9900.000000;2.074861
9899.000000;2.075430
9898.000000;2.078103
9897.000000;2.081413
9896.000000;2.083847
9895.000000;2.085062
9894.000000;2.085618
9893.000000;2.085794
9892.000000;2.085144
9891.000000;2.083172
9890.000000;2.080074
9889.000000;2.076634
9888.000000;2.073826
9887.000000;2.072522
9886.000000;2.072870
9885.000000;2.073799
9884.000000;2.073817
9883.000000;2.072617
9882.000000;2.071435
9881.000000;2.071492
9880.000000;2.072535
9879.000000;2.073278
9878.000000;2.072769
9877.000000;2.070998
9876.000000;2.068895
9875.000000;2.068124
9874.000000;2.070011
9873.000000;2.073891
9872.000000;2.076890
9871.000000;2.076063
9870.000000;2.070831
9869.000000;2.063334
9868.000000;2.056875
9867.000000;2.054265
9866.000000;2.056577
9865.000000;2.062263
9864.000000;2.067942
9863.000000;2.071170
9862.000000;2.072148
9861.000000;2.072114
9860.000000;2.071166
9859.000000;2.068688
9858.000000;2.065290
9857.000000;2.063197
9856.000000;2.064157
9855.000000;2.067309
9854.000000;2.069472
9853.000000;2.067867
9852.000000;2.062875
9851.000000;2.057915
9850.000000;2.056316
9849.000000;2.058468
9848.000000;2.062110
9847.000000;2.065004
9846.000000;2.066364
9845.000000;2.065661
9844.000000;2.062086
9843.000000;2.056179
9842.000000;2.050377
9841.000000;2.046929
9840.000000;2.046263
9839.000000;2.047883
9838.000000;2.051390
9837.000000;2.055279
9836.000000;2.056172
9835.000000;2.051902
9834.000000;2.045011
9833.000000;2.040587
9832.000000;2.040790
9831.000000;2.043226
9830.000000;2.044578
9829.000000;2.044354
9828.000000;2.044148
9827.000000;2.045009
9826.000000;2.047080
9825.000000;2.050403
9824.000000;2.054492
9823.000000;2.057621
9822.000000;2.057919
9821.000000;2.055404
9820.000000;2.052085
9819.000000;2.050006
9818.000000;2.049729
9817.000000;2.050493
9816.000000;2.051079
9815.000000;2.050318
9814.000000;2.047412
9813.000000;2.042666
9812.000000;2.037658
9811.000000;2.033976
9810.000000;2.032031
9809.000000;2.031168
9808.000000;2.030660
9807.000000;2.030527
9806.000000;2.031311
9805.000000;2.033233
9804.000000;2.035902
9803.000000;2.038724
9802.000000;2.041133
9801.000000;2.042417
9800.000000;2.041976
9799.000000;2.040134
9798.000000;2.038240
9797.000000;2.037603
9796.000000;2.038384
9795.000000;2.039665
9794.000000;2.040256
9793.000000;2.039403
9792.000000;2.037440
9791.000000;2.035681
9790.000000;2.034813
9789.000000;2.033498
9788.000000;2.029752
9787.000000;2.024044
9786.000000;2.019698
9785.000000;2.019355
9784.000000;2.022034
9783.000000;2.024670
9782.000000;2.025889
9781.000000;2.026697
9780.000000;2.027748
9779.000000;2.028107
9778.000000;2.027128
9777.000000;2.025762
9776.000000;2.025101
9775.000000;2.024929
9774.000000;2.024619
9773.000000;2.024546
9772.000000;2.025571
9771.000000;2.027782
9770.000000;2.030823
9769.000000;2.034645
9768.000000;2.038709
9767.000000;2.041138
9766.000000;2.039668
9765.000000;2.033629
9764.000000;2.024811
9763.000000;2.016378
9762.000000;2.010905
9761.000000;2.009019
9760.000000;2.009442
9759.000000;2.010564
9758.000000;2.012184
9757.000000;2.015266
9756.000000;2.019850
9755.000000;2.024078
9754.000000;2.026028
9753.000000;2.025854
9752.000000;2.025163
9751.000000;2.024779
9750.000000;2.024086
9749.000000;2.022400
9748.000000;2.020011
9747.000000;2.017721
9746.000000;2.016019
9745.000000;2.014919
9744.000000;2.014374
9743.000000;2.014487
9742.000000;2.015081
9741.000000;2.015308
9740.000000;2.014039
9739.000000;2.010770
9738.000000;2.006233
9737.000000;2.002021
9736.000000;1.999546
9735.000000;1.999395
9734.000000;2.001401
9733.000000;2.004684
9732.000000;2.007622
9731.000000;2.008719
9730.000000;2.008217
9729.000000;2.008271
9728.000000;2.010627
9727.000000;2.014329
9726.000000;2.016524
9725.000000;2.015717
9724.000000;2.013337
9723.000000;2.011756
9722.000000;2.011808
9721.000000;2.012677
9720.000000;2.013331
9719.000000;2.013177
9718.000000;2.011912
9717.000000;2.009806
9716.000000;2.007806
9715.000000;2.006688
9714.000000;2.006235
9713.000000;2.005535
9712.000000;2.004025
9711.000000;2.002040
9710.000000;2.000390
9709.000000;1.999742
9708.000000;2.000219
9707.000000;2.001033
9706.000000;2.000760
9705.000000;1.998904
9704.000000;1.996995
9703.000000;1.997199
9702.000000;1.999736
9701.000000;2.002504
9700.000000;2.003659
9699.000000;2.003616
9698.000000;2.003734
9697.000000;2.003891
9696.000000;2.002597
9695.000000;1.999379
9694.000000;1.995826
9693.000000;1.994105
9692.000000;1.995341
9691.000000;1.999157
9690.000000;2.003762
9689.000000;2.006507
9688.000000;2.005607
9687.000000;2.001761
9686.000000;1.997237
9685.000000;1.993310
9684.000000;1.989428
9683.000000;1.985199
9682.000000;1.982140
9681.000000;1.982357
9680.000000;1.986102
9679.000000;1.991276
9678.000000;1.995112
9677.000000;1.996058
9676.000000;1.994171
9675.000000;1.990489
9674.000000;1.986429
9673.000000;1.983336
9672.000000;1.982059
9671.000000;1.982585
9670.000000;1.984180
9669.000000;1.986067
9668.000000;1.988038
9667.000000;1.990303
9666.000000;1.992583
9665.000000;1.993495
9664.000000;1.991563
9663.000000;1.987178
9662.000000;1.982835
9661.000000;1.980889
9660.000000;1.981600
9659.000000;1.983666
9658.000000;1.985811
9657.000000;1.987060
9656.000000;1.986080
9655.000000;1.981889
9654.000000;1.975714
9653.000000;1.970878
9652.000000;1.969908
9651.000000;1.972206
9650.000000;1.975027
9649.000000;1.976405
9648.000000;1.976435
9647.000000;1.976212
9646.000000;1.976512
9645.000000;1.977348
9644.000000;1.978280
9643.000000;1.978860
9642.000000;1.978848
9641.000000;1.978316
9640.000000;1.977517
9639.000000;1.976535
9638.000000;1.975211
9637.000000;1.973595
9636.000000;1.972146
9635.000000;1.971183
9634.000000;1.970530
9633.000000;1.970063
9632.000000;1.970133
9631.000000;1.970886
9630.000000;1.971478
9629.000000;1.970770
9628.000000;1.968816
9627.000000;1.966974
9626.000000;1.966439
9625.000000;1.967349
9624.000000;1.969347
9623.000000;1.972025
9622.000000;1.974265
9621.000000;1.974228
9620.000000;1.971274
9619.000000;1.967359
9618.000000;1.965149
9617.000000;1.965005
9616.000000;1.964957
9615.000000;1.963558
9614.000000;1.961694
9613.000000;1.961281
9612.000000;1.963235
9611.000000;1.967084
9610.000000;1.971482
9609.000000;1.974480
9608.000000;1.974353
9607.000000;1.971303
9606.000000;1.967816
9605.000000;1.966428
9604.000000;1.967399
9603.000000;1.968991
9602.000000;1.969552
9601.000000;1.968695
9600.000000;1.966743
9599.000000;1.964029
9598.000000;1.960957
9597.000000;1.958265
9596.000000;1.956961
9595.000000;1.957885
9594.000000;1.960885
9593.000000;1.964234
9592.000000;1.965407
9591.000000;1.963197
9590.000000;1.958858
9589.000000;1.954755
9588.000000;1.952506
9587.000000;1.952576
9586.000000;1.954489
9585.000000;1.956795
9584.000000;1.957802
9583.000000;1.957314
9582.000000;1.956938
9581.000000;1.957634
9580.000000;1.957839
9579.000000;1.955494
9578.000000;1.951422
9577.000000;1.948822
9576.000000;1.949470
9575.000000;1.951920
9574.000000;1.953586
9573.000000;1.953427
9572.000000;1.952142
9571.000000;1.950740
9570.000000;1.949687
9569.000000;1.948871
9568.000000;1.947934
9567.000000;1.947057
9566.000000;1.947271
9565.000000;1.949109
9564.000000;1.951048
9563.000000;1.950580
9562.000000;1.947230
9561.000000;1.943216
9560.000000;1.940839
9559.000000;1.940540
9558.000000;1.941642
9557.000000;1.943554
9556.000000;1.945577
9555.000000;1.946752
9554.000000;1.946914
9553.000000;1.947040
9552.000000;1.947781
9551.000000;1.948626
9550.000000;1.949171
9549.000000;1.949841
9548.000000;1.950228
9547.000000;1.948209
9546.000000;1.942649
9545.000000;1.936089
9544.000000;1.932679
9543.000000;1.933909
9542.000000;1.937760
9541.000000;1.941559
9540.000000;1.944237
9539.000000;1.945825
9538.000000;1.946287
9537.000000;1.945686
9536.000000;1.944613
9535.000000;1.943597
9534.000000;1.942600
9533.000000;1.941482
9532.000000;1.940292
9531.000000;1.938827
9530.000000;1.936553
9529.000000;1.933283
9528.000000;1.929626
9527.000000;1.926669
9526.000000;1.925617
9525.000000;1.927338
9524.000000;1.931306
9523.000000;1.935073
9522.000000;1.936006
9521.000000;1.934065
9520.000000;1.931945
9519.000000;1.932123
9518.000000;1.934552
9517.000000;1.937299
9516.000000;1.938470
9515.000000;1.937079
9514.000000;1.933158
9513.000000;1.928114
9512.000000;1.924244
9511.000000;1.922868
9510.000000;1.923181
9509.000000;1.923484
9508.000000;1.923206
9507.000000;1.923148
9506.000000;1.924098
9505.000000;1.925935
9504.000000;1.927858
9503.000000;1.928925
9502.000000;1.928594
9501.000000;1.927385
9500.000000;1.926746
9499.000000;1.927520
9498.000000;1.928646
9497.000000;1.928118
9496.000000;1.925307
9495.000000;1.921740
9494.000000;1.919607
9493.000000;1.919980
9492.000000;1.922213
9491.000000;1.924669
9490.000000;1.926096
9489.000000;1.926472
9488.000000;1.926450
9487.000000;1.926052
9486.000000;1.924506
9485.000000;1.921717
9484.000000;1.919105
9483.000000;1.918162
9482.000000;1.918723
9481.000000;1.919623
9480.000000;1.920721
9479.000000;1.922935
9478.000000;1.926003
9477.000000;1.927620
9476.000000;1.925878
9475.000000;1.921850
9474.000000;1.918476
9473.000000;1.917185
9472.000000;1.916656
9471.000000;1.914983
9470.000000;1.912327
9469.000000;1.910761
9468.000000;1.911659
9467.000000;1.913888
9466.000000;1.914900
9465.000000;1.913493
9464.000000;1.911036
9463.000000;1.909895
9462.000000;1.911181
9461.000000;1.914148
9460.000000;1.917145
9459.000000;1.918673
9458.000000;1.917924
9457.000000;1.915058
9456.000000;1.911102
9455.000000;1.907189
9454.000000;1.903947
9453.000000;1.901836
9452.000000;1.901598
9451.000000;1.903585
9450.000000;1.906733
9449.000000;1.909012
9448.000000;1.909119
9447.000000;1.907270
9446.000000;1.904433
9445.000000;1.901670
9444.000000;1.900279
9443.000000;1.901327
9442.000000;1.904269
9441.000000;1.906797
9440.000000;1.907091
9439.000000;1.905845
9438.000000;1.905038
9437.000000;1.905245
9436.000000;1.905254
9435.000000;1.903969
9434.000000;1.901563
9433.000000;1.898635
9432.000000;1.895402
9431.000000;1.892337
9430.000000;1.890664
9429.000000;1.891373
9428.000000;1.894179
9427.000000;1.897652
9426.000000;1.899973
9425.000000;1.899835
9424.000000;1.897439
9423.000000;1.894728
9422.000000;1.893924
9421.000000;1.895440
9420.000000;1.897662
9419.000000;1.899002
9418.000000;1.899273
9417.000000;1.898730
9416.000000;1.896979
9415.000000;1.893770
9414.000000;1.890424
9413.000000;1.889095
9412.000000;1.890363
9411.000000;1.892676
9410.000000;1.894274
9409.000000;1.894811
9408.000000;1.894870
9407.000000;1.894679
9406.000000;1.893937
9405.000000;1.892474
9404.000000;1.890702
9403.000000;1.889589
9402.000000;1.890207
9401.000000;1.892778
9400.000000;1.895823
9399.000000;1.896670
9398.000000;1.893714
9397.000000;1.888201
9396.000000;1.883063
9395.000000;1.880266
9394.000000;1.879798
9393.000000;1.880642
9392.000000;1.882000
9391.000000;1.883567
9390.000000;1.885128
9389.000000;1.886270
9388.000000;1.886539
9387.000000;1.885930
9386.000000;1.885210
9385.000000;1.885441
9384.000000;1.886870
9383.000000;1.888417
9382.000000;1.888607
9381.000000;1.887010
9380.000000;1.884493
9379.000000;1.882252
9378.000000;1.881132
9377.000000;1.881635
9376.000000;1.883633
9375.000000;1.885754
9374.000000;1.885936
9373.000000;1.883343
9372.000000;1.879442
9371.000000;1.876618
9370.000000;1.875857
9369.000000;1.876139
9368.000000;1.875863
9367.000000;1.874463
9366.000000;1.872709
9365.000000;1.871794
9364.000000;1.872186
9363.000000;1.873202
9362.000000;1.873746
9361.000000;1.873655
9360.000000;1.874087
9359.000000;1.876202
9358.000000;1.879577
9357.000000;1.882480
9356.000000;1.883706
9355.000000;1.883568
9354.000000;1.882821
9353.000000;1.881386
9352.000000;1.878912
9351.000000;1.876076
9350.000000;1.874335
9349.000000;1.874296
9348.000000;1.874980
9347.000000;1.874895
9346.000000;1.873462
9345.000000;1.871115
9344.000000;1.868451
9343.000000;1.865805
9342.000000;1.863496
9341.000000;1.861967
9340.000000;1.861433
9339.000000;1.861585
9338.000000;1.861899
9337.000000;1.862269
9336.000000;1.863153
9335.000000;1.864883
9334.000000;1.866848
9333.000000;1.867585
9332.000000;1.866011
9331.000000;1.862614
9330.000000;1.859268
9329.000000;1.857788
9328.000000;1.858681
9327.000000;1.861167
9326.000000;1.864156
9325.000000;1.866949
9324.000000;1.868965
9323.000000;1.869241
9322.000000;1.866953
9321.000000;1.862711
9320.000000;1.858726
9319.000000;1.857041
9318.000000;1.857685
9317.000000;1.858918
9316.000000;1.859305
9315.000000;1.859116
9314.000000;1.859452
9313.000000;1.860570
9312.000000;1.861569
9311.000000;1.861475
9310.000000;1.860203
9309.000000;1.858465
9308.000000;1.857096
9307.000000;1.856613
9306.000000;1.856948
9305.000000;1.857364
9304.000000;1.857014
9303.000000;1.855717
9302.000000;1.853980
9301.000000;1.852380
9300.000000;1.851210
9299.000000;1.850727
9298.000000;1.851319
9297.000000;1.853118
9296.000000;1.855548
9295.000000;1.857527
9294.000000;1.858151
9293.000000;1.857231
9292.000000;1.855376
9291.000000;1.853659
9290.000000;1.853024
9289.000000;1.853693
9288.000000;1.854967
9287.000000;1.855733
9286.000000;1.855491
9285.000000;1.854931
9284.000000;1.855214
9283.000000;1.856540
9282.000000;1.857510
9281.000000;1.856356
9280.000000;1.852897
9279.000000;1.848830
9278.000000;1.845969
9277.000000;1.844709
9276.000000;1.844427
9275.000000;1.844764
9274.000000;1.845652
9273.000000;1.846323
9272.000000;1.845455
9271.000000;1.842855
9270.000000;1.840198
9269.000000;1.839418
9268.000000;1.840866
9267.000000;1.843353
9266.000000;1.845370
9265.000000;1.845865
9264.000000;1.844502
9263.000000;1.842106
9262.000000;1.840598
9261.000000;1.841505
9260.000000;1.844338
9259.000000;1.846972
9258.000000;1.847724
9257.000000;1.846507
9256.000000;1.843995
9255.000000;1.840763
9254.000000;1.837720
9253.000000;1.836294
9252.000000;1.837189
9251.000000;1.839299
9250.000000;1.840653
9249.000000;1.840442
9248.000000;1.839507
9247.000000;1.838933
9246.000000;1.839013
9245.000000;1.839618
9244.000000;1.840732
9243.000000;1.842284
9242.000000;1.843812
9241.000000;1.844661
9240.000000;1.844456
9239.000000;1.843209
9238.000000;1.841168
9237.000000;1.838828
9236.000000;1.836920
9235.000000;1.835992
9234.000000;1.835988
9233.000000;1.836413
9232.000000;1.836874
9231.000000;1.837266
9230.000000;1.837394
9229.000000;1.836657
9228.000000;1.834476
9227.000000;1.831099
9226.000000;1.827731
9225.000000;1.825654
9224.000000;1.825225
9223.000000;1.825926
9222.000000;1.827302
9221.000000;1.829447
9220.000000;1.832332
9219.000000;1.834972
9218.000000;1.835827
9217.000000;1.834294
9216.000000;1.831446
9215.000000;1.829165
9214.000000;1.828724
9213.000000;1.830091
9212.000000;1.832185
9211.000000;1.833609
9210.000000;1.833518
9209.000000;1.832132
9208.000000;1.830311
9207.000000;1.828585
9206.000000;1.826800
9205.000000;1.824785
9204.000000;1.823037
9203.000000;1.822474
9202.000000;1.823563
9201.000000;1.825890
9200.000000;1.828436
9199.000000;1.830071
9198.000000;1.830022
9197.000000;1.828271
9196.000000;1.825590
9195.000000;1.822964
9194.000000;1.820940
9193.000000;1.819597
9192.000000;1.819038
9191.000000;1.819606
9190.000000;1.821466
9189.000000;1.824083
9188.000000;1.826323
9187.000000;1.827294
9186.000000;1.827047
9185.000000;1.826310
9184.000000;1.825685
9183.000000;1.825163
9182.000000;1.824400
9181.000000;1.823298
9180.000000;1.821964
9179.000000;1.820101
9178.000000;1.817013
9177.000000;1.812727
9176.000000;1.808838
9175.000000;1.807513
9174.000000;1.809428
9173.000000;1.812952
9172.000000;1.815590
9171.000000;1.816225
9170.000000;1.815698
9169.000000;1.815328
9168.000000;1.815351
9167.000000;1.815013
9166.000000;1.813877
9165.000000;1.812543
9164.000000;1.812022
9163.000000;1.812620
9162.000000;1.813608
9161.000000;1.814025
9160.000000;1.813589
9159.000000;1.812700
9158.000000;1.811835
9157.000000;1.811248
9156.000000;1.811133
9155.000000;1.811636
9154.000000;1.812517
9153.000000;1.812937
9152.000000;1.811947
9151.000000;1.809439
9150.000000;1.806582
9149.000000;1.805123
9148.000000;1.805920
9147.000000;1.807966
9146.000000;1.809086
9145.000000;1.808044
9144.000000;1.805852
9143.000000;1.804566
9142.000000;1.805051
9141.000000;1.806280
9140.000000;1.806587
9139.000000;1.805157
9138.000000;1.802410
9137.000000;1.799628
9136.000000;1.798362
9135.000000;1.799523
9134.000000;1.802551
9133.000000;1.805752
9132.000000;1.807799
9131.000000;1.808649
9130.000000;1.808847
9129.000000;1.808584
9128.000000;1.807902
9127.000000;1.807234
9126.000000;1.806999
9125.000000;1.806894
9124.000000;1.806256
9123.000000;1.805076
9122.000000;1.803981
9121.000000;1.803213
9120.000000;1.802384
9119.000000;1.801280
9118.000000;1.800205
9117.000000;1.799339
9116.000000;1.798421
9115.000000;1.797470
9114.000000;1.797132
9113.000000;1.797695
9112.000000;1.798233
9111.000000;1.797560
9110.000000;1.795991
9109.000000;1.795393
9108.000000;1.797246
9107.000000;1.800901
9106.000000;1.803945
9105.000000;1.804247
9104.000000;1.801637
9103.000000;1.797676
9102.000000;1.794124
9101.000000;1.791848
9100.000000;1.790959
9099.000000;1.791384
9098.000000;1.792874
9097.000000;1.794669
9096.000000;1.795718
9095.000000;1.795491
9094.000000;1.794462
9093.000000;1.793602
9092.000000;1.793535
9091.000000;1.794300
9090.000000;1.795499
9089.000000;1.796348
9088.000000;1.795933
9087.000000;1.794042
9086.000000;1.791753
9085.000000;1.790739
9084.000000;1.791809
9083.000000;1.794241
9082.000000;1.796554
9081.000000;1.797686
9080.000000;1.797330
9079.000000;1.795568
9078.000000;1.792661
9077.000000;1.789144
9076.000000;1.785766
9075.000000;1.783261
9074.000000;1.782274
9073.000000;1.783292
9072.000000;1.786164
9071.000000;1.789708
9070.000000;1.792348
9069.000000;1.793348
9068.000000;1.793077
9067.000000;1.791919
9066.000000;1.789448
9065.000000;1.785162
9064.000000;1.779805
9063.000000;1.775375
9062.000000;1.773720
9061.000000;1.775323
9060.000000;1.779163
9059.000000;1.783393
9058.000000;1.786262
9057.000000;1.786932
9056.000000;1.785814
9055.000000;1.784115
9054.000000;1.782851
9053.000000;1.782361
