Criado como novo conjunto de dados;"Jao_teste_celulas.spp","11644.3 Secs"
cm-1;Abs
10000.000000;2.117824
9999.000000;2.110313
9998.000000;2.109677
9997.000000;2.115717
9996.000000;2.124642
9995.000000;2.131856
9994.000000;2.135388
9993.000000;2.136039
9992.000000;2.134782
9991.000000;2.131686
9990.000000;2.127333
9989.000000;2.123637
9988.000000;2.122139
9987.000000;2.122137
9986.000000;2.121705
9985.000000;2.120373
9984.000000;2.119385
9983.000000;2.119352
9982.000000;2.118926
9981.000000;2.116380
9980.000000;2.112186
9979.000000;2.109104
9978.000000;2.109511
9977.000000;2.113218
9976.000000;2.117727
9975.000000;2.120075
9974.000000;2.118787
9973.000000;2.114667
9972.000000;2.110154
9971.000000;2.107908
9970.000000;2.108973
9969.000000;2.111834
9968.000000;2.113483
9967.000000;2.111917
9966.000000;2.108001
9965.000000;2.104758
9964.000000;2.104567
9963.000000;2.106830
9962.000000;2.108279
9961.000000;2.105929
9960.000000;2.099913
9959.000000;2.093366
9958.000000;2.089772
9957.000000;2.090649
9956.000000;2.095125
9955.000000;2.100874
9954.000000;2.105547
9953.000000;2.108036
9952.000000;2.108897
9951.000000;2.109382
9950.000000;2.109906
9949.000000;2.109922
9948.000000;2.109307
9947.000000;2.108947
9946.000000;2.109592
9945.000000;2.110720
9944.000000;2.111038
9943.000000;2.109832
9942.000000;2.107268
9941.000000;2.103763
9940.000000;2.099928
9939.000000;2.096999
9938.000000;2.096402
9937.000000;2.098403
9936.000000;2.101316
9935.000000;2.102451
9934.000000;2.100509
9933.000000;2.097278
9932.000000;2.096380
9931.000000;2.099955
9930.000000;2.106538
9929.000000;2.112307
9928.000000;2.114320
9927.000000;2.112154
9926.000000;2.106907
9925.000000;2.100129
9924.000000;2.094099
9923.000000;2.091603
9922.000000;2.093522
9921.000000;2.097015
9920.000000;2.098151
9919.000000;2.096555
9918.000000;2.095595
9917.000000;2.097910
9916.000000;2.102316
9915.000000;2.105533
9914.000000;2.105796
9913.000000;2.103802
9912.000000;2.101006
9911.000000;2.098294
9910.000000;2.095950
9909.000000;2.093881
9908.000000;2.091851
9907.000000;2.089853
9906.000000;2.088026
9905.000000;2.086157
9904.000000;2.083957
9903.000000;2.081749
9902.000000;2.080122
9901.000000;2.079159
9900.000000;2.078763
9899.000000;2.079501
9898.000000;2.082209
9897.000000;2.086361
9896.000000;2.089682
9895.000000;2.090411
9894.000000;2.089401
9893.000000;2.088832
9892.000000;2.089389
9891.000000;2.089950
9890.000000;2.089687
9889.000000;2.089077
9888.000000;2.088840
9887.000000;2.088936
9886.000000;2.088772
9885.000000;2.087987
9884.000000;2.086904
9883.000000;2.086115
9882.000000;2.085442
9881.000000;2.083673
9880.000000;2.080153
9879.000000;2.076593
9878.000000;2.076002
9877.000000;2.079209
9876.000000;2.083196
9875.000000;2.083804
9874.000000;2.079975
9873.000000;2.074381
9872.000000;2.070364
9871.000000;2.069477
9870.000000;2.071273
9869.000000;2.074181
9868.000000;2.076637
9867.000000;2.078159
9866.000000;2.079360
9865.000000;2.080522
9864.000000;2.080721
9863.000000;2.079308
9862.000000;2.077641
9861.000000;2.077846
9860.000000;2.079872
9859.000000;2.081238
9858.000000;2.080267
9857.000000;2.078225
9856.000000;2.077288
9855.000000;2.077733
9854.000000;2.078465
9853.000000;2.079280
9852.000000;2.080654
9851.000000;2.081745
9850.000000;2.080527
9849.000000;2.076174
9848.000000;2.069917
9847.000000;2.063328
9846.000000;2.057371
9845.000000;2.053497
9844.000000;2.053853
9843.000000;2.058877
9842.000000;2.065282
9841.000000;2.068252
9840.000000;2.066177
9839.000000;2.061829
9838.000000;2.058867
9837.000000;2.058541
9836.000000;2.059769
9835.000000;2.061208
9834.000000;2.062213
9833.000000;2.062476
9832.000000;2.062054
9831.000000;2.061524
9830.000000;2.061471
9829.000000;2.062045
9828.000000;2.063334
9827.000000;2.065508
9826.000000;2.067767
9825.000000;2.067883
9824.000000;2.064237
9823.000000;2.058205
9822.000000;2.053257
9821.000000;2.051829
9820.000000;2.054007
9819.000000;2.058631
9818.000000;2.064007
9817.000000;2.067325
9816.000000;2.065557
9815.000000;2.058760
9814.000000;2.051149
9813.000000;2.047224
9812.000000;2.047843
9811.000000;2.050510
9810.000000;2.052294
9809.000000;2.051831
9808.000000;2.049282
9807.000000;2.045794
9806.000000;2.043245
9805.000000;2.043329
9804.000000;2.046136
9803.000000;2.049890
9802.000000;2.052504
9801.000000;2.053260
9800.000000;2.052665
9799.000000;2.051180
9798.000000;2.048753
9797.000000;2.045500
9796.000000;2.042476
9795.000000;2.041348
9794.000000;2.042811
9793.000000;2.045498
9792.000000;2.047231
9791.000000;2.047282
9790.000000;2.046539
9789.000000;2.045901
9788.000000;2.045698
9787.000000;2.046353
9786.000000;2.048059
9785.000000;2.049445
9784.000000;2.048133
9783.000000;2.043797
9782.000000;2.039234
9781.000000;2.037300
9780.000000;2.038184
9779.000000;2.040342
9778.000000;2.042687
9777.000000;2.044530
9776.000000;2.044617
9775.000000;2.042107
9774.000000;2.037978
9773.000000;2.034052
9772.000000;2.031156
9771.000000;2.029463
9770.000000;2.029936
9769.000000;2.033344
9768.000000;2.037881
9767.000000;2.040100
9766.000000;2.039034
9765.000000;2.037392
9764.000000;2.037817
9763.000000;2.039863
9762.000000;2.041275
9761.000000;2.040570
9760.000000;2.037430
9759.000000;2.032070
9758.000000;2.025769
9757.000000;2.021281
9756.000000;2.021091
9755.000000;2.025101
9754.000000;2.030657
9753.000000;2.034804
9752.000000;2.036258
9751.000000;2.035606
9750.000000;2.034369
9749.000000;2.033732
9748.000000;2.033766
9747.000000;2.033903
9746.000000;2.034040
9745.000000;2.034612
9744.000000;2.035294
9743.000000;2.034411
9742.000000;2.030487
9741.000000;2.024314
9740.000000;2.018905
9739.000000;2.017041
9738.000000;2.018938
9737.000000;2.022212
9736.000000;2.023957
9735.000000;2.023217
9734.000000;2.021544
9733.000000;2.021132
9732.000000;2.022660
9731.000000;2.025025
9730.000000;2.026662
9729.000000;2.026677
9728.000000;2.025238
9727.000000;2.023409
9726.000000;2.022257
9725.000000;2.021700
9724.000000;2.020182
9723.000000;2.016389
9722.000000;2.011404
9721.000000;2.007989
9720.000000;2.007445
9719.000000;2.008212
9718.000000;2.008111
9717.000000;2.006913
9716.000000;2.005900
9715.000000;2.005926
9714.000000;2.007059
9713.000000;2.009555
9712.000000;2.013834
9711.000000;2.019209
9710.000000;2.023560
9709.000000;2.024799
9708.000000;2.022458
9707.000000;2.017772
9706.000000;2.012510
9705.000000;2.007875
9704.000000;2.004283
9703.000000;2.001932
9702.000000;2.001353
9701.000000;2.003124
9700.000000;2.006964
9699.000000;2.011455
9698.000000;2.014829
9697.000000;2.015885
9696.000000;2.014496
9695.000000;2.011931
9694.000000;2.010485
9693.000000;2.011691
9692.000000;2.014482
9691.000000;2.015928
9690.000000;2.014366
9689.000000;2.011194
9688.000000;2.009165
9687.000000;2.009665
9686.000000;2.011825
9685.000000;2.013301
9684.000000;2.011560
9683.000000;2.005593
9682.000000;1.997296
9681.000000;1.990465
9680.000000;1.987701
9679.000000;1.988491
9678.000000;1.990308
9677.000000;1.990998
9676.000000;1.989830
9675.000000;1.987193
9674.000000;1.984394
9673.000000;1.983430
9672.000000;1.985712
9671.000000;1.990640
9670.000000;1.995944
9669.000000;1.999745
9668.000000;2.001981
9667.000000;2.003628
9666.000000;2.005043
9665.000000;2.005424
9664.000000;2.003540
9663.000000;1.999101
9662.000000;1.993712
9661.000000;1.990089
9660.000000;1.989843
9659.000000;1.992003
9658.000000;1.993927
9657.000000;1.993798
9656.000000;1.992060
9655.000000;1.990488
9654.000000;1.990306
9653.000000;1.991347
9652.000000;1.992785
9651.000000;1.994398
9650.000000;1.996558
9649.000000;1.998767
9648.000000;1.999018
9647.000000;1.995663
9646.000000;1.989753
9645.000000;1.984369
9644.000000;1.981718
9643.000000;1.981959
9642.000000;1.984491
9641.000000;1.988677
9640.000000;1.992773
9639.000000;1.994018
9638.000000;1.991432
9637.000000;1.987375
9636.000000;1.984793
9635.000000;1.984095
9634.000000;1.983913
9633.000000;1.983576
9632.000000;1.983118
9631.000000;1.981618
9630.000000;1.977898
9629.000000;1.973250
9628.000000;1.971326
9627.000000;1.974308
9626.000000;1.980354
9625.000000;1.985453
9624.000000;1.987093
9623.000000;1.985705
9622.000000;1.983285
9621.000000;1.981376
9620.000000;1.980163
9619.000000;1.978888
9618.000000;1.976928
9617.000000;1.974523
9616.000000;1.972394
9615.000000;1.971042
9614.000000;1.970745
9613.000000;1.971776
9612.000000;1.973913
9611.000000;1.976132
9610.000000;1.977691
9609.000000;1.979043
9608.000000;1.980582
9607.000000;1.981104
9606.000000;1.979298
9605.000000;1.976462
9604.000000;1.975566
9603.000000;1.977296
9602.000000;1.978884
9601.000000;1.977880
9600.000000;1.975620
9599.000000;1.975261
9598.000000;1.977470
9597.000000;1.979708
9596.000000;1.979391
9595.000000;1.976441
9594.000000;1.972864
9593.000000;1.971076
9592.000000;1.972407
9591.000000;1.976013
9590.000000;1.979055
9589.000000;1.978861
9588.000000;1.975315
9587.000000;1.970580
9586.000000;1.966653
9585.000000;1.963980
9584.000000;1.962198
9583.000000;1.961238
9582.000000;1.961422
9581.000000;1.962887
9580.000000;1.965080
9579.000000;1.966811
9578.000000;1.967177
9577.000000;1.966642
9576.000000;1.966605
9575.000000;1.967366
9574.000000;1.967153
9573.000000;1.964213
9572.000000;1.959517
9571.000000;1.955996
9570.000000;1.955128
9569.000000;1.955648
9568.000000;1.955954
9567.000000;1.956541
9566.000000;1.958980
9565.000000;1.963175
9564.000000;1.966893
9563.000000;1.967968
9562.000000;1.966033
9561.000000;1.961988
9560.000000;1.956980
9559.000000;1.952581
9558.000000;1.950812
9557.000000;1.952677
9556.000000;1.956819
9555.000000;1.960364
9554.000000;1.961419
9553.000000;1.960222
9552.000000;1.957811
9551.000000;1.954724
9550.000000;1.951489
9549.000000;1.949271
9548.000000;1.949006
9547.000000;1.950195
9546.000000;1.951331
9545.000000;1.951436
9544.000000;1.950685
9543.000000;1.949732
9542.000000;1.949134
9541.000000;1.949313
9540.000000;1.950335
9539.000000;1.951522
9538.000000;1.951948
9537.000000;1.951551
9536.000000;1.951148
9535.000000;1.951208
9534.000000;1.951184
9533.000000;1.950597
9532.000000;1.950319
9531.000000;1.951708
9530.000000;1.954355
9529.000000;1.955574
9528.000000;1.952957
9527.000000;1.947300
9526.000000;1.942129
9525.000000;1.940318
9524.000000;1.941754
9523.000000;1.944255
9522.000000;1.946190
9521.000000;1.947537
9520.000000;1.948613
9519.000000;1.949058
9518.000000;1.948630
9517.000000;1.948005
9516.000000;1.947883
9515.000000;1.947732
9514.000000;1.946321
9513.000000;1.943450
9512.000000;1.940342
9511.000000;1.938305
9510.000000;1.937778
9509.000000;1.938562
9508.000000;1.939997
9507.000000;1.940777
9506.000000;1.939544
9505.000000;1.936292
9504.000000;1.932662
9503.000000;1.930477
9502.000000;1.930430
9501.000000;1.932247
9500.000000;1.935330
9499.000000;1.938761
9498.000000;1.941305
9497.000000;1.942323
9496.000000;1.942531
9495.000000;1.943046
9494.000000;1.943669
9493.000000;1.942758
9492.000000;1.939134
9491.000000;1.933826
9490.000000;1.929526
9489.000000;1.928205
9488.000000;1.929310
9487.000000;1.930460
9486.000000;1.930125
9485.000000;1.929155
9484.000000;1.928972
9483.000000;1.928866
9482.000000;1.926600
9481.000000;1.922042
9480.000000;1.918529
9479.000000;1.919462
9478.000000;1.924459
9477.000000;1.929581
9476.000000;1.931341
9475.000000;1.929900
9474.000000;1.927852
9473.000000;1.926852
9472.000000;1.926429
9471.000000;1.925525
9470.000000;1.924048
9469.000000;1.922635
9468.000000;1.921562
9467.000000;1.920636
9466.000000;1.920063
9465.000000;1.920643
9464.000000;1.922656
9463.000000;1.924956
9462.000000;1.925918
9461.000000;1.925350
9460.000000;1.924672
9459.000000;1.924859
9458.000000;1.925201
9457.000000;1.924685
9456.000000;1.923781
9455.000000;1.923949
9454.000000;1.925634
9453.000000;1.927489
9452.000000;1.927762
9451.000000;1.925975
9450.000000;1.923048
9449.000000;1.920194
9448.000000;1.918053
9447.000000;1.916648
9446.000000;1.915768
9445.000000;1.915184
9444.000000;1.914540
9443.000000;1.913319
9442.000000;1.911326
9441.000000;1.909160
9440.000000;1.907902
9439.000000;1.908134
9438.000000;1.909434
9437.000000;1.911028
9436.000000;1.912706
9435.000000;1.914709
9434.000000;1.916851
9433.000000;1.918168
9432.000000;1.917613
9431.000000;1.914954
9430.000000;1.911052
9429.000000;1.907494
9428.000000;1.905907
9427.000000;1.907267
9426.000000;1.911236
9425.000000;1.915776
9424.000000;1.918027
9423.000000;1.916573
9422.000000;1.912950
9421.000000;1.910320
9420.000000;1.910420
9419.000000;1.912022
9418.000000;1.912569
9417.000000;1.910843
9416.000000;1.907545
9415.000000;1.904050
9414.000000;1.901626
9413.000000;1.901243
9412.000000;1.902825
9411.000000;1.904736
9410.000000;1.905185
9409.000000;1.904272
9408.000000;1.903493
9407.000000;1.903251
9406.000000;1.902459
9405.000000;1.900938
9404.000000;1.900443
9403.000000;1.902097
9402.000000;1.904060
9401.000000;1.903459
9400.000000;1.900219
9399.000000;1.897155
9398.000000;1.896584
9397.000000;1.898462
9396.000000;1.901564
9395.000000;1.904818
9394.000000;1.907200
9393.000000;1.907769
9392.000000;1.906681
9391.000000;1.905252
9390.000000;1.904280
9389.000000;1.903146
9388.000000;1.901175
9387.000000;1.899135
9386.000000;1.898522
9385.000000;1.899590
9384.000000;1.900809
9383.000000;1.900347
9382.000000;1.897834
9381.000000;1.894614
9380.000000;1.892540
9379.000000;1.892548
9378.000000;1.893996
9377.000000;1.895166
9376.000000;1.894579
9375.000000;1.892039
9374.000000;1.888554
9373.000000;1.885468
9372.000000;1.883671
9371.000000;1.883364
9370.000000;1.884298
9369.000000;1.886005
9368.000000;1.887746
9367.000000;1.888624
9366.000000;1.888191
9365.000000;1.886990
9364.000000;1.886220
9363.000000;1.886676
9362.000000;1.888154
9361.000000;1.889838
9360.000000;1.890946
9359.000000;1.891058
9358.000000;1.890270
9357.000000;1.889230
9356.000000;1.888626
9355.000000;1.888346
9354.000000;1.887459
9353.000000;1.885417
9352.000000;1.883098
9351.000000;1.882206
9350.000000;1.883676
9349.000000;1.886778
9348.000000;1.889610
9347.000000;1.890430
9346.000000;1.888823
9345.000000;1.885815
9344.000000;1.882708
9343.000000;1.879931
9342.000000;1.877391
9341.000000;1.875674
9340.000000;1.875935
9339.000000;1.878234
9338.000000;1.880801
9337.000000;1.881757
9336.000000;1.881063
9335.000000;1.879933
9334.000000;1.878932
9333.000000;1.877716
9332.000000;1.876242
9331.000000;1.875040
9330.000000;1.874381
9329.000000;1.874223
9328.000000;1.874889
9327.000000;1.876693
9326.000000;1.878801
9325.000000;1.879395
9324.000000;1.877483
9323.000000;1.874016
9322.000000;1.870804
9321.000000;1.868912
9320.000000;1.868306
9319.000000;1.868310
9318.000000;1.868156
9317.000000;1.867656
9316.000000;1.867538
9315.000000;1.868587
9314.000000;1.870383
9313.000000;1.871572
9312.000000;1.871560
9311.000000;1.871129
9310.000000;1.871037
9309.000000;1.870741
9308.000000;1.869185
9307.000000;1.866523
9306.000000;1.864382
9305.000000;1.864464
9304.000000;1.867251
9303.000000;1.871528
9302.000000;1.874680
9301.000000;1.874363
9300.000000;1.870778
9299.000000;1.866744
9298.000000;1.864730
9297.000000;1.864389
9296.000000;1.863694
9295.000000;1.861908
9294.000000;1.860264
9293.000000;1.859921
9292.000000;1.860515
9291.000000;1.861097
9290.000000;1.861542
9289.000000;1.862319
9288.000000;1.863336
9287.000000;1.863796
9286.000000;1.863206
9285.000000;1.862109
9284.000000;1.861620
9283.000000;1.862366
9282.000000;1.863886
9281.000000;1.865046
9280.000000;1.865108
9279.000000;1.864414
9278.000000;1.863968
9277.000000;1.864366
9276.000000;1.865123
9275.000000;1.864968
9274.000000;1.862916
9273.000000;1.859271
9272.000000;1.855452
9271.000000;1.852688
9270.000000;1.851085
9269.000000;1.850231
9268.000000;1.850414
9267.000000;1.852379
9266.000000;1.855733
9265.000000;1.858480
9264.000000;1.858939
9263.000000;1.857658
9262.000000;1.856538
9261.000000;1.856499
9260.000000;1.856930
9259.000000;1.857103
9258.000000;1.857034
9257.000000;1.856787
9256.000000;1.855866
9255.000000;1.853949
9254.000000;1.851733
9253.000000;1.850413
9252.000000;1.850339
9251.000000;1.850540
9250.000000;1.849705
9249.000000;1.847561
9248.000000;1.845181
9247.000000;1.843898
9246.000000;1.843976
9245.000000;1.844486
9244.000000;1.844460
9243.000000;1.843903
9242.000000;1.843522
9241.000000;1.843819
9240.000000;1.844649
9239.000000;1.845491
9238.000000;1.845862
9237.000000;1.845574
9236.000000;1.844875
9235.000000;1.844239
9234.000000;1.843832
9233.000000;1.843530
9232.000000;1.843687
9231.000000;1.845237
9230.000000;1.848289
9229.000000;1.851089
9228.000000;1.851466
9227.000000;1.849409
9226.000000;1.847159
9225.000000;1.846581
9224.000000;1.847474
9223.000000;1.848612
9222.000000;1.849377
9221.000000;1.849862
9220.000000;1.850287
9219.000000;1.850961
9218.000000;1.851994
9217.000000;1.852472
9216.000000;1.850586
9215.000000;1.845583
9214.000000;1.839322
9213.000000;1.834855
9212.000000;1.833641
9211.000000;1.834746
9210.000000;1.836295
9209.000000;1.836964
9208.000000;1.836430
9207.000000;1.835458
9206.000000;1.835649
9205.000000;1.838110
9204.000000;1.841979
9203.000000;1.844893
9202.000000;1.845381
9201.000000;1.844139
9200.000000;1.842530
9199.000000;1.840744
9198.000000;1.838284
9197.000000;1.835559
9196.000000;1.833863
9195.000000;1.833764
9194.000000;1.834283
9193.000000;1.833966
9192.000000;1.832486
9191.000000;1.830899
9190.000000;1.830393
9189.000000;1.830930
9188.000000;1.831207
9187.000000;1.830115
9186.000000;1.828233
9185.000000;1.827439
9184.000000;1.828891
9183.000000;1.831790
9182.000000;1.834226
9181.000000;1.834838
9180.000000;1.833452
9179.000000;1.830759
9178.000000;1.828134
9177.000000;1.827281
9176.000000;1.828937
9175.000000;1.831664
9174.000000;1.832741
9173.000000;1.830814
9172.000000;1.827246
9171.000000;1.824489
9170.000000;1.823793
9169.000000;1.824761
9168.000000;1.826213
9167.000000;1.826740
9166.000000;1.825131
9165.000000;1.821485
9164.000000;1.817896
9163.000000;1.817012
9162.000000;1.819551
9161.000000;1.823568
9160.000000;1.826342
9159.000000;1.826650
9158.000000;1.825040
9157.000000;1.822599
9156.000000;1.820236
9155.000000;1.818685
9154.000000;1.818282
9153.000000;1.818697
9152.000000;1.819457
9151.000000;1.820653
9150.000000;1.822517
9149.000000;1.824342
9148.000000;1.824676
9147.000000;1.822975
9146.000000;1.820369
9145.000000;1.818347
9144.000000;1.817261
9143.000000;1.816575
9142.000000;1.815948
9141.000000;1.815361
9140.000000;1.814654
9139.000000;1.813913
9138.000000;1.814217
9137.000000;1.816875
9136.000000;1.821414
9135.000000;1.825087
9134.000000;1.825270
9133.000000;1.822215
9132.000000;1.818672
9131.000000;1.817019
9130.000000;1.817400
9129.000000;1.818330
9128.000000;1.818342
9127.000000;1.816922
9126.000000;1.814530
9125.000000;1.812220
9124.000000;1.811061
9123.000000;1.811514
9122.000000;1.813133
9121.000000;1.814890
9120.000000;1.815888
9119.000000;1.815797
9118.000000;1.814764
9117.000000;1.813139
9116.000000;1.811378
9115.000000;1.809911
9114.000000;1.808833
9113.000000;1.807721
9112.000000;1.806110
9111.000000;1.804307
9110.000000;1.803487
9109.000000;1.804614
9108.000000;1.807289
9107.000000;1.809940
9106.000000;1.811290
9105.000000;1.811411
9104.000000;1.811188
9103.000000;1.811108
9102.000000;1.810963
9101.000000;1.810531
9100.000000;1.810001
9099.000000;1.809579
9098.000000;1.809098
9097.000000;1.808328
9096.000000;1.807395
9095.000000;1.806549
9094.000000;1.805722
9093.000000;1.804753
9092.000000;1.804031
9091.000000;1.804432
9090.000000;1.806265
9089.000000;1.808497
9088.000000;1.809433
9087.000000;1.808268
9086.000000;1.805748
9085.000000;1.803298
9084.000000;1.801852
9083.000000;1.801520
9082.000000;1.801939
9081.000000;1.802604
9080.000000;1.803190
9079.000000;1.803783
9078.000000;1.804544
9077.000000;1.805054
9076.000000;1.804448
9075.000000;1.802536
9074.000000;1.800407
9073.000000;1.799433
9072.000000;1.799869
9071.000000;1.800849
9070.000000;1.801444
9069.000000;1.801188
9068.000000;1.799873
9067.000000;1.797792
9066.000000;1.796161
9065.000000;1.796201
9064.000000;1.797463
9063.000000;1.797960
9062.000000;1.796545
9061.000000;1.794397
9060.000000;1.793380
9059.000000;1.793612
9058.000000;1.793609
9057.000000;1.792428
9056.000000;1.790657
9055.000000;1.789255
9054.000000;1.788492
9053.000000;1.788339
