Criado como novo conjunto de dados;"Jao_teste_celulas.spp","2522.5 Secs"
cm-1;Abs
10000.000000;0.913435
9999.000000;0.913394
9998.000000;0.913159
9997.000000;0.912764
9996.000000;0.912368
9995.000000;0.912043
9994.000000;0.911776
9993.000000;0.911504
9992.000000;0.911177
9991.000000;0.910710
9990.000000;0.910011
9989.000000;0.909101
9988.000000;0.908167
9987.000000;0.907414
9986.000000;0.906890
9985.000000;0.906501
9984.000000;0.906155
9983.000000;0.905807
9982.000000;0.905406
9981.000000;0.904918
9980.000000;0.904433
9979.000000;0.904149
9978.000000;0.904171
9977.000000;0.904378
9976.000000;0.904486
9975.000000;0.904184
9974.000000;0.903295
9973.000000;0.901957
9972.000000;0.900636
9971.000000;0.899772
9970.000000;0.899314
9969.000000;0.898760
9968.000000;0.897802
9967.000000;0.896769
9966.000000;0.896249
9965.000000;0.896362
9964.000000;0.896628
9963.000000;0.896535
9962.000000;0.896052
9961.000000;0.895536
9960.000000;0.895287
9959.000000;0.895283
9958.000000;0.895264
9957.000000;0.894932
9956.000000;0.894097
9955.000000;0.892750
9954.000000;0.891101
9953.000000;0.889585
9952.000000;0.888710
9951.000000;0.888733
9950.000000;0.889383
9949.000000;0.889995
9948.000000;0.890035
9947.000000;0.889498
9946.000000;0.888748
9945.000000;0.888113
9944.000000;0.887691
9943.000000;0.887427
9942.000000;0.887173
9941.000000;0.886748
9940.000000;0.886085
9939.000000;0.885346
9938.000000;0.884754
9937.000000;0.884324
9936.000000;0.883900
9935.000000;0.883416
9934.000000;0.882975
9933.000000;0.882666
9932.000000;0.882453
9931.000000;0.882239
9930.000000;0.881890
9929.000000;0.881238
9928.000000;0.880284
9927.000000;0.879389
9926.000000;0.879011
9925.000000;0.879159
9924.000000;0.879376
9923.000000;0.879323
9922.000000;0.879134
9921.000000;0.879010
9920.000000;0.878784
9919.000000;0.878164
9918.000000;0.877259
9917.000000;0.876481
9916.000000;0.875981
9915.000000;0.875498
9914.000000;0.874785
9913.000000;0.873882
9912.000000;0.872952
9911.000000;0.872106
9910.000000;0.871464
9909.000000;0.871146
9908.000000;0.871041
9907.000000;0.870814
9906.000000;0.870285
9905.000000;0.869670
9904.000000;0.869279
9903.000000;0.869108
9902.000000;0.868906
9901.000000;0.868557
9900.000000;0.868182
9899.000000;0.867873
9898.000000;0.867527
9897.000000;0.867018
9896.000000;0.866394
9895.000000;0.865819
9894.000000;0.865357
9893.000000;0.864913
9892.000000;0.864383
9891.000000;0.863821
9890.000000;0.863416
9889.000000;0.863304
9888.000000;0.863379
9887.000000;0.863309
9886.000000;0.862765
9885.000000;0.861722
9884.000000;0.860548
9883.000000;0.859751
9882.000000;0.859522
9881.000000;0.859488
9880.000000;0.859009
9879.000000;0.857838
9878.000000;0.856436
9877.000000;0.855534
9876.000000;0.855396
9875.000000;0.855610
9874.000000;0.855598
9873.000000;0.855215
9872.000000;0.854795
9871.000000;0.854701
9870.000000;0.854931
9869.000000;0.855145
9868.000000;0.854998
9867.000000;0.854448
9866.000000;0.853752
9865.000000;0.853192
9864.000000;0.852819
9863.000000;0.852467
9862.000000;0.851968
9861.000000;0.851298
9860.000000;0.850546
9859.000000;0.849829
9858.000000;0.849243
9857.000000;0.848808
9856.000000;0.848445
9855.000000;0.848022
9854.000000;0.847462
9853.000000;0.846780
9852.000000;0.846062
9851.000000;0.845456
9850.000000;0.845115
9849.000000;0.845030
9848.000000;0.844933
9847.000000;0.844541
9846.000000;0.843892
9845.000000;0.843318
9844.000000;0.843035
9843.000000;0.842913
9842.000000;0.842676
9841.000000;0.842208
9840.000000;0.841558
9839.000000;0.840827
9838.000000;0.840150
9837.000000;0.839674
9836.000000;0.839380
9835.000000;0.839016
9834.000000;0.838336
9833.000000;0.837397
9832.000000;0.836490
9831.000000;0.835850
9830.000000;0.835529
9829.000000;0.835458
9828.000000;0.835508
9827.000000;0.835514
9826.000000;0.835359
9825.000000;0.835002
9824.000000;0.834388
9823.000000;0.833474
9822.000000;0.832453
9821.000000;0.831795
9820.000000;0.831796
9819.000000;0.832173
9818.000000;0.832335
9817.000000;0.832050
9816.000000;0.831561
9815.000000;0.831041
9814.000000;0.830291
9813.000000;0.829151
9812.000000;0.827921
9811.000000;0.827096
9810.000000;0.826777
9809.000000;0.826610
9808.000000;0.826294
9807.000000;0.825941
9806.000000;0.825850
9805.000000;0.826036
9804.000000;0.826110
9803.000000;0.825639
9802.000000;0.824606
9801.000000;0.823436
9800.000000;0.822544
9799.000000;0.821950
9798.000000;0.821426
9797.000000;0.820908
9796.000000;0.820567
9795.000000;0.820464
9794.000000;0.820374
9793.000000;0.820087
9792.000000;0.819680
9791.000000;0.819335
9790.000000;0.819034
9789.000000;0.818653
9788.000000;0.818259
9787.000000;0.818060
9786.000000;0.818056
9785.000000;0.817975
9784.000000;0.817646
9783.000000;0.817235
9782.000000;0.817002
9781.000000;0.816945
9780.000000;0.816814
9779.000000;0.816393
9778.000000;0.815615
9777.000000;0.814488
9776.000000;0.813097
9775.000000;0.811730
9774.000000;0.810785
9773.000000;0.810422
9772.000000;0.810383
9771.000000;0.810288
9770.000000;0.810057
9769.000000;0.809907
9768.000000;0.809931
9767.000000;0.809894
9766.000000;0.809525
9765.000000;0.808857
9764.000000;0.808134
9763.000000;0.807484
9762.000000;0.806873
9761.000000;0.806298
9760.000000;0.805826
9759.000000;0.805397
9758.000000;0.804805
9757.000000;0.803963
9756.000000;0.803079
9755.000000;0.802463
9754.000000;0.802222
9753.000000;0.802211
9752.000000;0.802214
9751.000000;0.802081
9750.000000;0.801786
9749.000000;0.801431
9748.000000;0.801149
9747.000000;0.800913
9746.000000;0.800492
9745.000000;0.799709
9744.000000;0.798695
9743.000000;0.797787
9742.000000;0.797185
9741.000000;0.796825
9740.000000;0.796569
9739.000000;0.796406
9738.000000;0.796370
9737.000000;0.796376
9736.000000;0.796230
9735.000000;0.795828
9734.000000;0.795279
9733.000000;0.794796
9732.000000;0.794477
9731.000000;0.794201
9730.000000;0.793747
9729.000000;0.793033
9728.000000;0.792234
9727.000000;0.791644
9726.000000;0.791392
9725.000000;0.791317
9724.000000;0.791117
9723.000000;0.790627
9722.000000;0.789925
9721.000000;0.789191
9720.000000;0.788533
9719.000000;0.788003
9718.000000;0.787710
9717.000000;0.787761
9716.000000;0.788058
9715.000000;0.788265
9714.000000;0.788075
9713.000000;0.787457
9712.000000;0.786568
9711.000000;0.785525
9710.000000;0.784401
9709.000000;0.783391
9708.000000;0.782773
9707.000000;0.782647
9706.000000;0.782806
9705.000000;0.782934
9704.000000;0.782835
9703.000000;0.782456
9702.000000;0.781806
9701.000000;0.780959
9700.000000;0.780060
9699.000000;0.779264
9698.000000;0.778663
9697.000000;0.778286
9696.000000;0.778083
9695.000000;0.777878
9694.000000;0.777464
9693.000000;0.776839
9692.000000;0.776266
9691.000000;0.775988
9690.000000;0.775914
9689.000000;0.775690
9688.000000;0.775074
9687.000000;0.774173
9686.000000;0.773301
9685.000000;0.772701
9684.000000;0.772385
9683.000000;0.772173
9682.000000;0.771842
9681.000000;0.771284
9680.000000;0.770564
9679.000000;0.769828
9678.000000;0.769207
9677.000000;0.768809
9676.000000;0.768726
9675.000000;0.768923
9674.000000;0.769148
9673.000000;0.769062
9672.000000;0.768541
9671.000000;0.767806
9670.000000;0.767231
9669.000000;0.767003
9668.000000;0.766978
9667.000000;0.766835
9666.000000;0.766371
9665.000000;0.765642
9664.000000;0.764857
9663.000000;0.764169
9662.000000;0.763617
9661.000000;0.763199
9660.000000;0.762916
9659.000000;0.762716
9658.000000;0.762480
9657.000000;0.762128
9656.000000;0.761714
9655.000000;0.761350
9654.000000;0.761059
9653.000000;0.760756
9652.000000;0.760361
9651.000000;0.759899
9650.000000;0.759472
9649.000000;0.759137
9648.000000;0.758820
9647.000000;0.758366
9646.000000;0.757715
9645.000000;0.757015
9644.000000;0.756484
9643.000000;0.756180
9642.000000;0.755977
9641.000000;0.755769
9640.000000;0.755575
9639.000000;0.755383
9638.000000;0.755041
9637.000000;0.754432
9636.000000;0.753710
9635.000000;0.753201
9634.000000;0.753059
9633.000000;0.753100
9632.000000;0.752974
9631.000000;0.752448
9630.000000;0.751542
9629.000000;0.750503
9628.000000;0.749659
9627.000000;0.749203
9626.000000;0.749052
9625.000000;0.748935
9624.000000;0.748661
9623.000000;0.748268
9622.000000;0.747911
9621.000000;0.747636
9620.000000;0.747312
9619.000000;0.746799
9618.000000;0.746177
9617.000000;0.745736
9616.000000;0.745669
9615.000000;0.745768
9614.000000;0.745540
9613.000000;0.744706
9612.000000;0.743524
9611.000000;0.742517
9610.000000;0.741949
9609.000000;0.741663
9608.000000;0.741389
9607.000000;0.741043
9606.000000;0.740682
9605.000000;0.740320
9604.000000;0.739890
9603.000000;0.739344
9602.000000;0.738699
9601.000000;0.738037
9600.000000;0.737496
9599.000000;0.737199
9598.000000;0.737080
9597.000000;0.736861
9596.000000;0.736321
9595.000000;0.735601
9594.000000;0.735091
9593.000000;0.734979
9592.000000;0.735014
9591.000000;0.734806
9590.000000;0.734289
9589.000000;0.733757
9588.000000;0.733471
9587.000000;0.733371
9586.000000;0.733209
9585.000000;0.732846
9584.000000;0.732335
9583.000000;0.731787
9582.000000;0.731231
9581.000000;0.730600
9580.000000;0.729833
9579.000000;0.729024
9578.000000;0.728459
9577.000000;0.728390
9576.000000;0.728701
9575.000000;0.728887
9574.000000;0.728499
9573.000000;0.727572
9572.000000;0.726538
9571.000000;0.725776
9570.000000;0.725373
9569.000000;0.725216
9568.000000;0.725117
9567.000000;0.724842
9566.000000;0.724223
9565.000000;0.723345
9564.000000;0.722512
9563.000000;0.721959
9562.000000;0.721668
9561.000000;0.721448
9560.000000;0.721098
9559.000000;0.720496
9558.000000;0.719711
9557.000000;0.719054
9556.000000;0.718821
9555.000000;0.718917
9554.000000;0.718903
9553.000000;0.718525
9552.000000;0.718016
9551.000000;0.717732
9550.000000;0.717675
9549.000000;0.717590
9548.000000;0.717390
9547.000000;0.717205
9546.000000;0.717084
9545.000000;0.716897
9544.000000;0.716561
9543.000000;0.716129
9542.000000;0.715597
9541.000000;0.714829
9540.000000;0.713799
9539.000000;0.712766
9538.000000;0.712085
9537.000000;0.711887
9536.000000;0.711990
9535.000000;0.712074
9534.000000;0.711880
9533.000000;0.711342
9532.000000;0.710610
9531.000000;0.709943
9530.000000;0.709511
9529.000000;0.709279
9528.000000;0.709098
9527.000000;0.708883
9526.000000;0.708667
9525.000000;0.708485
9524.000000;0.708252
9523.000000;0.707827
9522.000000;0.707226
9521.000000;0.706684
9520.000000;0.706402
9519.000000;0.706251
9518.000000;0.705875
9517.000000;0.705136
9516.000000;0.704299
9515.000000;0.703676
9514.000000;0.703224
9513.000000;0.702674
9512.000000;0.701997
9511.000000;0.701505
9510.000000;0.701450
9509.000000;0.701681
9508.000000;0.701777
9507.000000;0.701446
9506.000000;0.700741
9505.000000;0.699955
9504.000000;0.699360
9503.000000;0.698993
9502.000000;0.698658
9501.000000;0.698167
9500.000000;0.697587
9499.000000;0.697190
9498.000000;0.697138
9497.000000;0.697271
9496.000000;0.697237
9495.000000;0.696795
9494.000000;0.696003
9493.000000;0.695149
9492.000000;0.694530
9491.000000;0.694231
9490.000000;0.694090
9489.000000;0.693890
9488.000000;0.693566
9487.000000;0.693191
9486.000000;0.692805
9485.000000;0.692375
9484.000000;0.691932
9483.000000;0.691623
9482.000000;0.691524
9481.000000;0.691471
9480.000000;0.691178
9479.000000;0.690548
9478.000000;0.689786
9477.000000;0.689166
9476.000000;0.688747
9475.000000;0.688381
9474.000000;0.687965
9473.000000;0.687567
9472.000000;0.687267
9471.000000;0.686963
9470.000000;0.686484
9469.000000;0.685876
9468.000000;0.685399
9467.000000;0.685211
9466.000000;0.685160
9465.000000;0.684989
9464.000000;0.684645
9463.000000;0.684278
9462.000000;0.683989
9461.000000;0.683693
9460.000000;0.683207
9459.000000;0.682424
9458.000000;0.681422
9457.000000;0.680468
9456.000000;0.679848
9455.000000;0.679629
9454.000000;0.679632
9453.000000;0.679665
9452.000000;0.679700
9451.000000;0.679728
9450.000000;0.679576
9449.000000;0.679050
9448.000000;0.678224
9447.000000;0.677438
9446.000000;0.676990
9445.000000;0.676915
9444.000000;0.677038
9443.000000;0.677082
9442.000000;0.676798
9441.000000;0.676145
9440.000000;0.675376
9439.000000;0.674819
9438.000000;0.674544
9437.000000;0.674358
9436.000000;0.674094
9435.000000;0.673764
9434.000000;0.673424
9433.000000;0.673066
9432.000000;0.672698
9431.000000;0.672374
9430.000000;0.672088
9429.000000;0.671759
9428.000000;0.671385
9427.000000;0.671061
9426.000000;0.670780
9425.000000;0.670345
9424.000000;0.669616
9423.000000;0.668718
9422.000000;0.667908
9421.000000;0.667343
9420.000000;0.667060
9419.000000;0.667059
9418.000000;0.667216
9417.000000;0.667225
9416.000000;0.666823
9415.000000;0.666096
9414.000000;0.665417
9413.000000;0.665042
9412.000000;0.664892
9411.000000;0.664738
9410.000000;0.664469
9409.000000;0.664112
9408.000000;0.663689
9407.000000;0.663170
9406.000000;0.662539
9405.000000;0.661841
9404.000000;0.661161
9403.000000;0.660607
9402.000000;0.660284
9401.000000;0.660224
9400.000000;0.660298
9399.000000;0.660256
9398.000000;0.659919
9397.000000;0.659319
9396.000000;0.658618
9395.000000;0.657910
9394.000000;0.657208
9393.000000;0.656598
9392.000000;0.656259
9391.000000;0.656224
9390.000000;0.656239
9389.000000;0.655999
9388.000000;0.655515
9387.000000;0.655101
9386.000000;0.654985
9385.000000;0.655064
9384.000000;0.655050
9383.000000;0.654753
9382.000000;0.654180
9381.000000;0.653452
9380.000000;0.652732
9379.000000;0.652168
9378.000000;0.651819
9377.000000;0.651617
9376.000000;0.651421
9375.000000;0.651118
9374.000000;0.650680
9373.000000;0.650192
9372.000000;0.649808
9371.000000;0.649615
9370.000000;0.649504
9369.000000;0.649251
9368.000000;0.648725
9367.000000;0.647996
9366.000000;0.647238
9365.000000;0.646608
9364.000000;0.646187
9363.000000;0.645978
9362.000000;0.645898
9361.000000;0.645839
9360.000000;0.645746
9359.000000;0.645584
9358.000000;0.645276
9357.000000;0.644782
9356.000000;0.644241
9355.000000;0.643878
9354.000000;0.643712
9353.000000;0.643478
9352.000000;0.642952
9351.000000;0.642261
9350.000000;0.641745
9349.000000;0.641577
9348.000000;0.641607
9347.000000;0.641547
9346.000000;0.641228
9345.000000;0.640697
9344.000000;0.640138
9343.000000;0.639712
9342.000000;0.639419
9341.000000;0.639111
9340.000000;0.638660
9339.000000;0.638111
9338.000000;0.637649
9337.000000;0.637432
9336.000000;0.637448
9335.000000;0.637496
9334.000000;0.637291
9333.000000;0.636687
9332.000000;0.635817
9331.000000;0.634981
9330.000000;0.634404
9329.000000;0.634129
9328.000000;0.634109
9327.000000;0.634259
9326.000000;0.634407
9325.000000;0.634355
9324.000000;0.634065
9323.000000;0.633686
9322.000000;0.633303
9321.000000;0.632814
9320.000000;0.632131
9319.000000;0.631405
9318.000000;0.630872
9317.000000;0.630556
9316.000000;0.630265
9315.000000;0.629869
9314.000000;0.629429
9313.000000;0.629051
9312.000000;0.628740
9311.000000;0.628443
9310.000000;0.628143
9309.000000;0.627875
9308.000000;0.627660
9307.000000;0.627465
9306.000000;0.627182
9305.000000;0.626696
9304.000000;0.626022
9303.000000;0.625338
9302.000000;0.624819
9301.000000;0.624480
9300.000000;0.624229
9299.000000;0.624017
9298.000000;0.623858
9297.000000;0.623731
9296.000000;0.623580
9295.000000;0.623393
9294.000000;0.623202
9293.000000;0.622978
9292.000000;0.622641
9291.000000;0.622168
9290.000000;0.621622
9289.000000;0.621047
9288.000000;0.620424
9287.000000;0.619752
9286.000000;0.619120
9285.000000;0.618650
9284.000000;0.618386
9283.000000;0.618265
9282.000000;0.618163
9281.000000;0.617998
9280.000000;0.617825
9279.000000;0.617779
9278.000000;0.617880
9277.000000;0.617924
9276.000000;0.617650
9275.000000;0.617029
9274.000000;0.616310
9273.000000;0.615765
9272.000000;0.615452
9271.000000;0.615206
9270.000000;0.614814
9269.000000;0.614199
9268.000000;0.613510
9267.000000;0.613022
9266.000000;0.612870
9265.000000;0.612884
9264.000000;0.612753
9263.000000;0.612345
9262.000000;0.611783
9261.000000;0.611231
9260.000000;0.610744
9259.000000;0.610351
9258.000000;0.610121
9257.000000;0.610037
9256.000000;0.609911
9255.000000;0.609539
9254.000000;0.608921
9253.000000;0.608247
9252.000000;0.607684
9251.000000;0.607256
9250.000000;0.606901
9249.000000;0.606577
9248.000000;0.606283
9247.000000;0.606030
9246.000000;0.605774
9245.000000;0.605436
9244.000000;0.604999
9243.000000;0.604605
9242.000000;0.604450
9241.000000;0.604531
9240.000000;0.604590
9239.000000;0.604368
9238.000000;0.603874
9237.000000;0.603335
9236.000000;0.602948
9235.000000;0.602760
9234.000000;0.602713
9233.000000;0.602670
9232.000000;0.602432
9231.000000;0.601870
9230.000000;0.601103
9229.000000;0.600446
9228.000000;0.600115
9227.000000;0.600034
9226.000000;0.599943
9225.000000;0.599640
9224.000000;0.599103
9223.000000;0.598476
9222.000000;0.597985
9221.000000;0.597790
9220.000000;0.597834
9219.000000;0.597863
9218.000000;0.597648
9217.000000;0.597166
9216.000000;0.596553
9215.000000;0.595939
9214.000000;0.595408
9213.000000;0.595034
9212.000000;0.594854
9211.000000;0.594782
9210.000000;0.594640
9209.000000;0.594326
9208.000000;0.593887
9207.000000;0.593427
9206.000000;0.592972
9205.000000;0.592489
9204.000000;0.591987
9203.000000;0.591556
9202.000000;0.591273
9201.000000;0.591097
9200.000000;0.590883
9199.000000;0.590519
9198.000000;0.590060
9197.000000;0.589685
9196.000000;0.589505
9195.000000;0.589434
9194.000000;0.589289
9193.000000;0.588982
9192.000000;0.588579
9191.000000;0.588174
9190.000000;0.587783
9189.000000;0.587363
9188.000000;0.586896
9187.000000;0.586430
9186.000000;0.586065
9185.000000;0.585890
9184.000000;0.585881
9183.000000;0.585867
9182.000000;0.585650
9181.000000;0.585199
9180.000000;0.584662
9179.000000;0.584175
9178.000000;0.583745
9177.000000;0.583346
9176.000000;0.583037
9175.000000;0.582890
9174.000000;0.582878
9173.000000;0.582906
9172.000000;0.582916
9171.000000;0.582861
9170.000000;0.582626
9169.000000;0.582090
9168.000000;0.581299
9167.000000;0.580467
9166.000000;0.579785
9165.000000;0.579309
9164.000000;0.579013
9163.000000;0.578877
9162.000000;0.578854
9161.000000;0.578844
9160.000000;0.578766
9159.000000;0.578586
9158.000000;0.578266
9157.000000;0.577749
9156.000000;0.577077
9155.000000;0.576448
9154.000000;0.576054
9153.000000;0.575872
9152.000000;0.575712
9151.000000;0.575458
9150.000000;0.575187
9149.000000;0.575005
9148.000000;0.574854
9147.000000;0.574583
9146.000000;0.574167
9145.000000;0.573776
9144.000000;0.573566
9143.000000;0.573460
9142.000000;0.573235
9141.000000;0.572814
9140.000000;0.572382
9139.000000;0.572149
9138.000000;0.572065
9137.000000;0.571859
9136.000000;0.571362
9135.000000;0.570683
9134.000000;0.570061
9133.000000;0.569634
9132.000000;0.569419
9131.000000;0.569389
9130.000000;0.569490
9129.000000;0.569598
9128.000000;0.569569
9127.000000;0.569322
9126.000000;0.568859
9125.000000;0.568217
9124.000000;0.567472
9123.000000;0.566779
9122.000000;0.566304
9121.000000;0.566100
9120.000000;0.566055
9119.000000;0.565991
9118.000000;0.565786
9117.000000;0.565426
9116.000000;0.564976
9115.000000;0.564535
9114.000000;0.564182
9113.000000;0.563935
9112.000000;0.563751
9111.000000;0.563556
9110.000000;0.563264
9109.000000;0.562808
9108.000000;0.562224
9107.000000;0.561682
9106.000000;0.561357
9105.000000;0.561238
9104.000000;0.561132
9103.000000;0.560876
9102.000000;0.560504
9101.000000;0.560145
9100.000000;0.559824
9099.000000;0.559480
9098.000000;0.559134
9097.000000;0.558917
9096.000000;0.558888
9095.000000;0.558895
9094.000000;0.558718
9093.000000;0.558302
9092.000000;0.557791
9091.000000;0.557372
9090.000000;0.557131
9089.000000;0.557042
9088.000000;0.557008
9087.000000;0.556889
9086.000000;0.556583
9085.000000;0.556129
9084.000000;0.555675
9083.000000;0.555322
9082.000000;0.555022
9081.000000;0.554674
9080.000000;0.554277
9079.000000;0.553916
9078.000000;0.553641
9077.000000;0.553418
9076.000000;0.553226
9075.000000;0.553105
9074.000000;0.553079
9073.000000;0.553060
9072.000000;0.552903
9071.000000;0.552540
9070.000000;0.552030
9069.000000;0.551477
9068.000000;0.550927
9067.000000;0.550376
9066.000000;0.549836
9065.000000;0.549371
9064.000000;0.549026
9063.000000;0.548751
9062.000000;0.548434
9061.000000;0.548027
9060.000000;0.547631
9059.000000;0.547418
9058.000000;0.547471
9057.000000;0.547690
9056.000000;0.547842
9055.000000;0.547711
9054.000000;0.547239
9053.000000;0.546592
