Criado como novo conjunto de dados;"Jao_teste_celulas.spp","3722.5 Secs"
cm-1;Abs
10000.000000;1.131472
9999.000000;1.131173
9998.000000;1.130278
9997.000000;1.129602
9996.000000;1.130131
9995.000000;1.131641
9994.000000;1.132981
9993.000000;1.133041
9992.000000;1.131881
9991.000000;1.130413
9990.000000;1.129371
9989.000000;1.128636
9988.000000;1.127682
9987.000000;1.126375
9986.000000;1.125141
9985.000000;1.124433
9984.000000;1.124330
9983.000000;1.124620
9982.000000;1.125020
9981.000000;1.125215
9980.000000;1.124903
9979.000000;1.124040
9978.000000;1.122960
9977.000000;1.122089
9976.000000;1.121582
9975.000000;1.121316
9974.000000;1.121168
9973.000000;1.121122
9972.000000;1.121155
9971.000000;1.121177
9970.000000;1.121078
9969.000000;1.120734
9968.000000;1.120011
9967.000000;1.118902
9966.000000;1.117639
9965.000000;1.116519
9964.000000;1.115630
9963.000000;1.114872
9962.000000;1.114240
9961.000000;1.113880
9960.000000;1.113813
9959.000000;1.113782
9958.000000;1.113471
9957.000000;1.112786
9956.000000;1.111889
9955.000000;1.111075
9954.000000;1.110657
9953.000000;1.110787
9952.000000;1.111286
9951.000000;1.111713
9950.000000;1.111689
9949.000000;1.111102
9948.000000;1.110061
9947.000000;1.108845
9946.000000;1.107926
9945.000000;1.107665
9944.000000;1.107764
9943.000000;1.107290
9942.000000;1.105634
9941.000000;1.103355
9940.000000;1.101737
9939.000000;1.101550
9938.000000;1.102481
9937.000000;1.103640
9936.000000;1.104326
9935.000000;1.104298
9934.000000;1.103685
9933.000000;1.102837
9932.000000;1.102074
9931.000000;1.101418
9930.000000;1.100674
9929.000000;1.099783
9928.000000;1.098915
9927.000000;1.098143
9926.000000;1.097298
9925.000000;1.096296
9924.000000;1.095401
9923.000000;1.094970
9922.000000;1.095052
9921.000000;1.095403
9920.000000;1.095751
9919.000000;1.095857
9918.000000;1.095476
9917.000000;1.094557
9916.000000;1.093446
9915.000000;1.092658
9914.000000;1.092404
9913.000000;1.092514
9912.000000;1.092752
9911.000000;1.092960
9910.000000;1.092880
9909.000000;1.092148
9908.000000;1.090692
9907.000000;1.089014
9906.000000;1.087825
9905.000000;1.087402
9904.000000;1.087391
9903.000000;1.087278
9902.000000;1.086938
9901.000000;1.086670
9900.000000;1.086724
9899.000000;1.086937
9898.000000;1.086907
9897.000000;1.086485
9896.000000;1.085924
9895.000000;1.085525
9894.000000;1.085323
9893.000000;1.085216
9892.000000;1.085231
9891.000000;1.085408
9890.000000;1.085495
9889.000000;1.085033
9888.000000;1.083868
9887.000000;1.082360
9886.000000;1.080992
9885.000000;1.079937
9884.000000;1.079140
9883.000000;1.078676
9882.000000;1.078748
9881.000000;1.079268
9880.000000;1.079685
9879.000000;1.079432
9878.000000;1.078534
9877.000000;1.077572
9876.000000;1.076963
9875.000000;1.076445
9874.000000;1.075491
9873.000000;1.074168
9872.000000;1.073247
9871.000000;1.073303
9870.000000;1.073948
9869.000000;1.074200
9868.000000;1.073520
9867.000000;1.072209
9866.000000;1.070875
9865.000000;1.069872
9864.000000;1.069315
9863.000000;1.069246
9862.000000;1.069484
9861.000000;1.069533
9860.000000;1.068961
9859.000000;1.067846
9858.000000;1.066687
9857.000000;1.065895
9856.000000;1.065521
9855.000000;1.065383
9854.000000;1.065245
9853.000000;1.064892
9852.000000;1.064244
9851.000000;1.063467
9850.000000;1.062850
9849.000000;1.062505
9848.000000;1.062309
9847.000000;1.062176
9846.000000;1.062225
9845.000000;1.062528
9844.000000;1.062805
9843.000000;1.062569
9842.000000;1.061656
9841.000000;1.060463
9840.000000;1.059592
9839.000000;1.059300
9838.000000;1.059379
9837.000000;1.059439
9836.000000;1.059211
9835.000000;1.058577
9834.000000;1.057543
9833.000000;1.056301
9832.000000;1.055233
9831.000000;1.054660
9830.000000;1.054560
9829.000000;1.054594
9828.000000;1.054413
9827.000000;1.053895
9826.000000;1.053147
9825.000000;1.052410
9824.000000;1.051930
9823.000000;1.051751
9822.000000;1.051575
9821.000000;1.050971
9820.000000;1.049842
9819.000000;1.048610
9818.000000;1.047827
9817.000000;1.047665
9816.000000;1.047831
9815.000000;1.047922
9814.000000;1.047765
9813.000000;1.047462
9812.000000;1.047208
9811.000000;1.047103
9810.000000;1.047073
9809.000000;1.046961
9808.000000;1.046700
9807.000000;1.046379
9806.000000;1.046118
9805.000000;1.045904
9804.000000;1.045590
9803.000000;1.044992
9802.000000;1.044012
9801.000000;1.042735
9800.000000;1.041458
9799.000000;1.040496
9798.000000;1.039906
9797.000000;1.039451
9796.000000;1.038899
9795.000000;1.038198
9794.000000;1.037361
9793.000000;1.036362
9792.000000;1.035346
9791.000000;1.034725
9790.000000;1.034796
9789.000000;1.035335
9788.000000;1.035851
9787.000000;1.036186
9786.000000;1.036518
9785.000000;1.036761
9784.000000;1.036409
9783.000000;1.035261
9782.000000;1.033949
9781.000000;1.033313
9780.000000;1.033400
9779.000000;1.033451
9778.000000;1.032891
9777.000000;1.031948
9776.000000;1.031195
9775.000000;1.030799
9774.000000;1.030478
9773.000000;1.030000
9772.000000;1.029442
9771.000000;1.028973
9770.000000;1.028622
9769.000000;1.028313
9768.000000;1.027984
9767.000000;1.027614
9766.000000;1.027173
9765.000000;1.026635
9764.000000;1.025995
9763.000000;1.025306
9762.000000;1.024721
9761.000000;1.024432
9760.000000;1.024453
9759.000000;1.024452
9758.000000;1.023966
9757.000000;1.022900
9756.000000;1.021688
9755.000000;1.020838
9754.000000;1.020377
9753.000000;1.019895
9752.000000;1.019146
9751.000000;1.018429
9750.000000;1.018299
9749.000000;1.018934
9748.000000;1.019878
9747.000000;1.020368
9746.000000;1.019925
9745.000000;1.018692
9744.000000;1.017274
9743.000000;1.016277
9742.000000;1.015927
9741.000000;1.016007
9740.000000;1.016056
9739.000000;1.015668
9738.000000;1.014774
9737.000000;1.013752
9736.000000;1.013176
9735.000000;1.013295
9734.000000;1.013698
9733.000000;1.013614
9732.000000;1.012626
9731.000000;1.011041
9730.000000;1.009574
9729.000000;1.008756
9728.000000;1.008643
9727.000000;1.008936
9726.000000;1.009259
9725.000000;1.009355
9724.000000;1.009166
9723.000000;1.008751
9722.000000;1.008193
9721.000000;1.007580
9720.000000;1.007035
9719.000000;1.006598
9718.000000;1.006087
9717.000000;1.005216
9716.000000;1.003953
9715.000000;1.002638
9714.000000;1.001679
9713.000000;1.001235
9712.000000;1.001237
9711.000000;1.001572
9710.000000;1.002052
9709.000000;1.002325
9708.000000;1.002061
9707.000000;1.001263
9706.000000;1.000263
9705.000000;0.999391
9704.000000;0.998776
9703.000000;0.998431
9702.000000;0.998325
9701.000000;0.998297
9700.000000;0.998057
9699.000000;0.997415
9698.000000;0.996472
9697.000000;0.995506
9696.000000;0.994700
9695.000000;0.994047
9694.000000;0.993470
9693.000000;0.992986
9692.000000;0.992712
9691.000000;0.992724
9690.000000;0.992903
9689.000000;0.992972
9688.000000;0.992741
9687.000000;0.992295
9686.000000;0.991854
9685.000000;0.991485
9684.000000;0.991040
9683.000000;0.990369
9682.000000;0.989481
9681.000000;0.988481
9680.000000;0.987466
9679.000000;0.986542
9678.000000;0.985852
9677.000000;0.985486
9676.000000;0.985384
9675.000000;0.985393
9674.000000;0.985394
9673.000000;0.985354
9672.000000;0.985276
9671.000000;0.985155
9670.000000;0.984969
9669.000000;0.984671
9668.000000;0.984207
9667.000000;0.983579
9666.000000;0.982914
9665.000000;0.982428
9664.000000;0.982272
9663.000000;0.982381
9662.000000;0.982463
9661.000000;0.982224
9660.000000;0.981636
9659.000000;0.980955
9658.000000;0.980439
9657.000000;0.980122
9656.000000;0.979909
9655.000000;0.979774
9654.000000;0.979726
9653.000000;0.979630
9652.000000;0.979267
9651.000000;0.978588
9650.000000;0.977751
9649.000000;0.976883
9648.000000;0.975966
9647.000000;0.975030
9646.000000;0.974273
9645.000000;0.973831
9644.000000;0.973555
9643.000000;0.973193
9642.000000;0.972711
9641.000000;0.972277
9640.000000;0.971980
9639.000000;0.971727
9638.000000;0.971415
9637.000000;0.971027
9636.000000;0.970548
9635.000000;0.969945
9634.000000;0.969280
9633.000000;0.968732
9632.000000;0.968420
9631.000000;0.968268
9630.000000;0.968118
9629.000000;0.967919
9628.000000;0.967754
9627.000000;0.967716
9626.000000;0.967813
9625.000000;0.967916
9624.000000;0.967778
9623.000000;0.967170
9622.000000;0.966118
9621.000000;0.965008
9620.000000;0.964316
9619.000000;0.964171
9618.000000;0.964228
9617.000000;0.964007
9616.000000;0.963351
9615.000000;0.962490
9614.000000;0.961709
9613.000000;0.961066
9612.000000;0.960475
9611.000000;0.959964
9610.000000;0.959686
9609.000000;0.959664
9608.000000;0.959657
9607.000000;0.959378
9606.000000;0.958784
9605.000000;0.958047
9604.000000;0.957310
9603.000000;0.956588
9602.000000;0.955925
9601.000000;0.955466
9600.000000;0.955257
9599.000000;0.955058
9598.000000;0.954509
9597.000000;0.953556
9596.000000;0.952606
9595.000000;0.952160
9594.000000;0.952266
9593.000000;0.952423
9592.000000;0.952061
9591.000000;0.951102
9590.000000;0.949991
9589.000000;0.949226
9588.000000;0.948950
9587.000000;0.948983
9586.000000;0.949070
9585.000000;0.948977
9584.000000;0.948509
9583.000000;0.947660
9582.000000;0.946759
9581.000000;0.946256
9580.000000;0.946294
9579.000000;0.946604
9578.000000;0.946851
9577.000000;0.946904
9576.000000;0.946704
9575.000000;0.946082
9574.000000;0.944979
9573.000000;0.943743
9572.000000;0.942920
9571.000000;0.942684
9570.000000;0.942658
9569.000000;0.942379
9568.000000;0.941798
9567.000000;0.941183
9566.000000;0.940677
9565.000000;0.940147
9564.000000;0.939461
9563.000000;0.938785
9562.000000;0.938474
9561.000000;0.938681
9560.000000;0.939119
9559.000000;0.939290
9558.000000;0.938940
9557.000000;0.938260
9556.000000;0.937611
9555.000000;0.937117
9554.000000;0.936611
9553.000000;0.935904
9552.000000;0.935007
9551.000000;0.934103
9550.000000;0.933416
9549.000000;0.933123
9548.000000;0.933250
9547.000000;0.933552
9546.000000;0.933623
9545.000000;0.933232
9544.000000;0.932549
9543.000000;0.931979
9542.000000;0.931807
9541.000000;0.932006
9540.000000;0.932294
9539.000000;0.932341
9538.000000;0.931975
9537.000000;0.931320
9536.000000;0.930699
9535.000000;0.930347
9534.000000;0.930207
9533.000000;0.930015
9532.000000;0.929528
9531.000000;0.928665
9530.000000;0.927547
9529.000000;0.926470
9528.000000;0.925729
9527.000000;0.925356
9526.000000;0.925094
9525.000000;0.924705
9524.000000;0.924226
9523.000000;0.923823
9522.000000;0.923527
9521.000000;0.923246
9520.000000;0.922967
9519.000000;0.922732
9518.000000;0.922466
9517.000000;0.921997
9516.000000;0.921288
9515.000000;0.920485
9514.000000;0.919776
9513.000000;0.919290
9512.000000;0.919121
9511.000000;0.919244
9510.000000;0.919411
9509.000000;0.919311
9508.000000;0.918863
9507.000000;0.918218
9506.000000;0.917496
9505.000000;0.916717
9504.000000;0.915973
9503.000000;0.915428
9502.000000;0.915075
9501.000000;0.914720
9500.000000;0.914275
9499.000000;0.913846
9498.000000;0.913477
9497.000000;0.913061
9496.000000;0.912625
9495.000000;0.912401
9494.000000;0.912418
9493.000000;0.912306
9492.000000;0.911775
9491.000000;0.911070
9490.000000;0.910648
9489.000000;0.910586
9488.000000;0.910590
9487.000000;0.910442
9486.000000;0.910097
9485.000000;0.909447
9484.000000;0.908405
9483.000000;0.907218
9482.000000;0.906322
9481.000000;0.905811
9480.000000;0.905377
9479.000000;0.904870
9478.000000;0.904592
9477.000000;0.904834
9476.000000;0.905365
9475.000000;0.905633
9474.000000;0.905351
9473.000000;0.904703
9472.000000;0.904034
9471.000000;0.903528
9470.000000;0.903138
9469.000000;0.902692
9468.000000;0.902058
9467.000000;0.901263
9466.000000;0.900476
9465.000000;0.899868
9464.000000;0.899534
9463.000000;0.899494
9462.000000;0.899663
9461.000000;0.899805
9460.000000;0.899682
9459.000000;0.899292
9458.000000;0.898844
9457.000000;0.898446
9456.000000;0.897959
9455.000000;0.897219
9454.000000;0.896281
9453.000000;0.895336
9452.000000;0.894524
9451.000000;0.893962
9450.000000;0.893815
9449.000000;0.894110
9448.000000;0.894504
9447.000000;0.894459
9446.000000;0.893767
9445.000000;0.892792
9444.000000;0.892103
9443.000000;0.891880
9442.000000;0.891798
9441.000000;0.891477
9440.000000;0.890942
9439.000000;0.890522
9438.000000;0.890349
9437.000000;0.890141
9436.000000;0.889582
9435.000000;0.888782
9434.000000;0.888198
9433.000000;0.888114
9432.000000;0.888362
9431.000000;0.888526
9430.000000;0.888305
9429.000000;0.887662
9428.000000;0.886774
9427.000000;0.885904
9426.000000;0.885238
9425.000000;0.884784
9424.000000;0.884464
9423.000000;0.884256
9422.000000;0.884164
9421.000000;0.884099
9420.000000;0.883945
9419.000000;0.883710
9418.000000;0.883448
9417.000000;0.883056
9416.000000;0.882414
9415.000000;0.881709
9414.000000;0.881330
9413.000000;0.881315
9412.000000;0.881188
9411.000000;0.880578
9410.000000;0.879756
9409.000000;0.879267
9408.000000;0.879199
9407.000000;0.879142
9406.000000;0.878800
9405.000000;0.878316
9404.000000;0.877938
9403.000000;0.877654
9402.000000;0.877309
9401.000000;0.876899
9400.000000;0.876590
9399.000000;0.876495
9398.000000;0.876525
9397.000000;0.876462
9396.000000;0.876108
9395.000000;0.875423
9394.000000;0.874527
9393.000000;0.873613
9392.000000;0.872881
9391.000000;0.872515
9390.000000;0.872575
9389.000000;0.872815
9388.000000;0.872735
9387.000000;0.871997
9386.000000;0.870771
9385.000000;0.869553
9384.000000;0.868677
9383.000000;0.868143
9382.000000;0.867837
9381.000000;0.867707
9380.000000;0.867679
9379.000000;0.867583
9378.000000;0.867296
9377.000000;0.866899
9376.000000;0.866606
9375.000000;0.866562
9374.000000;0.866713
9373.000000;0.866828
9372.000000;0.866651
9371.000000;0.866113
9370.000000;0.865416
9369.000000;0.864830
9368.000000;0.864432
9367.000000;0.864074
9366.000000;0.863614
9365.000000;0.863073
9364.000000;0.862578
9363.000000;0.862228
9362.000000;0.862020
9361.000000;0.861812
9360.000000;0.861392
9359.000000;0.860727
9358.000000;0.860121
9357.000000;0.859958
9356.000000;0.860242
9355.000000;0.860537
9354.000000;0.860457
9353.000000;0.860051
9352.000000;0.859574
9351.000000;0.859043
9350.000000;0.858238
9349.000000;0.857105
9348.000000;0.855944
9347.000000;0.855143
9346.000000;0.854835
9345.000000;0.854895
9344.000000;0.855167
9343.000000;0.855572
9342.000000;0.855969
9341.000000;0.856049
9340.000000;0.855526
9339.000000;0.854459
9338.000000;0.853296
9337.000000;0.852501
9336.000000;0.852179
9335.000000;0.852113
9334.000000;0.852082
9333.000000;0.851994
9332.000000;0.851757
9331.000000;0.851241
9330.000000;0.850461
9329.000000;0.849649
9328.000000;0.849032
9327.000000;0.848629
9326.000000;0.848320
9325.000000;0.848012
9324.000000;0.847644
9323.000000;0.847146
9322.000000;0.846583
9321.000000;0.846207
9320.000000;0.846174
9319.000000;0.846243
9318.000000;0.845970
9317.000000;0.845244
9316.000000;0.844432
9315.000000;0.843935
9314.000000;0.843749
9313.000000;0.843592
9312.000000;0.843323
9311.000000;0.843044
9310.000000;0.842862
9309.000000;0.842701
9308.000000;0.842439
9307.000000;0.842101
9306.000000;0.841849
9305.000000;0.841772
9304.000000;0.841783
9303.000000;0.841719
9302.000000;0.841533
9301.000000;0.841310
9300.000000;0.841081
9299.000000;0.840710
9298.000000;0.840054
9297.000000;0.839215
9296.000000;0.838518
9295.000000;0.838179
9294.000000;0.838106
9293.000000;0.838049
9292.000000;0.837889
9291.000000;0.837675
9290.000000;0.837452
9289.000000;0.837176
9288.000000;0.836823
9287.000000;0.836469
9286.000000;0.836208
9285.000000;0.836023
9284.000000;0.835776
9283.000000;0.835324
9282.000000;0.834629
9281.000000;0.833794
9280.000000;0.833005
9279.000000;0.832403
9278.000000;0.832008
9277.000000;0.831764
9276.000000;0.831637
9275.000000;0.831589
9274.000000;0.831468
9273.000000;0.831022
9272.000000;0.830146
9271.000000;0.829078
9270.000000;0.828269
9269.000000;0.827988
9268.000000;0.828113
9267.000000;0.828298
9266.000000;0.828317
9265.000000;0.828188
9264.000000;0.828039
9263.000000;0.827911
9262.000000;0.827731
9261.000000;0.827416
9260.000000;0.826972
9259.000000;0.826496
9258.000000;0.826091
9257.000000;0.825773
9256.000000;0.825462
9255.000000;0.825064
9254.000000;0.824551
9253.000000;0.823959
9252.000000;0.823332
9251.000000;0.822707
9250.000000;0.822166
9249.000000;0.821831
9248.000000;0.821747
9247.000000;0.821783
9246.000000;0.821723
9245.000000;0.821474
9244.000000;0.821163
9243.000000;0.820994
9242.000000;0.821016
9241.000000;0.821056
9240.000000;0.820855
9239.000000;0.820300
9238.000000;0.819527
9237.000000;0.818804
9236.000000;0.818289
9235.000000;0.817904
9234.000000;0.817484
9233.000000;0.817024
9232.000000;0.816679
9231.000000;0.816499
9230.000000;0.816276
9229.000000;0.815769
9228.000000;0.815040
9227.000000;0.814429
9226.000000;0.814184
9225.000000;0.814221
9224.000000;0.814247
9223.000000;0.814062
9222.000000;0.813675
9221.000000;0.813232
9220.000000;0.812872
9219.000000;0.812639
9218.000000;0.812450
9217.000000;0.812164
9216.000000;0.811712
9215.000000;0.811157
9214.000000;0.810629
9213.000000;0.810230
9212.000000;0.809997
9211.000000;0.809886
9210.000000;0.809769
9209.000000;0.809529
9208.000000;0.809180
9207.000000;0.808830
9206.000000;0.808500
9205.000000;0.808070
9204.000000;0.807485
9203.000000;0.806910
9202.000000;0.806580
9201.000000;0.806512
9200.000000;0.806493
9199.000000;0.806324
9198.000000;0.805994
9197.000000;0.805619
9196.000000;0.805312
9195.000000;0.805100
9194.000000;0.804884
9193.000000;0.804462
9192.000000;0.803697
9191.000000;0.802718
9190.000000;0.801865
9189.000000;0.801408
9188.000000;0.801344
9187.000000;0.801448
9186.000000;0.801460
9185.000000;0.801221
9184.000000;0.800757
9183.000000;0.800268
9182.000000;0.799949
9181.000000;0.799781
9180.000000;0.799558
9179.000000;0.799173
9178.000000;0.798773
9177.000000;0.798548
9176.000000;0.798449
9175.000000;0.798229
9174.000000;0.797743
9173.000000;0.797129
9172.000000;0.796653
9171.000000;0.796438
9170.000000;0.796350
9169.000000;0.796111
9168.000000;0.795541
9167.000000;0.794723
9166.000000;0.793950
9165.000000;0.793487
9164.000000;0.793393
9163.000000;0.793523
9162.000000;0.793646
9161.000000;0.793569
9160.000000;0.793232
9159.000000;0.792743
9158.000000;0.792281
9157.000000;0.791917
9156.000000;0.791580
9155.000000;0.791220
9154.000000;0.790909
9153.000000;0.790722
9152.000000;0.790584
9151.000000;0.790338
9150.000000;0.789930
9149.000000;0.789425
9148.000000;0.788886
9147.000000;0.788334
9146.000000;0.787834
9145.000000;0.787489
9144.000000;0.787306
9143.000000;0.787176
9142.000000;0.787012
9141.000000;0.786845
9140.000000;0.786706
9139.000000;0.786517
9138.000000;0.786177
9137.000000;0.785724
9136.000000;0.785314
9135.000000;0.785030
9134.000000;0.784768
9133.000000;0.784352
9132.000000;0.783732
9131.000000;0.783055
9130.000000;0.782538
9129.000000;0.782300
9128.000000;0.782268
9127.000000;0.782249
9126.000000;0.782074
9125.000000;0.781717
9124.000000;0.781302
9123.000000;0.781009
9122.000000;0.780926
9121.000000;0.780955
9120.000000;0.780847
9119.000000;0.780385
9118.000000;0.779579
9117.000000;0.778678
9116.000000;0.777984
9115.000000;0.777646
9114.000000;0.777622
9113.000000;0.777802
9112.000000;0.778109
9111.000000;0.778452
9110.000000;0.778653
9109.000000;0.778478
9108.000000;0.777821
9107.000000;0.776816
9106.000000;0.775776
9105.000000;0.774986
9104.000000;0.774535
9103.000000;0.774291
9102.000000;0.774026
9101.000000;0.773637
9100.000000;0.773250
9099.000000;0.773069
9098.000000;0.773093
9097.000000;0.773055
9096.000000;0.772711
9095.000000;0.772143
9094.000000;0.771647
9093.000000;0.771374
9092.000000;0.771203
9091.000000;0.770991
9090.000000;0.770768
9089.000000;0.770610
9088.000000;0.770432
9087.000000;0.770070
9086.000000;0.769534
9085.000000;0.769065
9084.000000;0.768905
9083.000000;0.769069
9082.000000;0.769345
9081.000000;0.769495
9080.000000;0.769419
9079.000000;0.769164
9078.000000;0.768779
9077.000000;0.768216
9076.000000;0.767420
9075.000000;0.766500
9074.000000;0.765703
9073.000000;0.765199
9072.000000;0.764937
9071.000000;0.764777
9070.000000;0.764657
9069.000000;0.764578
9068.000000;0.764493
9067.000000;0.764323
9066.000000;0.764079
9065.000000;0.763859
9064.000000;0.763720
9063.000000;0.763607
9062.000000;0.763418
9061.000000;0.763098
9060.000000;0.762688
9059.000000;0.762303
9058.000000;0.762038
9057.000000;0.761870
9056.000000;0.761687
9055.000000;0.761447
9054.000000;0.761235
9053.000000;0.761076
