Criado como novo conjunto de dados;"Jao_teste_celulas.spp","6063.3 Secs"
cm-1;Abs
10000.000000;1.256074
9999.000000;1.255891
9998.000000;1.255708
9997.000000;1.255525
9996.000000;1.255342
9995.000000;1.255159
9994.000000;1.254977
9993.000000;1.254793
9992.000000;1.254613
9991.000000;1.254375
9990.000000;1.254242
9989.000000;1.254226
9988.000000;1.254187
9987.000000;1.253982
9986.000000;1.253496
9985.000000;1.252693
9984.000000;1.251677
9983.000000;1.250557
9982.000000;1.249288
9981.000000;1.247913
9980.000000;1.246913
9979.000000;1.246877
9978.000000;1.247651
9977.000000;1.248253
9976.000000;1.247910
9975.000000;1.246868
9974.000000;1.245888
9973.000000;1.245322
9972.000000;1.245052
9971.000000;1.244978
9970.000000;1.244986
9969.000000;1.244639
9968.000000;1.243525
9967.000000;1.241935
9966.000000;1.240701
9965.000000;1.240293
9964.000000;1.240487
9963.000000;1.240941
9962.000000;1.241571
9961.000000;1.242177
9960.000000;1.242234
9959.000000;1.241448
9958.000000;1.240211
9957.000000;1.239155
9956.000000;1.238461
9955.000000;1.237897
9954.000000;1.237344
9953.000000;1.236925
9952.000000;1.236714
9951.000000;1.236606
9950.000000;1.236436
9949.000000;1.236054
9948.000000;1.235354
9947.000000;1.234493
9946.000000;1.233973
9945.000000;1.234161
9944.000000;1.234722
9943.000000;1.234797
9942.000000;1.233837
9941.000000;1.232137
9940.000000;1.230522
9939.000000;1.229674
9938.000000;1.229741
9937.000000;1.230337
9936.000000;1.230833
9935.000000;1.230830
9934.000000;1.230443
9933.000000;1.230029
9932.000000;1.229645
9931.000000;1.228993
9930.000000;1.227961
9929.000000;1.226942
9928.000000;1.226436
9927.000000;1.226475
9926.000000;1.226624
9925.000000;1.226454
9924.000000;1.225851
9923.000000;1.224946
9922.000000;1.223958
9921.000000;1.223104
9920.000000;1.222509
9919.000000;1.222167
9918.000000;1.222017
9917.000000;1.221976
9916.000000;1.221848
9915.000000;1.221337
9914.000000;1.220402
9913.000000;1.219496
9912.000000;1.219207
9911.000000;1.219597
9910.000000;1.220134
9909.000000;1.220329
9908.000000;1.220190
9907.000000;1.219931
9906.000000;1.219541
9905.000000;1.218936
9904.000000;1.218377
9903.000000;1.218313
9902.000000;1.218753
9901.000000;1.219122
9900.000000;1.218892
9899.000000;1.218177
9898.000000;1.217524
9897.000000;1.217241
9896.000000;1.217094
9895.000000;1.216618
9894.000000;1.215589
9893.000000;1.214209
9892.000000;1.212936
9891.000000;1.212149
9890.000000;1.211856
9889.000000;1.211703
9888.000000;1.211291
9887.000000;1.210502
9886.000000;1.209505
9885.000000;1.208503
9884.000000;1.207606
9883.000000;1.206908
9882.000000;1.206541
9881.000000;1.206556
9880.000000;1.206835
9879.000000;1.207176
9878.000000;1.207402
9877.000000;1.207374
9876.000000;1.206961
9875.000000;1.206121
9874.000000;1.205053
9873.000000;1.204153
9872.000000;1.203695
9871.000000;1.203517
9870.000000;1.203125
9869.000000;1.202206
9868.000000;1.201084
9867.000000;1.200517
9866.000000;1.200961
9865.000000;1.202048
9864.000000;1.202895
9863.000000;1.202923
9862.000000;1.202267
9861.000000;1.201395
9860.000000;1.200553
9859.000000;1.199709
9858.000000;1.198855
9857.000000;1.198134
9856.000000;1.197663
9855.000000;1.197414
9854.000000;1.197277
9853.000000;1.197100
9852.000000;1.196709
9851.000000;1.196101
9850.000000;1.195605
9849.000000;1.195595
9848.000000;1.195924
9847.000000;1.195851
9846.000000;1.194778
9845.000000;1.192987
9844.000000;1.191382
9843.000000;1.190593
9842.000000;1.190535
9841.000000;1.190783
9840.000000;1.191058
9839.000000;1.191243
9838.000000;1.191207
9837.000000;1.190856
9836.000000;1.190276
9835.000000;1.189649
9834.000000;1.189066
9833.000000;1.188571
9832.000000;1.188333
9831.000000;1.188522
9830.000000;1.188973
9829.000000;1.189159
9828.000000;1.188645
9827.000000;1.187496
9826.000000;1.186163
9825.000000;1.185056
9824.000000;1.184321
9823.000000;1.183922
9822.000000;1.183749
9821.000000;1.183633
9820.000000;1.183408
9819.000000;1.183044
9818.000000;1.182637
9817.000000;1.182214
9816.000000;1.181672
9815.000000;1.181004
9814.000000;1.180479
9813.000000;1.180400
9812.000000;1.180687
9811.000000;1.180878
9810.000000;1.180589
9809.000000;1.179838
9808.000000;1.178891
9807.000000;1.177967
9806.000000;1.177248
9805.000000;1.176961
9804.000000;1.177157
9803.000000;1.177435
9802.000000;1.177213
9801.000000;1.176390
9800.000000;1.175524
9799.000000;1.175192
9798.000000;1.175323
9797.000000;1.175326
9796.000000;1.174798
9795.000000;1.173939
9794.000000;1.173252
9793.000000;1.172954
9792.000000;1.172736
9791.000000;1.172082
9790.000000;1.170842
9789.000000;1.169514
9788.000000;1.168837
9787.000000;1.169051
9786.000000;1.169634
9785.000000;1.169848
9784.000000;1.169431
9783.000000;1.168652
9782.000000;1.167875
9781.000000;1.167317
9780.000000;1.167096
9779.000000;1.167152
9778.000000;1.167104
9777.000000;1.166529
9776.000000;1.165544
9775.000000;1.164818
9774.000000;1.164794
9773.000000;1.165097
9772.000000;1.164960
9771.000000;1.164099
9770.000000;1.162947
9769.000000;1.162088
9768.000000;1.161742
9767.000000;1.161731
9766.000000;1.161692
9765.000000;1.161306
9764.000000;1.160538
9763.000000;1.159744
9762.000000;1.159391
9761.000000;1.159564
9760.000000;1.159854
9759.000000;1.159793
9758.000000;1.159354
9757.000000;1.158968
9756.000000;1.159065
9755.000000;1.159583
9754.000000;1.159905
9753.000000;1.159387
9752.000000;1.158051
9751.000000;1.156642
9750.000000;1.155896
9749.000000;1.155822
9748.000000;1.155845
9747.000000;1.155545
9746.000000;1.154973
9745.000000;1.154285
9744.000000;1.153473
9743.000000;1.152599
9742.000000;1.151967
9741.000000;1.151800
9740.000000;1.151900
9739.000000;1.151835
9738.000000;1.151369
9737.000000;1.150588
9736.000000;1.149749
9735.000000;1.149139
9734.000000;1.148899
9733.000000;1.148815
9732.000000;1.148470
9731.000000;1.147801
9730.000000;1.147313
9729.000000;1.147479
9728.000000;1.148070
9727.000000;1.148415
9726.000000;1.148206
9725.000000;1.147726
9724.000000;1.147303
9723.000000;1.146976
9722.000000;1.146702
9721.000000;1.146501
9720.000000;1.146242
9719.000000;1.145621
9718.000000;1.144577
9717.000000;1.143483
9716.000000;1.142704
9715.000000;1.142214
9714.000000;1.141879
9713.000000;1.141852
9712.000000;1.142342
9711.000000;1.143065
9710.000000;1.143338
9709.000000;1.142742
9708.000000;1.141466
9707.000000;1.139952
9706.000000;1.138483
9705.000000;1.137222
9704.000000;1.136389
9703.000000;1.136185
9702.000000;1.136591
9701.000000;1.137336
9700.000000;1.138037
9699.000000;1.138330
9698.000000;1.138000
9697.000000;1.137076
9696.000000;1.135802
9695.000000;1.134505
9694.000000;1.133483
9693.000000;1.132968
9692.000000;1.133038
9691.000000;1.133462
9690.000000;1.133772
9689.000000;1.133623
9688.000000;1.133087
9687.000000;1.132503
9686.000000;1.132054
9685.000000;1.131635
9684.000000;1.131128
9683.000000;1.130635
9682.000000;1.130348
9681.000000;1.130288
9680.000000;1.130293
9679.000000;1.130231
9678.000000;1.130110
9677.000000;1.129977
9676.000000;1.129801
9675.000000;1.129520
9674.000000;1.129118
9673.000000;1.128612
9672.000000;1.128003
9671.000000;1.127308
9670.000000;1.126602
9669.000000;1.125934
9668.000000;1.125215
9667.000000;1.124288
9666.000000;1.123177
9665.000000;1.122189
9664.000000;1.121686
9663.000000;1.121723
9662.000000;1.121957
9661.000000;1.121935
9660.000000;1.121473
9659.000000;1.120766
9658.000000;1.120145
9657.000000;1.119768
9656.000000;1.119566
9655.000000;1.119418
9654.000000;1.119289
9653.000000;1.119162
9652.000000;1.118922
9651.000000;1.118441
9650.000000;1.117797
9649.000000;1.117313
9648.000000;1.117241
9647.000000;1.117398
9646.000000;1.117228
9645.000000;1.116331
9644.000000;1.114947
9643.000000;1.113782
9642.000000;1.113295
9641.000000;1.113261
9640.000000;1.113124
9639.000000;1.112627
9638.000000;1.111953
9637.000000;1.111334
9636.000000;1.110837
9635.000000;1.110574
9634.000000;1.110771
9633.000000;1.111368
9632.000000;1.111820
9631.000000;1.111636
9630.000000;1.111033
9629.000000;1.110652
9628.000000;1.110652
9627.000000;1.110436
9626.000000;1.109430
9625.000000;1.107881
9624.000000;1.106628
9623.000000;1.106232
9622.000000;1.106507
9621.000000;1.106822
9620.000000;1.106690
9619.000000;1.106112
9618.000000;1.105493
9617.000000;1.105233
9616.000000;1.105364
9615.000000;1.105564
9614.000000;1.105510
9613.000000;1.105147
9612.000000;1.104573
9611.000000;1.103786
9610.000000;1.102699
9609.000000;1.101380
9608.000000;1.100158
9607.000000;1.099467
9606.000000;1.099561
9605.000000;1.100334
9604.000000;1.101330
9603.000000;1.101979
9602.000000;1.101929
9601.000000;1.101223
9600.000000;1.100197
9599.000000;1.099211
9598.000000;1.098446
9597.000000;1.097817
9596.000000;1.097085
9595.000000;1.096123
9594.000000;1.095135
9593.000000;1.094537
9592.000000;1.094548
9591.000000;1.094962
9590.000000;1.095325
9589.000000;1.095293
9588.000000;1.094830
9587.000000;1.094186
9586.000000;1.093732
9585.000000;1.093721
9584.000000;1.094104
9583.000000;1.094604
9582.000000;1.095002
9581.000000;1.095249
9580.000000;1.095278
9579.000000;1.094881
9578.000000;1.093916
9577.000000;1.092553
9576.000000;1.091157
9575.000000;1.090006
9574.000000;1.089208
9573.000000;1.088789
9572.000000;1.088713
9571.000000;1.088852
9570.000000;1.089043
9569.000000;1.089154
9568.000000;1.088997
9567.000000;1.088346
9566.000000;1.087225
9565.000000;1.086091
9564.000000;1.085449
9563.000000;1.085275
9562.000000;1.085044
9561.000000;1.084369
9560.000000;1.083419
9559.000000;1.082631
9558.000000;1.082220
9557.000000;1.082102
9556.000000;1.082127
9555.000000;1.082202
9554.000000;1.082279
9553.000000;1.082364
9552.000000;1.082478
9551.000000;1.082495
9550.000000;1.082119
9549.000000;1.081216
9548.000000;1.080133
9547.000000;1.079452
9546.000000;1.079372
9545.000000;1.079518
9544.000000;1.079409
9543.000000;1.078983
9542.000000;1.078518
9541.000000;1.078194
9540.000000;1.077952
9539.000000;1.077723
9538.000000;1.077550
9537.000000;1.077414
9536.000000;1.077145
9535.000000;1.076623
9534.000000;1.075931
9533.000000;1.075174
9532.000000;1.074294
9531.000000;1.073261
9530.000000;1.072372
9529.000000;1.072078
9528.000000;1.072441
9527.000000;1.072969
9526.000000;1.073098
9525.000000;1.072737
9524.000000;1.072230
9523.000000;1.071887
9522.000000;1.071685
9521.000000;1.071373
9520.000000;1.070735
9519.000000;1.069779
9518.000000;1.068748
9517.000000;1.067957
9516.000000;1.067567
9515.000000;1.067514
9514.000000;1.067642
9513.000000;1.067827
9512.000000;1.067920
9511.000000;1.067684
9510.000000;1.066933
9509.000000;1.065758
9508.000000;1.064553
9507.000000;1.063767
9506.000000;1.063611
9505.000000;1.063898
9504.000000;1.064171
9503.000000;1.064061
9502.000000;1.063612
9501.000000;1.063170
9500.000000;1.062938
9499.000000;1.062766
9498.000000;1.062456
9497.000000;1.062111
9496.000000;1.061956
9495.000000;1.061923
9494.000000;1.061648
9493.000000;1.060916
9492.000000;1.059918
9491.000000;1.059008
9490.000000;1.058363
9489.000000;1.057957
9488.000000;1.057741
9487.000000;1.057704
9486.000000;1.057813
9485.000000;1.057982
9484.000000;1.058086
9483.000000;1.057962
9482.000000;1.057462
9481.000000;1.056592
9480.000000;1.055555
9479.000000;1.054611
9478.000000;1.053910
9477.000000;1.053501
9476.000000;1.053392
9475.000000;1.053495
9474.000000;1.053538
9473.000000;1.053194
9472.000000;1.052408
9471.000000;1.051552
9470.000000;1.051155
9469.000000;1.051449
9468.000000;1.052172
9467.000000;1.052791
9466.000000;1.052889
9465.000000;1.052388
9464.000000;1.051515
9463.000000;1.050664
9462.000000;1.050209
9461.000000;1.050296
9460.000000;1.050726
9459.000000;1.051074
9458.000000;1.051017
9457.000000;1.050564
9456.000000;1.049953
9455.000000;1.049369
9454.000000;1.048789
9453.000000;1.048076
9452.000000;1.047198
9451.000000;1.046316
9450.000000;1.045632
9449.000000;1.045175
9448.000000;1.044804
9447.000000;1.044414
9446.000000;1.044042
9445.000000;1.043745
9444.000000;1.043486
9443.000000;1.043255
9442.000000;1.043160
9441.000000;1.043251
9440.000000;1.043330
9439.000000;1.043127
9438.000000;1.042625
9437.000000;1.042029
9436.000000;1.041435
9435.000000;1.040795
9434.000000;1.040209
9433.000000;1.039951
9432.000000;1.040042
9431.000000;1.040039
9430.000000;1.039480
9429.000000;1.038390
9428.000000;1.037193
9427.000000;1.036271
9426.000000;1.035799
9425.000000;1.035838
9424.000000;1.036298
9423.000000;1.036846
9422.000000;1.037118
9421.000000;1.037050
9420.000000;1.036842
9419.000000;1.036608
9418.000000;1.036268
9417.000000;1.035738
9416.000000;1.035072
9415.000000;1.034379
9414.000000;1.033768
9413.000000;1.033386
9412.000000;1.033309
9411.000000;1.033372
9410.000000;1.033235
9409.000000;1.032684
9408.000000;1.031779
9407.000000;1.030716
9406.000000;1.029720
9405.000000;1.029076
9404.000000;1.029042
9403.000000;1.029568
9402.000000;1.030201
9401.000000;1.030429
9400.000000;1.030108
9399.000000;1.029480
9398.000000;1.028837
9397.000000;1.028299
9396.000000;1.027899
9395.000000;1.027718
9394.000000;1.027795
9393.000000;1.027901
9392.000000;1.027594
9391.000000;1.026641
9390.000000;1.025364
9389.000000;1.024410
9388.000000;1.024146
9387.000000;1.024362
9386.000000;1.024583
9385.000000;1.024520
9384.000000;1.024180
9383.000000;1.023695
9382.000000;1.023243
9381.000000;1.023013
9380.000000;1.023067
9379.000000;1.023247
9378.000000;1.023317
9377.000000;1.023163
9376.000000;1.022779
9375.000000;1.022150
9374.000000;1.021316
9373.000000;1.020459
9372.000000;1.019746
9371.000000;1.019158
9370.000000;1.018607
9369.000000;1.018189
9368.000000;1.018096
9367.000000;1.018280
9366.000000;1.018400
9365.000000;1.018140
9364.000000;1.017486
9363.000000;1.016686
9362.000000;1.016073
9361.000000;1.015872
9360.000000;1.016024
9359.000000;1.016193
9358.000000;1.016078
9357.000000;1.015703
9356.000000;1.015271
9355.000000;1.014830
9354.000000;1.014268
9353.000000;1.013592
9352.000000;1.012960
9351.000000;1.012498
9350.000000;1.012293
9349.000000;1.012547
9348.000000;1.013361
9347.000000;1.014312
9346.000000;1.014580
9345.000000;1.013720
9344.000000;1.012136
9343.000000;1.010640
9342.000000;1.009738
9341.000000;1.009454
9340.000000;1.009601
9339.000000;1.009950
9338.000000;1.010251
9337.000000;1.010297
9336.000000;1.009990
9335.000000;1.009335
9334.000000;1.008472
9333.000000;1.007756
9332.000000;1.007546
9331.000000;1.007766
9330.000000;1.007866
9329.000000;1.007427
9328.000000;1.006650
9327.000000;1.006041
9326.000000;1.005758
9325.000000;1.005533
9324.000000;1.005163
9323.000000;1.004755
9322.000000;1.004449
9321.000000;1.004172
9320.000000;1.003800
9319.000000;1.003419
9318.000000;1.003234
9317.000000;1.003251
9316.000000;1.003190
9315.000000;1.002783
9314.000000;1.002099
9313.000000;1.001467
9312.000000;1.001039
9311.000000;1.000584
9310.000000;0.999880
9309.000000;0.999186
9308.000000;0.999021
9307.000000;0.999427
9306.000000;0.999776
9305.000000;0.999515
9304.000000;0.998860
9303.000000;0.998465
9302.000000;0.998567
9301.000000;0.998813
9300.000000;0.998829
9299.000000;0.998618
9298.000000;0.998287
9297.000000;0.997744
9296.000000;0.996900
9295.000000;0.996006
9294.000000;0.995503
9293.000000;0.995496
9292.000000;0.995555
9291.000000;0.995139
9290.000000;0.994186
9289.000000;0.993208
9288.000000;0.992753
9287.000000;0.992842
9286.000000;0.993001
9285.000000;0.992808
9284.000000;0.992281
9283.000000;0.991709
9282.000000;0.991302
9281.000000;0.991117
9280.000000;0.991171
9279.000000;0.991392
9278.000000;0.991494
9277.000000;0.991163
9276.000000;0.990423
9275.000000;0.989673
9274.000000;0.989265
9273.000000;0.989167
9272.000000;0.989106
9271.000000;0.988914
9270.000000;0.988606
9269.000000;0.988201
9268.000000;0.987660
9267.000000;0.987071
9266.000000;0.986721
9265.000000;0.986820
9264.000000;0.987156
9263.000000;0.987158
9262.000000;0.986415
9261.000000;0.985109
9260.000000;0.983865
9259.000000;0.983209
9258.000000;0.983205
9257.000000;0.983581
9256.000000;0.984031
9255.000000;0.984354
9254.000000;0.984432
9253.000000;0.984206
9252.000000;0.983685
9251.000000;0.982950
9250.000000;0.982154
9249.000000;0.981520
9248.000000;0.981214
9247.000000;0.981180
9246.000000;0.981185
9245.000000;0.981084
9244.000000;0.980979
9243.000000;0.981004
9242.000000;0.981050
9241.000000;0.980857
9240.000000;0.980356
9239.000000;0.979764
9238.000000;0.979312
9237.000000;0.978984
9236.000000;0.978568
9235.000000;0.977927
9234.000000;0.977180
9233.000000;0.976653
9232.000000;0.976640
9231.000000;0.977146
9230.000000;0.977837
9229.000000;0.978287
9228.000000;0.978276
9227.000000;0.977844
9226.000000;0.977137
9225.000000;0.976288
9224.000000;0.975406
9223.000000;0.974522
9222.000000;0.973576
9221.000000;0.972568
9220.000000;0.971728
9219.000000;0.971391
9218.000000;0.971607
9217.000000;0.971973
9216.000000;0.971996
9215.000000;0.971608
9214.000000;0.971186
9213.000000;0.971079
9212.000000;0.971224
9211.000000;0.971304
9210.000000;0.971156
9209.000000;0.970904
9208.000000;0.970691
9207.000000;0.970439
9206.000000;0.969949
9205.000000;0.969162
9204.000000;0.968230
9203.000000;0.967395
9202.000000;0.966885
9201.000000;0.966872
9200.000000;0.967340
9199.000000;0.967970
9198.000000;0.968303
9197.000000;0.968143
9196.000000;0.967723
9195.000000;0.967384
9194.000000;0.967164
9193.000000;0.966837
9192.000000;0.966266
9191.000000;0.965565
9190.000000;0.964925
9189.000000;0.964426
9188.000000;0.964069
9187.000000;0.963853
9186.000000;0.963728
9185.000000;0.963567
9184.000000;0.963284
9183.000000;0.962981
9182.000000;0.962887
9181.000000;0.963096
9180.000000;0.963394
9179.000000;0.963377
9178.000000;0.962801
9177.000000;0.961858
9176.000000;0.961044
9175.000000;0.960716
9174.000000;0.960773
9173.000000;0.960818
9172.000000;0.960592
9171.000000;0.960154
9170.000000;0.959670
9169.000000;0.959182
9168.000000;0.958660
9167.000000;0.958158
9166.000000;0.957767
9165.000000;0.957451
9164.000000;0.957075
9163.000000;0.956594
9162.000000;0.956137
9161.000000;0.955841
9160.000000;0.955703
9159.000000;0.955614
9158.000000;0.955482
9157.000000;0.955284
9156.000000;0.955034
9155.000000;0.954757
9154.000000;0.954444
9153.000000;0.954037
9152.000000;0.953508
9151.000000;0.952991
9150.000000;0.952735
9149.000000;0.952830
9148.000000;0.953049
9147.000000;0.953075
9146.000000;0.952850
9145.000000;0.952579
9144.000000;0.952406
9143.000000;0.952229
9142.000000;0.951891
9141.000000;0.951418
9140.000000;0.950980
9139.000000;0.950670
9138.000000;0.950439
9137.000000;0.950203
9136.000000;0.949954
9135.000000;0.949761
9134.000000;0.949675
9133.000000;0.949639
9132.000000;0.949489
9131.000000;0.949141
9130.000000;0.948751
9129.000000;0.948561
9128.000000;0.948548
9127.000000;0.948379
9126.000000;0.947843
9125.000000;0.947181
9124.000000;0.946827
9123.000000;0.946868
9122.000000;0.946944
9121.000000;0.946685
9120.000000;0.946093
9119.000000;0.945460
9118.000000;0.945051
9117.000000;0.944905
9116.000000;0.944844
9115.000000;0.944615
9114.000000;0.944094
9113.000000;0.943393
9112.000000;0.942754
9111.000000;0.942329
9110.000000;0.942089
9109.000000;0.941931
9108.000000;0.941785
9107.000000;0.941621
9106.000000;0.941457
9105.000000;0.941352
9104.000000;0.941322
9103.000000;0.941260
9102.000000;0.941041
9101.000000;0.940697
9100.000000;0.940411
9099.000000;0.940310
9098.000000;0.940334
9097.000000;0.940330
9096.000000;0.940185
9095.000000;0.939850
9094.000000;0.939353
9093.000000;0.938823
9092.000000;0.938424
9091.000000;0.938192
9090.000000;0.937989
9089.000000;0.937683
9088.000000;0.937295
9087.000000;0.936911
9086.000000;0.936523
9085.000000;0.936040
9084.000000;0.935451
9083.000000;0.934929
9082.000000;0.934705
9081.000000;0.934837
9080.000000;0.935105
9079.000000;0.935198
9078.000000;0.935014
9077.000000;0.934734
9076.000000;0.934536
9075.000000;0.934338
9074.000000;0.933943
9073.000000;0.933346
9072.000000;0.932747
9071.000000;0.932284
9070.000000;0.931925
9069.000000;0.931607
9068.000000;0.931329
9067.000000;0.931081
9066.000000;0.930845
9065.000000;0.930697
9064.000000;0.930730
9063.000000;0.930833
9062.000000;0.930736
9061.000000;0.930351
9060.000000;0.929910
9059.000000;0.929652
9058.000000;0.929567
9057.000000;0.929512
9056.000000;0.929402
9055.000000;0.929142
9054.000000;0.928593
9053.000000;0.927813
