Criado como novo conjunto de dados;"Jao_teste_celulas.spp","9604.1 Secs"
cm-1;Abs
10000.000000;1.239361
9999.000000;1.239020
9998.000000;1.238680
9997.000000;1.238340
9996.000000;1.238000
9995.000000;1.237660
9994.000000;1.237321
9993.000000;1.236981
9992.000000;1.236645
9991.000000;1.236242
9990.000000;1.235848
9989.000000;1.235454
9988.000000;1.235059
9987.000000;1.234685
9986.000000;1.234293
9985.000000;1.233816
9984.000000;1.233286
9983.000000;1.232815
9982.000000;1.232395
9981.000000;1.231790
9980.000000;1.230729
9979.000000;1.229284
9978.000000;1.227998
9977.000000;1.227563
9976.000000;1.228217
9975.000000;1.229403
9974.000000;1.230134
9973.000000;1.229804
9972.000000;1.228641
9971.000000;1.227377
9970.000000;1.226580
9969.000000;1.226331
9968.000000;1.226294
9967.000000;1.225957
9966.000000;1.224962
9965.000000;1.223477
9964.000000;1.222188
9963.000000;1.221685
9962.000000;1.221867
9961.000000;1.222122
9960.000000;1.222053
9959.000000;1.221784
9958.000000;1.221535
9957.000000;1.221207
9956.000000;1.220557
9955.000000;1.219626
9954.000000;1.218834
9953.000000;1.218599
9952.000000;1.218890
9951.000000;1.219126
9950.000000;1.218670
9949.000000;1.217576
9948.000000;1.216657
9947.000000;1.216556
9946.000000;1.216871
9945.000000;1.216569
9944.000000;1.215262
9943.000000;1.213704
9942.000000;1.212877
9941.000000;1.212972
9940.000000;1.213428
9939.000000;1.213630
9938.000000;1.213307
9937.000000;1.212486
9936.000000;1.211415
9935.000000;1.210495
9934.000000;1.210035
9933.000000;1.210029
9932.000000;1.210240
9931.000000;1.210347
9930.000000;1.209982
9929.000000;1.208881
9928.000000;1.207230
9927.000000;1.205683
9926.000000;1.204853
9925.000000;1.204836
9924.000000;1.205291
9923.000000;1.205799
9922.000000;1.206011
9921.000000;1.205716
9920.000000;1.205053
9919.000000;1.204510
9918.000000;1.204482
9917.000000;1.204897
9916.000000;1.205433
9915.000000;1.205871
9914.000000;1.206017
9913.000000;1.205582
9912.000000;1.204563
9911.000000;1.203568
9910.000000;1.203266
9909.000000;1.203518
9908.000000;1.203474
9907.000000;1.202581
9906.000000;1.201118
9905.000000;1.199684
9904.000000;1.198566
9903.000000;1.197775
9902.000000;1.197300
9901.000000;1.197084
9900.000000;1.196973
9899.000000;1.196920
9898.000000;1.197041
9897.000000;1.197318
9896.000000;1.197406
9895.000000;1.196927
9894.000000;1.195852
9893.000000;1.194484
9892.000000;1.193223
9891.000000;1.192404
9890.000000;1.192136
9889.000000;1.192149
9888.000000;1.191943
9887.000000;1.191276
9886.000000;1.190396
9885.000000;1.189701
9884.000000;1.189330
9883.000000;1.189196
9882.000000;1.189194
9881.000000;1.189168
9880.000000;1.188845
9879.000000;1.188100
9878.000000;1.187250
9877.000000;1.186815
9876.000000;1.186957
9875.000000;1.187315
9874.000000;1.187400
9873.000000;1.187035
9872.000000;1.186383
9871.000000;1.185664
9870.000000;1.184922
9869.000000;1.184059
9868.000000;1.183097
9867.000000;1.182356
9866.000000;1.182218
9865.000000;1.182630
9864.000000;1.182994
9863.000000;1.182688
9862.000000;1.181660
9861.000000;1.180409
9860.000000;1.179490
9859.000000;1.179178
9858.000000;1.179448
9857.000000;1.180022
9856.000000;1.180410
9855.000000;1.180153
9854.000000;1.179172
9853.000000;1.177833
9852.000000;1.176658
9851.000000;1.176015
9850.000000;1.175988
9849.000000;1.176371
9848.000000;1.176790
9847.000000;1.176935
9846.000000;1.176688
9845.000000;1.176005
9844.000000;1.174827
9843.000000;1.173270
9842.000000;1.171773
9841.000000;1.170821
9840.000000;1.170538
9839.000000;1.170736
9838.000000;1.171272
9837.000000;1.172049
9836.000000;1.172686
9835.000000;1.172647
9834.000000;1.171858
9833.000000;1.170839
9832.000000;1.170003
9831.000000;1.169205
9830.000000;1.168268
9829.000000;1.167554
9828.000000;1.167501
9827.000000;1.167783
9826.000000;1.167542
9825.000000;1.166522
9824.000000;1.165444
9823.000000;1.165055
9822.000000;1.165220
9821.000000;1.165230
9820.000000;1.164710
9819.000000;1.163890
9818.000000;1.163220
9817.000000;1.163040
9816.000000;1.163499
9815.000000;1.164427
9814.000000;1.165277
9813.000000;1.165441
9812.000000;1.164689
9811.000000;1.163211
9810.000000;1.161347
9809.000000;1.159506
9808.000000;1.158209
9807.000000;1.157813
9806.000000;1.158084
9805.000000;1.158275
9804.000000;1.157780
9803.000000;1.156603
9802.000000;1.155145
9801.000000;1.153794
9800.000000;1.152839
9799.000000;1.152503
9798.000000;1.152764
9797.000000;1.153230
9796.000000;1.153419
9795.000000;1.153177
9794.000000;1.152705
9793.000000;1.152241
9792.000000;1.151868
9791.000000;1.151567
9790.000000;1.151285
9789.000000;1.150929
9788.000000;1.150447
9787.000000;1.149930
9786.000000;1.149503
9785.000000;1.149084
9784.000000;1.148428
9783.000000;1.147480
9782.000000;1.146579
9781.000000;1.146150
9780.000000;1.146227
9779.000000;1.146340
9778.000000;1.145952
9777.000000;1.144979
9776.000000;1.143879
9775.000000;1.143199
9774.000000;1.143053
9773.000000;1.143097
9772.000000;1.142991
9771.000000;1.142770
9770.000000;1.142673
9769.000000;1.142681
9768.000000;1.142450
9767.000000;1.141766
9766.000000;1.140882
9765.000000;1.140267
9764.000000;1.140086
9763.000000;1.140031
9762.000000;1.139668
9761.000000;1.138869
9760.000000;1.137891
9759.000000;1.137119
9758.000000;1.136746
9757.000000;1.136623
9756.000000;1.136385
9755.000000;1.135776
9754.000000;1.134910
9753.000000;1.134170
9752.000000;1.133832
9751.000000;1.133823
9750.000000;1.133853
9749.000000;1.133692
9748.000000;1.133273
9747.000000;1.132644
9746.000000;1.131967
9745.000000;1.131539
9744.000000;1.131594
9743.000000;1.132034
9742.000000;1.132473
9741.000000;1.132646
9740.000000;1.132654
9739.000000;1.132716
9738.000000;1.132766
9737.000000;1.132461
9736.000000;1.131533
9735.000000;1.130017
9734.000000;1.128178
9733.000000;1.126342
9732.000000;1.124830
9731.000000;1.123926
9730.000000;1.123805
9729.000000;1.124458
9728.000000;1.125628
9727.000000;1.126819
9726.000000;1.127499
9725.000000;1.127450
9724.000000;1.126859
9723.000000;1.125990
9722.000000;1.124899
9721.000000;1.123621
9720.000000;1.122488
9719.000000;1.121944
9718.000000;1.122032
9717.000000;1.122306
9716.000000;1.122341
9715.000000;1.122119
9714.000000;1.121785
9713.000000;1.121288
9712.000000;1.120478
9711.000000;1.119458
9710.000000;1.118590
9709.000000;1.118146
9708.000000;1.118069
9707.000000;1.118057
9706.000000;1.117819
9705.000000;1.117297
9704.000000;1.116705
9703.000000;1.116316
9702.000000;1.116142
9701.000000;1.115900
9700.000000;1.115352
9699.000000;1.114572
9698.000000;1.113795
9697.000000;1.113111
9696.000000;1.112440
9695.000000;1.111746
9694.000000;1.111145
9693.000000;1.110847
9692.000000;1.111027
9691.000000;1.111609
9690.000000;1.112112
9689.000000;1.111891
9688.000000;1.110744
9687.000000;1.109217
9686.000000;1.108142
9685.000000;1.107939
9684.000000;1.108442
9683.000000;1.109200
9682.000000;1.109720
9681.000000;1.109584
9680.000000;1.108696
9679.000000;1.107467
9678.000000;1.106464
9677.000000;1.105823
9676.000000;1.105184
9675.000000;1.104267
9674.000000;1.103268
9673.000000;1.102590
9672.000000;1.102348
9671.000000;1.102272
9670.000000;1.102021
9669.000000;1.101485
9668.000000;1.100853
9667.000000;1.100433
9666.000000;1.100324
9665.000000;1.100260
9664.000000;1.099899
9663.000000;1.099272
9662.000000;1.098784
9661.000000;1.098714
9660.000000;1.098894
9659.000000;1.098944
9658.000000;1.098673
9657.000000;1.098146
9656.000000;1.097504
9655.000000;1.096868
9654.000000;1.096326
9653.000000;1.095868
9652.000000;1.095372
9651.000000;1.094736
9650.000000;1.093984
9649.000000;1.093184
9648.000000;1.092373
9647.000000;1.091618
9646.000000;1.091045
9645.000000;1.090704
9644.000000;1.090473
9643.000000;1.090222
9642.000000;1.089981
9641.000000;1.089858
9640.000000;1.089897
9639.000000;1.090124
9638.000000;1.090621
9637.000000;1.091316
9636.000000;1.091766
9635.000000;1.091430
9634.000000;1.090232
9633.000000;1.088656
9632.000000;1.087216
9631.000000;1.086034
9630.000000;1.085054
9629.000000;1.084418
9628.000000;1.084349
9627.000000;1.084698
9626.000000;1.084903
9625.000000;1.084516
9624.000000;1.083643
9623.000000;1.082765
9622.000000;1.082237
9621.000000;1.082096
9620.000000;1.082197
9619.000000;1.082339
9618.000000;1.082284
9617.000000;1.081917
9616.000000;1.081448
9615.000000;1.081251
9614.000000;1.081379
9613.000000;1.081399
9612.000000;1.080871
9611.000000;1.079845
9610.000000;1.078699
9609.000000;1.077632
9608.000000;1.076610
9607.000000;1.075719
9606.000000;1.075256
9605.000000;1.075361
9604.000000;1.075779
9603.000000;1.076102
9602.000000;1.076091
9601.000000;1.075722
9600.000000;1.075096
9599.000000;1.074405
9598.000000;1.073823
9597.000000;1.073314
9596.000000;1.072707
9595.000000;1.072041
9594.000000;1.071640
9593.000000;1.071692
9592.000000;1.071916
9591.000000;1.071851
9590.000000;1.071362
9589.000000;1.070663
9588.000000;1.069955
9587.000000;1.069264
9586.000000;1.068575
9585.000000;1.067915
9584.000000;1.067295
9583.000000;1.066768
9582.000000;1.066511
9581.000000;1.066697
9580.000000;1.067230
9579.000000;1.067755
9578.000000;1.067930
9577.000000;1.067589
9576.000000;1.066701
9575.000000;1.065379
9574.000000;1.063967
9573.000000;1.062884
9572.000000;1.062301
9571.000000;1.062037
9570.000000;1.061853
9569.000000;1.061718
9568.000000;1.061718
9567.000000;1.061824
9566.000000;1.061858
9565.000000;1.061661
9564.000000;1.061216
9563.000000;1.060633
9562.000000;1.060046
9561.000000;1.059523
9560.000000;1.059067
9559.000000;1.058708
9558.000000;1.058520
9557.000000;1.058437
9556.000000;1.058170
9555.000000;1.057476
9554.000000;1.056525
9553.000000;1.055818
9552.000000;1.055714
9551.000000;1.056149
9550.000000;1.056791
9549.000000;1.057249
9548.000000;1.057127
9547.000000;1.056191
9546.000000;1.054730
9545.000000;1.053509
9544.000000;1.053085
9543.000000;1.053217
9542.000000;1.053198
9541.000000;1.052721
9540.000000;1.052141
9539.000000;1.051852
9538.000000;1.051734
9537.000000;1.051401
9536.000000;1.050784
9535.000000;1.050201
9534.000000;1.049925
9533.000000;1.049887
9532.000000;1.049851
9531.000000;1.049726
9530.000000;1.049613
9529.000000;1.049626
9528.000000;1.049723
9527.000000;1.049722
9526.000000;1.049444
9525.000000;1.048892
9524.000000;1.048254
9523.000000;1.047696
9522.000000;1.047148
9521.000000;1.046384
9520.000000;1.045351
9519.000000;1.044296
9518.000000;1.043494
9517.000000;1.042910
9516.000000;1.042274
9515.000000;1.041491
9514.000000;1.040802
9513.000000;1.040456
9512.000000;1.040330
9511.000000;1.040020
9510.000000;1.039300
9509.000000;1.038399
9508.000000;1.037805
9507.000000;1.037831
9506.000000;1.038339
9505.000000;1.038822
9504.000000;1.038792
9503.000000;1.038199
9502.000000;1.037523
9501.000000;1.037358
9500.000000;1.037829
9499.000000;1.038421
9498.000000;1.038433
9497.000000;1.037624
9496.000000;1.036389
9495.000000;1.035330
9494.000000;1.034699
9493.000000;1.034284
9492.000000;1.033790
9491.000000;1.033206
9490.000000;1.032739
9489.000000;1.032462
9488.000000;1.032169
9487.000000;1.031622
9486.000000;1.030840
9485.000000;1.030102
9484.000000;1.029721
9483.000000;1.029829
9482.000000;1.030276
9481.000000;1.030662
9480.000000;1.030586
9479.000000;1.029997
9478.000000;1.029252
9477.000000;1.028730
9476.000000;1.028487
9475.000000;1.028359
9474.000000;1.028273
9473.000000;1.028230
9472.000000;1.028056
9471.000000;1.027452
9470.000000;1.026385
9469.000000;1.025211
9468.000000;1.024308
9467.000000;1.023727
9466.000000;1.023297
9465.000000;1.022918
9464.000000;1.022614
9463.000000;1.022411
9462.000000;1.022300
9461.000000;1.022262
9460.000000;1.022222
9459.000000;1.022060
9458.000000;1.021772
9457.000000;1.021536
9456.000000;1.021483
9455.000000;1.021432
9454.000000;1.021006
9453.000000;1.020025
9452.000000;1.018719
9451.000000;1.017557
9450.000000;1.016918
9449.000000;1.016882
9448.000000;1.017220
9447.000000;1.017545
9446.000000;1.017581
9445.000000;1.017301
9444.000000;1.016828
9443.000000;1.016244
9442.000000;1.015579
9441.000000;1.014908
9440.000000;1.014322
9439.000000;1.013807
9438.000000;1.013263
9437.000000;1.012681
9436.000000;1.012211
9435.000000;1.011992
9434.000000;1.011956
9433.000000;1.011875
9432.000000;1.011606
9431.000000;1.011251
9430.000000;1.011043
9429.000000;1.011053
9428.000000;1.011052
9427.000000;1.010716
9426.000000;1.009991
9425.000000;1.009199
9424.000000;1.008717
9423.000000;1.008597
9422.000000;1.008555
9421.000000;1.008295
9420.000000;1.007803
9419.000000;1.007329
9418.000000;1.007131
9417.000000;1.007234
9416.000000;1.007389
9415.000000;1.007287
9414.000000;1.006861
9413.000000;1.006343
9412.000000;1.005987
9411.000000;1.005772
9410.000000;1.005467
9409.000000;1.004969
9408.000000;1.004457
9407.000000;1.004156
9406.000000;1.004030
9405.000000;1.003797
9404.000000;1.003239
9403.000000;1.002437
9402.000000;1.001679
9401.000000;1.001162
9400.000000;1.000842
9399.000000;1.000549
9398.000000;1.000199
9397.000000;0.999830
9396.000000;0.999508
9395.000000;0.999267
9394.000000;0.999110
9393.000000;0.998980
9392.000000;0.998750
9391.000000;0.998329
9390.000000;0.997779
9389.000000;0.997217
9388.000000;0.996621
9387.000000;0.995868
9386.000000;0.994995
9385.000000;0.994237
9384.000000;0.993744
9383.000000;0.993427
9382.000000;0.993194
9381.000000;0.993155
9380.000000;0.993395
9379.000000;0.993697
9378.000000;0.993731
9377.000000;0.993496
9376.000000;0.993322
9375.000000;0.993408
9374.000000;0.993542
9373.000000;0.993331
9372.000000;0.992603
9371.000000;0.991558
9370.000000;0.990592
9369.000000;0.989988
9368.000000;0.989679
9367.000000;0.989362
9366.000000;0.988888
9365.000000;0.988460
9364.000000;0.988313
9363.000000;0.988324
9362.000000;0.988147
9361.000000;0.987662
9360.000000;0.987030
9359.000000;0.986370
9358.000000;0.985686
9357.000000;0.985137
9356.000000;0.985052
9355.000000;0.985491
9354.000000;0.986046
9353.000000;0.986227
9352.000000;0.985924
9351.000000;0.985343
9350.000000;0.984691
9349.000000;0.984047
9348.000000;0.983416
9347.000000;0.982734
9346.000000;0.981951
9345.000000;0.981241
9344.000000;0.980956
9343.000000;0.981215
9342.000000;0.981661
9341.000000;0.981787
9340.000000;0.981400
9339.000000;0.980641
9338.000000;0.979738
9337.000000;0.978953
9336.000000;0.978581
9335.000000;0.978704
9334.000000;0.978990
9333.000000;0.978999
9332.000000;0.978653
9331.000000;0.978187
9330.000000;0.977715
9329.000000;0.977154
9328.000000;0.976590
9327.000000;0.976343
9326.000000;0.976538
9325.000000;0.976845
9324.000000;0.976813
9323.000000;0.976304
9322.000000;0.975485
9321.000000;0.974549
9320.000000;0.973629
9319.000000;0.972864
9318.000000;0.972327
9317.000000;0.971922
9316.000000;0.971487
9315.000000;0.971009
9314.000000;0.970659
9313.000000;0.970610
9312.000000;0.970838
9311.000000;0.971098
9310.000000;0.971090
9309.000000;0.970724
9308.000000;0.970238
9307.000000;0.969975
9306.000000;0.969999
9305.000000;0.970006
9304.000000;0.969663
9303.000000;0.968967
9302.000000;0.968190
9301.000000;0.967567
9300.000000;0.967137
9299.000000;0.966845
9298.000000;0.966645
9297.000000;0.966462
9296.000000;0.966184
9295.000000;0.965743
9294.000000;0.965191
9293.000000;0.964638
9292.000000;0.964162
9291.000000;0.963818
9290.000000;0.963705
9289.000000;0.963939
9288.000000;0.964472
9287.000000;0.964979
9286.000000;0.965015
9285.000000;0.964394
9284.000000;0.963378
9283.000000;0.962464
9282.000000;0.961974
9281.000000;0.961853
9280.000000;0.961829
9279.000000;0.961677
9278.000000;0.961357
9277.000000;0.960962
9276.000000;0.960600
9275.000000;0.960308
9274.000000;0.960045
9273.000000;0.959732
9272.000000;0.959295
9271.000000;0.958672
9270.000000;0.957852
9269.000000;0.956934
9268.000000;0.956108
9267.000000;0.955538
9266.000000;0.955267
9265.000000;0.955261
9264.000000;0.955471
9263.000000;0.955789
9262.000000;0.955981
9261.000000;0.955789
9260.000000;0.955164
9259.000000;0.954337
9258.000000;0.953646
9257.000000;0.953310
9256.000000;0.953347
9255.000000;0.953604
9254.000000;0.953798
9253.000000;0.953601
9252.000000;0.952827
9251.000000;0.951629
9250.000000;0.950503
9249.000000;0.949983
9248.000000;0.950211
9247.000000;0.950753
9246.000000;0.950912
9245.000000;0.950339
9244.000000;0.949338
9243.000000;0.948537
9242.000000;0.948263
9241.000000;0.948302
9240.000000;0.948196
9239.000000;0.947699
9238.000000;0.946954
9237.000000;0.946307
9236.000000;0.946010
9235.000000;0.946033
9234.000000;0.946128
9233.000000;0.946058
9232.000000;0.945784
9231.000000;0.945432
9230.000000;0.945135
9229.000000;0.944964
9228.000000;0.944933
9227.000000;0.944976
9226.000000;0.944934
9225.000000;0.944659
9224.000000;0.944162
9223.000000;0.943597
9222.000000;0.943107
9221.000000;0.942753
9220.000000;0.942550
9219.000000;0.942457
9218.000000;0.942303
9217.000000;0.941886
9216.000000;0.941232
9215.000000;0.940675
9214.000000;0.940562
9213.000000;0.940889
9212.000000;0.941278
9211.000000;0.941282
9210.000000;0.940706
9209.000000;0.939702
9208.000000;0.938648
9207.000000;0.937914
9206.000000;0.937631
9205.000000;0.937627
9204.000000;0.937586
9203.000000;0.937285
9202.000000;0.936752
9201.000000;0.936220
9200.000000;0.935947
9199.000000;0.936002
9198.000000;0.936198
9197.000000;0.936253
9196.000000;0.936019
9195.000000;0.935518
9194.000000;0.934829
9193.000000;0.934049
9192.000000;0.933386
9191.000000;0.933073
9190.000000;0.933090
9189.000000;0.933090
9188.000000;0.932768
9187.000000;0.932255
9186.000000;0.931965
9185.000000;0.932072
9184.000000;0.932282
9183.000000;0.932175
9182.000000;0.931662
9181.000000;0.931003
9180.000000;0.930491
9179.000000;0.930182
9178.000000;0.929912
9177.000000;0.929476
9176.000000;0.928823
9175.000000;0.928096
9174.000000;0.927516
9173.000000;0.927193
9172.000000;0.927075
9171.000000;0.927070
9170.000000;0.927139
9169.000000;0.927245
9168.000000;0.927277
9167.000000;0.927107
9166.000000;0.926727
9165.000000;0.926247
9164.000000;0.925776
9163.000000;0.925363
9162.000000;0.925032
9161.000000;0.924778
9160.000000;0.924500
9159.000000;0.924049
9158.000000;0.923417
9157.000000;0.922803
9156.000000;0.922433
9155.000000;0.922344
9154.000000;0.922423
9153.000000;0.922571
9152.000000;0.922722
9151.000000;0.922744
9150.000000;0.922468
9149.000000;0.921843
9148.000000;0.921006
9147.000000;0.920203
9146.000000;0.919703
9145.000000;0.919704
9144.000000;0.920119
9143.000000;0.920451
9142.000000;0.920117
9141.000000;0.919047
9140.000000;0.917799
9139.000000;0.916976
9138.000000;0.916665
9137.000000;0.916556
9136.000000;0.916424
9135.000000;0.916253
9134.000000;0.915979
9133.000000;0.915421
9132.000000;0.914561
9131.000000;0.913697
9130.000000;0.913188
9129.000000;0.913114
9128.000000;0.913233
9127.000000;0.913222
9126.000000;0.912938
9125.000000;0.912507
9124.000000;0.912183
9123.000000;0.912100
9122.000000;0.912197
9121.000000;0.912368
9120.000000;0.912580
9119.000000;0.912742
9118.000000;0.912617
9117.000000;0.912057
9116.000000;0.911292
9115.000000;0.910754
9114.000000;0.910615
9113.000000;0.910682
9112.000000;0.910723
9111.000000;0.910662
9110.000000;0.910416
9109.000000;0.909840
9108.000000;0.909003
9107.000000;0.908305
9106.000000;0.908098
9105.000000;0.908283
9104.000000;0.908444
9103.000000;0.908318
9102.000000;0.907990
9101.000000;0.907694
9100.000000;0.907561
9099.000000;0.907541
9098.000000;0.907458
9097.000000;0.907170
9096.000000;0.906751
9095.000000;0.906428
9094.000000;0.906285
9093.000000;0.906126
9092.000000;0.905751
9091.000000;0.905256
9090.000000;0.904894
9089.000000;0.904712
9088.000000;0.904501
9087.000000;0.904102
9086.000000;0.903605
9085.000000;0.903251
9084.000000;0.903225
9083.000000;0.903513
9082.000000;0.903831
9081.000000;0.903748
9080.000000;0.903054
9079.000000;0.902035
9078.000000;0.901247
9077.000000;0.900999
9076.000000;0.901136
9075.000000;0.901277
9074.000000;0.901125
9073.000000;0.900596
9072.000000;0.899844
9071.000000;0.899213
9070.000000;0.898980
9069.000000;0.899042
9068.000000;0.898991
9067.000000;0.898587
9066.000000;0.898044
9065.000000;0.897709
9064.000000;0.897598
9063.000000;0.897390
9062.000000;0.896880
9061.000000;0.896252
9060.000000;0.895879
9059.000000;0.895906
9058.000000;0.896093
9057.000000;0.896044
9056.000000;0.895587
9055.000000;0.894926
9054.000000;0.894400
9053.000000;0.894140
