Criado como novo conjunto de dados;"1909daniel.spp","-4225841.7 Secs"
cm-1;Abs
10000.000000;1.547195
9999.000000;1.544813
9998.000000;1.541237
9997.000000;1.538012
9996.000000;1.536778
9995.000000;1.537709
9994.000000;1.539465
9993.000000;1.540731
9992.000000;1.541247
9991.000000;1.541173
9990.000000;1.540244
9989.000000;1.538270
9988.000000;1.536045
9987.000000;1.534914
9986.000000;1.535295
9985.000000;1.536144
9984.000000;1.536136
9983.000000;1.535116
9982.000000;1.534011
9981.000000;1.533560
9980.000000;1.533567
9979.000000;1.533316
9978.000000;1.532305
9977.000000;1.530531
9976.000000;1.528469
9975.000000;1.526858
9974.000000;1.526108
9973.000000;1.525775
9972.000000;1.525004
9971.000000;1.523712
9970.000000;1.522897
9969.000000;1.523391
9968.000000;1.524629
9967.000000;1.525172
9966.000000;1.524335
9965.000000;1.522860
9964.000000;1.522038
9963.000000;1.522607
9962.000000;1.524391
9961.000000;1.526424
9960.000000;1.527389
9959.000000;1.526568
9958.000000;1.524614
9957.000000;1.522903
9956.000000;1.521887
9955.000000;1.520603
9954.000000;1.518278
9953.000000;1.515866
9952.000000;1.515183
9951.000000;1.516645
9950.000000;1.518539
9949.000000;1.518823
9948.000000;1.517212
9947.000000;1.515038
9946.000000;1.513316
9945.000000;1.511702
9944.000000;1.509527
9943.000000;1.507146
9942.000000;1.505583
9941.000000;1.505083
9940.000000;1.504751
9939.000000;1.503782
9938.000000;1.502538
9937.000000;1.502005
9936.000000;1.502525
9935.000000;1.503508
9934.000000;1.504157
9933.000000;1.504047
9932.000000;1.503132
9931.000000;1.501735
9930.000000;1.500548
9929.000000;1.500129
9928.000000;1.500253
9927.000000;1.500080
9926.000000;1.499137
9925.000000;1.497802
9924.000000;1.496650
9923.000000;1.495715
9922.000000;1.494741
9921.000000;1.493823
9920.000000;1.493324
9919.000000;1.493188
9918.000000;1.492790
9917.000000;1.491660
9916.000000;1.490173
9915.000000;1.489292
9914.000000;1.489599
9913.000000;1.490670
9912.000000;1.491416
9911.000000;1.491035
9910.000000;1.489604
9909.000000;1.487784
9908.000000;1.486112
9907.000000;1.484645
9906.000000;1.483175
9905.000000;1.481687
9904.000000;1.480607
9903.000000;1.480529
9902.000000;1.481493
9901.000000;1.482607
9900.000000;1.482810
9899.000000;1.482131
9898.000000;1.481649
9897.000000;1.481832
9896.000000;1.481573
9895.000000;1.479605
9894.000000;1.476571
9893.000000;1.474627
9892.000000;1.474937
9891.000000;1.476419
9890.000000;1.477200
9889.000000;1.476663
9888.000000;1.475541
9887.000000;1.474563
9886.000000;1.473816
9885.000000;1.473195
9884.000000;1.472713
9883.000000;1.472279
9882.000000;1.471670
9881.000000;1.470885
9880.000000;1.470238
9879.000000;1.469950
9878.000000;1.469766
9877.000000;1.469131
9876.000000;1.467759
9875.000000;1.466058
9874.000000;1.464894
9873.000000;1.464758
9872.000000;1.465136
9871.000000;1.464989
9870.000000;1.463990
9869.000000;1.462987
9868.000000;1.462919
9867.000000;1.463501
9866.000000;1.463358
9865.000000;1.461591
9864.000000;1.458987
9863.000000;1.457472
9862.000000;1.458298
9861.000000;1.460712
9860.000000;1.462408
9859.000000;1.461523
9858.000000;1.458327
9857.000000;1.454753
9856.000000;1.452389
9855.000000;1.451257
9854.000000;1.450486
9853.000000;1.449489
9852.000000;1.448210
9851.000000;1.446791
9850.000000;1.445552
9849.000000;1.445020
9848.000000;1.445412
9847.000000;1.446142
9846.000000;1.446305
9845.000000;1.445671
9844.000000;1.444798
9843.000000;1.444212
9842.000000;1.443917
9841.000000;1.443752
9840.000000;1.443732
9839.000000;1.443860
9838.000000;1.443957
9837.000000;1.443911
9836.000000;1.443895
9835.000000;1.444037
9834.000000;1.444008
9833.000000;1.443177
9832.000000;1.441211
9831.000000;1.438419
9830.000000;1.435588
9829.000000;1.433511
9828.000000;1.432525
9827.000000;1.432380
9826.000000;1.432591
9825.000000;1.432929
9824.000000;1.433497
9823.000000;1.434312
9822.000000;1.435021
9821.000000;1.435088
9820.000000;1.434166
9819.000000;1.432247
9818.000000;1.429711
9817.000000;1.427295
9816.000000;1.425785
9815.000000;1.425517
9814.000000;1.426168
9813.000000;1.426998
9812.000000;1.427260
9811.000000;1.426527
9810.000000;1.424930
9809.000000;1.423159
9808.000000;1.421946
9807.000000;1.421366
9806.000000;1.420767
9805.000000;1.419564
9804.000000;1.417922
9803.000000;1.416438
9802.000000;1.415373
9801.000000;1.414606
9800.000000;1.414212
9799.000000;1.414546
9798.000000;1.415539
9797.000000;1.416314
9796.000000;1.415960
9795.000000;1.414628
9794.000000;1.413404
9793.000000;1.412941
9792.000000;1.412671
9791.000000;1.411664
9790.000000;1.410024
9789.000000;1.408922
9788.000000;1.409208
9787.000000;1.410368
9786.000000;1.411061
9785.000000;1.410479
9784.000000;1.408964
9783.000000;1.407410
9782.000000;1.406324
9781.000000;1.405442
9780.000000;1.404139
9779.000000;1.402282
9778.000000;1.400738
9777.000000;1.400754
9776.000000;1.402530
9775.000000;1.404589
9774.000000;1.404990
9773.000000;1.403240
9772.000000;1.400623
9771.000000;1.398664
9770.000000;1.397795
9769.000000;1.397553
9768.000000;1.397447
9767.000000;1.397207
9766.000000;1.396539
9765.000000;1.395211
9764.000000;1.393411
9763.000000;1.391747
9762.000000;1.390841
9761.000000;1.390960
9760.000000;1.391866
9759.000000;1.392874
9758.000000;1.393281
9757.000000;1.393027
9756.000000;1.392816
9755.000000;1.393290
9754.000000;1.394141
9753.000000;1.394310
9752.000000;1.393093
9751.000000;1.390841
9750.000000;1.388492
9749.000000;1.386663
9748.000000;1.385344
9747.000000;1.384296
9746.000000;1.383497
9745.000000;1.383131
9744.000000;1.383207
9743.000000;1.383331
9742.000000;1.383017
9741.000000;1.382279
9740.000000;1.381733
9739.000000;1.381892
9738.000000;1.382409
9737.000000;1.382284
9736.000000;1.380921
9735.000000;1.378859
9734.000000;1.377338
9733.000000;1.377177
9732.000000;1.378075
9731.000000;1.378869
9730.000000;1.378486
9729.000000;1.376804
9728.000000;1.374657
9727.000000;1.372997
9726.000000;1.372105
9725.000000;1.371585
9724.000000;1.370993
9723.000000;1.370291
9722.000000;1.369691
9721.000000;1.369303
9720.000000;1.369054
9719.000000;1.368808
9718.000000;1.368387
9717.000000;1.367595
9716.000000;1.366427
9715.000000;1.365250
9714.000000;1.364594
9713.000000;1.364653
9712.000000;1.365023
9711.000000;1.365020
9710.000000;1.364293
9709.000000;1.363150
9708.000000;1.362248
9707.000000;1.361966
9706.000000;1.362035
9705.000000;1.361786
9704.000000;1.360751
9703.000000;1.358980
9702.000000;1.356945
9701.000000;1.355256
9700.000000;1.354370
9699.000000;1.354447
9698.000000;1.355354
9697.000000;1.356762
9696.000000;1.358234
9695.000000;1.359228
9694.000000;1.359165
9693.000000;1.357684
9692.000000;1.354979
9691.000000;1.351874
9690.000000;1.349375
9689.000000;1.348020
9688.000000;1.347593
9687.000000;1.347453
9686.000000;1.347148
9685.000000;1.346727
9684.000000;1.346488
9683.000000;1.346474
9682.000000;1.346290
9681.000000;1.345442
9680.000000;1.343825
9679.000000;1.341845
9678.000000;1.340133
9677.000000;1.339167
9676.000000;1.339080
9675.000000;1.339622
9674.000000;1.340189
9673.000000;1.340117
9672.000000;1.339176
9671.000000;1.337787
9670.000000;1.336643
9669.000000;1.336086
9668.000000;1.335960
9667.000000;1.336005
9666.000000;1.336161
9665.000000;1.336299
9664.000000;1.335916
9663.000000;1.334545
9662.000000;1.332535
9661.000000;1.330980
9660.000000;1.330581
9659.000000;1.330907
9658.000000;1.331128
9657.000000;1.331169
9656.000000;1.331581
9655.000000;1.332388
9654.000000;1.332746
9653.000000;1.332040
9652.000000;1.330754
9651.000000;1.329738
9650.000000;1.328977
9649.000000;1.327719
9648.000000;1.325712
9647.000000;1.323718
9646.000000;1.322605
9645.000000;1.322418
9644.000000;1.322523
9643.000000;1.322310
9642.000000;1.321573
9641.000000;1.320492
9640.000000;1.319533
9639.000000;1.319182
9638.000000;1.319474
9637.000000;1.319903
9636.000000;1.320022
9635.000000;1.319958
9634.000000;1.320020
9633.000000;1.319924
9632.000000;1.318931
9631.000000;1.316907
9630.000000;1.314757
9629.000000;1.313434
9628.000000;1.312867
9627.000000;1.312318
9626.000000;1.311571
9625.000000;1.311096
9624.000000;1.310978
9623.000000;1.310436
9622.000000;1.308903
9621.000000;1.307120
9620.000000;1.306401
9619.000000;1.306932
9618.000000;1.307418
9617.000000;1.306582
9616.000000;1.304606
9615.000000;1.302885
9614.000000;1.302662
9613.000000;1.303990
9612.000000;1.305645
9611.000000;1.305951
9610.000000;1.304141
9609.000000;1.301143
9608.000000;1.298741
9607.000000;1.297839
9606.000000;1.297808
9605.000000;1.297577
9604.000000;1.296884
9603.000000;1.296120
9602.000000;1.295487
9601.000000;1.294931
9600.000000;1.294635
9599.000000;1.294883
9598.000000;1.295462
9597.000000;1.295739
9596.000000;1.295437
9595.000000;1.294892
9594.000000;1.294429
9593.000000;1.293893
9592.000000;1.292955
9591.000000;1.291595
9590.000000;1.290168
9589.000000;1.289206
9588.000000;1.289116
9587.000000;1.289757
9586.000000;1.290337
9585.000000;1.290088
9584.000000;1.289009
9583.000000;1.287613
9582.000000;1.286078
9581.000000;1.284209
9580.000000;1.282214
9579.000000;1.280835
9578.000000;1.280455
9577.000000;1.280571
9576.000000;1.280403
9575.000000;1.279620
9574.000000;1.278277
9573.000000;1.276536
9572.000000;1.274890
9571.000000;1.274199
9570.000000;1.274897
9569.000000;1.276272
9568.000000;1.277008
9567.000000;1.276451
9566.000000;1.275140
9565.000000;1.274168
9564.000000;1.274244
9563.000000;1.275133
9562.000000;1.275769
9561.000000;1.275211
9560.000000;1.273808
9559.000000;1.273089
9558.000000;1.274094
9557.000000;1.276056
9556.000000;1.277154
9555.000000;1.276418
9554.000000;1.274456
9553.000000;1.272453
9552.000000;1.271078
9551.000000;1.270336
9550.000000;1.269862
9549.000000;1.269214
9548.000000;1.268293
9547.000000;1.267571
9546.000000;1.267522
9545.000000;1.267780
9544.000000;1.267342
9543.000000;1.265751
9542.000000;1.263674
9541.000000;1.262128
9540.000000;1.261481
9539.000000;1.261472
9538.000000;1.261768
9537.000000;1.262078
9536.000000;1.262001
9535.000000;1.261270
9534.000000;1.260126
9533.000000;1.259061
9532.000000;1.258132
9531.000000;1.256870
9530.000000;1.255060
9529.000000;1.253297
9528.000000;1.252469
9527.000000;1.252756
9526.000000;1.253418
9525.000000;1.253657
9524.000000;1.253526
9523.000000;1.253727
9522.000000;1.254580
9521.000000;1.255471
9520.000000;1.255461
9519.000000;1.254295
9518.000000;1.252548
9517.000000;1.250895
9516.000000;1.249574
9515.000000;1.248573
9514.000000;1.247982
9513.000000;1.247877
9512.000000;1.248013
9511.000000;1.247906
9510.000000;1.247279
9509.000000;1.246275
9508.000000;1.245211
9507.000000;1.244255
9506.000000;1.243421
9505.000000;1.242726
9504.000000;1.242208
9503.000000;1.241853
9502.000000;1.241649
9501.000000;1.241646
9500.000000;1.241758
9499.000000;1.241561
9498.000000;1.240615
9497.000000;1.239116
9496.000000;1.237912
9495.000000;1.237640
9494.000000;1.238064
9493.000000;1.238482
9492.000000;1.238524
9491.000000;1.238205
9490.000000;1.237492
9489.000000;1.236396
9488.000000;1.235382
9487.000000;1.235010
9486.000000;1.235073
9485.000000;1.234721
9484.000000;1.233671
9483.000000;1.232701
9482.000000;1.232562
9481.000000;1.232920
9480.000000;1.232836
9479.000000;1.231927
9478.000000;1.230500
9477.000000;1.228850
9476.000000;1.227083
9475.000000;1.225518
9474.000000;1.224626
9473.000000;1.224447
9472.000000;1.224487
9471.000000;1.224307
9470.000000;1.223944
9469.000000;1.223731
9468.000000;1.223950
9467.000000;1.224643
9466.000000;1.225490
9465.000000;1.225875
9464.000000;1.225370
9463.000000;1.224163
9462.000000;1.222760
9461.000000;1.221372
9460.000000;1.219897
9459.000000;1.218378
9458.000000;1.217058
9457.000000;1.216056
9456.000000;1.215387
9455.000000;1.215232
9454.000000;1.215730
9453.000000;1.216508
9452.000000;1.216887
9451.000000;1.216709
9450.000000;1.216465
9449.000000;1.216441
9448.000000;1.216204
9447.000000;1.215246
9446.000000;1.213719
9445.000000;1.212205
9444.000000;1.211066
9443.000000;1.210394
9442.000000;1.210301
9441.000000;1.210772
9440.000000;1.211307
9439.000000;1.211125
9438.000000;1.209875
9437.000000;1.208003
9436.000000;1.206455
9435.000000;1.206079
9434.000000;1.207131
9433.000000;1.209007
9432.000000;1.210480
9431.000000;1.210474
9430.000000;1.208810
9429.000000;1.206201
9428.000000;1.203604
9427.000000;1.201659
9426.000000;1.200579
9425.000000;1.200262
9424.000000;1.200384
9423.000000;1.200486
9422.000000;1.200187
9421.000000;1.199454
9420.000000;1.198668
9419.000000;1.198300
9418.000000;1.198398
9417.000000;1.198464
9416.000000;1.197994
9415.000000;1.197114
9414.000000;1.196516
9413.000000;1.196733
9412.000000;1.197591
9411.000000;1.198310
9410.000000;1.198046
9409.000000;1.196484
9408.000000;1.194184
9407.000000;1.192356
9406.000000;1.192004
9405.000000;1.193084
9404.000000;1.194573
9403.000000;1.195450
9402.000000;1.195453
9401.000000;1.194885
9400.000000;1.194028
9399.000000;1.192972
9398.000000;1.191777
9397.000000;1.190547
9396.000000;1.189345
9395.000000;1.188151
9394.000000;1.186960
9393.000000;1.185881
9392.000000;1.185150
9391.000000;1.185009
9390.000000;1.185468
9389.000000;1.186252
9388.000000;1.187090
9387.000000;1.187965
9386.000000;1.188858
9385.000000;1.189337
9384.000000;1.188749
9383.000000;1.186978
9382.000000;1.184746
9381.000000;1.182991
9380.000000;1.182110
9379.000000;1.181865
9378.000000;1.181779
9377.000000;1.181405
9376.000000;1.180420
9375.000000;1.178809
9374.000000;1.176981
9373.000000;1.175594
9372.000000;1.175140
9371.000000;1.175600
9370.000000;1.176389
9369.000000;1.176732
9368.000000;1.176361
9367.000000;1.175829
9366.000000;1.175902
9365.000000;1.176623
9364.000000;1.177265
9363.000000;1.177204
9362.000000;1.176476
9361.000000;1.175394
9360.000000;1.174107
9359.000000;1.172852
9358.000000;1.172198
9357.000000;1.172545
9356.000000;1.173485
9355.000000;1.174023
9354.000000;1.173438
9353.000000;1.171797
9352.000000;1.169792
9351.000000;1.168279
9350.000000;1.167745
9349.000000;1.167899
9348.000000;1.167871
9347.000000;1.167093
9346.000000;1.165910
9345.000000;1.165115
9344.000000;1.165068
9343.000000;1.165535
9342.000000;1.166178
9341.000000;1.166773
9340.000000;1.167057
9339.000000;1.166811
9338.000000;1.166198
9337.000000;1.165690
9336.000000;1.165524
9335.000000;1.165457
9334.000000;1.165146
9333.000000;1.164507
9332.000000;1.163648
9331.000000;1.162689
9330.000000;1.161802
9329.000000;1.161199
9328.000000;1.160876
9327.000000;1.160422
9326.000000;1.159278
9325.000000;1.157281
9324.000000;1.155022
9323.000000;1.153612
9322.000000;1.153844
9321.000000;1.155368
9320.000000;1.156778
9319.000000;1.156846
9318.000000;1.155690
9317.000000;1.154514
9316.000000;1.154233
9315.000000;1.154640
9314.000000;1.154866
9313.000000;1.154330
9312.000000;1.153165
9311.000000;1.152022
9310.000000;1.151627
9309.000000;1.152240
9308.000000;1.153351
9307.000000;1.154053
9306.000000;1.153871
9305.000000;1.153113
9304.000000;1.152349
9303.000000;1.151772
9302.000000;1.151246
9301.000000;1.150684
9300.000000;1.150095
9299.000000;1.149413
9298.000000;1.148565
9297.000000;1.147668
9296.000000;1.146912
9295.000000;1.146278
9294.000000;1.145585
9293.000000;1.144820
9292.000000;1.144192
9291.000000;1.143837
9290.000000;1.143632
9289.000000;1.143338
9288.000000;1.142802
9287.000000;1.142028
9286.000000;1.141228
9285.000000;1.140837
9284.000000;1.141187
9283.000000;1.141982
9282.000000;1.142274
9281.000000;1.141286
9280.000000;1.139322
9279.000000;1.137662
9278.000000;1.137444
9277.000000;1.138651
9276.000000;1.140183
9275.000000;1.140817
9274.000000;1.140131
9273.000000;1.138659
9272.000000;1.137291
9271.000000;1.136531
9270.000000;1.136266
9269.000000;1.136149
9268.000000;1.136060
9267.000000;1.136054
9266.000000;1.136033
9265.000000;1.135790
9264.000000;1.135416
9263.000000;1.135327
9262.000000;1.135639
9261.000000;1.135765
9260.000000;1.135026
9259.000000;1.133529
9258.000000;1.132098
9257.000000;1.131359
9256.000000;1.131216
9255.000000;1.131214
9254.000000;1.131023
9253.000000;1.130460
9252.000000;1.129447
9251.000000;1.128265
9250.000000;1.127590
9249.000000;1.127956
9248.000000;1.129181
9247.000000;1.130490
9246.000000;1.131132
9245.000000;1.130844
9244.000000;1.129898
9243.000000;1.128852
9242.000000;1.128093
9241.000000;1.127494
9240.000000;1.126694
9239.000000;1.125790
9238.000000;1.125429
9237.000000;1.125956
9236.000000;1.126751
9235.000000;1.126819
9234.000000;1.125964
9233.000000;1.124949
9232.000000;1.124517
9231.000000;1.124612
9230.000000;1.124670
9229.000000;1.124329
9228.000000;1.123647
9227.000000;1.122843
9226.000000;1.122050
9225.000000;1.121349
9224.000000;1.120929
9223.000000;1.121117
9222.000000;1.122059
9221.000000;1.123289
9220.000000;1.123837
9219.000000;1.123103
9218.000000;1.121610
9217.000000;1.120539
9216.000000;1.120496
9215.000000;1.121006
9214.000000;1.121232
9213.000000;1.120891
9212.000000;1.120249
9211.000000;1.119525
9210.000000;1.118650
9209.000000;1.117587
9208.000000;1.116558
9207.000000;1.115875
9206.000000;1.115683
9205.000000;1.115924
9204.000000;1.116445
9203.000000;1.116982
9202.000000;1.117110
9201.000000;1.116428
9200.000000;1.115041
9199.000000;1.113810
9198.000000;1.113790
9197.000000;1.115161
9196.000000;1.116806
9195.000000;1.117199
9194.000000;1.115764
9193.000000;1.113262
9192.000000;1.110950
9191.000000;1.109612
9190.000000;1.109298
9189.000000;1.109631
9188.000000;1.110180
9187.000000;1.110692
9186.000000;1.111128
9185.000000;1.111488
9184.000000;1.111670
9183.000000;1.111549
9182.000000;1.111115
9181.000000;1.110376
9180.000000;1.109290
9179.000000;1.108041
9178.000000;1.107217
9177.000000;1.107326
9176.000000;1.108115
9175.000000;1.108749
9174.000000;1.108791
9173.000000;1.108665
9172.000000;1.108970
9171.000000;1.109662
9170.000000;1.110162
9169.000000;1.109994
9168.000000;1.109063
9167.000000;1.107554
9166.000000;1.105858
9165.000000;1.104426
9164.000000;1.103371
9163.000000;1.102346
9162.000000;1.101112
9161.000000;1.100098
9160.000000;1.100019
9159.000000;1.100956
9158.000000;1.102157
9157.000000;1.102811
9156.000000;1.102721
9155.000000;1.102183
9154.000000;1.101491
9153.000000;1.100751
9152.000000;1.099955
9151.000000;1.099061
9150.000000;1.098093
9149.000000;1.097275
9148.000000;1.096938
9147.000000;1.097197
9146.000000;1.097817
9145.000000;1.098450
9144.000000;1.098924
9143.000000;1.099221
9142.000000;1.099335
9141.000000;1.099300
9140.000000;1.099239
9139.000000;1.099185
9138.000000;1.098927
9137.000000;1.098231
9136.000000;1.097206
9135.000000;1.096286
9134.000000;1.095804
9133.000000;1.095738
9132.000000;1.095888
9131.000000;1.096170
9130.000000;1.096605
9129.000000;1.097064
9128.000000;1.097181
9127.000000;1.096605
9126.000000;1.095387
9125.000000;1.094112
9124.000000;1.093502
9123.000000;1.093725
9122.000000;1.094116
9121.000000;1.093785
9120.000000;1.092611
9119.000000;1.091447
9118.000000;1.091198
9117.000000;1.091827
9116.000000;1.092474
9115.000000;1.092450
9114.000000;1.091824
9113.000000;1.091018
9112.000000;1.090208
9111.000000;1.089334
9110.000000;1.088478
9109.000000;1.087905
9108.000000;1.087734
9107.000000;1.087762
9106.000000;1.087666
9105.000000;1.087281
9104.000000;1.086703
9103.000000;1.086246
9102.000000;1.086299
9101.000000;1.087050
9100.000000;1.088267
9099.000000;1.089415
9098.000000;1.090065
9097.000000;1.090177
9096.000000;1.089944
9095.000000;1.089457
9094.000000;1.088663
9093.000000;1.087588
9092.000000;1.086464
9091.000000;1.085557
9090.000000;1.084955
9089.000000;1.084604
9088.000000;1.084437
9087.000000;1.084346
9086.000000;1.084079
9085.000000;1.083436
9084.000000;1.082637
9083.000000;1.082242
9082.000000;1.082499
9081.000000;1.082926
9080.000000;1.082823
9079.000000;1.082089
9078.000000;1.081226
9077.000000;1.080606
9076.000000;1.080130
9075.000000;1.079658
9074.000000;1.079336
9073.000000;1.079351
9072.000000;1.079711
9071.000000;1.080469
9070.000000;1.081749
9069.000000;1.083210
9068.000000;1.083898
9067.000000;1.083174
9066.000000;1.081641
9065.000000;1.080593
9064.000000;1.080569
9063.000000;1.080874
9062.000000;1.080577
9061.000000;1.079534
9060.000000;1.078286
9059.000000;1.077358
9058.000000;1.076938
9057.000000;1.076998
9056.000000;1.077393
9055.000000;1.077921
9054.000000;1.078404
9053.000000;1.078699
