Criado como novo conjunto de dados;"1909daniel.spp","-4240782.2 Secs"
cm-1;Abs
10000.000000;1.733239
9999.000000;1.733490
9998.000000;1.733507
9997.000000;1.732507
9996.000000;1.729218
9995.000000;1.723806
9994.000000;1.718511
9993.000000;1.715883
9992.000000;1.716661
9991.000000;1.719271
9990.000000;1.721091
9989.000000;1.720607
9988.000000;1.718703
9987.000000;1.717616
9986.000000;1.718594
9985.000000;1.720745
9984.000000;1.722259
9983.000000;1.722425
9982.000000;1.721791
9981.000000;1.720509
9980.000000;1.717673
9979.000000;1.712810
9978.000000;1.707362
9977.000000;1.704022
9976.000000;1.704663
9975.000000;1.708799
9974.000000;1.713652
9973.000000;1.715972
9972.000000;1.714527
9971.000000;1.710924
9970.000000;1.707681
9969.000000;1.705871
9968.000000;1.704983
9967.000000;1.704430
9966.000000;1.704111
9965.000000;1.703546
9964.000000;1.701725
9963.000000;1.698536
9962.000000;1.695394
9961.000000;1.693734
9960.000000;1.693504
9959.000000;1.693508
9958.000000;1.692855
9957.000000;1.691760
9956.000000;1.691112
9955.000000;1.691562
9954.000000;1.692826
9953.000000;1.693755
9952.000000;1.693457
9951.000000;1.692438
9950.000000;1.692055
9949.000000;1.692719
9948.000000;1.693286
9947.000000;1.692559
9946.000000;1.690917
9945.000000;1.689958
9944.000000;1.690840
9943.000000;1.693282
9942.000000;1.695687
9941.000000;1.696118
9940.000000;1.693834
9939.000000;1.690170
9938.000000;1.687236
9937.000000;1.685597
9936.000000;1.684009
9935.000000;1.681732
9934.000000;1.680071
9933.000000;1.680666
9932.000000;1.683068
9931.000000;1.685087
9930.000000;1.685273
9929.000000;1.684064
9928.000000;1.682506
9927.000000;1.680917
9926.000000;1.679261
9925.000000;1.678042
9924.000000;1.677923
9923.000000;1.678562
9922.000000;1.678488
9921.000000;1.676390
9920.000000;1.672495
9919.000000;1.668482
9918.000000;1.665895
9917.000000;1.664817
9916.000000;1.664262
9915.000000;1.663635
9914.000000;1.663320
9913.000000;1.663766
9912.000000;1.664829
9911.000000;1.666353
9910.000000;1.668506
9909.000000;1.670873
9908.000000;1.671855
9907.000000;1.669984
9906.000000;1.665780
9905.000000;1.661509
9904.000000;1.659176
9903.000000;1.659311
9902.000000;1.661196
9901.000000;1.663439
9900.000000;1.664476
9899.000000;1.663492
9898.000000;1.661191
9897.000000;1.659218
9896.000000;1.658665
9895.000000;1.659274
9894.000000;1.659822
9893.000000;1.658939
9892.000000;1.656031
9891.000000;1.652030
9890.000000;1.648975
9889.000000;1.648293
9888.000000;1.649455
9887.000000;1.650582
9886.000000;1.650285
9885.000000;1.648484
9884.000000;1.645778
9883.000000;1.643005
9882.000000;1.641378
9881.000000;1.641927
9880.000000;1.644253
9879.000000;1.646310
9878.000000;1.646127
9877.000000;1.643641
9876.000000;1.640426
9875.000000;1.637865
9874.000000;1.636033
9873.000000;1.634211
9872.000000;1.632059
9871.000000;1.630203
9870.000000;1.629722
9869.000000;1.631019
9868.000000;1.633197
9867.000000;1.634653
9866.000000;1.634394
9865.000000;1.632734
9864.000000;1.630781
9863.000000;1.629699
9862.000000;1.630298
9861.000000;1.632595
9860.000000;1.635523
9859.000000;1.637510
9858.000000;1.637770
9857.000000;1.636809
9856.000000;1.635608
9855.000000;1.634627
9854.000000;1.633658
9853.000000;1.632342
9852.000000;1.630544
9851.000000;1.628379
9850.000000;1.626178
9849.000000;1.624443
9848.000000;1.623658
9847.000000;1.624013
9846.000000;1.625161
9845.000000;1.626161
9844.000000;1.625884
9843.000000;1.623917
9842.000000;1.621115
9841.000000;1.618943
9840.000000;1.618185
9839.000000;1.618419
9838.000000;1.618608
9837.000000;1.617907
9836.000000;1.615917
9835.000000;1.612734
9834.000000;1.609105
9833.000000;1.606275
9832.000000;1.605239
9831.000000;1.605990
9830.000000;1.607538
9829.000000;1.608652
9828.000000;1.608613
9827.000000;1.607584
9826.000000;1.606310
9825.000000;1.605407
9824.000000;1.604923
9823.000000;1.604542
9822.000000;1.604090
9821.000000;1.603603
9820.000000;1.602934
9819.000000;1.601672
9818.000000;1.599501
9817.000000;1.596751
9816.000000;1.594675
9815.000000;1.594754
9814.000000;1.597261
9813.000000;1.600455
9812.000000;1.601628
9811.000000;1.599767
9810.000000;1.596827
9809.000000;1.595464
9808.000000;1.596121
9807.000000;1.597112
9806.000000;1.597098
9805.000000;1.596401
9804.000000;1.595751
9803.000000;1.595046
9802.000000;1.593938
9801.000000;1.592505
9800.000000;1.590719
9799.000000;1.588232
9798.000000;1.585377
9797.000000;1.583510
9796.000000;1.583497
9795.000000;1.584443
9794.000000;1.584779
9793.000000;1.584257
9792.000000;1.583856
9791.000000;1.583979
9790.000000;1.583879
9789.000000;1.582935
9788.000000;1.581523
9787.000000;1.580291
9786.000000;1.579292
9785.000000;1.578240
9784.000000;1.577201
9783.000000;1.576720
9782.000000;1.577327
9781.000000;1.578901
9780.000000;1.580534
9779.000000;1.581087
9778.000000;1.580196
9777.000000;1.578727
9776.000000;1.577754
9775.000000;1.577208
9774.000000;1.575984
9773.000000;1.573404
9772.000000;1.570139
9771.000000;1.567575
9770.000000;1.566631
9769.000000;1.567204
9768.000000;1.568291
9767.000000;1.568625
9766.000000;1.567664
9765.000000;1.566128
9764.000000;1.565245
9763.000000;1.565380
9762.000000;1.565703
9761.000000;1.565300
9760.000000;1.564271
9759.000000;1.563497
9758.000000;1.563588
9757.000000;1.564283
9756.000000;1.564716
9755.000000;1.564062
9754.000000;1.562033
9753.000000;1.558995
9752.000000;1.555789
9751.000000;1.553433
9750.000000;1.552727
9749.000000;1.553690
9748.000000;1.555162
9747.000000;1.555290
9746.000000;1.553044
9745.000000;1.549291
9744.000000;1.545917
9743.000000;1.543959
9742.000000;1.543030
9741.000000;1.542468
9740.000000;1.542411
9739.000000;1.543416
9738.000000;1.545484
9737.000000;1.547934
9736.000000;1.549950
9735.000000;1.550897
9734.000000;1.550371
9733.000000;1.548407
9732.000000;1.545630
9731.000000;1.542883
9730.000000;1.540682
9729.000000;1.539121
9728.000000;1.538076
9727.000000;1.537233
9726.000000;1.536173
9725.000000;1.534913
9724.000000;1.534137
9723.000000;1.534404
9722.000000;1.535261
9721.000000;1.535744
9720.000000;1.535781
9719.000000;1.536351
9718.000000;1.537871
9717.000000;1.539146
9716.000000;1.538679
9715.000000;1.536692
9714.000000;1.534856
9713.000000;1.534000
9712.000000;1.533087
9711.000000;1.530920
9710.000000;1.528090
9709.000000;1.526313
9708.000000;1.526166
9707.000000;1.526460
9706.000000;1.525965
9705.000000;1.524979
9704.000000;1.524687
9703.000000;1.525370
9702.000000;1.525858
9701.000000;1.524847
9700.000000;1.522399
9699.000000;1.519912
9698.000000;1.518687
9697.000000;1.518727
9696.000000;1.518951
9695.000000;1.518405
9694.000000;1.517123
9693.000000;1.515798
9692.000000;1.514964
9691.000000;1.514766
9690.000000;1.515196
9689.000000;1.515952
9688.000000;1.516119
9687.000000;1.514815
9686.000000;1.512507
9685.000000;1.511012
9684.000000;1.511532
9683.000000;1.512998
9682.000000;1.513069
9681.000000;1.510829
9680.000000;1.507879
9679.000000;1.506469
9678.000000;1.507072
9677.000000;1.508069
9676.000000;1.507564
9675.000000;1.505248
9674.000000;1.502431
9673.000000;1.500561
9672.000000;1.500065
9671.000000;1.500558
9670.000000;1.501661
9669.000000;1.503167
9668.000000;1.504539
9667.000000;1.504924
9666.000000;1.503987
9665.000000;1.502335
9664.000000;1.500812
9663.000000;1.499729
9662.000000;1.499030
9661.000000;1.498692
9660.000000;1.498489
9659.000000;1.497756
9658.000000;1.496018
9657.000000;1.493692
9656.000000;1.491592
9655.000000;1.489951
9654.000000;1.488510
9653.000000;1.487379
9652.000000;1.487019
9651.000000;1.487277
9650.000000;1.487234
9649.000000;1.486390
9648.000000;1.485426
9647.000000;1.485302
9646.000000;1.485990
9645.000000;1.486586
9644.000000;1.486504
9643.000000;1.486215
9642.000000;1.486732
9641.000000;1.488391
9640.000000;1.490102
9639.000000;1.490073
9638.000000;1.487670
9637.000000;1.484352
9636.000000;1.482260
9635.000000;1.481923
9634.000000;1.481811
9633.000000;1.480310
9632.000000;1.477645
9631.000000;1.475384
9630.000000;1.474535
9629.000000;1.474733
9628.000000;1.474938
9627.000000;1.474347
9626.000000;1.472802
9625.000000;1.470873
9624.000000;1.469644
9623.000000;1.469941
9622.000000;1.471563
9621.000000;1.473410
9620.000000;1.474416
9619.000000;1.474211
9618.000000;1.472966
9617.000000;1.471027
9616.000000;1.468841
9615.000000;1.466920
9614.000000;1.465596
9613.000000;1.464883
9612.000000;1.464657
9611.000000;1.464794
9610.000000;1.465004
9609.000000;1.464762
9608.000000;1.463688
9607.000000;1.462072
9606.000000;1.460869
9605.000000;1.460947
9604.000000;1.462196
9603.000000;1.463423
9602.000000;1.463319
9601.000000;1.461704
9600.000000;1.459687
9599.000000;1.458507
9598.000000;1.458407
9597.000000;1.458750
9596.000000;1.458982
9595.000000;1.459034
9594.000000;1.458806
9593.000000;1.457818
9592.000000;1.455732
9591.000000;1.453075
9590.000000;1.451090
9589.000000;1.450737
9588.000000;1.451937
9587.000000;1.453730
9586.000000;1.454960
9585.000000;1.454886
9584.000000;1.453491
9583.000000;1.451347
9582.000000;1.449123
9581.000000;1.447237
9580.000000;1.445863
9579.000000;1.445032
9578.000000;1.444645
9577.000000;1.444352
9576.000000;1.443698
9575.000000;1.442658
9574.000000;1.441785
9573.000000;1.441537
9572.000000;1.441585
9571.000000;1.441243
9570.000000;1.440532
9569.000000;1.440160
9568.000000;1.440290
9567.000000;1.440019
9566.000000;1.438534
9565.000000;1.436353
9564.000000;1.434820
9563.000000;1.434635
9562.000000;1.435369
9561.000000;1.436206
9560.000000;1.436646
9559.000000;1.436574
9558.000000;1.436164
9557.000000;1.435738
9556.000000;1.435327
9555.000000;1.434451
9554.000000;1.432786
9553.000000;1.430877
9552.000000;1.429559
9551.000000;1.428772
9550.000000;1.427679
9549.000000;1.426110
9548.000000;1.425213
9547.000000;1.426133
9546.000000;1.428434
9545.000000;1.430290
9544.000000;1.430120
9543.000000;1.427759
9542.000000;1.424253
9541.000000;1.420897
9540.000000;1.418422
9539.000000;1.416785
9538.000000;1.415641
9537.000000;1.414926
9536.000000;1.414739
9535.000000;1.414878
9534.000000;1.415008
9533.000000;1.415249
9532.000000;1.415964
9531.000000;1.416889
9530.000000;1.417219
9529.000000;1.416846
9528.000000;1.416700
9527.000000;1.417297
9526.000000;1.417636
9525.000000;1.416314
9524.000000;1.413309
9523.000000;1.409901
9522.000000;1.407115
9521.000000;1.405069
9520.000000;1.403637
9519.000000;1.402891
9518.000000;1.402854
9517.000000;1.403397
9516.000000;1.404392
9515.000000;1.405550
9514.000000;1.406189
9513.000000;1.405782
9512.000000;1.404736
9511.000000;1.403977
9510.000000;1.403781
9509.000000;1.403609
9508.000000;1.403081
9507.000000;1.402407
9506.000000;1.401685
9505.000000;1.400548
9504.000000;1.398929
9503.000000;1.397628
9502.000000;1.397641
9501.000000;1.399170
9500.000000;1.401458
9499.000000;1.403231
9498.000000;1.403207
9497.000000;1.400847
9496.000000;1.397085
9495.000000;1.393857
9494.000000;1.392392
9493.000000;1.392222
9492.000000;1.392153
9491.000000;1.391833
9490.000000;1.391789
9489.000000;1.392184
9488.000000;1.392336
9487.000000;1.391636
9486.000000;1.390346
9485.000000;1.389257
9484.000000;1.388931
9483.000000;1.389388
9482.000000;1.390107
9481.000000;1.390234
9480.000000;1.389247
9479.000000;1.387675
9478.000000;1.386790
9477.000000;1.387168
9476.000000;1.387817
9475.000000;1.387170
9474.000000;1.384887
9473.000000;1.382193
9472.000000;1.380360
9471.000000;1.379384
9470.000000;1.378407
9469.000000;1.377045
9468.000000;1.375788
9467.000000;1.375205
9466.000000;1.375282
9465.000000;1.375670
9464.000000;1.376223
9463.000000;1.376909
9462.000000;1.377344
9461.000000;1.376962
9460.000000;1.375785
9459.000000;1.374570
9458.000000;1.373930
9457.000000;1.373513
9456.000000;1.372349
9455.000000;1.369988
9454.000000;1.367065
9453.000000;1.364731
9452.000000;1.363754
9451.000000;1.364156
9450.000000;1.365417
9449.000000;1.366848
9448.000000;1.367927
9447.000000;1.368485
9446.000000;1.368545
9445.000000;1.367981
9444.000000;1.366536
9443.000000;1.364420
9442.000000;1.362698
9441.000000;1.362597
9440.000000;1.364175
9439.000000;1.365958
9438.000000;1.366261
9437.000000;1.364797
9436.000000;1.362706
9435.000000;1.361205
9434.000000;1.360565
9433.000000;1.360318
9432.000000;1.359924
9431.000000;1.359092
9430.000000;1.357859
9429.000000;1.356676
9428.000000;1.356169
9427.000000;1.356514
9426.000000;1.357174
9425.000000;1.357475
9424.000000;1.357298
9423.000000;1.356931
9422.000000;1.356439
9421.000000;1.355593
9420.000000;1.354346
9419.000000;1.353010
9418.000000;1.351909
9417.000000;1.351189
9416.000000;1.350997
9415.000000;1.351445
9414.000000;1.352181
9413.000000;1.352405
9412.000000;1.351683
9411.000000;1.350503
9410.000000;1.349677
9409.000000;1.349367
9408.000000;1.349083
9407.000000;1.348506
9406.000000;1.347824
9405.000000;1.347153
9404.000000;1.346137
9403.000000;1.344506
9402.000000;1.342736
9401.000000;1.341708
9400.000000;1.341719
9399.000000;1.342139
9398.000000;1.342130
9397.000000;1.341448
9396.000000;1.340433
9395.000000;1.339498
9394.000000;1.338889
9393.000000;1.338729
9392.000000;1.338957
9391.000000;1.339232
9390.000000;1.339169
9389.000000;1.338714
9388.000000;1.338063
9387.000000;1.337268
9386.000000;1.336252
9385.000000;1.335227
9384.000000;1.334704
9383.000000;1.334844
9382.000000;1.335125
9381.000000;1.335004
9380.000000;1.334674
9379.000000;1.334669
9378.000000;1.334848
9377.000000;1.334386
9376.000000;1.332919
9375.000000;1.331185
9374.000000;1.330170
9373.000000;1.330016
9372.000000;1.330094
9371.000000;1.329830
9370.000000;1.329034
9369.000000;1.327654
9368.000000;1.325820
9367.000000;1.324111
9366.000000;1.323249
9365.000000;1.323314
9364.000000;1.323595
9363.000000;1.323418
9362.000000;1.322846
9361.000000;1.322299
9360.000000;1.321807
9359.000000;1.321072
9358.000000;1.320118
9357.000000;1.319414
9356.000000;1.319280
9355.000000;1.319516
9354.000000;1.319701
9353.000000;1.319576
9352.000000;1.319019
9351.000000;1.317975
9350.000000;1.316667
9349.000000;1.315677
9348.000000;1.315528
9347.000000;1.316152
9346.000000;1.316894
9345.000000;1.317063
9344.000000;1.316450
9343.000000;1.315322
9342.000000;1.314041
9341.000000;1.312805
9340.000000;1.311736
9339.000000;1.311129
9338.000000;1.311434
9337.000000;1.312765
9336.000000;1.314386
9335.000000;1.314983
9334.000000;1.313755
9333.000000;1.311241
9332.000000;1.308899
9331.000000;1.307834
9330.000000;1.308048
9329.000000;1.308764
9328.000000;1.309233
9327.000000;1.309222
9326.000000;1.308874
9325.000000;1.308220
9324.000000;1.307035
9323.000000;1.305239
9322.000000;1.303285
9321.000000;1.301926
9320.000000;1.301517
9319.000000;1.301689
9318.000000;1.301820
9317.000000;1.301715
9316.000000;1.301626
9315.000000;1.301679
9314.000000;1.301618
9313.000000;1.301207
9312.000000;1.300664
9311.000000;1.300473
9310.000000;1.300756
9309.000000;1.300942
9308.000000;1.300249
9307.000000;1.298608
9306.000000;1.296958
9305.000000;1.296388
9304.000000;1.296951
9303.000000;1.297567
9302.000000;1.297240
9301.000000;1.296110
9300.000000;1.295062
9299.000000;1.294543
9298.000000;1.294156
9297.000000;1.293378
9296.000000;1.292338
9295.000000;1.291711
9294.000000;1.291986
9293.000000;1.292960
9292.000000;1.293855
9291.000000;1.293964
9290.000000;1.293248
9289.000000;1.292210
9288.000000;1.291223
9287.000000;1.290233
9286.000000;1.289196
9285.000000;1.288505
9284.000000;1.288621
9283.000000;1.289414
9282.000000;1.290172
9281.000000;1.290244
9280.000000;1.289475
9279.000000;1.288196
9278.000000;1.287025
9277.000000;1.286504
9276.000000;1.286598
9275.000000;1.286699
9274.000000;1.286432
9273.000000;1.286253
9272.000000;1.286756
9271.000000;1.287586
9270.000000;1.287696
9269.000000;1.286758
9268.000000;1.285613
9267.000000;1.285103
9266.000000;1.285083
9265.000000;1.284906
9264.000000;1.284355
9263.000000;1.283665
9262.000000;1.282936
9261.000000;1.281988
9260.000000;1.280664
9259.000000;1.278985
9258.000000;1.277209
9257.000000;1.275940
9256.000000;1.275884
9255.000000;1.277125
9254.000000;1.278836
9253.000000;1.279973
9252.000000;1.280171
9251.000000;1.279757
9250.000000;1.279150
9249.000000;1.278578
9248.000000;1.278196
9247.000000;1.278054
9246.000000;1.277905
9245.000000;1.277299
9244.000000;1.275940
9243.000000;1.273969
9242.000000;1.271983
9241.000000;1.270754
9240.000000;1.270693
9239.000000;1.271476
9238.000000;1.272419
9237.000000;1.273215
9236.000000;1.273940
9235.000000;1.274331
9234.000000;1.273719
9233.000000;1.271992
9232.000000;1.270071
9231.000000;1.268925
9230.000000;1.268562
9229.000000;1.268482
9228.000000;1.268691
9227.000000;1.269531
9226.000000;1.270758
9225.000000;1.271561
9224.000000;1.271501
9223.000000;1.270747
9222.000000;1.269403
9221.000000;1.267401
9220.000000;1.265216
9219.000000;1.263937
9218.000000;1.264191
9217.000000;1.265377
9216.000000;1.266339
9215.000000;1.266512
9214.000000;1.266120
9213.000000;1.265558
9212.000000;1.264953
9211.000000;1.264321
9210.000000;1.263845
9209.000000;1.263799
9208.000000;1.264200
9207.000000;1.264555
9206.000000;1.264024
9205.000000;1.262166
9204.000000;1.259592
9203.000000;1.257583
9202.000000;1.256934
9201.000000;1.257353
9200.000000;1.257942
9199.000000;1.258055
9198.000000;1.257659
9197.000000;1.257150
9196.000000;1.256909
9195.000000;1.256864
9194.000000;1.256411
9193.000000;1.255052
9192.000000;1.253249
9191.000000;1.252326
9190.000000;1.253172
9189.000000;1.255108
9188.000000;1.256314
9187.000000;1.255576
9186.000000;1.253531
9185.000000;1.252016
9184.000000;1.252216
9183.000000;1.253546
9182.000000;1.254436
9181.000000;1.254101
9180.000000;1.253207
9179.000000;1.252726
9178.000000;1.252667
9177.000000;1.252328
9176.000000;1.251419
9175.000000;1.250306
9174.000000;1.249213
9173.000000;1.247936
9172.000000;1.246500
9171.000000;1.245455
9170.000000;1.245168
9169.000000;1.245294
9168.000000;1.245388
9167.000000;1.245699
9166.000000;1.246764
9165.000000;1.248280
9164.000000;1.248910
9163.000000;1.247493
9162.000000;1.244309
9161.000000;1.240986
9160.000000;1.239253
9159.000000;1.239758
9158.000000;1.241817
9157.000000;1.244076
9156.000000;1.245384
9155.000000;1.245263
9154.000000;1.243942
9153.000000;1.242195
9152.000000;1.240947
9151.000000;1.240612
9150.000000;1.240680
9149.000000;1.240210
9148.000000;1.238869
9147.000000;1.237305
9146.000000;1.236357
9145.000000;1.236211
9144.000000;1.236475
9143.000000;1.236785
9142.000000;1.237044
9141.000000;1.237228
9140.000000;1.237330
9139.000000;1.237501
9138.000000;1.237981
9137.000000;1.238788
9136.000000;1.239570
9135.000000;1.239791
9134.000000;1.239054
9133.000000;1.237339
9132.000000;1.235103
9131.000000;1.233191
9130.000000;1.232385
9129.000000;1.232746
9128.000000;1.233410
9127.000000;1.233304
9126.000000;1.232231
9125.000000;1.231178
9124.000000;1.231335
9123.000000;1.232802
9122.000000;1.234443
9121.000000;1.235102
9120.000000;1.234748
9119.000000;1.234190
9118.000000;1.233919
9117.000000;1.233689
9116.000000;1.233147
9115.000000;1.232407
9114.000000;1.231789
9113.000000;1.231364
9112.000000;1.231006
9111.000000;1.230668
9110.000000;1.230272
9109.000000;1.229516
9108.000000;1.228181
9107.000000;1.226632
9106.000000;1.225633
9105.000000;1.225531
9104.000000;1.225838
9103.000000;1.225787
9102.000000;1.225195
9101.000000;1.224563
9100.000000;1.224364
9099.000000;1.224468
9098.000000;1.224416
9097.000000;1.224110
9096.000000;1.223911
9095.000000;1.224012
9094.000000;1.224041
9093.000000;1.223554
9092.000000;1.222731
9091.000000;1.222194
9090.000000;1.222203
9089.000000;1.222412
9088.000000;1.222518
9087.000000;1.222677
9086.000000;1.223022
9085.000000;1.223150
9084.000000;1.222508
9083.000000;1.221161
9082.000000;1.219806
9081.000000;1.219057
9080.000000;1.218990
9079.000000;1.219349
9078.000000;1.219850
9077.000000;1.220220
9076.000000;1.220258
9075.000000;1.220105
9074.000000;1.220264
9073.000000;1.221110
9072.000000;1.222416
9071.000000;1.223540
9070.000000;1.224083
9069.000000;1.224191
9068.000000;1.224163
9067.000000;1.223942
9066.000000;1.223143
9065.000000;1.221556
9064.000000;1.219458
9063.000000;1.217407
9062.000000;1.215914
9061.000000;1.215346
9060.000000;1.215851
9059.000000;1.217018
9058.000000;1.217773
9057.000000;1.217134
9056.000000;1.215280
9055.000000;1.213540
9054.000000;1.213073
9053.000000;1.213759
