Criado como novo conjunto de dados;"1909daniel.spp","-4286145.1 Secs"
cm-1;Abs
10000.000000;2.479916
9999.000000;2.486611
9998.000000;2.495689
9997.000000;2.502467
9996.000000;2.504654
9995.000000;2.502424
9994.000000;2.495918
9993.000000;2.485087
9992.000000;2.471638
9991.000000;2.458807
9990.000000;2.449546
9989.000000;2.445896
9988.000000;2.449196
9987.000000;2.459559
9986.000000;2.473621
9985.000000;2.483701
9984.000000;2.482920
9983.000000;2.472873
9982.000000;2.464083
9981.000000;2.465927
9980.000000;2.476979
9979.000000;2.487094
9978.000000;2.488698
9977.000000;2.482751
9976.000000;2.472433
9975.000000;2.458145
9974.000000;2.441718
9973.000000;2.429197
9972.000000;2.425867
9971.000000;2.430359
9970.000000;2.436417
9969.000000;2.441456
9968.000000;2.449017
9967.000000;2.460285
9966.000000;2.468428
9965.000000;2.466107
9964.000000;2.456323
9963.000000;2.448326
9962.000000;2.444972
9961.000000;2.442143
9960.000000;2.438910
9959.000000;2.439954
9958.000000;2.447673
9957.000000;2.456736
9956.000000;2.457790
9955.000000;2.447452
9954.000000;2.432131
9953.000000;2.420557
9952.000000;2.416396
9951.000000;2.418056
9950.000000;2.422182
9949.000000;2.426939
9948.000000;2.433329
9947.000000;2.443161
9946.000000;2.455314
9945.000000;2.464946
9944.000000;2.467672
9943.000000;2.463824
9942.000000;2.456723
9941.000000;2.448108
9940.000000;2.437878
9939.000000;2.427635
9938.000000;2.421832
9937.000000;2.424494
9936.000000;2.435505
9935.000000;2.449677
9934.000000;2.458976
9933.000000;2.457733
9932.000000;2.447441
9931.000000;2.434793
9930.000000;2.424805
9929.000000;2.417066
9928.000000;2.408448
9927.000000;2.398505
9926.000000;2.390294
9925.000000;2.385963
9924.000000;2.384524
9923.000000;2.385405
9922.000000;2.391329
9921.000000;2.404352
9920.000000;2.419559
9919.000000;2.426514
9918.000000;2.420399
9917.000000;2.408715
9916.000000;2.403052
9915.000000;2.407735
9914.000000;2.417853
9913.000000;2.426053
9912.000000;2.429276
9911.000000;2.429179
9910.000000;2.428519
9909.000000;2.427585
9908.000000;2.423265
9907.000000;2.412969
9906.000000;2.399634
9905.000000;2.389799
9904.000000;2.387791
9903.000000;2.392822
9902.000000;2.400405
9901.000000;2.405956
9900.000000;2.407195
9899.000000;2.404346
9898.000000;2.399318
9897.000000;2.393933
9896.000000;2.387954
9895.000000;2.380433
9894.000000;2.373486
9893.000000;2.372476
9892.000000;2.381115
9891.000000;2.396451
9890.000000;2.409354
9889.000000;2.412409
9888.000000;2.408165
9887.000000;2.405877
9886.000000;2.410309
9885.000000;2.416494
9884.000000;2.415001
9883.000000;2.402213
9882.000000;2.384513
9881.000000;2.371998
9880.000000;2.369617
9879.000000;2.374400
9878.000000;2.380164
9877.000000;2.384335
9876.000000;2.388459
9875.000000;2.392357
9874.000000;2.392419
9873.000000;2.387968
9872.000000;2.385128
9871.000000;2.390460
9870.000000;2.401918
9869.000000;2.408927
9868.000000;2.403895
9867.000000;2.390981
9866.000000;2.379021
9865.000000;2.370819
9864.000000;2.364086
9863.000000;2.359147
9862.000000;2.359954
9861.000000;2.368568
9860.000000;2.382125
9859.000000;2.394753
9858.000000;2.402177
9857.000000;2.404195
9856.000000;2.402047
9855.000000;2.395381
9854.000000;2.384201
9853.000000;2.372626
9852.000000;2.367518
9851.000000;2.372015
9850.000000;2.381392
9849.000000;2.386866
9848.000000;2.384653
9847.000000;2.379542
9846.000000;2.377523
9845.000000;2.379243
9844.000000;2.382913
9843.000000;2.388420
9842.000000;2.394804
9841.000000;2.397142
9840.000000;2.391113
9839.000000;2.379913
9838.000000;2.371805
9837.000000;2.371101
9836.000000;2.374737
9835.000000;2.377080
9834.000000;2.375700
9833.000000;2.371908
9832.000000;2.368069
9831.000000;2.365752
9830.000000;2.365254
9829.000000;2.365982
9828.000000;2.367242
9827.000000;2.368141
9826.000000;2.366695
9825.000000;2.360999
9824.000000;2.352929
9823.000000;2.348525
9822.000000;2.351593
9821.000000;2.358239
9820.000000;2.360477
9819.000000;2.355786
9818.000000;2.350224
9817.000000;2.350368
9816.000000;2.356018
9815.000000;2.361252
9814.000000;2.360212
9813.000000;2.352377
9812.000000;2.342162
9811.000000;2.334763
9810.000000;2.332481
9809.000000;2.333471
9808.000000;2.335466
9807.000000;2.339487
9806.000000;2.346576
9805.000000;2.352582
9804.000000;2.350810
9803.000000;2.341773
9802.000000;2.335581
9801.000000;2.341394
9800.000000;2.357761
9799.000000;2.374095
9798.000000;2.380817
9797.000000;2.376823
9796.000000;2.366463
9795.000000;2.354140
9794.000000;2.343814
9793.000000;2.339147
9792.000000;2.340765
9791.000000;2.344430
9790.000000;2.344833
9789.000000;2.340856
9788.000000;2.335356
9787.000000;2.330824
9786.000000;2.326907
9785.000000;2.322638
9784.000000;2.319012
9783.000000;2.318033
9782.000000;2.320015
9781.000000;2.322890
9780.000000;2.324393
9779.000000;2.324035
9778.000000;2.322982
9777.000000;2.323694
9776.000000;2.329975
9775.000000;2.344651
9774.000000;2.364263
9773.000000;2.377041
9772.000000;2.372003
9771.000000;2.351705
9770.000000;2.329348
9769.000000;2.315007
9768.000000;2.309331
9767.000000;2.307301
9766.000000;2.305009
9765.000000;2.302836
9764.000000;2.303435
9763.000000;2.308006
9762.000000;2.315083
9761.000000;2.322777
9760.000000;2.330943
9759.000000;2.340582
9758.000000;2.351094
9757.000000;2.357923
9756.000000;2.355442
9755.000000;2.343625
9754.000000;2.328464
9753.000000;2.315680
9752.000000;2.307643
9751.000000;2.305043
9750.000000;2.307499
9749.000000;2.312317
9748.000000;2.315273
9747.000000;2.314410
9746.000000;2.312102
9745.000000;2.311590
9744.000000;2.313050
9743.000000;2.314825
9742.000000;2.317140
9741.000000;2.322472
9740.000000;2.331757
9739.000000;2.341788
9738.000000;2.346998
9737.000000;2.343595
9736.000000;2.333169
9735.000000;2.321954
9734.000000;2.315322
9733.000000;2.312907
9732.000000;2.309650
9731.000000;2.302521
9730.000000;2.294353
9729.000000;2.289450
9728.000000;2.288863
9727.000000;2.291452
9726.000000;2.296270
9725.000000;2.302023
9724.000000;2.306425
9723.000000;2.308531
9722.000000;2.310033
9721.000000;2.312005
9720.000000;2.312680
9719.000000;2.310598
9718.000000;2.307930
9717.000000;2.307916
9716.000000;2.309924
9715.000000;2.310377
9714.000000;2.309158
9713.000000;2.310182
9712.000000;2.314610
9711.000000;2.318465
9710.000000;2.317164
9709.000000;2.310149
9708.000000;2.301203
9707.000000;2.295237
9706.000000;2.294781
9705.000000;2.298433
9704.000000;2.302185
9703.000000;2.302901
9702.000000;2.300756
9701.000000;2.297952
9700.000000;2.295891
9699.000000;2.294302
9698.000000;2.291868
9697.000000;2.287092
9696.000000;2.279706
9695.000000;2.271857
9694.000000;2.267100
9693.000000;2.267385
9692.000000;2.271688
9691.000000;2.278253
9690.000000;2.286494
9689.000000;2.294887
9688.000000;2.299162
9687.000000;2.296042
9686.000000;2.288119
9685.000000;2.282018
9684.000000;2.281525
9683.000000;2.284456
9682.000000;2.286212
9681.000000;2.284612
9680.000000;2.280809
9679.000000;2.277545
9678.000000;2.277700
9677.000000;2.282723
9676.000000;2.290590
9675.000000;2.296250
9674.000000;2.295415
9673.000000;2.287517
9672.000000;2.276023
9671.000000;2.266921
9670.000000;2.264988
9669.000000;2.269808
9668.000000;2.275712
9667.000000;2.277592
9666.000000;2.277114
9665.000000;2.279908
9664.000000;2.286946
9663.000000;2.292123
9662.000000;2.288632
9661.000000;2.276740
9660.000000;2.263539
9659.000000;2.255117
9658.000000;2.251350
9657.000000;2.247896
9656.000000;2.242451
9655.000000;2.239059
9654.000000;2.244556
9653.000000;2.259778
9652.000000;2.275653
9651.000000;2.280191
9650.000000;2.270873
9649.000000;2.256476
9648.000000;2.246309
9647.000000;2.243005
9646.000000;2.244326
9645.000000;2.247002
9644.000000;2.248180
9643.000000;2.246427
9642.000000;2.242984
9641.000000;2.240483
9640.000000;2.239911
9639.000000;2.239935
9638.000000;2.239377
9637.000000;2.238897
9636.000000;2.239302
9635.000000;2.240017
9634.000000;2.240636
9633.000000;2.242677
9632.000000;2.248071
9631.000000;2.255738
9630.000000;2.260873
9629.000000;2.257982
9628.000000;2.246077
9627.000000;2.231679
9626.000000;2.223929
9625.000000;2.226067
9624.000000;2.232719
9623.000000;2.236582
9622.000000;2.237181
9621.000000;2.239064
9620.000000;2.242171
9619.000000;2.240133
9618.000000;2.230487
9617.000000;2.220124
9616.000000;2.216185
9615.000000;2.218074
9614.000000;2.220809
9613.000000;2.221978
9612.000000;2.222679
9611.000000;2.224493
9610.000000;2.229199
9609.000000;2.238753
9608.000000;2.251351
9607.000000;2.259513
9606.000000;2.257233
9605.000000;2.247736
9604.000000;2.238812
9603.000000;2.233504
9602.000000;2.229689
9601.000000;2.226026
9600.000000;2.223915
9599.000000;2.223667
9598.000000;2.222797
9597.000000;2.219624
9596.000000;2.215657
9595.000000;2.212753
9594.000000;2.210363
9593.000000;2.207535
9592.000000;2.205858
9591.000000;2.207762
9590.000000;2.212906
9589.000000;2.218132
9588.000000;2.220476
9587.000000;2.219396
9586.000000;2.216305
9585.000000;2.212926
9584.000000;2.210235
9583.000000;2.209048
9582.000000;2.211331
9581.000000;2.218679
9580.000000;2.227952
9579.000000;2.230952
9578.000000;2.222674
9577.000000;2.208783
9576.000000;2.200333
9575.000000;2.202393
9574.000000;2.211199
9573.000000;2.221787
9572.000000;2.233971
9571.000000;2.247955
9570.000000;2.258279
9569.000000;2.257260
9568.000000;2.244318
9567.000000;2.226805
9566.000000;2.212117
9565.000000;2.203590
9564.000000;2.201376
9563.000000;2.203154
9562.000000;2.204907
9561.000000;2.203934
9560.000000;2.201466
9559.000000;2.200117
9558.000000;2.199090
9557.000000;2.194952
9556.000000;2.187289
9555.000000;2.179973
9554.000000;2.176464
9553.000000;2.176802
9552.000000;2.179522
9551.000000;2.184402
9550.000000;2.191867
9549.000000;2.200739
9548.000000;2.208088
9547.000000;2.211216
9546.000000;2.209577
9545.000000;2.205215
9544.000000;2.201462
9543.000000;2.200452
9542.000000;2.201284
9541.000000;2.201283
9540.000000;2.199441
9539.000000;2.197376
9538.000000;2.196406
9537.000000;2.195523
9536.000000;2.193472
9535.000000;2.191411
9534.000000;2.191362
9533.000000;2.192977
9532.000000;2.194427
9531.000000;2.195521
9530.000000;2.197106
9529.000000;2.198153
9528.000000;2.196502
9527.000000;2.192691
9526.000000;2.189912
9525.000000;2.189367
9524.000000;2.188633
9523.000000;2.185458
9522.000000;2.180468
9521.000000;2.174969
9520.000000;2.169341
9519.000000;2.165496
9518.000000;2.167544
9517.000000;2.176879
9516.000000;2.188024
9515.000000;2.192502
9514.000000;2.187922
9513.000000;2.180480
9512.000000;2.177297
9511.000000;2.179306
9510.000000;2.182049
9509.000000;2.181557
9508.000000;2.178796
9507.000000;2.178452
9506.000000;2.183797
9505.000000;2.192673
9504.000000;2.198315
9503.000000;2.195612
9502.000000;2.186572
9501.000000;2.177796
9500.000000;2.173656
9499.000000;2.173632
9498.000000;2.174657
9497.000000;2.174255
9496.000000;2.172297
9495.000000;2.171177
9494.000000;2.173744
9493.000000;2.179681
9492.000000;2.184647
9491.000000;2.184527
9490.000000;2.179854
9489.000000;2.174169
9488.000000;2.169424
9487.000000;2.165747
9486.000000;2.164567
9485.000000;2.168443
9484.000000;2.176982
9483.000000;2.184969
9482.000000;2.186424
9481.000000;2.180648
9480.000000;2.172550
9479.000000;2.167415
9478.000000;2.167006
9477.000000;2.169262
9476.000000;2.170896
9475.000000;2.171083
9474.000000;2.171819
9473.000000;2.174137
9472.000000;2.175629
9471.000000;2.173385
9470.000000;2.168821
9469.000000;2.166545
9468.000000;2.168394
9467.000000;2.171584
9466.000000;2.172664
9465.000000;2.170798
9464.000000;2.167142
9463.000000;2.163572
9462.000000;2.162319
9461.000000;2.164135
9460.000000;2.166364
9459.000000;2.165848
9458.000000;2.164018
9457.000000;2.164926
9456.000000;2.168155
9455.000000;2.168360
9454.000000;2.163256
9453.000000;2.157791
9452.000000;2.157450
9451.000000;2.161292
9450.000000;2.164671
9449.000000;2.165861
9448.000000;2.165497
9447.000000;2.161776
9446.000000;2.152293
9445.000000;2.140141
9444.000000;2.132516
9443.000000;2.132868
9442.000000;2.137826
9441.000000;2.141757
9440.000000;2.142293
9439.000000;2.141085
9438.000000;2.141464
9437.000000;2.146277
9436.000000;2.155607
9435.000000;2.165221
9434.000000;2.169481
9433.000000;2.167645
9432.000000;2.165018
9431.000000;2.166387
9430.000000;2.170452
9429.000000;2.171409
9428.000000;2.165271
9427.000000;2.154087
9426.000000;2.143383
9425.000000;2.137085
9424.000000;2.135310
9423.000000;2.135266
9422.000000;2.134336
9421.000000;2.132742
9420.000000;2.132381
9419.000000;2.133717
9418.000000;2.135916
9417.000000;2.139222
9416.000000;2.144234
9415.000000;2.148935
9414.000000;2.149614
9413.000000;2.146170
9412.000000;2.143529
9411.000000;2.145580
9410.000000;2.149458
9409.000000;2.148173
9408.000000;2.139487
9407.000000;2.129013
9406.000000;2.123417
9405.000000;2.124167
9404.000000;2.128302
9403.000000;2.132569
9402.000000;2.135388
9401.000000;2.135976
9400.000000;2.133974
9399.000000;2.130688
9398.000000;2.128873
9397.000000;2.130108
9396.000000;2.133397
9395.000000;2.136342
9394.000000;2.136719
9393.000000;2.133965
9392.000000;2.129965
9391.000000;2.127674
9390.000000;2.128535
9389.000000;2.131030
9388.000000;2.132008
9387.000000;2.129917
9386.000000;2.126408
9385.000000;2.124502
9384.000000;2.125671
9383.000000;2.128824
9382.000000;2.131200
9381.000000;2.129780
9380.000000;2.123125
9379.000000;2.113276
9378.000000;2.105271
9377.000000;2.103566
9376.000000;2.108576
9375.000000;2.116490
9374.000000;2.121899
9373.000000;2.120797
9372.000000;2.112898
9371.000000;2.102257
9370.000000;2.095171
9369.000000;2.096191
9368.000000;2.104780
9367.000000;2.115666
9366.000000;2.123089
9365.000000;2.124738
9364.000000;2.121690
9363.000000;2.116361
9362.000000;2.111382
9361.000000;2.108547
9360.000000;2.107424
9359.000000;2.105927
9358.000000;2.103018
9357.000000;2.099731
9356.000000;2.097099
9355.000000;2.094913
9354.000000;2.093505
9353.000000;2.094847
9352.000000;2.100059
9351.000000;2.106713
9350.000000;2.110325
9349.000000;2.108687
9348.000000;2.103582
9347.000000;2.098516
9346.000000;2.096145
9345.000000;2.097519
9344.000000;2.102265
9343.000000;2.109048
9342.000000;2.116166
9341.000000;2.121766
9340.000000;2.124180
9339.000000;2.123319
9338.000000;2.121504
9337.000000;2.121047
9336.000000;2.120499
9335.000000;2.115562
9334.000000;2.105203
9333.000000;2.094404
9332.000000;2.088854
9331.000000;2.089064
9330.000000;2.091608
9329.000000;2.094730
9328.000000;2.099831
9327.000000;2.107308
9326.000000;2.113532
9325.000000;2.113475
9324.000000;2.105938
9323.000000;2.095476
9322.000000;2.088514
9321.000000;2.087910
9320.000000;2.091679
9319.000000;2.095181
9318.000000;2.094934
9317.000000;2.091817
9316.000000;2.088746
9315.000000;2.086844
9314.000000;2.086531
9313.000000;2.088925
9312.000000;2.093614
9311.000000;2.097384
9310.000000;2.097552
9309.000000;2.095520
9308.000000;2.094937
9307.000000;2.097034
9306.000000;2.099135
9305.000000;2.097976
9304.000000;2.093521
9303.000000;2.088834
9302.000000;2.087343
9301.000000;2.090464
9300.000000;2.096434
9299.000000;2.100989
9298.000000;2.100629
9297.000000;2.096220
9296.000000;2.092141
9295.000000;2.091412
9294.000000;2.093513
9293.000000;2.096820
9292.000000;2.099662
9291.000000;2.099076
9290.000000;2.092733
9289.000000;2.083130
9288.000000;2.076896
9287.000000;2.078393
9286.000000;2.085115
9285.000000;2.090124
9284.000000;2.089093
9283.000000;2.083954
9282.000000;2.079345
9281.000000;2.077560
9280.000000;2.077407
9279.000000;2.076566
9278.000000;2.074537
9277.000000;2.073069
9276.000000;2.073463
9275.000000;2.075052
9274.000000;2.076922
9273.000000;2.079077
9272.000000;2.081274
9271.000000;2.081913
9270.000000;2.079256
9269.000000;2.074449
9268.000000;2.071872
9267.000000;2.074668
9266.000000;2.080629
9265.000000;2.084031
9264.000000;2.081869
9263.000000;2.076765
9262.000000;2.073226
9261.000000;2.073228
9260.000000;2.075909
9259.000000;2.079581
9258.000000;2.083070
9257.000000;2.085924
9256.000000;2.088227
9255.000000;2.090122
9254.000000;2.091200
9253.000000;2.090597
9252.000000;2.088006
9251.000000;2.084044
9250.000000;2.079210
9249.000000;2.073142
9248.000000;2.065770
9247.000000;2.059289
9246.000000;2.057572
9245.000000;2.062417
9244.000000;2.071059
9243.000000;2.078313
9242.000000;2.081435
9241.000000;2.081665
9240.000000;2.080172
9239.000000;2.075330
9238.000000;2.066206
9237.000000;2.056312
9236.000000;2.051099
9235.000000;2.052400
9234.000000;2.056779
9233.000000;2.059079
9232.000000;2.057099
9231.000000;2.052699
9230.000000;2.048923
9229.000000;2.047351
9228.000000;2.047966
9227.000000;2.050294
9226.000000;2.054162
9225.000000;2.058962
9224.000000;2.062573
9223.000000;2.062581
9222.000000;2.058684
9221.000000;2.053217
9220.000000;2.049383
9219.000000;2.048661
9218.000000;2.050234
9217.000000;2.052698
9216.000000;2.054892
9215.000000;2.055766
9214.000000;2.055321
9213.000000;2.055361
9212.000000;2.057626
9211.000000;2.061301
9210.000000;2.063998
9209.000000;2.065409
9208.000000;2.067523
9207.000000;2.070166
9206.000000;2.069419
9205.000000;2.062811
9204.000000;2.053514
9203.000000;2.046680
9202.000000;2.043802
9201.000000;2.042698
9200.000000;2.041972
9199.000000;2.043255
9198.000000;2.048109
9197.000000;2.054561
9196.000000;2.058706
9195.000000;2.059369
9194.000000;2.059030
9193.000000;2.059515
9192.000000;2.058735
9191.000000;2.053427
9190.000000;2.044695
9189.000000;2.038738
9188.000000;2.040689
9187.000000;2.048341
9186.000000;2.053489
9185.000000;2.050526
9184.000000;2.042371
9183.000000;2.036508
9182.000000;2.037192
9181.000000;2.042480
9180.000000;2.046670
9179.000000;2.045063
9178.000000;2.037871
9177.000000;2.029968
9176.000000;2.026765
9175.000000;2.030144
9174.000000;2.037555
9173.000000;2.044622
9172.000000;2.048494
9171.000000;2.048726
9170.000000;2.046271
9169.000000;2.043073
9168.000000;2.041759
9167.000000;2.043802
9166.000000;2.047634
9165.000000;2.049619
9164.000000;2.047527
9163.000000;2.042563
9162.000000;2.037771
9161.000000;2.035210
9160.000000;2.034807
9159.000000;2.035175
9158.000000;2.035325
9157.000000;2.035972
9156.000000;2.038865
9155.000000;2.044224
9154.000000;2.049101
9153.000000;2.049471
9152.000000;2.044678
9151.000000;2.038299
9150.000000;2.033953
9149.000000;2.032045
9148.000000;2.030951
9147.000000;2.029854
9146.000000;2.029426
9145.000000;2.030645
9144.000000;2.033991
9143.000000;2.039373
9142.000000;2.045732
9141.000000;2.050718
9140.000000;2.052263
9139.000000;2.050513
9138.000000;2.047241
9137.000000;2.044046
9136.000000;2.041908
9135.000000;2.041684
9134.000000;2.043533
9133.000000;2.045942
9132.000000;2.046840
9131.000000;2.046013
9130.000000;2.044996
9129.000000;2.043995
9128.000000;2.040890
9127.000000;2.034658
9126.000000;2.028008
9125.000000;2.024712
9124.000000;2.025504
9123.000000;2.028027
9122.000000;2.030040
9121.000000;2.031141
9120.000000;2.031860
9119.000000;2.033013
9118.000000;2.035836
9117.000000;2.040704
9116.000000;2.045248
9115.000000;2.045770
9114.000000;2.041038
9113.000000;2.033071
9112.000000;2.025202
9111.000000;2.020706
9110.000000;2.021634
9109.000000;2.026972
9108.000000;2.031801
9107.000000;2.030731
9106.000000;2.023611
9105.000000;2.015637
9104.000000;2.011428
9103.000000;2.011673
9102.000000;2.015377
9101.000000;2.021880
9100.000000;2.028861
9099.000000;2.031725
9098.000000;2.028866
9097.000000;2.025297
9096.000000;2.027150
9095.000000;2.034228
9094.000000;2.040621
9093.000000;2.042178
9092.000000;2.040438
9091.000000;2.038848
9090.000000;2.038489
9089.000000;2.037847
9088.000000;2.035114
9087.000000;2.029857
9086.000000;2.023269
9085.000000;2.018578
9084.000000;2.019277
9083.000000;2.025051
9082.000000;2.031002
9081.000000;2.031909
9080.000000;2.026563
9079.000000;2.017727
9078.000000;2.009652
9077.000000;2.006255
9076.000000;2.009161
9075.000000;2.015702
9074.000000;2.020239
9073.000000;2.019427
9072.000000;2.015422
9071.000000;2.012942
9070.000000;2.014625
9069.000000;2.019832
9068.000000;2.026243
9067.000000;2.031523
9066.000000;2.034596
9065.000000;2.036022
9064.000000;2.036689
9063.000000;2.036332
9062.000000;2.034456
9061.000000;2.032427
9060.000000;2.032215
9059.000000;2.032839
9058.000000;2.030882
9057.000000;2.025598
9056.000000;2.021194
9055.000000;2.021673
9054.000000;2.024822
9053.000000;2.024372
