Criado como novo conjunto de dados;"1909daniel.spp","-4260043.4 Secs"
cm-1;Abs
10000.000000;1.645345
9999.000000;1.642842
9998.000000;1.641456
9997.000000;1.640402
9996.000000;1.638564
9995.000000;1.636237
9994.000000;1.634631
9993.000000;1.634969
9992.000000;1.637229
9991.000000;1.640200
9990.000000;1.642226
9989.000000;1.642357
9988.000000;1.640742
9987.000000;1.638241
9986.000000;1.635910
9985.000000;1.634613
9984.000000;1.634521
9983.000000;1.634832
9982.000000;1.634442
9981.000000;1.633159
9980.000000;1.631959
9979.000000;1.631825
9978.000000;1.632791
9977.000000;1.634188
9976.000000;1.635146
9975.000000;1.634762
9974.000000;1.632646
9973.000000;1.629743
9972.000000;1.627847
9971.000000;1.627624
9970.000000;1.627687
9969.000000;1.626365
9968.000000;1.623829
9967.000000;1.621489
9966.000000;1.619809
9965.000000;1.618040
9964.000000;1.615884
9963.000000;1.614133
9962.000000;1.613521
9961.000000;1.613979
9960.000000;1.615267
9959.000000;1.617283
9958.000000;1.619307
9957.000000;1.619917
9956.000000;1.618398
9955.000000;1.615629
9954.000000;1.613017
9953.000000;1.611192
9952.000000;1.610195
9951.000000;1.610169
9950.000000;1.611081
9949.000000;1.612084
9948.000000;1.611984
9947.000000;1.610494
9946.000000;1.608677
9945.000000;1.608109
9944.000000;1.609626
9943.000000;1.612459
9942.000000;1.614474
9941.000000;1.613828
9940.000000;1.610675
9939.000000;1.606820
9938.000000;1.603625
9937.000000;1.600908
9936.000000;1.598119
9935.000000;1.595753
9934.000000;1.594814
9933.000000;1.595325
9932.000000;1.596193
9931.000000;1.596514
9930.000000;1.596368
9929.000000;1.596160
9928.000000;1.595776
9927.000000;1.594767
9926.000000;1.593022
9925.000000;1.590921
9924.000000;1.588969
9923.000000;1.587536
9922.000000;1.586888
9921.000000;1.587158
9920.000000;1.588086
9919.000000;1.588956
9918.000000;1.589129
9917.000000;1.588702
9916.000000;1.588270
9915.000000;1.587905
9914.000000;1.586822
9913.000000;1.584475
9912.000000;1.581627
9911.000000;1.579684
9910.000000;1.579159
9909.000000;1.579406
9908.000000;1.579778
9907.000000;1.580220
9906.000000;1.580583
9905.000000;1.580259
9904.000000;1.579116
9903.000000;1.578130
9902.000000;1.578309
9901.000000;1.579295
9900.000000;1.579788
9899.000000;1.579299
9898.000000;1.578740
9897.000000;1.579036
9896.000000;1.579674
9895.000000;1.579079
9894.000000;1.576383
9893.000000;1.572531
9892.000000;1.569483
9891.000000;1.568494
9890.000000;1.569282
9889.000000;1.570611
9888.000000;1.571334
9887.000000;1.570861
9886.000000;1.569195
9885.000000;1.567087
9884.000000;1.565892
9883.000000;1.566510
9882.000000;1.568249
9881.000000;1.569189
9880.000000;1.567992
9879.000000;1.565130
9878.000000;1.562267
9877.000000;1.560845
9876.000000;1.561262
9875.000000;1.562713
9874.000000;1.563532
9873.000000;1.562335
9872.000000;1.559423
9871.000000;1.556720
9870.000000;1.555850
9869.000000;1.556445
9868.000000;1.556662
9867.000000;1.555324
9866.000000;1.553099
9865.000000;1.551469
9864.000000;1.551075
9863.000000;1.551383
9862.000000;1.551669
9861.000000;1.551764
9860.000000;1.551650
9859.000000;1.550784
9858.000000;1.548528
9857.000000;1.545365
9856.000000;1.543000
9855.000000;1.542663
9854.000000;1.543665
9853.000000;1.544159
9852.000000;1.543173
9851.000000;1.541389
9850.000000;1.540053
9849.000000;1.539803
9848.000000;1.540527
9847.000000;1.541650
9846.000000;1.542354
9845.000000;1.542118
9844.000000;1.541289
9843.000000;1.540681
9842.000000;1.540515
9841.000000;1.540245
9840.000000;1.539511
9839.000000;1.538594
9838.000000;1.537715
9837.000000;1.536519
9836.000000;1.534597
9835.000000;1.532082
9834.000000;1.529439
9833.000000;1.527044
9832.000000;1.525228
9831.000000;1.524308
9830.000000;1.524319
9829.000000;1.525040
9828.000000;1.526384
9827.000000;1.528248
9826.000000;1.529845
9825.000000;1.530020
9824.000000;1.528689
9823.000000;1.527217
9822.000000;1.526697
9821.000000;1.526549
9820.000000;1.525590
9819.000000;1.523916
9818.000000;1.522798
9817.000000;1.523108
9816.000000;1.524699
9815.000000;1.527121
9814.000000;1.529771
9813.000000;1.531208
9812.000000;1.529767
9811.000000;1.525560
9810.000000;1.520951
9809.000000;1.518304
9808.000000;1.517764
9807.000000;1.517705
9806.000000;1.516885
9805.000000;1.515464
9804.000000;1.514104
9803.000000;1.513046
9802.000000;1.512431
9801.000000;1.512779
9800.000000;1.514413
9799.000000;1.516563
9798.000000;1.517732
9797.000000;1.517166
9796.000000;1.515522
9795.000000;1.513810
9794.000000;1.512103
9793.000000;1.509695
9792.000000;1.506292
9791.000000;1.502595
9790.000000;1.499781
9789.000000;1.498657
9788.000000;1.499088
9787.000000;1.499960
9786.000000;1.499990
9785.000000;1.498973
9784.000000;1.497930
9783.000000;1.497679
9782.000000;1.497711
9781.000000;1.497087
9780.000000;1.495983
9779.000000;1.495394
9778.000000;1.495457
9777.000000;1.495189
9776.000000;1.494078
9775.000000;1.492882
9774.000000;1.492402
9773.000000;1.492406
9772.000000;1.492346
9771.000000;1.492317
9770.000000;1.492608
9769.000000;1.492930
9768.000000;1.492857
9767.000000;1.492497
9766.000000;1.491974
9765.000000;1.490741
9764.000000;1.488334
9763.000000;1.485451
9762.000000;1.483357
9761.000000;1.482328
9760.000000;1.481538
9759.000000;1.480474
9758.000000;1.479675
9757.000000;1.479847
9756.000000;1.480799
9755.000000;1.481570
9754.000000;1.481342
9753.000000;1.480122
9752.000000;1.478658
9751.000000;1.477710
9750.000000;1.477317
9749.000000;1.476873
9748.000000;1.476009
9747.000000;1.475082
9746.000000;1.474523
9745.000000;1.474120
9744.000000;1.473414
9743.000000;1.472480
9742.000000;1.471770
9741.000000;1.471344
9740.000000;1.470838
9739.000000;1.470143
9738.000000;1.469570
9737.000000;1.469347
9736.000000;1.469390
9735.000000;1.469577
9734.000000;1.469826
9733.000000;1.469883
9732.000000;1.469410
9731.000000;1.468359
9730.000000;1.466941
9729.000000;1.465258
9728.000000;1.463283
9727.000000;1.461136
9726.000000;1.459053
9725.000000;1.457147
9724.000000;1.455561
9723.000000;1.454761
9722.000000;1.455184
9721.000000;1.456509
9720.000000;1.457662
9719.000000;1.457705
9718.000000;1.456565
9717.000000;1.454931
9716.000000;1.453651
9715.000000;1.453161
9714.000000;1.453121
9713.000000;1.452570
9712.000000;1.450866
9711.000000;1.448548
9710.000000;1.446925
9709.000000;1.446771
9708.000000;1.447707
9707.000000;1.448822
9706.000000;1.449508
9705.000000;1.449617
9704.000000;1.449224
9703.000000;1.448443
9702.000000;1.447282
9701.000000;1.445609
9700.000000;1.443531
9699.000000;1.441740
9698.000000;1.441097
9697.000000;1.441716
9696.000000;1.442757
9695.000000;1.443216
9694.000000;1.442681
9693.000000;1.441330
9692.000000;1.439638
9691.000000;1.438251
9690.000000;1.437680
9689.000000;1.437724
9688.000000;1.437445
9687.000000;1.436087
9686.000000;1.433892
9685.000000;1.431784
9684.000000;1.430442
9683.000000;1.429915
9682.000000;1.429867
9681.000000;1.429799
9680.000000;1.429207
9679.000000;1.428044
9678.000000;1.427102
9677.000000;1.427454
9676.000000;1.429233
9675.000000;1.431252
9674.000000;1.432169
9673.000000;1.431910
9672.000000;1.431457
9671.000000;1.431262
9670.000000;1.430505
9669.000000;1.428266
9668.000000;1.424942
9667.000000;1.421893
9666.000000;1.419825
9665.000000;1.418164
9664.000000;1.416124
9663.000000;1.413877
9662.000000;1.412325
9661.000000;1.412021
9660.000000;1.412733
9659.000000;1.413862
9658.000000;1.414824
9657.000000;1.415069
9656.000000;1.414244
9655.000000;1.412572
9654.000000;1.410820
9653.000000;1.409712
9652.000000;1.409476
9651.000000;1.409931
9650.000000;1.410792
9649.000000;1.411761
9648.000000;1.412490
9647.000000;1.412701
9646.000000;1.412436
9645.000000;1.412070
9644.000000;1.411924
9643.000000;1.411887
9642.000000;1.411512
9641.000000;1.410487
9640.000000;1.408922
9639.000000;1.407132
9638.000000;1.405297
9637.000000;1.403533
9636.000000;1.402105
9635.000000;1.401302
9634.000000;1.401099
9633.000000;1.401177
9632.000000;1.401269
9631.000000;1.401216
9630.000000;1.400741
9629.000000;1.399538
9628.000000;1.397688
9627.000000;1.395713
9626.000000;1.394119
9625.000000;1.393141
9624.000000;1.392867
9623.000000;1.393241
9622.000000;1.393849
9621.000000;1.394109
9620.000000;1.393863
9619.000000;1.393407
9618.000000;1.392792
9617.000000;1.391646
9616.000000;1.390033
9615.000000;1.388917
9614.000000;1.389188
9613.000000;1.390406
9612.000000;1.391056
9611.000000;1.390053
9610.000000;1.387625
9609.000000;1.384828
9608.000000;1.382661
9607.000000;1.381572
9606.000000;1.381337
9605.000000;1.381347
9604.000000;1.381171
9603.000000;1.380800
9602.000000;1.380307
9601.000000;1.379616
9600.000000;1.378872
9599.000000;1.378639
9598.000000;1.379321
9597.000000;1.380563
9596.000000;1.381607
9595.000000;1.382052
9594.000000;1.381895
9593.000000;1.381047
9592.000000;1.379402
9591.000000;1.377298
9590.000000;1.375379
9589.000000;1.373991
9588.000000;1.373037
9587.000000;1.372312
9586.000000;1.371642
9585.000000;1.370870
9584.000000;1.370088
9583.000000;1.369737
9582.000000;1.369980
9581.000000;1.370123
9580.000000;1.369321
9579.000000;1.367829
9578.000000;1.366825
9577.000000;1.366824
9576.000000;1.367043
9575.000000;1.366620
9574.000000;1.365834
9573.000000;1.365592
9572.000000;1.366112
9571.000000;1.366652
9570.000000;1.366349
9569.000000;1.364933
9568.000000;1.362820
9567.000000;1.360904
9566.000000;1.360137
9565.000000;1.360806
9564.000000;1.362116
9563.000000;1.362776
9562.000000;1.362141
9561.000000;1.360648
9560.000000;1.359072
9559.000000;1.357580
9558.000000;1.355683
9557.000000;1.353065
9556.000000;1.350335
9555.000000;1.348724
9554.000000;1.348884
9553.000000;1.350084
9552.000000;1.350819
9551.000000;1.350316
9550.000000;1.349251
9549.000000;1.348850
9548.000000;1.349486
9547.000000;1.350319
9546.000000;1.350208
9545.000000;1.348832
9544.000000;1.346909
9543.000000;1.345460
9542.000000;1.344918
9541.000000;1.344910
9540.000000;1.344815
9539.000000;1.344452
9538.000000;1.344106
9537.000000;1.343901
9536.000000;1.343421
9535.000000;1.342080
9534.000000;1.339812
9533.000000;1.337288
9532.000000;1.335384
9531.000000;1.334478
9530.000000;1.334374
9529.000000;1.334789
9528.000000;1.335630
9527.000000;1.336685
9526.000000;1.337305
9525.000000;1.336857
9524.000000;1.335538
9523.000000;1.334293
9522.000000;1.333767
9521.000000;1.333690
9520.000000;1.333471
9519.000000;1.333038
9518.000000;1.332759
9517.000000;1.332850
9516.000000;1.333181
9515.000000;1.333460
9514.000000;1.333309
9513.000000;1.332391
9512.000000;1.330873
9511.000000;1.329514
9510.000000;1.328858
9509.000000;1.328497
9508.000000;1.327608
9507.000000;1.326155
9506.000000;1.324945
9505.000000;1.324426
9504.000000;1.323998
9503.000000;1.322818
9502.000000;1.320916
9501.000000;1.319149
9500.000000;1.318285
9499.000000;1.318423
9498.000000;1.319181
9497.000000;1.320156
9496.000000;1.321159
9495.000000;1.322063
9494.000000;1.322568
9493.000000;1.322322
9492.000000;1.321397
9491.000000;1.320402
9490.000000;1.319852
9489.000000;1.319534
9488.000000;1.318790
9487.000000;1.317355
9486.000000;1.315593
9485.000000;1.313999
9484.000000;1.312826
9483.000000;1.312163
9482.000000;1.311920
9481.000000;1.311711
9480.000000;1.311159
9479.000000;1.310469
9478.000000;1.310322
9477.000000;1.310992
9476.000000;1.311867
9475.000000;1.312047
9474.000000;1.311177
9473.000000;1.309514
9472.000000;1.307512
9471.000000;1.305583
9470.000000;1.303985
9469.000000;1.302633
9468.000000;1.301126
9467.000000;1.299273
9466.000000;1.297534
9465.000000;1.296671
9464.000000;1.296998
9463.000000;1.298114
9462.000000;1.299298
9461.000000;1.300005
9460.000000;1.300058
9459.000000;1.299634
9458.000000;1.299134
9457.000000;1.298923
9456.000000;1.299046
9455.000000;1.299159
9454.000000;1.298764
9453.000000;1.297632
9452.000000;1.296083
9451.000000;1.294811
9450.000000;1.294261
9449.000000;1.294142
9448.000000;1.293699
9447.000000;1.292540
9446.000000;1.291081
9445.000000;1.290104
9444.000000;1.289992
9443.000000;1.290496
9442.000000;1.291058
9441.000000;1.291225
9440.000000;1.290846
9439.000000;1.290094
9438.000000;1.289381
9437.000000;1.289142
9436.000000;1.289479
9435.000000;1.289938
9434.000000;1.289741
9433.000000;1.288441
9432.000000;1.286375
9431.000000;1.284331
9430.000000;1.282791
9429.000000;1.281715
9428.000000;1.281056
9427.000000;1.281099
9426.000000;1.282028
9425.000000;1.283341
9424.000000;1.284102
9423.000000;1.283746
9422.000000;1.282444
9421.000000;1.280785
9420.000000;1.279417
9419.000000;1.278887
9418.000000;1.279334
9417.000000;1.280165
9416.000000;1.280355
9415.000000;1.279285
9414.000000;1.277192
9413.000000;1.274835
9412.000000;1.272984
9411.000000;1.272212
9410.000000;1.272699
9409.000000;1.273907
9408.000000;1.274784
9407.000000;1.274651
9406.000000;1.273798
9405.000000;1.272941
9404.000000;1.272316
9403.000000;1.271669
9402.000000;1.270984
9401.000000;1.270685
9400.000000;1.270961
9399.000000;1.271266
9398.000000;1.270815
9397.000000;1.269466
9396.000000;1.267857
9395.000000;1.266773
9394.000000;1.266616
9393.000000;1.267338
9392.000000;1.268430
9391.000000;1.268903
9390.000000;1.267836
9389.000000;1.265365
9388.000000;1.262870
9387.000000;1.261679
9386.000000;1.261759
9385.000000;1.262092
9384.000000;1.262206
9383.000000;1.262663
9382.000000;1.263836
9381.000000;1.264889
9380.000000;1.264506
9379.000000;1.262392
9378.000000;1.259642
9377.000000;1.257801
9376.000000;1.257822
9375.000000;1.259478
9374.000000;1.261249
9373.000000;1.261148
9372.000000;1.258483
9371.000000;1.254732
9370.000000;1.252131
9369.000000;1.251514
9368.000000;1.251932
9367.000000;1.252187
9366.000000;1.252035
9365.000000;1.251773
9364.000000;1.251399
9363.000000;1.250711
9362.000000;1.249829
9361.000000;1.249124
9360.000000;1.248810
9359.000000;1.248866
9358.000000;1.249156
9357.000000;1.249413
9356.000000;1.249293
9355.000000;1.248678
9354.000000;1.247820
9353.000000;1.247043
9352.000000;1.246448
9351.000000;1.246016
9350.000000;1.245754
9349.000000;1.245555
9348.000000;1.245114
9347.000000;1.244194
9346.000000;1.242903
9345.000000;1.241625
9344.000000;1.240825
9343.000000;1.240939
9342.000000;1.242099
9341.000000;1.243709
9340.000000;1.244579
9339.000000;1.243957
9338.000000;1.242405
9337.000000;1.241339
9336.000000;1.241628
9335.000000;1.242789
9334.000000;1.243529
9333.000000;1.242929
9332.000000;1.241116
9331.000000;1.238928
9330.000000;1.237111
9329.000000;1.235904
9328.000000;1.235239
9327.000000;1.234976
9326.000000;1.234834
9325.000000;1.234409
9324.000000;1.233601
9323.000000;1.232902
9322.000000;1.232943
9321.000000;1.233780
9320.000000;1.234852
9319.000000;1.235548
9318.000000;1.235534
9317.000000;1.234688
9316.000000;1.233139
9315.000000;1.231367
9314.000000;1.229839
9313.000000;1.228509
9312.000000;1.227087
9311.000000;1.225775
9310.000000;1.225177
9309.000000;1.225340
9308.000000;1.225486
9307.000000;1.225015
9306.000000;1.224252
9305.000000;1.223795
9304.000000;1.223628
9303.000000;1.223408
9302.000000;1.223272
9301.000000;1.223665
9300.000000;1.224465
9299.000000;1.224894
9298.000000;1.224421
9297.000000;1.223394
9296.000000;1.222656
9295.000000;1.222757
9294.000000;1.223530
9293.000000;1.224205
9292.000000;1.223979
9291.000000;1.222736
9290.000000;1.221233
9289.000000;1.220402
9288.000000;1.220540
9287.000000;1.221258
9286.000000;1.221971
9285.000000;1.222219
9284.000000;1.221734
9283.000000;1.220592
9282.000000;1.219274
9281.000000;1.218317
9280.000000;1.217846
9279.000000;1.217604
9278.000000;1.217359
9277.000000;1.216995
9276.000000;1.216290
9275.000000;1.214946
9274.000000;1.212965
9273.000000;1.210778
9272.000000;1.208894
9271.000000;1.207514
9270.000000;1.206593
9269.000000;1.206191
9268.000000;1.206619
9267.000000;1.208148
9266.000000;1.210479
9265.000000;1.212536
9264.000000;1.213136
9263.000000;1.212165
9262.000000;1.210844
9261.000000;1.210487
9260.000000;1.211211
9259.000000;1.212091
9258.000000;1.212279
9257.000000;1.211556
9256.000000;1.209954
9255.000000;1.207532
9254.000000;1.204720
9253.000000;1.202377
9252.000000;1.201200
9251.000000;1.201275
9250.000000;1.202277
9249.000000;1.203777
9248.000000;1.205181
9247.000000;1.205687
9246.000000;1.204703
9245.000000;1.202360
9244.000000;1.199580
9243.000000;1.197622
9242.000000;1.197406
9241.000000;1.198837
9240.000000;1.200675
9239.000000;1.201445
9238.000000;1.200754
9237.000000;1.199586
9236.000000;1.199168
9235.000000;1.199728
9234.000000;1.200472
9233.000000;1.200524
9232.000000;1.199699
9231.000000;1.198587
9230.000000;1.198049
9229.000000;1.198491
9228.000000;1.199368
9227.000000;1.199526
9226.000000;1.198279
9225.000000;1.196111
9224.000000;1.194164
9223.000000;1.193167
9222.000000;1.193030
9221.000000;1.193295
9220.000000;1.193666
9219.000000;1.194027
9218.000000;1.194175
9217.000000;1.193756
9216.000000;1.192556
9215.000000;1.190893
9214.000000;1.189626
9213.000000;1.189548
9212.000000;1.190645
9211.000000;1.192024
9210.000000;1.192723
9209.000000;1.192569
9208.000000;1.192093
9207.000000;1.191770
9206.000000;1.191628
9205.000000;1.191526
9204.000000;1.191464
9203.000000;1.191423
9202.000000;1.191114
9201.000000;1.190173
9200.000000;1.188610
9199.000000;1.186931
9198.000000;1.185745
9197.000000;1.185276
9196.000000;1.185240
9195.000000;1.185143
9194.000000;1.184708
9193.000000;1.184149
9192.000000;1.184016
9191.000000;1.184644
9190.000000;1.185685
9189.000000;1.186311
9188.000000;1.186017
9187.000000;1.185112
9186.000000;1.184250
9185.000000;1.183655
9184.000000;1.183087
9183.000000;1.182495
9182.000000;1.182296
9181.000000;1.182768
9180.000000;1.183458
9179.000000;1.183506
9178.000000;1.182470
9177.000000;1.180632
9176.000000;1.178619
9175.000000;1.176991
9174.000000;1.176031
9173.000000;1.175617
9172.000000;1.175379
9171.000000;1.175209
9170.000000;1.175469
9169.000000;1.176386
9168.000000;1.177430
9167.000000;1.177781
9166.000000;1.177397
9165.000000;1.177013
9164.000000;1.177042
9163.000000;1.177075
9162.000000;1.176694
9161.000000;1.176134
9160.000000;1.175725
9159.000000;1.175212
9158.000000;1.174253
9157.000000;1.173294
9156.000000;1.173238
9155.000000;1.174289
9154.000000;1.175620
9153.000000;1.176249
9152.000000;1.175876
9151.000000;1.174819
9150.000000;1.173552
9149.000000;1.172441
9148.000000;1.171633
9147.000000;1.171021
9146.000000;1.170468
9145.000000;1.170080
9144.000000;1.170085
9143.000000;1.170440
9142.000000;1.170784
9141.000000;1.170854
9140.000000;1.170695
9139.000000;1.170436
9138.000000;1.170103
9137.000000;1.169732
9136.000000;1.169421
9135.000000;1.169148
9134.000000;1.168758
9133.000000;1.168263
9132.000000;1.167977
9131.000000;1.168189
9130.000000;1.168779
9129.000000;1.169220
9128.000000;1.168888
9127.000000;1.167446
9126.000000;1.165203
9125.000000;1.163177
9124.000000;1.162474
9123.000000;1.163341
9122.000000;1.164897
9121.000000;1.165923
9120.000000;1.165846
9119.000000;1.164930
9118.000000;1.163788
9117.000000;1.162906
9116.000000;1.162455
9115.000000;1.162263
9114.000000;1.161971
9113.000000;1.161400
9112.000000;1.160758
9111.000000;1.160386
9110.000000;1.160380
9109.000000;1.160544
9108.000000;1.160663
9107.000000;1.160686
9106.000000;1.160733
9105.000000;1.160958
9104.000000;1.161324
9103.000000;1.161479
9102.000000;1.161050
9101.000000;1.160138
9100.000000;1.159261
9099.000000;1.158672
9098.000000;1.158063
9097.000000;1.157212
9096.000000;1.156534
9095.000000;1.156549
9094.000000;1.157008
9093.000000;1.157153
9092.000000;1.156860
9091.000000;1.156849
9090.000000;1.157527
9089.000000;1.158174
9088.000000;1.157760
9087.000000;1.156290
9086.000000;1.154803
9085.000000;1.154159
9084.000000;1.154285
9083.000000;1.154627
9082.000000;1.154894
9081.000000;1.155109
9080.000000;1.155149
9079.000000;1.154615
9078.000000;1.153301
9077.000000;1.151687
9076.000000;1.150749
9075.000000;1.151083
9074.000000;1.152265
9073.000000;1.153224
9072.000000;1.153284
9071.000000;1.152698
9070.000000;1.152202
9069.000000;1.152272
9068.000000;1.152858
9067.000000;1.153539
9066.000000;1.153717
9065.000000;1.152931
9064.000000;1.151273
9063.000000;1.149440
9062.000000;1.148120
9061.000000;1.147389
9060.000000;1.146881
9059.000000;1.146415
9058.000000;1.146188
9057.000000;1.146365
9056.000000;1.146762
9055.000000;1.147051
9054.000000;1.147081
9053.000000;1.146914
