Criado como novo conjunto de dados;"1909daniel.spp","-4273004.4 Secs"
cm-1;Abs
10000.000000;1.279961
9999.000000;1.279489
9998.000000;1.278440
9997.000000;1.276906
9996.000000;1.275375
9995.000000;1.274057
9994.000000;1.272963
9993.000000;1.272208
9992.000000;1.272130
9991.000000;1.272685
9990.000000;1.273257
9989.000000;1.273200
9988.000000;1.272402
9987.000000;1.271136
9986.000000;1.269698
9985.000000;1.268391
9984.000000;1.267496
9983.000000;1.266919
9982.000000;1.266072
9981.000000;1.264518
9980.000000;1.262633
9979.000000;1.261319
9978.000000;1.261095
9977.000000;1.261712
9976.000000;1.262589
9975.000000;1.263316
9974.000000;1.263661
9973.000000;1.263342
9972.000000;1.262094
9971.000000;1.260012
9970.000000;1.257677
9969.000000;1.255803
9968.000000;1.254683
9967.000000;1.254027
9966.000000;1.253444
9965.000000;1.253025
9964.000000;1.253257
9963.000000;1.254308
9962.000000;1.255580
9961.000000;1.256135
9960.000000;1.255524
9959.000000;1.254102
9958.000000;1.252595
9957.000000;1.251454
9956.000000;1.250619
9955.000000;1.249785
9954.000000;1.248869
9953.000000;1.248191
9952.000000;1.248084
9951.000000;1.248368
9950.000000;1.248370
9949.000000;1.247538
9948.000000;1.245968
9947.000000;1.244247
9946.000000;1.242831
9945.000000;1.241727
9944.000000;1.240743
9943.000000;1.239896
9942.000000;1.239417
9941.000000;1.239302
9940.000000;1.239041
9939.000000;1.238099
9938.000000;1.236689
9937.000000;1.235764
9936.000000;1.236007
9935.000000;1.237001
9934.000000;1.237649
9933.000000;1.237299
9932.000000;1.236188
9931.000000;1.234896
9930.000000;1.233708
9929.000000;1.232520
9928.000000;1.231048
9927.000000;1.229128
9926.000000;1.227120
9925.000000;1.225985
9924.000000;1.226501
9923.000000;1.228220
9922.000000;1.229557
9921.000000;1.229213
9920.000000;1.227323
9919.000000;1.224989
9918.000000;1.223051
9917.000000;1.221628
9916.000000;1.220541
9915.000000;1.219656
9914.000000;1.218835
9913.000000;1.217939
9912.000000;1.217040
9911.000000;1.216429
9910.000000;1.216318
9909.000000;1.216593
9908.000000;1.216875
9907.000000;1.216772
9906.000000;1.216086
9905.000000;1.214872
9904.000000;1.213325
9903.000000;1.211631
9902.000000;1.210004
9901.000000;1.208811
9900.000000;1.208388
9899.000000;1.208623
9898.000000;1.208907
9897.000000;1.208708
9896.000000;1.208085
9895.000000;1.207468
9894.000000;1.207079
9893.000000;1.206771
9892.000000;1.206315
9891.000000;1.205642
9890.000000;1.204864
9889.000000;1.204245
9888.000000;1.204067
9887.000000;1.204314
9886.000000;1.204534
9885.000000;1.204229
9884.000000;1.203343
9883.000000;1.202227
9882.000000;1.201132
9881.000000;1.199969
9880.000000;1.198578
9879.000000;1.197028
9878.000000;1.195554
9877.000000;1.194284
9876.000000;1.193108
9875.000000;1.191882
9874.000000;1.190730
9873.000000;1.190056
9872.000000;1.190088
9871.000000;1.190452
9870.000000;1.190441
9869.000000;1.189775
9868.000000;1.188868
9867.000000;1.188185
9866.000000;1.187650
9865.000000;1.186950
9864.000000;1.186179
9863.000000;1.185806
9862.000000;1.186085
9861.000000;1.186779
9860.000000;1.187370
9859.000000;1.187324
9858.000000;1.186326
9857.000000;1.184604
9856.000000;1.182923
9855.000000;1.181907
9854.000000;1.181421
9853.000000;1.180877
9852.000000;1.180010
9851.000000;1.178960
9850.000000;1.177785
9849.000000;1.176469
9848.000000;1.175390
9847.000000;1.175108
9846.000000;1.175462
9845.000000;1.175428
9844.000000;1.174236
9843.000000;1.172248
9842.000000;1.170396
9841.000000;1.169232
9840.000000;1.168808
9839.000000;1.168937
9838.000000;1.169093
9837.000000;1.168508
9836.000000;1.166966
9835.000000;1.165245
9834.000000;1.164197
9833.000000;1.163624
9832.000000;1.162684
9831.000000;1.161293
9830.000000;1.160370
9829.000000;1.160517
9828.000000;1.161099
9827.000000;1.160981
9826.000000;1.159839
9825.000000;1.158355
9824.000000;1.157393
9823.000000;1.157291
9822.000000;1.157780
9821.000000;1.158242
9820.000000;1.158100
9819.000000;1.157209
9818.000000;1.155912
9817.000000;1.154655
9816.000000;1.153635
9815.000000;1.152806
9814.000000;1.152043
9813.000000;1.151188
9812.000000;1.150111
9811.000000;1.148879
9810.000000;1.147790
9809.000000;1.147072
9808.000000;1.146625
9807.000000;1.146177
9806.000000;1.145618
9805.000000;1.145065
9804.000000;1.144674
9803.000000;1.144517
9802.000000;1.144591
9801.000000;1.144745
9800.000000;1.144601
9799.000000;1.143737
9798.000000;1.142087
9797.000000;1.140104
9796.000000;1.138442
9795.000000;1.137476
9794.000000;1.137153
9793.000000;1.137288
9792.000000;1.137862
9791.000000;1.138866
9790.000000;1.139867
9789.000000;1.139994
9788.000000;1.138659
9787.000000;1.136273
9786.000000;1.133995
9785.000000;1.132702
9784.000000;1.132304
9783.000000;1.132037
9782.000000;1.131269
9781.000000;1.130024
9780.000000;1.128864
9779.000000;1.128357
9778.000000;1.128540
9777.000000;1.128829
9776.000000;1.128532
9775.000000;1.127522
9774.000000;1.126311
9773.000000;1.125454
9772.000000;1.125067
9771.000000;1.124906
9770.000000;1.124630
9769.000000;1.123872
9768.000000;1.122400
9767.000000;1.120503
9766.000000;1.119004
9765.000000;1.118567
9764.000000;1.119031
9763.000000;1.119576
9762.000000;1.119456
9761.000000;1.118468
9760.000000;1.116918
9759.000000;1.115471
9758.000000;1.114870
9757.000000;1.115327
9756.000000;1.116090
9755.000000;1.115982
9754.000000;1.114573
9753.000000;1.112571
9752.000000;1.110940
9751.000000;1.109875
9750.000000;1.108831
9749.000000;1.107370
9748.000000;1.105753
9747.000000;1.104745
9746.000000;1.104960
9745.000000;1.106314
9744.000000;1.107958
9743.000000;1.108759
9742.000000;1.108069
9741.000000;1.106152
9740.000000;1.103929
9739.000000;1.102327
9738.000000;1.101706
9737.000000;1.101706
9736.000000;1.101595
9735.000000;1.100899
9734.000000;1.099758
9733.000000;1.098637
9732.000000;1.097798
9731.000000;1.097175
9730.000000;1.096678
9729.000000;1.096334
9728.000000;1.096073
9727.000000;1.095598
9726.000000;1.094637
9725.000000;1.093230
9724.000000;1.091691
9723.000000;1.090362
9722.000000;1.089421
9721.000000;1.088786
9720.000000;1.088135
9719.000000;1.087184
9718.000000;1.086068
9717.000000;1.085282
9716.000000;1.085137
9715.000000;1.085392
9714.000000;1.085586
9713.000000;1.085598
9712.000000;1.085663
9711.000000;1.085821
9710.000000;1.085619
9709.000000;1.084542
9708.000000;1.082666
9707.000000;1.080733
9706.000000;1.079542
9705.000000;1.079305
9704.000000;1.079585
9703.000000;1.079763
9702.000000;1.079523
9701.000000;1.078961
9700.000000;1.078384
9699.000000;1.078026
9698.000000;1.077809
9697.000000;1.077326
9696.000000;1.076214
9695.000000;1.074640
9694.000000;1.073236
9693.000000;1.072387
9692.000000;1.071805
9691.000000;1.070996
9690.000000;1.069953
9689.000000;1.069061
9688.000000;1.068475
9687.000000;1.068021
9686.000000;1.067676
9685.000000;1.067646
9684.000000;1.067837
9683.000000;1.067698
9682.000000;1.066903
9681.000000;1.065872
9680.000000;1.065265
9679.000000;1.065155
9678.000000;1.064961
9677.000000;1.064093
9676.000000;1.062434
9675.000000;1.060364
9674.000000;1.058567
9673.000000;1.057675
9672.000000;1.057764
9671.000000;1.058168
9670.000000;1.058037
9669.000000;1.057136
9668.000000;1.055975
9667.000000;1.055153
9666.000000;1.054759
9665.000000;1.054450
9664.000000;1.053917
9663.000000;1.053147
9662.000000;1.052297
9661.000000;1.051440
9660.000000;1.050520
9659.000000;1.049587
9658.000000;1.048973
9657.000000;1.049052
9656.000000;1.049809
9655.000000;1.050710
9654.000000;1.051031
9653.000000;1.050295
9652.000000;1.048525
9651.000000;1.046285
9650.000000;1.044417
9649.000000;1.043423
9648.000000;1.042995
9647.000000;1.042421
9646.000000;1.041487
9645.000000;1.040585
9644.000000;1.039869
9643.000000;1.038870
9642.000000;1.037300
9641.000000;1.035788
9640.000000;1.035272
9639.000000;1.035835
9638.000000;1.036629
9637.000000;1.036864
9636.000000;1.036419
9635.000000;1.035514
9634.000000;1.034336
9633.000000;1.033161
9632.000000;1.032432
9631.000000;1.032389
9630.000000;1.032785
9629.000000;1.033104
9628.000000;1.032933
9627.000000;1.032139
9626.000000;1.030882
9625.000000;1.029544
9624.000000;1.028426
9623.000000;1.027468
9622.000000;1.026441
9621.000000;1.025466
9620.000000;1.025034
9619.000000;1.025355
9618.000000;1.025888
9617.000000;1.025774
9616.000000;1.024663
9615.000000;1.022962
9614.000000;1.021316
9613.000000;1.020016
9612.000000;1.018940
9611.000000;1.017959
9610.000000;1.017275
9609.000000;1.017254
9608.000000;1.017893
9607.000000;1.018559
9606.000000;1.018441
9605.000000;1.017286
9604.000000;1.015620
9603.000000;1.014236
9602.000000;1.013571
9601.000000;1.013514
9600.000000;1.013592
9599.000000;1.013324
9598.000000;1.012557
9597.000000;1.011585
9596.000000;1.010907
9595.000000;1.010792
9594.000000;1.011129
9593.000000;1.011627
9592.000000;1.012038
9591.000000;1.012168
9590.000000;1.011827
9589.000000;1.010923
9588.000000;1.009574
9587.000000;1.008093
9586.000000;1.006837
9585.000000;1.006035
9584.000000;1.005641
9583.000000;1.005313
9582.000000;1.004624
9581.000000;1.003382
9580.000000;1.001777
9579.000000;1.000213
9578.000000;0.999024
9577.000000;0.998288
9576.000000;0.997827
9575.000000;0.997366
9574.000000;0.996763
9573.000000;0.996082
9572.000000;0.995428
9571.000000;0.994814
9570.000000;0.994244
9569.000000;0.993810
9568.000000;0.993573
9567.000000;0.993397
9566.000000;0.993030
9565.000000;0.992343
9564.000000;0.991378
9563.000000;0.990246
9562.000000;0.989101
9561.000000;0.988166
9560.000000;0.987602
9559.000000;0.987339
9558.000000;0.987164
9557.000000;0.986933
9556.000000;0.986593
9555.000000;0.986033
9554.000000;0.985145
9553.000000;0.984084
9552.000000;0.983289
9551.000000;0.983092
9550.000000;0.983332
9549.000000;0.983435
9548.000000;0.982912
9547.000000;0.981822
9546.000000;0.980716
9545.000000;0.980070
9544.000000;0.979776
9543.000000;0.979330
9542.000000;0.978526
9541.000000;0.977708
9540.000000;0.977175
9539.000000;0.976604
9538.000000;0.975498
9537.000000;0.974054
9536.000000;0.973093
9535.000000;0.972987
9534.000000;0.973094
9533.000000;0.972536
9532.000000;0.971309
9531.000000;0.970267
9530.000000;0.970068
9529.000000;0.970471
9528.000000;0.970714
9527.000000;0.970372
9526.000000;0.969666
9525.000000;0.968993
9524.000000;0.968357
9523.000000;0.967404
9522.000000;0.965971
9521.000000;0.964395
9520.000000;0.963209
9519.000000;0.962621
9518.000000;0.962420
9517.000000;0.962310
9516.000000;0.962208
9515.000000;0.962236
9514.000000;0.962529
9513.000000;0.963054
9512.000000;0.963528
9511.000000;0.963540
9510.000000;0.962842
9509.000000;0.961590
9508.000000;0.960271
9507.000000;0.959401
9506.000000;0.959199
9505.000000;0.959385
9504.000000;0.959275
9503.000000;0.958292
9502.000000;0.956553
9501.000000;0.954829
9500.000000;0.953792
9499.000000;0.953453
9498.000000;0.953413
9497.000000;0.953393
9496.000000;0.953270
9495.000000;0.952863
9494.000000;0.952073
9493.000000;0.951153
9492.000000;0.950425
9491.000000;0.949771
9490.000000;0.948792
9489.000000;0.947477
9488.000000;0.946313
9487.000000;0.945599
9486.000000;0.945019
9485.000000;0.944107
9484.000000;0.942889
9483.000000;0.941838
9482.000000;0.941368
9481.000000;0.941546
9480.000000;0.942106
9479.000000;0.942577
9478.000000;0.942544
9477.000000;0.941966
9476.000000;0.941185
9475.000000;0.940562
9474.000000;0.940184
9473.000000;0.939943
9472.000000;0.939712
9471.000000;0.939380
9470.000000;0.938854
9469.000000;0.938139
9468.000000;0.937346
9467.000000;0.936564
9466.000000;0.935828
9465.000000;0.935190
9464.000000;0.934631
9463.000000;0.933889
9462.000000;0.932654
9461.000000;0.931031
9460.000000;0.929604
9459.000000;0.928875
9458.000000;0.928821
9457.000000;0.929082
9456.000000;0.929384
9455.000000;0.929645
9454.000000;0.929824
9453.000000;0.929848
9452.000000;0.929641
9451.000000;0.929108
9450.000000;0.928201
9449.000000;0.927061
9448.000000;0.925960
9447.000000;0.925053
9446.000000;0.924347
9445.000000;0.923950
9444.000000;0.924040
9443.000000;0.924465
9442.000000;0.924640
9441.000000;0.924129
9440.000000;0.923147
9439.000000;0.922233
9438.000000;0.921588
9437.000000;0.921028
9436.000000;0.920471
9435.000000;0.920109
9434.000000;0.920044
9433.000000;0.920006
9432.000000;0.919536
9431.000000;0.918359
9430.000000;0.916616
9429.000000;0.914843
9428.000000;0.913664
9427.000000;0.913319
9426.000000;0.913456
9425.000000;0.913487
9424.000000;0.913119
9423.000000;0.912433
9422.000000;0.911621
9421.000000;0.910879
9420.000000;0.910457
9419.000000;0.910490
9418.000000;0.910714
9417.000000;0.910606
9416.000000;0.909954
9415.000000;0.909117
9414.000000;0.908559
9413.000000;0.908259
9412.000000;0.907805
9411.000000;0.906984
9410.000000;0.906059
9409.000000;0.905381
9408.000000;0.904918
9407.000000;0.904336
9406.000000;0.903503
9405.000000;0.902703
9404.000000;0.902274
9403.000000;0.902170
9402.000000;0.902008
9401.000000;0.901512
9400.000000;0.900764
9399.000000;0.900038
9398.000000;0.899519
9397.000000;0.899220
9396.000000;0.899034
9395.000000;0.898759
9394.000000;0.898209
9393.000000;0.897406
9392.000000;0.896620
9391.000000;0.896119
9390.000000;0.895898
9389.000000;0.895757
9388.000000;0.895583
9387.000000;0.895487
9386.000000;0.895638
9385.000000;0.896034
9384.000000;0.896432
9383.000000;0.896468
9382.000000;0.895875
9381.000000;0.894655
9380.000000;0.893070
9379.000000;0.891490
9378.000000;0.890253
9377.000000;0.889582
9376.000000;0.889460
9375.000000;0.889547
9374.000000;0.889396
9373.000000;0.888871
9372.000000;0.888292
9371.000000;0.888069
9370.000000;0.888247
9369.000000;0.888511
9368.000000;0.888522
9367.000000;0.888117
9366.000000;0.887240
9365.000000;0.885914
9364.000000;0.884354
9363.000000;0.882986
9362.000000;0.882183
9361.000000;0.881971
9360.000000;0.882026
9359.000000;0.881975
9358.000000;0.881695
9357.000000;0.881315
9356.000000;0.880977
9355.000000;0.880676
9354.000000;0.880350
9353.000000;0.880031
9352.000000;0.879786
9351.000000;0.879555
9350.000000;0.879185
9349.000000;0.878649
9348.000000;0.878091
9347.000000;0.877583
9346.000000;0.876941
9345.000000;0.875929
9344.000000;0.874586
9343.000000;0.873272
9342.000000;0.872345
9341.000000;0.871869
9340.000000;0.871631
9339.000000;0.871424
9338.000000;0.871280
9337.000000;0.871404
9336.000000;0.871850
9335.000000;0.872303
9334.000000;0.872262
9333.000000;0.871461
9332.000000;0.870111
9331.000000;0.868744
9330.000000;0.867856
9329.000000;0.867604
9328.000000;0.867726
9327.000000;0.867750
9326.000000;0.867370
9325.000000;0.866658
9324.000000;0.865908
9323.000000;0.865315
9322.000000;0.864916
9321.000000;0.864730
9320.000000;0.864737
9319.000000;0.864722
9318.000000;0.864377
9317.000000;0.863673
9316.000000;0.862976
9315.000000;0.862634
9314.000000;0.862544
9313.000000;0.862275
9312.000000;0.861588
9311.000000;0.860705
9310.000000;0.860044
9309.000000;0.859741
9308.000000;0.859484
9307.000000;0.858857
9306.000000;0.857869
9305.000000;0.857045
9304.000000;0.856862
9303.000000;0.857198
9302.000000;0.857502
9301.000000;0.857474
9300.000000;0.857307
9299.000000;0.857240
9298.000000;0.857150
9297.000000;0.856770
9296.000000;0.856087
9295.000000;0.855347
9294.000000;0.854771
9293.000000;0.854423
9292.000000;0.854217
9291.000000;0.853911
9290.000000;0.853247
9289.000000;0.852254
9288.000000;0.851299
9287.000000;0.850700
9286.000000;0.850418
9285.000000;0.850265
9284.000000;0.850223
9283.000000;0.850296
9282.000000;0.850229
9281.000000;0.849698
9280.000000;0.848778
9279.000000;0.847931
9278.000000;0.847507
9277.000000;0.847480
9276.000000;0.847648
9275.000000;0.847807
9274.000000;0.847697
9273.000000;0.847067
9272.000000;0.845970
9271.000000;0.844804
9270.000000;0.843965
9269.000000;0.843588
9268.000000;0.843624
9267.000000;0.843936
9266.000000;0.844236
9265.000000;0.844180
9264.000000;0.843707
9263.000000;0.843121
9262.000000;0.842692
9261.000000;0.842322
9260.000000;0.841761
9259.000000;0.840989
9258.000000;0.840167
9257.000000;0.839336
9256.000000;0.838450
9255.000000;0.837632
9254.000000;0.837139
9253.000000;0.837045
9252.000000;0.837158
9251.000000;0.837293
9250.000000;0.837448
9249.000000;0.837647
9248.000000;0.837790
9247.000000;0.837725
9246.000000;0.837361
9245.000000;0.836688
9244.000000;0.835860
9243.000000;0.835264
9242.000000;0.835263
9241.000000;0.835710
9240.000000;0.835944
9239.000000;0.835465
9238.000000;0.834512
9237.000000;0.833726
9236.000000;0.833374
9235.000000;0.833182
9234.000000;0.832875
9233.000000;0.832522
9232.000000;0.832231
9231.000000;0.831826
9230.000000;0.831081
9229.000000;0.830128
9228.000000;0.829381
9227.000000;0.829060
9226.000000;0.828951
9225.000000;0.828674
9224.000000;0.828081
9223.000000;0.827400
9222.000000;0.827011
9221.000000;0.827083
9220.000000;0.827386
9219.000000;0.827496
9218.000000;0.827214
9217.000000;0.826715
9216.000000;0.826238
9215.000000;0.825768
9214.000000;0.825163
9213.000000;0.824470
9212.000000;0.823914
9211.000000;0.823595
9210.000000;0.823375
9209.000000;0.823090
9208.000000;0.822718
9207.000000;0.822290
9206.000000;0.821826
9205.000000;0.821433
9204.000000;0.821319
9203.000000;0.821521
9202.000000;0.821676
9201.000000;0.821260
9200.000000;0.820134
9199.000000;0.818782
9198.000000;0.817938
9197.000000;0.817936
9196.000000;0.818388
9195.000000;0.818522
9194.000000;0.817880
9193.000000;0.816718
9192.000000;0.815690
9191.000000;0.815178
9190.000000;0.814995
9189.000000;0.814760
9188.000000;0.814403
9187.000000;0.814188
9186.000000;0.814298
9185.000000;0.814552
9184.000000;0.814608
9183.000000;0.814372
9182.000000;0.814122
9181.000000;0.814174
9180.000000;0.814488
9179.000000;0.814677
9178.000000;0.814388
9177.000000;0.813636
9176.000000;0.812723
9175.000000;0.811925
9174.000000;0.811299
9173.000000;0.810764
9172.000000;0.810289
9171.000000;0.809975
9170.000000;0.809942
9169.000000;0.810105
9168.000000;0.810134
9167.000000;0.809760
9166.000000;0.809126
9165.000000;0.808667
9164.000000;0.808546
9163.000000;0.808391
9162.000000;0.807792
9161.000000;0.806911
9160.000000;0.806303
9159.000000;0.806167
9158.000000;0.806077
9157.000000;0.805583
9156.000000;0.804839
9155.000000;0.804394
9154.000000;0.804494
9153.000000;0.804808
9152.000000;0.804838
9151.000000;0.804452
9150.000000;0.803935
9149.000000;0.803591
9148.000000;0.803423
9147.000000;0.803232
9146.000000;0.802941
9145.000000;0.802697
9144.000000;0.802618
9143.000000;0.802580
9142.000000;0.802385
9141.000000;0.802035
9140.000000;0.801678
9139.000000;0.801324
9138.000000;0.800816
9137.000000;0.800120
9136.000000;0.799463
9135.000000;0.799062
9134.000000;0.798883
9133.000000;0.798780
9132.000000;0.798780
9131.000000;0.799071
9130.000000;0.799680
9129.000000;0.800254
9128.000000;0.800242
9127.000000;0.799387
9126.000000;0.798058
9125.000000;0.797020
9124.000000;0.796731
9123.000000;0.796889
9122.000000;0.796810
9121.000000;0.796214
9120.000000;0.795467
9119.000000;0.795051
9118.000000;0.795033
9117.000000;0.795151
9116.000000;0.795181
9115.000000;0.795033
9114.000000;0.794674
9113.000000;0.794181
9112.000000;0.793776
9111.000000;0.793612
9110.000000;0.793561
9109.000000;0.793399
9108.000000;0.793149
9107.000000;0.793063
9106.000000;0.793257
9105.000000;0.793510
9104.000000;0.793437
9103.000000;0.792780
9102.000000;0.791576
9101.000000;0.790197
9100.000000;0.789226
9099.000000;0.789090
9098.000000;0.789717
9097.000000;0.790598
9096.000000;0.791225
9095.000000;0.791427
9094.000000;0.791291
9093.000000;0.790898
9092.000000;0.790238
9091.000000;0.789360
9090.000000;0.788481
9089.000000;0.787869
9088.000000;0.787622
9087.000000;0.787570
9086.000000;0.787433
9085.000000;0.787041
9084.000000;0.786397
9083.000000;0.785598
9082.000000;0.784837
9081.000000;0.784427
9080.000000;0.784607
9079.000000;0.785218
9078.000000;0.785728
9077.000000;0.785703
9076.000000;0.785187
9075.000000;0.784500
9074.000000;0.783827
9073.000000;0.783215
9072.000000;0.782848
9071.000000;0.783002
9070.000000;0.783624
9069.000000;0.784213
9068.000000;0.784287
9067.000000;0.783840
9066.000000;0.783244
9065.000000;0.782783
9064.000000;0.782433
9063.000000;0.782019
9062.000000;0.781465
9061.000000;0.780886
9060.000000;0.780482
9059.000000;0.780370
9058.000000;0.780486
9057.000000;0.780655
9056.000000;0.780754
9055.000000;0.780759
9054.000000;0.780642
9053.000000;0.780320
