Criado como novo conjunto de dados;"1909daniel.spp","-4244382.6 Secs"
cm-1;Abs
10000.000000;1.784034
9999.000000;1.782706
9998.000000;1.781383
9997.000000;1.780062
9996.000000;1.778747
9995.000000;1.777433
9994.000000;1.776129
9993.000000;1.774817
9992.000000;1.773538
9991.000000;1.771761
9990.000000;1.770797
9989.000000;1.770671
9988.000000;1.770281
9987.000000;1.769010
9986.000000;1.767228
9985.000000;1.765304
9984.000000;1.762903
9983.000000;1.759793
9982.000000;1.756726
9981.000000;1.754856
9980.000000;1.754438
9979.000000;1.754664
9978.000000;1.754810
9977.000000;1.754938
9976.000000;1.755221
9975.000000;1.755222
9974.000000;1.754539
9973.000000;1.753881
9972.000000;1.754674
9971.000000;1.757261
9970.000000;1.760083
9969.000000;1.761134
9968.000000;1.759721
9967.000000;1.756673
9966.000000;1.753355
9965.000000;1.750781
9964.000000;1.749222
9963.000000;1.747920
9962.000000;1.745495
9961.000000;1.741523
9960.000000;1.737620
9959.000000;1.736092
9958.000000;1.737359
9957.000000;1.739515
9956.000000;1.740893
9955.000000;1.742197
9954.000000;1.744937
9953.000000;1.748284
9952.000000;1.749096
9951.000000;1.745630
9950.000000;1.739834
9949.000000;1.734864
9948.000000;1.731680
9947.000000;1.729232
9946.000000;1.726981
9945.000000;1.725677
9944.000000;1.725792
9943.000000;1.726714
9942.000000;1.727752
9941.000000;1.728796
9940.000000;1.729613
9939.000000;1.729474
9938.000000;1.728246
9937.000000;1.727191
9936.000000;1.727576
9935.000000;1.728902
9934.000000;1.729525
9933.000000;1.728835
9932.000000;1.727798
9931.000000;1.727357
9930.000000;1.727280
9929.000000;1.726797
9928.000000;1.725509
9927.000000;1.723324
9926.000000;1.720249
9925.000000;1.716898
9924.000000;1.714800
9923.000000;1.715340
9922.000000;1.718237
9921.000000;1.721350
9920.000000;1.722260
9919.000000;1.720169
9918.000000;1.716289
9917.000000;1.712583
9916.000000;1.710330
9915.000000;1.709754
9914.000000;1.710464
9913.000000;1.711848
9912.000000;1.713142
9911.000000;1.713703
9910.000000;1.713458
9909.000000;1.712676
9908.000000;1.711148
9907.000000;1.708253
9906.000000;1.704293
9905.000000;1.701080
9904.000000;1.700260
9903.000000;1.701308
9902.000000;1.702063
9901.000000;1.701308
9900.000000;1.699901
9899.000000;1.699084
9898.000000;1.698830
9897.000000;1.698427
9896.000000;1.697732
9895.000000;1.696971
9894.000000;1.695813
9893.000000;1.693611
9892.000000;1.690579
9891.000000;1.687957
9890.000000;1.686774
9889.000000;1.686910
9888.000000;1.687472
9887.000000;1.687682
9886.000000;1.687308
9885.000000;1.686645
9884.000000;1.686299
9883.000000;1.686713
9882.000000;1.687550
9881.000000;1.687690
9880.000000;1.686277
9879.000000;1.683925
9878.000000;1.682620
9877.000000;1.684100
9876.000000;1.688142
9875.000000;1.692433
9874.000000;1.694318
9873.000000;1.692850
9872.000000;1.689148
9871.000000;1.684994
9870.000000;1.681482
9869.000000;1.678837
9868.000000;1.676924
9867.000000;1.675554
9866.000000;1.674571
9865.000000;1.673890
9864.000000;1.673417
9863.000000;1.672964
9862.000000;1.672341
9861.000000;1.671413
9860.000000;1.669904
9859.000000;1.667458
9858.000000;1.664343
9857.000000;1.661927
9856.000000;1.661842
9855.000000;1.664303
9854.000000;1.667403
9853.000000;1.668679
9852.000000;1.667355
9851.000000;1.664687
9850.000000;1.662447
9849.000000;1.661535
9848.000000;1.661939
9847.000000;1.663310
9846.000000;1.665111
9845.000000;1.666481
9844.000000;1.666591
9843.000000;1.665397
9842.000000;1.663780
9841.000000;1.662684
9840.000000;1.662151
9839.000000;1.661469
9838.000000;1.660186
9837.000000;1.658656
9836.000000;1.657399
9835.000000;1.656347
9834.000000;1.655223
9833.000000;1.654465
9832.000000;1.655030
9831.000000;1.656942
9830.000000;1.658500
9829.000000;1.657565
9828.000000;1.653853
9827.000000;1.649505
9826.000000;1.647125
9825.000000;1.647423
9824.000000;1.648731
9823.000000;1.648812
9822.000000;1.647177
9821.000000;1.645274
9820.000000;1.644408
9819.000000;1.644200
9818.000000;1.643430
9817.000000;1.641900
9816.000000;1.640655
9815.000000;1.640458
9814.000000;1.640867
9813.000000;1.641034
9812.000000;1.640721
9811.000000;1.640111
9810.000000;1.639139
9809.000000;1.637598
9808.000000;1.635729
9807.000000;1.634263
9806.000000;1.633917
9805.000000;1.634986
9804.000000;1.637104
9803.000000;1.639163
9802.000000;1.639816
9801.000000;1.638609
9800.000000;1.636423
9799.000000;1.634442
9798.000000;1.632911
9797.000000;1.631226
9796.000000;1.629084
9795.000000;1.627045
9794.000000;1.626046
9793.000000;1.626727
9792.000000;1.629091
9791.000000;1.632325
9790.000000;1.634939
9789.000000;1.635601
9788.000000;1.634217
9787.000000;1.632012
9786.000000;1.630283
9785.000000;1.629093
9784.000000;1.627412
9783.000000;1.624494
9782.000000;1.620827
9781.000000;1.617626
9780.000000;1.615647
9779.000000;1.614784
9778.000000;1.614677
9777.000000;1.615118
9776.000000;1.615608
9775.000000;1.615153
9774.000000;1.613178
9773.000000;1.610383
9772.000000;1.608089
9771.000000;1.607074
9770.000000;1.607549
9769.000000;1.609652
9768.000000;1.612829
9767.000000;1.614909
9766.000000;1.613409
9765.000000;1.608559
9764.000000;1.603606
9763.000000;1.601269
9762.000000;1.601174
9761.000000;1.601294
9760.000000;1.600790
9759.000000;1.600329
9758.000000;1.600178
9757.000000;1.599606
9756.000000;1.598268
9755.000000;1.596891
9754.000000;1.596202
9753.000000;1.596007
9752.000000;1.595619
9751.000000;1.594663
9750.000000;1.593305
9749.000000;1.592138
9748.000000;1.591869
9747.000000;1.592588
9746.000000;1.593485
9745.000000;1.593850
9744.000000;1.594114
9743.000000;1.595051
9742.000000;1.596122
9741.000000;1.595761
9740.000000;1.593549
9739.000000;1.590995
9738.000000;1.589662
9737.000000;1.589466
9736.000000;1.589297
9735.000000;1.588523
9734.000000;1.587203
9733.000000;1.585465
9732.000000;1.583533
9731.000000;1.581935
9730.000000;1.580936
9729.000000;1.580046
9728.000000;1.578747
9727.000000;1.577478
9726.000000;1.577233
9725.000000;1.578232
9724.000000;1.579525
9723.000000;1.579956
9722.000000;1.579239
9721.000000;1.578121
9720.000000;1.577723
9719.000000;1.578582
9718.000000;1.580041
9717.000000;1.580726
9716.000000;1.580036
9715.000000;1.578935
9714.000000;1.578760
9713.000000;1.579434
9712.000000;1.579360
9711.000000;1.577073
9710.000000;1.572666
9709.000000;1.567622
9708.000000;1.563633
9707.000000;1.561639
9706.000000;1.561578
9705.000000;1.562765
9704.000000;1.564489
9703.000000;1.566286
9702.000000;1.567705
9701.000000;1.568175
9700.000000;1.567481
9699.000000;1.566220
9698.000000;1.565258
9697.000000;1.564693
9696.000000;1.563817
9695.000000;1.562220
9694.000000;1.560469
9693.000000;1.559378
9692.000000;1.558845
9691.000000;1.557949
9690.000000;1.556238
9689.000000;1.554449
9688.000000;1.553695
9687.000000;1.554074
9686.000000;1.554383
9685.000000;1.553461
9684.000000;1.551712
9683.000000;1.550861
9682.000000;1.552033
9681.000000;1.554343
9680.000000;1.555685
9679.000000;1.554851
9678.000000;1.552575
9677.000000;1.550531
9676.000000;1.549795
9675.000000;1.550312
9674.000000;1.551260
9673.000000;1.551582
9672.000000;1.550545
9671.000000;1.548274
9670.000000;1.545711
9669.000000;1.543865
9668.000000;1.543055
9667.000000;1.542871
9666.000000;1.542685
9665.000000;1.542049
9664.000000;1.540765
9663.000000;1.538928
9662.000000;1.536955
9661.000000;1.535341
9660.000000;1.534312
9659.000000;1.533819
9658.000000;1.533806
9657.000000;1.534264
9656.000000;1.534906
9655.000000;1.535019
9654.000000;1.533964
9653.000000;1.531890
9652.000000;1.529760
9651.000000;1.528478
9650.000000;1.528118
9649.000000;1.528159
9648.000000;1.528306
9647.000000;1.528745
9646.000000;1.529526
9645.000000;1.529997
9644.000000;1.529187
9643.000000;1.526795
9642.000000;1.523665
9641.000000;1.521275
9640.000000;1.520693
9639.000000;1.521698
9638.000000;1.522741
9637.000000;1.522143
9636.000000;1.519784
9635.000000;1.517355
9634.000000;1.516516
9633.000000;1.516949
9632.000000;1.516752
9631.000000;1.514794
9630.000000;1.512062
9629.000000;1.510327
9628.000000;1.510128
9627.000000;1.510644
9626.000000;1.511077
9625.000000;1.511397
9624.000000;1.511813
9623.000000;1.512289
9622.000000;1.512715
9621.000000;1.513050
9620.000000;1.513104
9619.000000;1.512576
9618.000000;1.511462
9617.000000;1.510117
9616.000000;1.508806
9615.000000;1.507559
9614.000000;1.506537
9613.000000;1.506046
9612.000000;1.505948
9611.000000;1.505528
9610.000000;1.504278
9609.000000;1.502493
9608.000000;1.500823
9607.000000;1.499670
9606.000000;1.499299
9605.000000;1.499952
9604.000000;1.501299
9603.000000;1.502145
9602.000000;1.501424
9601.000000;1.499398
9600.000000;1.497254
9599.000000;1.495655
9598.000000;1.494389
9597.000000;1.493290
9596.000000;1.492611
9595.000000;1.492257
9594.000000;1.491480
9593.000000;1.489853
9592.000000;1.488027
9591.000000;1.487012
9590.000000;1.487040
9589.000000;1.487535
9588.000000;1.487806
9587.000000;1.487384
9586.000000;1.486046
9585.000000;1.484087
9584.000000;1.482438
9583.000000;1.481963
9582.000000;1.482550
9581.000000;1.483166
9580.000000;1.482893
9579.000000;1.481705
9578.000000;1.480236
9577.000000;1.479039
9576.000000;1.478199
9575.000000;1.477552
9574.000000;1.477177
9573.000000;1.477461
9572.000000;1.478480
9571.000000;1.479417
9570.000000;1.479142
9569.000000;1.477571
9568.000000;1.475911
9567.000000;1.475149
9566.000000;1.474855
9565.000000;1.474108
9564.000000;1.473130
9563.000000;1.473054
9562.000000;1.474207
9561.000000;1.475570
9560.000000;1.476180
9559.000000;1.476237
9558.000000;1.476386
9557.000000;1.476600
9556.000000;1.476426
9555.000000;1.475795
9554.000000;1.474854
9553.000000;1.473302
9552.000000;1.470776
9551.000000;1.467853
9550.000000;1.465847
9549.000000;1.465435
9548.000000;1.466030
9547.000000;1.466630
9546.000000;1.466737
9545.000000;1.466176
9544.000000;1.464636
9543.000000;1.462099
9542.000000;1.459465
9541.000000;1.457965
9540.000000;1.457828
9539.000000;1.458045
9538.000000;1.457638
9537.000000;1.456670
9536.000000;1.455778
9535.000000;1.455237
9534.000000;1.454970
9533.000000;1.455017
9532.000000;1.455336
9531.000000;1.455326
9530.000000;1.454262
9529.000000;1.452313
9528.000000;1.450513
9527.000000;1.449540
9526.000000;1.449131
9525.000000;1.448946
9524.000000;1.449321
9523.000000;1.450516
9522.000000;1.451672
9521.000000;1.451372
9520.000000;1.449236
9519.000000;1.446407
9518.000000;1.444361
9517.000000;1.443667
9516.000000;1.444005
9515.000000;1.444891
9514.000000;1.446067
9513.000000;1.447312
9512.000000;1.448104
9511.000000;1.447695
9510.000000;1.445756
9509.000000;1.443041
9508.000000;1.441045
9507.000000;1.440588
9506.000000;1.440850
9505.000000;1.440252
9504.000000;1.438293
9503.000000;1.436085
9502.000000;1.435023
9501.000000;1.435427
9500.000000;1.436582
9499.000000;1.437623
9498.000000;1.438099
9497.000000;1.437974
9496.000000;1.437447
9495.000000;1.436747
9494.000000;1.436013
9493.000000;1.435415
9492.000000;1.435241
9491.000000;1.435428
9490.000000;1.435095
9489.000000;1.433269
9488.000000;1.430361
9487.000000;1.428229
9486.000000;1.428272
9485.000000;1.429834
9484.000000;1.430944
9483.000000;1.430377
9482.000000;1.428458
9481.000000;1.426128
9480.000000;1.424107
9479.000000;1.422962
9478.000000;1.423069
9477.000000;1.424017
9476.000000;1.424502
9475.000000;1.423336
9474.000000;1.420623
9473.000000;1.417779
9472.000000;1.416403
9471.000000;1.417127
9470.000000;1.419165
9469.000000;1.420726
9468.000000;1.420299
9467.000000;1.417929
9466.000000;1.415155
9465.000000;1.413571
9464.000000;1.413603
9463.000000;1.414592
9462.000000;1.415653
9461.000000;1.416180
9460.000000;1.415919
9459.000000;1.415075
9458.000000;1.414279
9457.000000;1.414040
9456.000000;1.414151
9455.000000;1.413808
9454.000000;1.412482
9453.000000;1.410594
9452.000000;1.409210
9451.000000;1.409105
9450.000000;1.410092
9449.000000;1.411170
9448.000000;1.411364
9447.000000;1.410502
9446.000000;1.409140
9445.000000;1.407817
9444.000000;1.406605
9443.000000;1.405466
9442.000000;1.404670
9441.000000;1.404485
9440.000000;1.404568
9439.000000;1.404164
9438.000000;1.403042
9437.000000;1.401839
9436.000000;1.401227
9435.000000;1.401053
9434.000000;1.400557
9433.000000;1.399315
9432.000000;1.397620
9431.000000;1.395877
9430.000000;1.393986
9429.000000;1.391687
9428.000000;1.389447
9427.000000;1.388676
9426.000000;1.390717
9425.000000;1.395387
9424.000000;1.400561
9423.000000;1.403486
9422.000000;1.402894
9421.000000;1.399797
9420.000000;1.396180
9419.000000;1.393237
9418.000000;1.390961
9417.000000;1.388947
9416.000000;1.387047
9415.000000;1.385252
9414.000000;1.383503
9413.000000;1.382012
9412.000000;1.381462
9411.000000;1.382370
9410.000000;1.384232
9409.000000;1.385688
9408.000000;1.385804
9407.000000;1.385053
9406.000000;1.384719
9405.000000;1.385413
9404.000000;1.386452
9403.000000;1.386705
9402.000000;1.385825
9401.000000;1.384428
9400.000000;1.383181
9399.000000;1.382146
9398.000000;1.381213
9397.000000;1.380757
9396.000000;1.381365
9395.000000;1.382867
9394.000000;1.384048
9393.000000;1.383642
9392.000000;1.381530
9391.000000;1.378745
9390.000000;1.376338
9389.000000;1.374492
9388.000000;1.372818
9387.000000;1.371265
9386.000000;1.370456
9385.000000;1.371030
9384.000000;1.372754
9383.000000;1.374397
9382.000000;1.374698
9381.000000;1.373522
9380.000000;1.371967
9379.000000;1.371258
9378.000000;1.371687
9377.000000;1.372720
9376.000000;1.373775
9375.000000;1.374621
9374.000000;1.375080
9373.000000;1.374711
9372.000000;1.373055
9371.000000;1.370219
9370.000000;1.367089
9369.000000;1.364822
9368.000000;1.364080
9367.000000;1.364666
9366.000000;1.365772
9365.000000;1.366494
9364.000000;1.366262
9363.000000;1.365051
9362.000000;1.363356
9361.000000;1.361854
9360.000000;1.360824
9359.000000;1.359870
9358.000000;1.358427
9357.000000;1.356569
9356.000000;1.355083
9355.000000;1.354627
9354.000000;1.355067
9353.000000;1.355784
9352.000000;1.356409
9351.000000;1.356992
9350.000000;1.357531
9349.000000;1.357685
9348.000000;1.357103
9347.000000;1.355868
9346.000000;1.354434
9345.000000;1.353231
9344.000000;1.352360
9343.000000;1.351580
9342.000000;1.350595
9341.000000;1.349516
9340.000000;1.349009
9339.000000;1.349733
9338.000000;1.351509
9337.000000;1.353272
9336.000000;1.354038
9335.000000;1.353732
9334.000000;1.352845
9333.000000;1.351498
9332.000000;1.349317
9331.000000;1.346234
9330.000000;1.343031
9329.000000;1.340847
9328.000000;1.340270
9327.000000;1.341003
9326.000000;1.342205
9325.000000;1.343131
9324.000000;1.343643
9323.000000;1.344180
9322.000000;1.345102
9321.000000;1.346085
9320.000000;1.346314
9319.000000;1.345402
9318.000000;1.343910
9317.000000;1.342746
9316.000000;1.342208
9315.000000;1.341936
9314.000000;1.341639
9313.000000;1.341418
9312.000000;1.341338
9311.000000;1.341087
9310.000000;1.340312
9309.000000;1.339040
9308.000000;1.337538
9307.000000;1.336041
9306.000000;1.334866
9305.000000;1.334539
9304.000000;1.335379
9303.000000;1.336997
9302.000000;1.338529
9301.000000;1.339361
9300.000000;1.339445
9299.000000;1.338956
9298.000000;1.338019
9297.000000;1.336838
9296.000000;1.335724
9295.000000;1.334778
9294.000000;1.333783
9293.000000;1.332592
9292.000000;1.331420
9291.000000;1.330578
9290.000000;1.330062
9289.000000;1.329649
9288.000000;1.329287
9287.000000;1.329179
9286.000000;1.329497
9285.000000;1.330114
9284.000000;1.330557
9283.000000;1.330190
9282.000000;1.328649
9281.000000;1.326332
9280.000000;1.324368
9279.000000;1.323779
9278.000000;1.324576
9277.000000;1.325802
9276.000000;1.326456
9275.000000;1.326265
9274.000000;1.325645
9273.000000;1.325189
9272.000000;1.325209
9271.000000;1.325527
9270.000000;1.325588
9269.000000;1.324918
9268.000000;1.323581
9267.000000;1.322146
9266.000000;1.321188
9265.000000;1.320885
9264.000000;1.321048
9263.000000;1.321322
9262.000000;1.321333
9261.000000;1.320803
9260.000000;1.319678
9259.000000;1.318112
9258.000000;1.316322
9257.000000;1.314582
9256.000000;1.313315
9255.000000;1.312950
9254.000000;1.313532
9253.000000;1.314579
9252.000000;1.315456
9251.000000;1.315856
9250.000000;1.315906
9249.000000;1.315941
9248.000000;1.316285
9247.000000;1.317018
9246.000000;1.317796
9245.000000;1.318061
9244.000000;1.317560
9243.000000;1.316606
9242.000000;1.315554
9241.000000;1.314190
9240.000000;1.312143
9239.000000;1.309744
9238.000000;1.307960
9237.000000;1.307294
9236.000000;1.307209
9235.000000;1.306968
9234.000000;1.306597
9233.000000;1.306502
9232.000000;1.306451
9231.000000;1.305674
9230.000000;1.304011
9229.000000;1.302360
9228.000000;1.301744
9227.000000;1.302311
9226.000000;1.303422
9225.000000;1.304329
9224.000000;1.304570
9223.000000;1.304077
9222.000000;1.303298
9221.000000;1.303000
9220.000000;1.303535
9219.000000;1.304354
9218.000000;1.304490
9217.000000;1.303523
9216.000000;1.301864
9215.000000;1.300268
9214.000000;1.299335
9213.000000;1.299269
9212.000000;1.299714
9211.000000;1.299917
9210.000000;1.299470
9209.000000;1.298871
9208.000000;1.298903
9207.000000;1.299498
9206.000000;1.299715
9205.000000;1.298987
9204.000000;1.297949
9203.000000;1.297700
9202.000000;1.298486
9201.000000;1.299454
9200.000000;1.299513
9199.000000;1.298200
9198.000000;1.295924
9197.000000;1.293707
9196.000000;1.292531
9195.000000;1.292566
9194.000000;1.292957
9193.000000;1.292617
9192.000000;1.291377
9191.000000;1.290214
9190.000000;1.290305
9189.000000;1.291971
9188.000000;1.294404
9187.000000;1.296220
9186.000000;1.296329
9185.000000;1.294549
9184.000000;1.291622
9183.000000;1.288704
9182.000000;1.286748
9181.000000;1.286131
9180.000000;1.286593
9179.000000;1.287412
9178.000000;1.287842
9177.000000;1.287603
9176.000000;1.286940
9175.000000;1.286141
9174.000000;1.285240
9173.000000;1.284294
9172.000000;1.283678
9171.000000;1.283809
9170.000000;1.284623
9169.000000;1.285572
9168.000000;1.286100
9167.000000;1.285984
9166.000000;1.285282
9165.000000;1.284188
9164.000000;1.282945
9163.000000;1.281699
9162.000000;1.280466
9161.000000;1.279360
9160.000000;1.278740
9159.000000;1.278849
9158.000000;1.279386
9157.000000;1.279774
9156.000000;1.279882
9155.000000;1.280091
9154.000000;1.280569
9153.000000;1.280840
9152.000000;1.280310
9151.000000;1.278990
9150.000000;1.277456
9149.000000;1.276255
9148.000000;1.275638
9147.000000;1.275734
9146.000000;1.276562
9145.000000;1.277764
9144.000000;1.278550
9143.000000;1.278196
9142.000000;1.276705
9141.000000;1.274911
9140.000000;1.273829
9139.000000;1.273766
9138.000000;1.274000
9137.000000;1.273448
9136.000000;1.271796
9135.000000;1.269925
9134.000000;1.269095
9133.000000;1.269738
9132.000000;1.271157
9131.000000;1.272306
9130.000000;1.272703
9129.000000;1.272533
9128.000000;1.272108
9127.000000;1.271549
9126.000000;1.270985
9125.000000;1.270700
9124.000000;1.270869
9123.000000;1.271302
9122.000000;1.271661
9121.000000;1.271779
9120.000000;1.271575
9119.000000;1.270850
9118.000000;1.269575
9117.000000;1.268298
9116.000000;1.267747
9115.000000;1.267887
9114.000000;1.267807
9113.000000;1.266846
9112.000000;1.265497
9111.000000;1.264770
9110.000000;1.264867
9109.000000;1.265004
9108.000000;1.264510
9107.000000;1.263621
9106.000000;1.263051
9105.000000;1.263133
9104.000000;1.263610
9103.000000;1.264045
9102.000000;1.264303
9101.000000;1.264708
9100.000000;1.265702
9099.000000;1.267208
9098.000000;1.268465
9097.000000;1.268761
9096.000000;1.268216
9095.000000;1.267456
9094.000000;1.266627
9093.000000;1.265262
9092.000000;1.263227
9091.000000;1.261182
9090.000000;1.259822
9089.000000;1.259089
9088.000000;1.258507
9087.000000;1.257916
9086.000000;1.257470
9085.000000;1.257206
9084.000000;1.257117
9083.000000;1.257549
9082.000000;1.258988
9081.000000;1.261325
9080.000000;1.263649
9079.000000;1.264909
9078.000000;1.264652
9077.000000;1.263168
9076.000000;1.261134
9075.000000;1.259169
9074.000000;1.257540
9073.000000;1.256236
9072.000000;1.255374
9071.000000;1.255289
9070.000000;1.256038
9069.000000;1.257036
9068.000000;1.257532
9067.000000;1.257335
9066.000000;1.256792
9065.000000;1.256202
9064.000000;1.255602
9063.000000;1.255031
9062.000000;1.254548
9061.000000;1.254024
9060.000000;1.253318
9059.000000;1.252720
9058.000000;1.252782
9057.000000;1.253590
9056.000000;1.254575
9055.000000;1.255169
9054.000000;1.255278
9053.000000;1.255008
