Criado como novo conjunto de dados;"1909daniel.spp","-4269404.2 Secs"
cm-1;Abs
10000.000000;1.538451
9999.000000;1.538329
9998.000000;1.538394
9997.000000;1.537938
9996.000000;1.536653
9995.000000;1.534641
9994.000000;1.531909
9993.000000;1.528546
9992.000000;1.525446
9991.000000;1.524125
9990.000000;1.525289
9989.000000;1.527829
9988.000000;1.529745
9987.000000;1.530107
9986.000000;1.529662
9985.000000;1.529416
9984.000000;1.529253
9983.000000;1.528418
9982.000000;1.526976
9981.000000;1.525971
9980.000000;1.525991
9979.000000;1.526366
9978.000000;1.526168
9977.000000;1.525425
9976.000000;1.524766
9975.000000;1.524283
9974.000000;1.523443
9973.000000;1.521992
9972.000000;1.520340
9971.000000;1.519083
9970.000000;1.518595
9969.000000;1.518935
9968.000000;1.519628
9967.000000;1.519612
9966.000000;1.518058
9965.000000;1.515403
9964.000000;1.513069
9963.000000;1.511943
9962.000000;1.511523
9961.000000;1.510753
9960.000000;1.509341
9959.000000;1.507901
9958.000000;1.507025
9957.000000;1.506648
9956.000000;1.506294
9955.000000;1.505653
9954.000000;1.504831
9953.000000;1.504074
9952.000000;1.503323
9951.000000;1.502207
9950.000000;1.500620
9949.000000;1.499044
9948.000000;1.498029
9947.000000;1.497546
9946.000000;1.497157
9945.000000;1.496614
9944.000000;1.495973
9943.000000;1.495234
9942.000000;1.494381
9941.000000;1.493759
9940.000000;1.493850
9939.000000;1.494564
9938.000000;1.495188
9937.000000;1.495209
9936.000000;1.494746
9935.000000;1.494012
9934.000000;1.492947
9933.000000;1.491741
9932.000000;1.491083
9931.000000;1.491366
9930.000000;1.491917
9929.000000;1.491485
9928.000000;1.489568
9927.000000;1.487000
9926.000000;1.485208
9925.000000;1.484991
9924.000000;1.485893
9923.000000;1.486665
9922.000000;1.486447
9921.000000;1.485401
9920.000000;1.484040
9919.000000;1.482344
9918.000000;1.480172
9917.000000;1.478220
9916.000000;1.477543
9915.000000;1.477947
9914.000000;1.477820
9913.000000;1.476088
9912.000000;1.473564
9911.000000;1.471774
9910.000000;1.471216
9909.000000;1.471457
9908.000000;1.472205
9907.000000;1.473262
9906.000000;1.473831
9905.000000;1.473052
9904.000000;1.471261
9903.000000;1.469842
9902.000000;1.469680
9901.000000;1.470331
9900.000000;1.470727
9899.000000;1.470132
9898.000000;1.468445
9897.000000;1.466188
9896.000000;1.464323
9895.000000;1.463510
9894.000000;1.463385
9893.000000;1.462997
9892.000000;1.462026
9891.000000;1.461070
9890.000000;1.460668
9889.000000;1.460665
9888.000000;1.460742
9887.000000;1.460967
9886.000000;1.461408
9885.000000;1.461668
9884.000000;1.461251
9883.000000;1.460078
9882.000000;1.458354
9881.000000;1.456159
9880.000000;1.453546
9879.000000;1.450906
9878.000000;1.448880
9877.000000;1.447948
9876.000000;1.448207
9875.000000;1.449255
9874.000000;1.450182
9873.000000;1.450068
9872.000000;1.448785
9871.000000;1.447105
9870.000000;1.445820
9869.000000;1.445002
9868.000000;1.444346
9867.000000;1.443863
9866.000000;1.443697
9865.000000;1.443559
9864.000000;1.442951
9863.000000;1.441833
9862.000000;1.440566
9861.000000;1.439319
9860.000000;1.438090
9859.000000;1.437233
9858.000000;1.437266
9857.000000;1.437969
9856.000000;1.438307
9855.000000;1.437683
9854.000000;1.436726
9853.000000;1.436293
9852.000000;1.436162
9851.000000;1.435433
9850.000000;1.433988
9849.000000;1.432673
9848.000000;1.431945
9847.000000;1.431188
9846.000000;1.429775
9845.000000;1.428167
9844.000000;1.427288
9843.000000;1.427192
9842.000000;1.427077
9841.000000;1.426573
9840.000000;1.426274
9839.000000;1.426736
9838.000000;1.427496
9837.000000;1.427551
9836.000000;1.426601
9835.000000;1.425367
9834.000000;1.424647
9833.000000;1.424440
9832.000000;1.424146
9831.000000;1.423465
9830.000000;1.422848
9829.000000;1.422907
9828.000000;1.423479
9827.000000;1.423523
9826.000000;1.422185
9825.000000;1.419892
9824.000000;1.418046
9823.000000;1.417569
9822.000000;1.417957
9821.000000;1.417912
9820.000000;1.416745
9819.000000;1.414883
9818.000000;1.413092
9817.000000;1.411610
9816.000000;1.410271
9815.000000;1.409174
9814.000000;1.408749
9813.000000;1.409055
9812.000000;1.409374
9811.000000;1.408834
9810.000000;1.407327
9809.000000;1.405517
9808.000000;1.404059
9807.000000;1.403102
9806.000000;1.402510
9805.000000;1.402204
9804.000000;1.401995
9803.000000;1.401526
9802.000000;1.400821
9801.000000;1.400498
9800.000000;1.401038
9799.000000;1.402034
9798.000000;1.402463
9797.000000;1.401636
9796.000000;1.399695
9795.000000;1.397338
9794.000000;1.395417
9793.000000;1.394578
9792.000000;1.394788
9791.000000;1.395232
9790.000000;1.395013
9789.000000;1.393974
9788.000000;1.392656
9787.000000;1.391633
9786.000000;1.391208
9785.000000;1.391480
9784.000000;1.392185
9783.000000;1.392645
9782.000000;1.392389
9781.000000;1.391655
9780.000000;1.390758
9779.000000;1.389389
9778.000000;1.387380
9777.000000;1.385852
9776.000000;1.386348
9775.000000;1.388647
9774.000000;1.390580
9773.000000;1.390561
9772.000000;1.389327
9771.000000;1.388358
9770.000000;1.387613
9769.000000;1.385901
9768.000000;1.382874
9767.000000;1.379498
9766.000000;1.376832
9765.000000;1.375311
9764.000000;1.374978
9763.000000;1.375497
9762.000000;1.375991
9761.000000;1.375642
9760.000000;1.374600
9759.000000;1.373721
9758.000000;1.373407
9757.000000;1.373236
9756.000000;1.372696
9755.000000;1.371627
9754.000000;1.369970
9753.000000;1.367797
9752.000000;1.365786
9751.000000;1.364965
9750.000000;1.365593
9749.000000;1.366651
9748.000000;1.366773
9747.000000;1.365536
9746.000000;1.363649
9745.000000;1.362152
9744.000000;1.361721
9743.000000;1.362439
9742.000000;1.363787
9741.000000;1.364836
9740.000000;1.364758
9739.000000;1.363393
9738.000000;1.361410
9737.000000;1.359862
9736.000000;1.359356
9735.000000;1.359463
9734.000000;1.359077
9733.000000;1.357559
9732.000000;1.355412
9731.000000;1.353673
9730.000000;1.352813
9729.000000;1.352480
9728.000000;1.352111
9727.000000;1.351438
9726.000000;1.350485
9725.000000;1.349442
9724.000000;1.348548
9723.000000;1.347821
9722.000000;1.346979
9721.000000;1.345956
9720.000000;1.345342
9719.000000;1.345790
9718.000000;1.346971
9717.000000;1.347660
9716.000000;1.347075
9715.000000;1.345724
9714.000000;1.344594
9713.000000;1.343888
9712.000000;1.342926
9711.000000;1.341120
9710.000000;1.338765
9709.000000;1.336888
9708.000000;1.336435
9707.000000;1.337500
9706.000000;1.339167
9705.000000;1.340162
9704.000000;1.339811
9703.000000;1.338407
9702.000000;1.336759
9701.000000;1.335567
9700.000000;1.335116
9699.000000;1.335142
9698.000000;1.334918
9697.000000;1.333835
9696.000000;1.332157
9695.000000;1.330902
9694.000000;1.330756
9693.000000;1.331265
9692.000000;1.331322
9691.000000;1.330335
9690.000000;1.328696
9689.000000;1.327200
9688.000000;1.326302
9687.000000;1.325906
9686.000000;1.325629
9685.000000;1.325196
9684.000000;1.324671
9683.000000;1.324324
9682.000000;1.324205
9681.000000;1.323931
9680.000000;1.323026
9679.000000;1.321470
9678.000000;1.319803
9677.000000;1.318657
9676.000000;1.318225
9675.000000;1.318149
9674.000000;1.317873
9673.000000;1.317125
9672.000000;1.316072
9671.000000;1.315028
9670.000000;1.314077
9669.000000;1.313113
9668.000000;1.312176
9667.000000;1.311519
9666.000000;1.311188
9665.000000;1.310818
9664.000000;1.310099
9663.000000;1.309319
9662.000000;1.309052
9661.000000;1.309252
9660.000000;1.309076
9659.000000;1.307948
9658.000000;1.306458
9657.000000;1.305711
9656.000000;1.305971
9655.000000;1.306471
9654.000000;1.306528
9653.000000;1.306269
9652.000000;1.305963
9651.000000;1.305224
9650.000000;1.303517
9649.000000;1.301219
9648.000000;1.299442
9647.000000;1.298764
9646.000000;1.298696
9645.000000;1.298538
9644.000000;1.298192
9643.000000;1.297823
9642.000000;1.297231
9641.000000;1.296078
9640.000000;1.294551
9639.000000;1.293318
9638.000000;1.292830
9637.000000;1.292949
9636.000000;1.293210
9635.000000;1.293182
9634.000000;1.292620
9633.000000;1.291569
9632.000000;1.290355
9631.000000;1.289348
9630.000000;1.288655
9629.000000;1.288120
9628.000000;1.287536
9627.000000;1.286851
9626.000000;1.286221
9625.000000;1.285949
9624.000000;1.286223
9623.000000;1.286777
9622.000000;1.287048
9621.000000;1.286812
9620.000000;1.286348
9619.000000;1.285784
9618.000000;1.284718
9617.000000;1.282926
9616.000000;1.281097
9615.000000;1.280310
9614.000000;1.280806
9613.000000;1.281729
9612.000000;1.282092
9611.000000;1.281586
9610.000000;1.280415
9609.000000;1.278912
9608.000000;1.277535
9607.000000;1.276766
9606.000000;1.276662
9605.000000;1.276692
9604.000000;1.276274
9603.000000;1.275350
9602.000000;1.274258
9601.000000;1.273237
9600.000000;1.272283
9599.000000;1.271350
9598.000000;1.270429
9597.000000;1.269487
9596.000000;1.268539
9595.000000;1.267783
9594.000000;1.267476
9593.000000;1.267550
9592.000000;1.267413
9591.000000;1.266333
9590.000000;1.264190
9589.000000;1.261799
9588.000000;1.260264
9587.000000;1.259966
9586.000000;1.260348
9585.000000;1.260696
9584.000000;1.260833
9583.000000;1.260856
9582.000000;1.260578
9581.000000;1.259734
9580.000000;1.258558
9579.000000;1.257677
9578.000000;1.257403
9577.000000;1.257530
9576.000000;1.257756
9575.000000;1.257880
9574.000000;1.257613
9573.000000;1.256766
9572.000000;1.255718
9571.000000;1.255171
9570.000000;1.255185
9569.000000;1.254966
9568.000000;1.253921
9567.000000;1.252470
9566.000000;1.251375
9565.000000;1.250687
9564.000000;1.249922
9563.000000;1.249025
9562.000000;1.248519
9561.000000;1.248655
9560.000000;1.248894
9559.000000;1.248468
9558.000000;1.247226
9557.000000;1.245770
9556.000000;1.244881
9555.000000;1.244863
9554.000000;1.245263
9553.000000;1.245207
9552.000000;1.244167
9551.000000;1.242460
9550.000000;1.240867
9549.000000;1.239824
9548.000000;1.239192
9547.000000;1.238808
9546.000000;1.238881
9545.000000;1.239577
9544.000000;1.240389
9543.000000;1.240313
9542.000000;1.238789
9541.000000;1.236345
9540.000000;1.234117
9539.000000;1.232825
9538.000000;1.232382
9537.000000;1.232360
9536.000000;1.232476
9535.000000;1.232494
9534.000000;1.232019
9533.000000;1.230849
9532.000000;1.229439
9531.000000;1.228551
9530.000000;1.228351
9529.000000;1.228178
9528.000000;1.227385
9527.000000;1.226111
9526.000000;1.224943
9525.000000;1.224072
9524.000000;1.223166
9523.000000;1.222045
9522.000000;1.221128
9521.000000;1.221043
9520.000000;1.221892
9519.000000;1.222981
9518.000000;1.223306
9517.000000;1.222409
9516.000000;1.220784
9515.000000;1.219377
9514.000000;1.218653
9513.000000;1.218291
9512.000000;1.217773
9511.000000;1.217039
9510.000000;1.216383
9509.000000;1.215893
9508.000000;1.215252
9507.000000;1.214092
9506.000000;1.212411
9505.000000;1.210688
9504.000000;1.209661
9503.000000;1.209817
9502.000000;1.210891
9501.000000;1.211968
9500.000000;1.212338
9499.000000;1.212177
9498.000000;1.212135
9497.000000;1.212386
9496.000000;1.212414
9495.000000;1.211691
9494.000000;1.210307
9493.000000;1.208880
9492.000000;1.208046
9491.000000;1.208026
9490.000000;1.208497
9489.000000;1.208847
9488.000000;1.208778
9487.000000;1.208655
9486.000000;1.208974
9485.000000;1.209516
9484.000000;1.209415
9483.000000;1.208150
9482.000000;1.206104
9481.000000;1.203988
9480.000000;1.202120
9479.000000;1.200527
9478.000000;1.199376
9477.000000;1.198891
9476.000000;1.199010
9475.000000;1.199415
9474.000000;1.199769
9473.000000;1.199726
9472.000000;1.198925
9471.000000;1.197340
9470.000000;1.195476
9469.000000;1.193876
9468.000000;1.192533
9467.000000;1.191133
9466.000000;1.189764
9465.000000;1.188947
9464.000000;1.188892
9463.000000;1.189098
9462.000000;1.188896
9461.000000;1.188118
9460.000000;1.187119
9459.000000;1.186342
9458.000000;1.186082
9457.000000;1.186470
9456.000000;1.187440
9455.000000;1.188697
9454.000000;1.189751
9453.000000;1.189978
9452.000000;1.188842
9451.000000;1.186441
9450.000000;1.183821
9449.000000;1.182321
9448.000000;1.182333
9447.000000;1.182946
9446.000000;1.183018
9445.000000;1.182411
9444.000000;1.181859
9443.000000;1.181816
9442.000000;1.181913
9441.000000;1.181565
9440.000000;1.180694
9439.000000;1.179672
9438.000000;1.178783
9437.000000;1.178024
9436.000000;1.177368
9435.000000;1.176959
9434.000000;1.176883
9433.000000;1.176852
9432.000000;1.176315
9431.000000;1.174981
9430.000000;1.173177
9429.000000;1.171583
9428.000000;1.170636
9427.000000;1.170228
9426.000000;1.169955
9425.000000;1.169551
9424.000000;1.169059
9423.000000;1.168676
9422.000000;1.168526
9421.000000;1.168544
9420.000000;1.168525
9419.000000;1.168318
9418.000000;1.167991
9417.000000;1.167745
9416.000000;1.167610
9415.000000;1.167314
9414.000000;1.166557
9413.000000;1.165435
9412.000000;1.164471
9411.000000;1.164112
9410.000000;1.164219
9409.000000;1.164184
9408.000000;1.163668
9407.000000;1.163069
9406.000000;1.163010
9405.000000;1.163404
9404.000000;1.163409
9403.000000;1.162478
9402.000000;1.161090
9401.000000;1.160147
9400.000000;1.159888
9399.000000;1.159851
9398.000000;1.159728
9397.000000;1.159694
9396.000000;1.159808
9395.000000;1.159650
9394.000000;1.158809
9393.000000;1.157404
9392.000000;1.155851
9391.000000;1.154396
9390.000000;1.153121
9389.000000;1.152217
9388.000000;1.151944
9387.000000;1.152370
9386.000000;1.153242
9385.000000;1.154021
9384.000000;1.154105
9383.000000;1.153313
9382.000000;1.152243
9381.000000;1.151766
9380.000000;1.151968
9379.000000;1.151926
9378.000000;1.150843
9377.000000;1.149095
9376.000000;1.147750
9375.000000;1.147300
9374.000000;1.147308
9373.000000;1.147155
9372.000000;1.146694
9371.000000;1.146176
9370.000000;1.145903
9369.000000;1.145967
9368.000000;1.146098
9367.000000;1.145778
9366.000000;1.144762
9365.000000;1.143412
9364.000000;1.142249
9363.000000;1.141304
9362.000000;1.140268
9361.000000;1.139184
9360.000000;1.138532
9359.000000;1.138566
9358.000000;1.138969
9357.000000;1.139250
9356.000000;1.139119
9355.000000;1.138396
9354.000000;1.136951
9353.000000;1.134993
9352.000000;1.133168
9351.000000;1.132054
9350.000000;1.131668
9349.000000;1.131614
9348.000000;1.131634
9347.000000;1.131804
9346.000000;1.132235
9345.000000;1.132758
9344.000000;1.132981
9343.000000;1.132663
9342.000000;1.131999
9341.000000;1.131445
9340.000000;1.131176
9339.000000;1.130833
9338.000000;1.129976
9337.000000;1.128710
9336.000000;1.127645
9335.000000;1.127235
9334.000000;1.127339
9333.000000;1.127461
9332.000000;1.127246
9331.000000;1.126726
9330.000000;1.126229
9329.000000;1.126063
9328.000000;1.126213
9327.000000;1.126349
9326.000000;1.126188
9325.000000;1.125762
9324.000000;1.125194
9323.000000;1.124415
9322.000000;1.123346
9321.000000;1.122250
9320.000000;1.121550
9319.000000;1.121325
9318.000000;1.121269
9317.000000;1.121178
9316.000000;1.121121
9315.000000;1.121081
9314.000000;1.120749
9313.000000;1.119874
9312.000000;1.118620
9311.000000;1.117416
9310.000000;1.116607
9309.000000;1.116287
9308.000000;1.116326
9307.000000;1.116417
9306.000000;1.116258
9305.000000;1.115738
9304.000000;1.114876
9303.000000;1.113670
9302.000000;1.112250
9301.000000;1.111126
9300.000000;1.110894
9299.000000;1.111560
9298.000000;1.112428
9297.000000;1.112822
9296.000000;1.112735
9295.000000;1.112589
9294.000000;1.112600
9293.000000;1.112579
9292.000000;1.112190
9291.000000;1.111244
9290.000000;1.109830
9289.000000;1.108314
9288.000000;1.107143
9287.000000;1.106554
9286.000000;1.106501
9285.000000;1.106810
9284.000000;1.107274
9283.000000;1.107614
9282.000000;1.107593
9281.000000;1.107214
9280.000000;1.106661
9279.000000;1.106049
9278.000000;1.105450
9277.000000;1.105112
9276.000000;1.105303
9275.000000;1.105820
9274.000000;1.106025
9273.000000;1.105561
9272.000000;1.104733
9271.000000;1.104038
9270.000000;1.103628
9269.000000;1.103405
9268.000000;1.103216
9267.000000;1.102722
9266.000000;1.101456
9265.000000;1.099451
9264.000000;1.097574
9263.000000;1.096788
9262.000000;1.097127
9261.000000;1.097721
9260.000000;1.097813
9259.000000;1.097448
9258.000000;1.097148
9257.000000;1.097239
9256.000000;1.097614
9255.000000;1.097970
9254.000000;1.098087
9253.000000;1.097953
9252.000000;1.097660
9251.000000;1.097231
9250.000000;1.096608
9249.000000;1.095818
9248.000000;1.095031
9247.000000;1.094383
9246.000000;1.093839
9245.000000;1.093317
9244.000000;1.092807
9243.000000;1.092289
9242.000000;1.091681
9241.000000;1.090984
9240.000000;1.090315
9239.000000;1.089711
9238.000000;1.089008
9237.000000;1.088062
9236.000000;1.086982
9235.000000;1.086063
9234.000000;1.085621
9233.000000;1.085896
9232.000000;1.086826
9231.000000;1.087803
9230.000000;1.087997
9229.000000;1.087206
9228.000000;1.086094
9227.000000;1.085318
9226.000000;1.084741
9225.000000;1.083900
9224.000000;1.082988
9223.000000;1.082750
9222.000000;1.083400
9221.000000;1.084190
9220.000000;1.084269
9219.000000;1.083559
9218.000000;1.082533
9217.000000;1.081502
9216.000000;1.080476
9215.000000;1.079588
9214.000000;1.079211
9213.000000;1.079548
9212.000000;1.080251
9211.000000;1.080611
9210.000000;1.080129
9209.000000;1.078944
9208.000000;1.077674
9207.000000;1.076847
9206.000000;1.076514
9205.000000;1.076439
9204.000000;1.076502
9203.000000;1.076749
9202.000000;1.077046
9201.000000;1.076957
9200.000000;1.076212
9199.000000;1.075197
9198.000000;1.074758
9197.000000;1.075357
9196.000000;1.076517
9195.000000;1.077182
9194.000000;1.076683
9193.000000;1.075319
9192.000000;1.073992
9191.000000;1.073393
9190.000000;1.073568
9189.000000;1.074142
9188.000000;1.074701
9187.000000;1.074931
9186.000000;1.074592
9185.000000;1.073570
9184.000000;1.072015
9183.000000;1.070384
9182.000000;1.069273
9181.000000;1.069093
9180.000000;1.069769
9179.000000;1.070754
9178.000000;1.071458
9177.000000;1.071693
9176.000000;1.071638
9175.000000;1.071453
9174.000000;1.071074
9173.000000;1.070411
9172.000000;1.069540
9171.000000;1.068598
9170.000000;1.067628
9169.000000;1.066621
9168.000000;1.065652
9167.000000;1.064903
9166.000000;1.064595
9165.000000;1.064881
9164.000000;1.065668
9163.000000;1.066526
9162.000000;1.066926
9161.000000;1.066632
9160.000000;1.065806
9159.000000;1.064751
9158.000000;1.063706
9157.000000;1.062885
9156.000000;1.062467
9155.000000;1.062433
9154.000000;1.062552
9153.000000;1.062615
9152.000000;1.062558
9151.000000;1.062315
9150.000000;1.061751
9149.000000;1.060869
9148.000000;1.059917
9147.000000;1.059144
9146.000000;1.058599
9145.000000;1.058254
9144.000000;1.058157
9143.000000;1.058320
9142.000000;1.058618
9141.000000;1.058910
9140.000000;1.059114
9139.000000;1.059093
9138.000000;1.058724
9137.000000;1.058183
9136.000000;1.057890
9135.000000;1.057912
9134.000000;1.057695
9133.000000;1.056744
9132.000000;1.055431
9131.000000;1.054746
9130.000000;1.055266
9129.000000;1.056576
9128.000000;1.057662
9127.000000;1.057669
9126.000000;1.056402
9125.000000;1.054438
9124.000000;1.052759
9123.000000;1.052011
9122.000000;1.052034
9121.000000;1.052213
9120.000000;1.052210
9119.000000;1.052177
9118.000000;1.052379
9117.000000;1.052894
9116.000000;1.053626
9115.000000;1.054288
9114.000000;1.054395
9113.000000;1.053621
9112.000000;1.052271
9111.000000;1.051089
9110.000000;1.050487
9109.000000;1.050193
9108.000000;1.049787
9107.000000;1.049286
9106.000000;1.048991
9105.000000;1.048990
9104.000000;1.049100
9103.000000;1.049149
9102.000000;1.049024
9101.000000;1.048521
9100.000000;1.047482
9099.000000;1.046171
9098.000000;1.045222
9097.000000;1.045064
9096.000000;1.045514
9095.000000;1.046043
9094.000000;1.046371
9093.000000;1.046579
9092.000000;1.046675
9091.000000;1.046375
9090.000000;1.045534
9089.000000;1.044583
9088.000000;1.044173
9087.000000;1.044378
9086.000000;1.044509
9085.000000;1.043858
9084.000000;1.042480
9083.000000;1.041122
9082.000000;1.040550
9081.000000;1.041017
9080.000000;1.042180
9079.000000;1.043304
9078.000000;1.043696
9077.000000;1.043192
9076.000000;1.042222
9075.000000;1.041297
9074.000000;1.040541
9073.000000;1.039854
9072.000000;1.039362
9071.000000;1.039391
9070.000000;1.039989
9069.000000;1.040753
9068.000000;1.041197
9067.000000;1.041121
9066.000000;1.040623
9065.000000;1.039933
9064.000000;1.039320
9063.000000;1.038978
9062.000000;1.038858
9061.000000;1.038678
9060.000000;1.038210
9059.000000;1.037521
9058.000000;1.036888
9057.000000;1.036522
9056.000000;1.036405
9055.000000;1.036330
9054.000000;1.036083
9053.000000;1.035672
