Criado como novo conjunto de dados;"1909daniel.spp","-4270664.1 Secs"
cm-1;Abs
10000.000000;1.450352
9999.000000;1.450645
9998.000000;1.450893
9997.000000;1.451245
9996.000000;1.450973
9995.000000;1.449386
9994.000000;1.446933
9993.000000;1.444843
9992.000000;1.444526
9991.000000;1.446193
9990.000000;1.448398
9989.000000;1.449039
9988.000000;1.447220
9987.000000;1.444056
9986.000000;1.441499
9985.000000;1.440517
9984.000000;1.440589
9983.000000;1.440700
9982.000000;1.440384
9981.000000;1.439771
9980.000000;1.439101
9979.000000;1.438515
9978.000000;1.438048
9977.000000;1.437525
9976.000000;1.436527
9975.000000;1.434745
9974.000000;1.432466
9973.000000;1.430563
9972.000000;1.429816
9971.000000;1.430172
9970.000000;1.430655
9969.000000;1.430201
9968.000000;1.428775
9967.000000;1.427504
9966.000000;1.427506
9965.000000;1.428728
9964.000000;1.430060
9963.000000;1.430426
9962.000000;1.429526
9961.000000;1.427689
9960.000000;1.425542
9959.000000;1.423897
9958.000000;1.423287
9957.000000;1.423252
9956.000000;1.422660
9955.000000;1.421096
9954.000000;1.419499
9953.000000;1.419028
9952.000000;1.419656
9951.000000;1.420325
9950.000000;1.420210
9949.000000;1.419293
9948.000000;1.417842
9947.000000;1.415993
9946.000000;1.413935
9945.000000;1.411921
9944.000000;1.410029
9943.000000;1.408398
9942.000000;1.407678
9941.000000;1.408588
9940.000000;1.410760
9939.000000;1.412560
9938.000000;1.412481
9937.000000;1.410635
9936.000000;1.408549
9935.000000;1.407632
9934.000000;1.408045
9933.000000;1.408843
9932.000000;1.408939
9931.000000;1.407986
9930.000000;1.406492
9929.000000;1.405082
9928.000000;1.403787
9927.000000;1.402282
9926.000000;1.400562
9925.000000;1.398968
9924.000000;1.397649
9923.000000;1.396471
9922.000000;1.395514
9921.000000;1.395177
9920.000000;1.395600
9919.000000;1.396395
9918.000000;1.397132
9917.000000;1.397647
9916.000000;1.397637
9915.000000;1.396521
9914.000000;1.394182
9913.000000;1.391468
9912.000000;1.389439
9911.000000;1.388310
9910.000000;1.387557
9909.000000;1.386784
9908.000000;1.385988
9907.000000;1.385130
9906.000000;1.384159
9905.000000;1.383456
9904.000000;1.383612
9903.000000;1.384613
9902.000000;1.385743
9901.000000;1.386482
9900.000000;1.386955
9899.000000;1.387238
9898.000000;1.386849
9897.000000;1.385427
9896.000000;1.383517
9895.000000;1.382088
9894.000000;1.381455
9893.000000;1.381102
9892.000000;1.380434
9891.000000;1.379273
9890.000000;1.377718
9889.000000;1.376018
9888.000000;1.374639
9887.000000;1.373999
9886.000000;1.373960
9885.000000;1.373884
9884.000000;1.373400
9883.000000;1.372839
9882.000000;1.372585
9881.000000;1.372279
9880.000000;1.371111
9879.000000;1.368903
9878.000000;1.366531
9877.000000;1.365157
9876.000000;1.365199
9875.000000;1.366058
9874.000000;1.366662
9873.000000;1.366233
9872.000000;1.364750
9871.000000;1.362895
9870.000000;1.361518
9869.000000;1.360997
9868.000000;1.361058
9867.000000;1.361187
9866.000000;1.361151
9865.000000;1.360999
9864.000000;1.360658
9863.000000;1.359759
9862.000000;1.358040
9861.000000;1.355850
9860.000000;1.354083
9859.000000;1.353484
9858.000000;1.353998
9857.000000;1.354790
9856.000000;1.354876
9855.000000;1.353782
9854.000000;1.351729
9853.000000;1.349470
9852.000000;1.348014
9851.000000;1.348133
9850.000000;1.349644
9849.000000;1.351169
9848.000000;1.351097
9847.000000;1.349116
9846.000000;1.346534
9845.000000;1.344917
9844.000000;1.344730
9843.000000;1.345386
9842.000000;1.346113
9841.000000;1.346328
9840.000000;1.345481
9839.000000;1.343347
9838.000000;1.340635
9837.000000;1.338658
9836.000000;1.338037
9835.000000;1.338040
9834.000000;1.337541
9833.000000;1.336454
9832.000000;1.335819
9831.000000;1.336474
9830.000000;1.337966
9829.000000;1.338939
9828.000000;1.338491
9827.000000;1.337017
9826.000000;1.335644
9825.000000;1.334958
9824.000000;1.334473
9823.000000;1.333361
9822.000000;1.331509
9821.000000;1.329649
9820.000000;1.328520
9819.000000;1.328148
9818.000000;1.327937
9817.000000;1.327337
9816.000000;1.326404
9815.000000;1.325774
9814.000000;1.326029
9813.000000;1.327004
9812.000000;1.327821
9811.000000;1.327740
9810.000000;1.326828
9809.000000;1.325600
9808.000000;1.324253
9807.000000;1.322617
9806.000000;1.320662
9805.000000;1.318567
9804.000000;1.316378
9803.000000;1.314137
9802.000000;1.312417
9801.000000;1.312085
9800.000000;1.313216
9799.000000;1.314668
9798.000000;1.315131
9797.000000;1.314353
9796.000000;1.313075
9795.000000;1.312095
9794.000000;1.311708
9793.000000;1.311745
9792.000000;1.311745
9791.000000;1.311241
9790.000000;1.310221
9789.000000;1.309143
9788.000000;1.308349
9787.000000;1.307734
9786.000000;1.307215
9785.000000;1.307132
9784.000000;1.307706
9783.000000;1.308358
9782.000000;1.308096
9781.000000;1.306560
9780.000000;1.304293
9779.000000;1.302049
9778.000000;1.300262
9777.000000;1.299118
9776.000000;1.298640
9775.000000;1.298586
9774.000000;1.298584
9773.000000;1.298414
9772.000000;1.297929
9771.000000;1.296856
9770.000000;1.295090
9769.000000;1.293128
9768.000000;1.291736
9767.000000;1.291142
9766.000000;1.290865
9765.000000;1.290417
9764.000000;1.289817
9763.000000;1.289327
9762.000000;1.289072
9761.000000;1.289114
9760.000000;1.289518
9759.000000;1.290149
9758.000000;1.290668
9757.000000;1.290901
9756.000000;1.290941
9755.000000;1.290765
9754.000000;1.290089
9753.000000;1.288806
9752.000000;1.287266
9751.000000;1.285847
9750.000000;1.284431
9749.000000;1.282638
9748.000000;1.280467
9747.000000;1.278411
9746.000000;1.277007
9745.000000;1.276472
9744.000000;1.276710
9743.000000;1.277397
9742.000000;1.277994
9741.000000;1.277919
9740.000000;1.276891
9739.000000;1.275181
9738.000000;1.273449
9737.000000;1.272258
9736.000000;1.271678
9735.000000;1.271370
9734.000000;1.271054
9733.000000;1.270739
9732.000000;1.270430
9731.000000;1.269832
9730.000000;1.268646
9729.000000;1.267040
9728.000000;1.265471
9727.000000;1.264074
9726.000000;1.262645
9725.000000;1.261308
9724.000000;1.260745
9723.000000;1.261476
9722.000000;1.263145
9721.000000;1.264751
9720.000000;1.265384
9719.000000;1.264701
9718.000000;1.263036
9717.000000;1.261367
9716.000000;1.260773
9715.000000;1.261450
9714.000000;1.262350
9713.000000;1.262214
9712.000000;1.260908
9711.000000;1.259336
9710.000000;1.258177
9709.000000;1.257263
9708.000000;1.256245
9707.000000;1.255286
9706.000000;1.254694
9705.000000;1.254235
9704.000000;1.253315
9703.000000;1.251772
9702.000000;1.250146
9701.000000;1.249079
9700.000000;1.248642
9699.000000;1.248337
9698.000000;1.247682
9697.000000;1.246743
9696.000000;1.246016
9695.000000;1.245755
9694.000000;1.245548
9693.000000;1.244782
9692.000000;1.243508
9691.000000;1.242469
9690.000000;1.242125
9689.000000;1.242014
9688.000000;1.241418
9687.000000;1.240358
9686.000000;1.239428
9685.000000;1.238828
9684.000000;1.238171
9683.000000;1.237312
9682.000000;1.236722
9681.000000;1.236718
9680.000000;1.236812
9679.000000;1.236316
9678.000000;1.235315
9677.000000;1.234463
9676.000000;1.234009
9675.000000;1.233567
9674.000000;1.232840
9673.000000;1.232001
9672.000000;1.231264
9671.000000;1.230588
9670.000000;1.229996
9669.000000;1.229655
9668.000000;1.229418
9667.000000;1.228746
9666.000000;1.227454
9665.000000;1.226115
9664.000000;1.225311
9663.000000;1.224845
9662.000000;1.224165
9661.000000;1.223312
9660.000000;1.222852
9659.000000;1.222913
9658.000000;1.222885
9657.000000;1.222220
9656.000000;1.221116
9655.000000;1.220253
9654.000000;1.220116
9653.000000;1.220611
9652.000000;1.221075
9651.000000;1.220690
9650.000000;1.219239
9649.000000;1.217469
9648.000000;1.216425
9647.000000;1.216347
9646.000000;1.216466
9645.000000;1.215910
9644.000000;1.214478
9643.000000;1.212515
9642.000000;1.210534
9641.000000;1.209116
9640.000000;1.208676
9639.000000;1.209010
9638.000000;1.209411
9637.000000;1.209459
9636.000000;1.209344
9635.000000;1.209166
9634.000000;1.208443
9633.000000;1.206799
9632.000000;1.204751
9631.000000;1.203242
9630.000000;1.202576
9629.000000;1.202294
9628.000000;1.201943
9627.000000;1.201484
9626.000000;1.201001
9625.000000;1.200518
9624.000000;1.200145
9623.000000;1.199972
9622.000000;1.199744
9621.000000;1.199045
9620.000000;1.197920
9619.000000;1.196955
9618.000000;1.196588
9617.000000;1.196588
9616.000000;1.196371
9615.000000;1.195650
9614.000000;1.194683
9613.000000;1.193955
9612.000000;1.193698
9611.000000;1.193621
9610.000000;1.193129
9609.000000;1.191944
9608.000000;1.190475
9607.000000;1.189396
9606.000000;1.188947
9605.000000;1.188900
9604.000000;1.189059
9603.000000;1.189335
9602.000000;1.189339
9601.000000;1.188414
9600.000000;1.186409
9599.000000;1.184108
9598.000000;1.182551
9597.000000;1.182075
9596.000000;1.182149
9595.000000;1.181969
9594.000000;1.181078
9593.000000;1.179615
9592.000000;1.178208
9591.000000;1.177509
9590.000000;1.177611
9589.000000;1.177919
9588.000000;1.177718
9587.000000;1.176827
9586.000000;1.175618
9585.000000;1.174528
9584.000000;1.173718
9583.000000;1.173132
9582.000000;1.172662
9581.000000;1.172244
9580.000000;1.171918
9579.000000;1.171781
9578.000000;1.171835
9577.000000;1.171905
9576.000000;1.171768
9575.000000;1.171323
9574.000000;1.170588
9573.000000;1.169607
9572.000000;1.168381
9571.000000;1.166845
9570.000000;1.165003
9569.000000;1.163248
9568.000000;1.162428
9567.000000;1.163132
9566.000000;1.164743
9565.000000;1.165625
9564.000000;1.164713
9563.000000;1.162711
9562.000000;1.161206
9561.000000;1.160770
9560.000000;1.160503
9559.000000;1.159463
9558.000000;1.157945
9557.000000;1.156967
9556.000000;1.156890
9555.000000;1.157058
9554.000000;1.156701
9553.000000;1.155801
9552.000000;1.154935
9551.000000;1.154540
9550.000000;1.154539
9549.000000;1.154607
9548.000000;1.154577
9547.000000;1.154519
9546.000000;1.154493
9545.000000;1.154347
9544.000000;1.153792
9543.000000;1.152652
9542.000000;1.151049
9541.000000;1.149418
9540.000000;1.148327
9539.000000;1.148145
9538.000000;1.148693
9537.000000;1.149214
9536.000000;1.148864
9535.000000;1.147394
9534.000000;1.145356
9533.000000;1.143618
9532.000000;1.142636
9531.000000;1.142119
9530.000000;1.141327
9529.000000;1.139762
9528.000000;1.137698
9527.000000;1.136008
9526.000000;1.135406
9525.000000;1.135854
9524.000000;1.136732
9523.000000;1.137485
9522.000000;1.137944
9521.000000;1.138065
9520.000000;1.137707
9519.000000;1.136862
9518.000000;1.135916
9517.000000;1.135388
9516.000000;1.135380
9515.000000;1.135473
9514.000000;1.135228
9513.000000;1.134647
9512.000000;1.134054
9511.000000;1.133625
9510.000000;1.133186
9509.000000;1.132424
9508.000000;1.131167
9507.000000;1.129454
9506.000000;1.127461
9505.000000;1.125508
9504.000000;1.124114
9503.000000;1.123801
9502.000000;1.124650
9501.000000;1.126058
9500.000000;1.127076
9499.000000;1.127109
9498.000000;1.126333
9497.000000;1.125436
9496.000000;1.124953
9495.000000;1.124819
9494.000000;1.124575
9493.000000;1.123956
9492.000000;1.123147
9491.000000;1.122379
9490.000000;1.121476
9489.000000;1.120134
9488.000000;1.118622
9487.000000;1.117761
9486.000000;1.117959
9485.000000;1.118592
9484.000000;1.118684
9483.000000;1.118005
9482.000000;1.117129
9481.000000;1.116494
9480.000000;1.115884
9479.000000;1.114901
9478.000000;1.113567
9477.000000;1.112239
9476.000000;1.111213
9475.000000;1.110574
9474.000000;1.110229
9473.000000;1.109919
9472.000000;1.109382
9471.000000;1.108632
9470.000000;1.107925
9469.000000;1.107347
9468.000000;1.106683
9467.000000;1.105821
9466.000000;1.105029
9465.000000;1.104608
9464.000000;1.104468
9463.000000;1.104319
9462.000000;1.104089
9461.000000;1.103879
9460.000000;1.103632
9459.000000;1.103191
9458.000000;1.102622
9457.000000;1.102175
9456.000000;1.101931
9455.000000;1.101769
9454.000000;1.101639
9453.000000;1.101525
9452.000000;1.101164
9451.000000;1.100203
9450.000000;1.098755
9449.000000;1.097412
9448.000000;1.096525
9447.000000;1.095803
9446.000000;1.094878
9445.000000;1.093935
9444.000000;1.093434
9443.000000;1.093390
9442.000000;1.093359
9441.000000;1.093084
9440.000000;1.092781
9439.000000;1.092730
9438.000000;1.092872
9437.000000;1.092949
9436.000000;1.092772
9435.000000;1.092226
9434.000000;1.091241
9433.000000;1.089940
9432.000000;1.088624
9431.000000;1.087450
9430.000000;1.086281
9429.000000;1.085077
9428.000000;1.084233
9427.000000;1.084176
9426.000000;1.084703
9425.000000;1.085099
9424.000000;1.084979
9423.000000;1.084606
9422.000000;1.084266
9421.000000;1.083805
9420.000000;1.083080
9419.000000;1.082477
9418.000000;1.082446
9417.000000;1.082745
9416.000000;1.082707
9415.000000;1.082187
9414.000000;1.081638
9413.000000;1.081197
9412.000000;1.080346
9411.000000;1.078806
9410.000000;1.077199
9409.000000;1.076361
9408.000000;1.076311
9407.000000;1.076367
9406.000000;1.076037
9405.000000;1.075323
9404.000000;1.074324
9403.000000;1.073110
9402.000000;1.071993
9401.000000;1.071410
9400.000000;1.071377
9399.000000;1.071381
9398.000000;1.070978
9397.000000;1.070227
9396.000000;1.069448
9395.000000;1.068845
9394.000000;1.068516
9393.000000;1.068510
9392.000000;1.068619
9391.000000;1.068344
9390.000000;1.067375
9389.000000;1.066048
9388.000000;1.065079
9387.000000;1.064860
9386.000000;1.065163
9385.000000;1.065518
9384.000000;1.065716
9383.000000;1.065838
9382.000000;1.065916
9381.000000;1.065721
9380.000000;1.065015
9379.000000;1.063922
9378.000000;1.062901
9377.000000;1.062272
9376.000000;1.061931
9375.000000;1.061581
9374.000000;1.061075
9373.000000;1.060441
9372.000000;1.059746
9371.000000;1.059151
9370.000000;1.058920
9369.000000;1.059109
9368.000000;1.059326
9367.000000;1.059074
9366.000000;1.058338
9365.000000;1.057559
9364.000000;1.057049
9363.000000;1.056669
9362.000000;1.056080
9361.000000;1.055049
9360.000000;1.053512
9359.000000;1.051663
9358.000000;1.050052
9357.000000;1.049270
9356.000000;1.049348
9355.000000;1.049651
9354.000000;1.049520
9353.000000;1.048848
9352.000000;1.047999
9351.000000;1.047350
9350.000000;1.047000
9349.000000;1.046733
9348.000000;1.046218
9347.000000;1.045420
9346.000000;1.044818
9345.000000;1.044933
9344.000000;1.045583
9343.000000;1.045985
9342.000000;1.045711
9341.000000;1.045166
9340.000000;1.044892
9339.000000;1.044800
9338.000000;1.044468
9337.000000;1.043896
9336.000000;1.043493
9335.000000;1.043395
9334.000000;1.043210
9333.000000;1.042470
9332.000000;1.041107
9331.000000;1.039502
9330.000000;1.038205
9329.000000;1.037557
9328.000000;1.037435
9327.000000;1.037439
9326.000000;1.037398
9325.000000;1.037488
9324.000000;1.037719
9323.000000;1.037616
9322.000000;1.036742
9321.000000;1.035374
9320.000000;1.034269
9319.000000;1.033816
9318.000000;1.033787
9317.000000;1.033851
9316.000000;1.033917
9315.000000;1.033919
9314.000000;1.033645
9313.000000;1.032989
9312.000000;1.032157
9311.000000;1.031450
9310.000000;1.030917
9309.000000;1.030325
9308.000000;1.029431
9307.000000;1.028293
9306.000000;1.027343
9305.000000;1.027066
9304.000000;1.027458
9303.000000;1.027888
9302.000000;1.027719
9301.000000;1.027004
9300.000000;1.026335
9299.000000;1.026028
9298.000000;1.025766
9297.000000;1.025099
9296.000000;1.024072
9295.000000;1.023189
9294.000000;1.022922
9293.000000;1.023316
9292.000000;1.023976
9291.000000;1.024359
9290.000000;1.024149
9289.000000;1.023391
9288.000000;1.022280
9287.000000;1.021007
9286.000000;1.019897
9285.000000;1.019466
9284.000000;1.019988
9283.000000;1.021013
9282.000000;1.021612
9281.000000;1.021220
9280.000000;1.020070
9279.000000;1.018804
9278.000000;1.017903
9277.000000;1.017487
9276.000000;1.017395
9275.000000;1.017286
9274.000000;1.016884
9273.000000;1.016266
9272.000000;1.015753
9271.000000;1.015480
9270.000000;1.015275
9269.000000;1.015065
9268.000000;1.015095
9267.000000;1.015504
9266.000000;1.015916
9265.000000;1.015746
9264.000000;1.014824
9263.000000;1.013467
9262.000000;1.012016
9261.000000;1.010614
9260.000000;1.009441
9259.000000;1.008803
9258.000000;1.008753
9257.000000;1.008828
9256.000000;1.008441
9255.000000;1.007544
9254.000000;1.006677
9253.000000;1.006337
9252.000000;1.006477
9251.000000;1.006759
9250.000000;1.007108
9249.000000;1.007712
9248.000000;1.008419
9247.000000;1.008474
9246.000000;1.007219
9245.000000;1.005002
9244.000000;1.003048
9243.000000;1.002292
9242.000000;1.002502
9241.000000;1.002653
9240.000000;1.002050
9239.000000;1.000930
9238.000000;1.000025
9237.000000;0.999757
9236.000000;0.999945
9235.000000;1.000149
9234.000000;1.000148
9233.000000;1.000037
9232.000000;0.999972
9231.000000;0.999934
9230.000000;0.999770
9229.000000;0.999362
9228.000000;0.998722
9227.000000;0.997977
9226.000000;0.997330
9225.000000;0.996937
9224.000000;0.996731
9223.000000;0.996443
9222.000000;0.995898
9221.000000;0.995262
9220.000000;0.994876
9219.000000;0.994866
9218.000000;0.995028
9217.000000;0.995078
9216.000000;0.994898
9215.000000;0.994539
9214.000000;0.994117
9213.000000;0.993755
9212.000000;0.993519
9211.000000;0.993345
9210.000000;0.993100
9209.000000;0.992776
9208.000000;0.992523
9207.000000;0.992428
9206.000000;0.992294
9205.000000;0.991756
9204.000000;0.990641
9203.000000;0.989173
9202.000000;0.987801
9201.000000;0.986838
9200.000000;0.986323
9199.000000;0.986193
9198.000000;0.986463
9197.000000;0.987102
9196.000000;0.987778
9195.000000;0.987941
9194.000000;0.987293
9193.000000;0.986078
9192.000000;0.984823
9191.000000;0.983921
9190.000000;0.983531
9189.000000;0.983676
9188.000000;0.984189
9187.000000;0.984637
9186.000000;0.984590
9185.000000;0.984017
9184.000000;0.983262
9183.000000;0.982640
9182.000000;0.982237
9181.000000;0.982113
9180.000000;0.982426
9179.000000;0.983185
9178.000000;0.984018
9177.000000;0.984378
9176.000000;0.984013
9175.000000;0.983162
9174.000000;0.982276
9173.000000;0.981598
9172.000000;0.981039
9171.000000;0.980417
9170.000000;0.979763
9169.000000;0.979307
9168.000000;0.979154
9167.000000;0.979120
9166.000000;0.978956
9165.000000;0.978597
9164.000000;0.978093
9163.000000;0.977424
9162.000000;0.976614
9161.000000;0.975927
9160.000000;0.975676
9159.000000;0.975822
9158.000000;0.975983
9157.000000;0.975859
9156.000000;0.975421
9155.000000;0.974686
9154.000000;0.973646
9153.000000;0.972544
9152.000000;0.971947
9151.000000;0.972263
9150.000000;0.973244
9149.000000;0.974174
9148.000000;0.974514
9147.000000;0.974225
9146.000000;0.973554
9145.000000;0.972720
9144.000000;0.971838
9143.000000;0.970981
9142.000000;0.970210
9141.000000;0.969586
9140.000000;0.969173
9139.000000;0.969046
9138.000000;0.969254
9137.000000;0.969737
9136.000000;0.970227
9135.000000;0.970311
9134.000000;0.969729
9133.000000;0.968677
9132.000000;0.967729
9131.000000;0.967343
9130.000000;0.967448
9129.000000;0.967567
9128.000000;0.967305
9127.000000;0.966670
9126.000000;0.965978
9125.000000;0.965540
9124.000000;0.965421
9123.000000;0.965426
9122.000000;0.965276
9121.000000;0.964828
9120.000000;0.964180
9119.000000;0.963595
9118.000000;0.963344
9117.000000;0.963543
9116.000000;0.964065
9115.000000;0.964621
9114.000000;0.964997
9113.000000;0.965238
9112.000000;0.965542
9111.000000;0.965957
9110.000000;0.966243
9109.000000;0.966085
9108.000000;0.965420
9107.000000;0.964528
9106.000000;0.963779
9105.000000;0.963285
9104.000000;0.962768
9103.000000;0.961824
9102.000000;0.960378
9101.000000;0.958849
9100.000000;0.957830
9099.000000;0.957602
9098.000000;0.958018
9097.000000;0.958762
9096.000000;0.959557
9095.000000;0.960157
9094.000000;0.960350
9093.000000;0.960110
9092.000000;0.959639
9091.000000;0.959136
9090.000000;0.958552
9089.000000;0.957646
9088.000000;0.956289
9087.000000;0.954704
9086.000000;0.953390
9085.000000;0.952770
9084.000000;0.952833
9083.000000;0.953115
9082.000000;0.953151
9081.000000;0.952968
9080.000000;0.952998
9079.000000;0.953453
9078.000000;0.953982
9077.000000;0.954075
9076.000000;0.953693
9075.000000;0.953278
9074.000000;0.953187
9073.000000;0.953344
9072.000000;0.953494
9071.000000;0.953575
9070.000000;0.953673
9069.000000;0.953743
9068.000000;0.953586
9067.000000;0.953079
9066.000000;0.952272
9065.000000;0.951242
9064.000000;0.950016
9063.000000;0.948714
9062.000000;0.947628
9061.000000;0.946999
9060.000000;0.946789
9059.000000;0.946810
9058.000000;0.947051
9057.000000;0.947688
9056.000000;0.948708
9055.000000;0.949632
9054.000000;0.949768
9053.000000;0.948801
