Criado como novo conjunto de dados;"1909daniel.spp","-4217561.4 Secs"
cm-1;Abs
10000.000000;1.352806
9999.000000;1.353674
9998.000000;1.353650
9997.000000;1.353039
9996.000000;1.352395
9995.000000;1.351689
9994.000000;1.350731
9993.000000;1.349497
9992.000000;1.348575
9991.000000;1.348579
9990.000000;1.349453
9989.000000;1.350272
9988.000000;1.349947
9987.000000;1.348001
9986.000000;1.344792
9985.000000;1.341300
9984.000000;1.338681
9983.000000;1.337633
9982.000000;1.337837
9981.000000;1.338238
9980.000000;1.338089
9979.000000;1.337610
9978.000000;1.337470
9977.000000;1.337913
9976.000000;1.338690
9975.000000;1.339574
9974.000000;1.340437
9973.000000;1.340858
9972.000000;1.340191
9971.000000;1.338306
9970.000000;1.335988
9969.000000;1.334346
9968.000000;1.333890
9967.000000;1.334231
9966.000000;1.334538
9965.000000;1.334171
9964.000000;1.333041
9963.000000;1.331595
9962.000000;1.330496
9961.000000;1.330203
9960.000000;1.330636
9959.000000;1.331149
9958.000000;1.330944
9957.000000;1.329788
9956.000000;1.328393
9955.000000;1.327841
9954.000000;1.328446
9953.000000;1.329320
9952.000000;1.329210
9951.000000;1.327621
9950.000000;1.325070
9949.000000;1.322487
9948.000000;1.320617
9947.000000;1.319800
9946.000000;1.319886
9945.000000;1.320227
9944.000000;1.320037
9943.000000;1.318982
9942.000000;1.317409
9941.000000;1.316018
9940.000000;1.315351
9939.000000;1.315443
9938.000000;1.315783
9937.000000;1.315702
9936.000000;1.314988
9935.000000;1.314027
9934.000000;1.313174
9933.000000;1.312160
9932.000000;1.310436
9931.000000;1.308029
9930.000000;1.305756
9929.000000;1.304505
9928.000000;1.304531
9927.000000;1.305425
9926.000000;1.306470
9925.000000;1.306959
9924.000000;1.306503
9923.000000;1.305284
9922.000000;1.303944
9921.000000;1.303100
9920.000000;1.303006
9919.000000;1.303573
9918.000000;1.304433
9917.000000;1.304994
9916.000000;1.304748
9915.000000;1.303800
9914.000000;1.302853
9913.000000;1.302396
9912.000000;1.302045
9911.000000;1.300996
9910.000000;1.299125
9909.000000;1.297245
9908.000000;1.296101
9907.000000;1.295420
9906.000000;1.294300
9905.000000;1.292492
9904.000000;1.290910
9903.000000;1.290656
9902.000000;1.291721
9901.000000;1.292895
9900.000000;1.292966
9899.000000;1.291841
9898.000000;1.290428
9897.000000;1.289638
9896.000000;1.289690
9895.000000;1.290150
9894.000000;1.290358
9893.000000;1.289794
9892.000000;1.288329
9891.000000;1.286310
9890.000000;1.284381
9889.000000;1.283039
9888.000000;1.282273
9887.000000;1.281662
9886.000000;1.280904
9885.000000;1.280286
9884.000000;1.280479
9883.000000;1.281728
9882.000000;1.283384
9881.000000;1.284403
9880.000000;1.284285
9879.000000;1.283328
9878.000000;1.282019
9877.000000;1.280517
9876.000000;1.278831
9875.000000;1.277191
9874.000000;1.275985
9873.000000;1.275421
9872.000000;1.275347
9871.000000;1.275294
9870.000000;1.274714
9869.000000;1.273482
9868.000000;1.272169
9867.000000;1.271458
9866.000000;1.271184
9865.000000;1.270399
9864.000000;1.268705
9863.000000;1.267079
9862.000000;1.266846
9861.000000;1.268106
9860.000000;1.269660
9859.000000;1.270296
9858.000000;1.269663
9857.000000;1.268086
9856.000000;1.266142
9855.000000;1.264442
9854.000000;1.263218
9853.000000;1.262028
9852.000000;1.260358
9851.000000;1.258554
9850.000000;1.257574
9849.000000;1.257702
9848.000000;1.258107
9847.000000;1.257978
9846.000000;1.257539
9845.000000;1.257437
9844.000000;1.257562
9843.000000;1.257115
9842.000000;1.255723
9841.000000;1.253968
9840.000000;1.252760
9839.000000;1.252547
9838.000000;1.253109
9837.000000;1.253799
9836.000000;1.253944
9835.000000;1.253280
9834.000000;1.252128
9833.000000;1.251081
9832.000000;1.250538
9831.000000;1.250499
9830.000000;1.250616
9829.000000;1.250275
9828.000000;1.248945
9827.000000;1.246850
9826.000000;1.245116
9825.000000;1.244859
9824.000000;1.246006
9823.000000;1.247209
9822.000000;1.247023
9821.000000;1.245133
9820.000000;1.242389
9819.000000;1.239849
9818.000000;1.237984
9817.000000;1.236719
9816.000000;1.235983
9815.000000;1.236013
9814.000000;1.236971
9813.000000;1.238381
9812.000000;1.239286
9811.000000;1.239069
9810.000000;1.237916
9809.000000;1.236381
9808.000000;1.234781
9807.000000;1.233232
9806.000000;1.231962
9805.000000;1.231200
9804.000000;1.230838
9803.000000;1.230544
9802.000000;1.230179
9801.000000;1.229771
9800.000000;1.229160
9799.000000;1.228075
9798.000000;1.226698
9797.000000;1.225731
9796.000000;1.225651
9795.000000;1.226072
9794.000000;1.226125
9793.000000;1.225365
9792.000000;1.224149
9791.000000;1.223167
9790.000000;1.222819
9789.000000;1.223001
9788.000000;1.223307
9787.000000;1.223333
9786.000000;1.222884
9785.000000;1.221994
9784.000000;1.220791
9783.000000;1.219412
9782.000000;1.218040
9781.000000;1.216977
9780.000000;1.216595
9779.000000;1.217079
9778.000000;1.218075
9777.000000;1.218654
9776.000000;1.217905
9775.000000;1.215790
9774.000000;1.213250
9773.000000;1.211266
9772.000000;1.209957
9771.000000;1.208788
9770.000000;1.207500
9769.000000;1.206460
9768.000000;1.206053
9767.000000;1.206108
9766.000000;1.206136
9765.000000;1.205932
9764.000000;1.205722
9763.000000;1.205811
9762.000000;1.206200
9761.000000;1.206460
9760.000000;1.205944
9759.000000;1.204372
9758.000000;1.202294
9757.000000;1.200720
9756.000000;1.200135
9755.000000;1.200113
9754.000000;1.200071
9753.000000;1.200012
9752.000000;1.200109
9751.000000;1.199893
9750.000000;1.198587
9749.000000;1.196300
9748.000000;1.194249
9747.000000;1.193476
9746.000000;1.193768
9745.000000;1.194150
9744.000000;1.194076
9743.000000;1.193711
9742.000000;1.193251
9741.000000;1.192528
9740.000000;1.191382
9739.000000;1.190056
9738.000000;1.189047
9737.000000;1.188710
9736.000000;1.189062
9735.000000;1.189768
9734.000000;1.190254
9733.000000;1.189987
9732.000000;1.188839
9731.000000;1.187150
9730.000000;1.185405
9729.000000;1.183912
9728.000000;1.182788
9727.000000;1.182075
9726.000000;1.181714
9725.000000;1.181456
9724.000000;1.180948
9723.000000;1.180016
9722.000000;1.178887
9721.000000;1.178082
9720.000000;1.177984
9719.000000;1.178456
9718.000000;1.178925
9717.000000;1.178866
9716.000000;1.178173
9715.000000;1.177071
9714.000000;1.175840
9713.000000;1.174735
9712.000000;1.173967
9711.000000;1.173527
9710.000000;1.173108
9709.000000;1.172431
9708.000000;1.171626
9707.000000;1.171040
9706.000000;1.170704
9705.000000;1.170244
9704.000000;1.169356
9703.000000;1.168128
9702.000000;1.166799
9701.000000;1.165459
9700.000000;1.164173
9699.000000;1.163209
9698.000000;1.162908
9697.000000;1.163360
9696.000000;1.164263
9695.000000;1.165000
9694.000000;1.164899
9693.000000;1.163754
9692.000000;1.162188
9691.000000;1.161197
9690.000000;1.161094
9689.000000;1.161147
9688.000000;1.160516
9687.000000;1.159265
9686.000000;1.158081
9685.000000;1.157248
9684.000000;1.156423
9683.000000;1.155385
9682.000000;1.154486
9681.000000;1.154223
9680.000000;1.154744
9679.000000;1.155883
9678.000000;1.157269
9677.000000;1.158229
9676.000000;1.157975
9675.000000;1.156278
9674.000000;1.153770
9673.000000;1.151374
9672.000000;1.149594
9671.000000;1.148441
9670.000000;1.147698
9669.000000;1.147057
9668.000000;1.146263
9667.000000;1.145457
9666.000000;1.145172
9665.000000;1.145615
9664.000000;1.146176
9663.000000;1.146109
9662.000000;1.145539
9661.000000;1.145184
9660.000000;1.145154
9659.000000;1.144682
9658.000000;1.143283
9657.000000;1.141594
9656.000000;1.140625
9655.000000;1.140567
9654.000000;1.140780
9653.000000;1.140728
9652.000000;1.140340
9651.000000;1.139549
9650.000000;1.138126
9649.000000;1.136235
9648.000000;1.134672
9647.000000;1.134113
9646.000000;1.134277
9645.000000;1.134175
9644.000000;1.133182
9643.000000;1.131611
9642.000000;1.130197
9641.000000;1.129312
9640.000000;1.128870
9639.000000;1.128752
9638.000000;1.128971
9637.000000;1.129356
9636.000000;1.129376
9635.000000;1.128583
9634.000000;1.127206
9633.000000;1.126024
9632.000000;1.125521
9631.000000;1.125344
9630.000000;1.124791
9629.000000;1.123714
9628.000000;1.122691
9627.000000;1.122279
9626.000000;1.122349
9625.000000;1.122266
9624.000000;1.121536
9623.000000;1.120181
9622.000000;1.118643
9621.000000;1.117483
9620.000000;1.117025
9619.000000;1.117037
9618.000000;1.116798
9617.000000;1.115757
9616.000000;1.114175
9615.000000;1.112977
9614.000000;1.112885
9613.000000;1.113746
9612.000000;1.114691
9611.000000;1.114826
9610.000000;1.113808
9609.000000;1.112053
9608.000000;1.110514
9607.000000;1.110061
9606.000000;1.110785
9605.000000;1.111869
9604.000000;1.112244
9603.000000;1.111430
9602.000000;1.109780
9601.000000;1.108090
9600.000000;1.107054
9599.000000;1.106887
9598.000000;1.107184
9597.000000;1.107132
9596.000000;1.106112
9595.000000;1.104227
9594.000000;1.102212
9593.000000;1.100862
9592.000000;1.100533
9591.000000;1.101010
9590.000000;1.101656
9589.000000;1.101758
9588.000000;1.100982
9587.000000;1.099658
9586.000000;1.098526
9585.000000;1.098100
9584.000000;1.098223
9583.000000;1.098226
9582.000000;1.097521
9581.000000;1.096182
9580.000000;1.094964
9579.000000;1.094601
9578.000000;1.094962
9577.000000;1.095082
9576.000000;1.094236
9575.000000;1.092845
9574.000000;1.092006
9573.000000;1.092186
9572.000000;1.092769
9571.000000;1.092897
9570.000000;1.092372
9569.000000;1.091545
9568.000000;1.090661
9567.000000;1.089682
9566.000000;1.088596
9565.000000;1.087562
9564.000000;1.086761
9563.000000;1.086277
9562.000000;1.086090
9561.000000;1.086020
9560.000000;1.085747
9559.000000;1.085037
9558.000000;1.083937
9557.000000;1.082705
9556.000000;1.081624
9555.000000;1.080940
9554.000000;1.080822
9553.000000;1.081145
9552.000000;1.081437
9551.000000;1.081242
9550.000000;1.080548
9549.000000;1.079715
9548.000000;1.079068
9547.000000;1.078683
9546.000000;1.078426
9545.000000;1.077993
9544.000000;1.077042
9543.000000;1.075558
9542.000000;1.074030
9541.000000;1.073008
9540.000000;1.072484
9539.000000;1.071994
9538.000000;1.071324
9537.000000;1.070800
9536.000000;1.070798
9535.000000;1.071223
9534.000000;1.071604
9533.000000;1.071525
9532.000000;1.070842
9531.000000;1.069680
9530.000000;1.068333
9529.000000;1.067056
9528.000000;1.065897
9527.000000;1.064842
9526.000000;1.064107
9525.000000;1.063979
9524.000000;1.064294
9523.000000;1.064434
9522.000000;1.064013
9521.000000;1.063238
9520.000000;1.062466
9519.000000;1.061750
9518.000000;1.061082
9517.000000;1.060719
9516.000000;1.060859
9515.000000;1.061230
9514.000000;1.061406
9513.000000;1.061337
9512.000000;1.061107
9511.000000;1.060376
9510.000000;1.058722
9509.000000;1.056564
9508.000000;1.055043
9507.000000;1.054719
9506.000000;1.054908
9505.000000;1.054654
9504.000000;1.053924
9503.000000;1.053392
9502.000000;1.053352
9501.000000;1.053424
9500.000000;1.053196
9499.000000;1.052648
9498.000000;1.051923
9497.000000;1.051137
9496.000000;1.050548
9495.000000;1.050469
9494.000000;1.050795
9493.000000;1.050906
9492.000000;1.050302
9491.000000;1.049178
9490.000000;1.048113
9489.000000;1.047364
9488.000000;1.046725
9487.000000;1.046012
9486.000000;1.045363
9485.000000;1.044981
9484.000000;1.044813
9483.000000;1.044590
9482.000000;1.044052
9481.000000;1.043076
9480.000000;1.041737
9479.000000;1.040362
9478.000000;1.039388
9477.000000;1.038960
9476.000000;1.038729
9475.000000;1.038253
9474.000000;1.037575
9473.000000;1.037198
9472.000000;1.037472
9471.000000;1.038197
9470.000000;1.038869
9469.000000;1.039103
9468.000000;1.038724
9467.000000;1.037671
9466.000000;1.036092
9465.000000;1.034420
9464.000000;1.033127
9463.000000;1.032378
9462.000000;1.032055
9461.000000;1.031962
9460.000000;1.031821
9459.000000;1.031265
9458.000000;1.030238
9457.000000;1.029368
9456.000000;1.029463
9455.000000;1.030407
9454.000000;1.030947
9453.000000;1.029958
9452.000000;1.027765
9451.000000;1.025799
9450.000000;1.025042
9449.000000;1.025206
9448.000000;1.025423
9447.000000;1.025351
9446.000000;1.025302
9445.000000;1.025496
9444.000000;1.025597
9443.000000;1.025115
9442.000000;1.024069
9441.000000;1.023016
9440.000000;1.022423
9439.000000;1.022170
9438.000000;1.021804
9437.000000;1.021167
9436.000000;1.020603
9435.000000;1.020513
9434.000000;1.020855
9433.000000;1.021134
9432.000000;1.020762
9431.000000;1.019401
9430.000000;1.017173
9429.000000;1.014730
9428.000000;1.013008
9427.000000;1.012610
9426.000000;1.013284
9425.000000;1.014143
9424.000000;1.014462
9423.000000;1.014224
9422.000000;1.013883
9421.000000;1.013747
9420.000000;1.013677
9419.000000;1.013338
9418.000000;1.012655
9417.000000;1.011969
9416.000000;1.011721
9415.000000;1.011973
9414.000000;1.012277
9413.000000;1.012063
9412.000000;1.011140
9411.000000;1.009779
9410.000000;1.008396
9409.000000;1.007289
9408.000000;1.006630
9407.000000;1.006498
9406.000000;1.006767
9405.000000;1.007052
9404.000000;1.006944
9403.000000;1.006320
9402.000000;1.005359
9401.000000;1.004267
9400.000000;1.003095
9399.000000;1.001890
9398.000000;1.000882
9397.000000;1.000385
9396.000000;1.000456
9395.000000;1.000741
9394.000000;1.000716
9393.000000;1.000052
9392.000000;0.998768
9391.000000;0.997134
9390.000000;0.995539
9389.000000;0.994382
9388.000000;0.993917
9387.000000;0.994122
9386.000000;0.994753
9385.000000;0.995550
9384.000000;0.996327
9383.000000;0.996900
9382.000000;0.997085
9381.000000;0.996829
9380.000000;0.996226
9379.000000;0.995326
9378.000000;0.994050
9377.000000;0.992420
9376.000000;0.990779
9375.000000;0.989637
9374.000000;0.989291
9373.000000;0.989616
9372.000000;0.990160
9371.000000;0.990407
9370.000000;0.990085
9369.000000;0.989360
9368.000000;0.988698
9367.000000;0.988378
9366.000000;0.988173
9365.000000;0.987611
9364.000000;0.986588
9363.000000;0.985593
9362.000000;0.985257
9361.000000;0.985672
9360.000000;0.986196
9359.000000;0.985980
9358.000000;0.984823
9357.000000;0.983501
9356.000000;0.983020
9355.000000;0.983486
9354.000000;0.983904
9353.000000;0.983236
9352.000000;0.981524
9351.000000;0.979737
9350.000000;0.978665
9349.000000;0.978275
9348.000000;0.978091
9347.000000;0.977850
9346.000000;0.977690
9345.000000;0.977912
9344.000000;0.978655
9343.000000;0.979624
9342.000000;0.980126
9341.000000;0.979617
9340.000000;0.978316
9339.000000;0.977060
9338.000000;0.976450
9337.000000;0.976309
9336.000000;0.976034
9335.000000;0.975281
9334.000000;0.974177
9333.000000;0.973083
9332.000000;0.972317
9331.000000;0.971985
9330.000000;0.971885
9329.000000;0.971645
9328.000000;0.971122
9327.000000;0.970546
9326.000000;0.970171
9325.000000;0.969948
9324.000000;0.969701
9323.000000;0.969508
9322.000000;0.969651
9321.000000;0.970176
9320.000000;0.970676
9319.000000;0.970558
9318.000000;0.969504
9317.000000;0.967752
9316.000000;0.966017
9315.000000;0.965029
9314.000000;0.964963
9313.000000;0.965364
9312.000000;0.965691
9311.000000;0.965810
9310.000000;0.965815
9309.000000;0.965537
9308.000000;0.964605
9307.000000;0.963015
9306.000000;0.961401
9305.000000;0.960590
9304.000000;0.960957
9303.000000;0.962157
9302.000000;0.963356
9301.000000;0.963763
9300.000000;0.963214
9299.000000;0.962298
9298.000000;0.961758
9297.000000;0.961694
9296.000000;0.961486
9295.000000;0.960532
9294.000000;0.958894
9293.000000;0.957164
9292.000000;0.955915
9291.000000;0.955419
9290.000000;0.955671
9289.000000;0.956381
9288.000000;0.956985
9287.000000;0.956927
9286.000000;0.956114
9285.000000;0.955041
9284.000000;0.954423
9283.000000;0.954629
9282.000000;0.955411
9281.000000;0.956101
9280.000000;0.956152
9279.000000;0.955590
9278.000000;0.954941
9277.000000;0.954639
9276.000000;0.954555
9275.000000;0.954175
9274.000000;0.953209
9273.000000;0.951891
9272.000000;0.950663
9271.000000;0.949687
9270.000000;0.948796
9269.000000;0.947863
9268.000000;0.947037
9267.000000;0.946509
9266.000000;0.946216
9265.000000;0.945998
9264.000000;0.945986
9263.000000;0.946567
9262.000000;0.947783
9261.000000;0.948972
9260.000000;0.949239
9259.000000;0.948279
9258.000000;0.946620
9257.000000;0.945062
9256.000000;0.944059
9255.000000;0.943597
9254.000000;0.943421
9253.000000;0.943284
9252.000000;0.943118
9251.000000;0.943085
9250.000000;0.943364
9249.000000;0.943840
9248.000000;0.944103
9247.000000;0.943827
9246.000000;0.943050
9245.000000;0.942086
9244.000000;0.941299
9243.000000;0.940986
9242.000000;0.941216
9241.000000;0.941641
9240.000000;0.941676
9239.000000;0.941129
9238.000000;0.940516
9237.000000;0.940462
9236.000000;0.940844
9235.000000;0.940867
9234.000000;0.940047
9233.000000;0.938768
9232.000000;0.937725
9231.000000;0.937080
9230.000000;0.936472
9229.000000;0.935705
9228.000000;0.935065
9227.000000;0.934845
9226.000000;0.934847
9225.000000;0.934555
9224.000000;0.933717
9223.000000;0.932603
9222.000000;0.931702
9221.000000;0.931312
9220.000000;0.931429
9219.000000;0.931857
9218.000000;0.932303
9217.000000;0.932458
9216.000000;0.932159
9215.000000;0.931523
9214.000000;0.930868
9213.000000;0.930492
9212.000000;0.930554
9211.000000;0.931073
9210.000000;0.931851
9209.000000;0.932402
9208.000000;0.932195
9207.000000;0.931132
9206.000000;0.929714
9205.000000;0.928617
9204.000000;0.928171
9203.000000;0.928247
9202.000000;0.928506
9201.000000;0.928600
9200.000000;0.928291
9199.000000;0.927623
9198.000000;0.926938
9197.000000;0.926510
9196.000000;0.926171
9195.000000;0.925519
9194.000000;0.924531
9193.000000;0.923705
9192.000000;0.923501
9191.000000;0.923789
9190.000000;0.924010
9189.000000;0.923752
9188.000000;0.923046
9187.000000;0.922234
9186.000000;0.921717
9185.000000;0.921745
9184.000000;0.922253
9183.000000;0.922858
9182.000000;0.923152
9181.000000;0.923012
9180.000000;0.922593
9179.000000;0.922040
9178.000000;0.921352
9177.000000;0.920531
9176.000000;0.919729
9175.000000;0.919153
9174.000000;0.918822
9173.000000;0.918544
9172.000000;0.918192
9171.000000;0.917944
9170.000000;0.918098
9169.000000;0.918572
9168.000000;0.918789
9167.000000;0.918290
9166.000000;0.917383
9165.000000;0.916831
9164.000000;0.916851
9163.000000;0.916791
9162.000000;0.916024
9161.000000;0.914818
9160.000000;0.913937
9159.000000;0.913575
9158.000000;0.913186
9157.000000;0.912343
9156.000000;0.911308
9155.000000;0.910631
9154.000000;0.910532
9153.000000;0.910870
9152.000000;0.911394
9151.000000;0.911801
9150.000000;0.911790
9149.000000;0.911363
9148.000000;0.910959
9147.000000;0.911055
9146.000000;0.911706
9145.000000;0.912597
9144.000000;0.913372
9143.000000;0.913726
9142.000000;0.913351
9141.000000;0.912171
9140.000000;0.910607
9139.000000;0.909344
9138.000000;0.908753
9137.000000;0.908697
9136.000000;0.908800
9135.000000;0.908708
9134.000000;0.908143
9133.000000;0.907094
9132.000000;0.906063
9131.000000;0.905787
9130.000000;0.906481
9129.000000;0.907505
9128.000000;0.908012
9127.000000;0.907813
9126.000000;0.907423
9125.000000;0.907321
9124.000000;0.907378
9123.000000;0.907059
9122.000000;0.906064
9121.000000;0.904681
9120.000000;0.903527
9119.000000;0.903007
9118.000000;0.903044
9117.000000;0.903302
9116.000000;0.903545
9115.000000;0.903701
9114.000000;0.903688
9113.000000;0.903437
9112.000000;0.903084
9111.000000;0.902903
9110.000000;0.902957
9109.000000;0.903007
9108.000000;0.902838
9107.000000;0.902476
9106.000000;0.901988
9105.000000;0.901301
9104.000000;0.900461
9103.000000;0.899859
9102.000000;0.899904
9101.000000;0.900464
9100.000000;0.900896
9099.000000;0.900682
9098.000000;0.899920
9097.000000;0.899154
9096.000000;0.898822
9095.000000;0.898880
9094.000000;0.898890
9093.000000;0.898496
9092.000000;0.897856
9091.000000;0.897496
9090.000000;0.897650
9089.000000;0.897939
9088.000000;0.897903
9087.000000;0.897650
9086.000000;0.897626
9085.000000;0.897834
9084.000000;0.897732
9083.000000;0.896996
9082.000000;0.896016
9081.000000;0.895443
9080.000000;0.895485
9079.000000;0.895819
9078.000000;0.895983
9077.000000;0.895679
9076.000000;0.894922
9075.000000;0.894090
9074.000000;0.893708
9073.000000;0.893982
9072.000000;0.894632
9071.000000;0.895249
9070.000000;0.895627
9069.000000;0.895677
9068.000000;0.895276
9067.000000;0.894463
9066.000000;0.893591
9065.000000;0.892962
9064.000000;0.892431
9063.000000;0.891666
9062.000000;0.890713
9061.000000;0.889976
9060.000000;0.889664
9059.000000;0.889598
9058.000000;0.889579
9057.000000;0.889623
9056.000000;0.889725
9055.000000;0.889700
9054.000000;0.889430
9053.000000;0.889073
