Criado como novo conjunto de dados;"1909daniel.spp","-4287765.1 Secs"
cm-1;Abs
10000.000000;1.354035
9999.000000;1.353235
9998.000000;1.352392
9997.000000;1.351644
9996.000000;1.350415
9995.000000;1.348596
9994.000000;1.346839
9993.000000;1.345403
9992.000000;1.344077
9991.000000;1.342465
9990.000000;1.340721
9989.000000;1.339351
9988.000000;1.338516
9987.000000;1.337837
9986.000000;1.336961
9985.000000;1.336021
9984.000000;1.335483
9983.000000;1.335712
9982.000000;1.336612
9981.000000;1.337466
9980.000000;1.337306
9979.000000;1.335849
9978.000000;1.333999
9977.000000;1.333015
9976.000000;1.333206
9975.000000;1.333726
9974.000000;1.333591
9973.000000;1.332520
9972.000000;1.330841
9971.000000;1.329132
9970.000000;1.328115
9969.000000;1.328374
9968.000000;1.329703
9967.000000;1.330877
9966.000000;1.330478
9965.000000;1.328140
9964.000000;1.324967
9963.000000;1.322631
9962.000000;1.321922
9961.000000;1.322076
9960.000000;1.321663
9959.000000;1.320155
9958.000000;1.318302
9957.000000;1.316796
9956.000000;1.315262
9955.000000;1.313200
9954.000000;1.311399
9953.000000;1.311380
9952.000000;1.313394
9951.000000;1.315840
9950.000000;1.317000
9949.000000;1.316716
9948.000000;1.315874
9947.000000;1.314865
9946.000000;1.313332
9945.000000;1.311142
9944.000000;1.308893
9943.000000;1.307343
9942.000000;1.306718
9941.000000;1.306695
9940.000000;1.306842
9939.000000;1.306973
9938.000000;1.307073
9937.000000;1.306971
9936.000000;1.306270
9935.000000;1.304789
9934.000000;1.302924
9933.000000;1.301291
9932.000000;1.300102
9931.000000;1.299190
9930.000000;1.298491
9929.000000;1.298105
9928.000000;1.297868
9927.000000;1.297394
9926.000000;1.296662
9925.000000;1.296093
9924.000000;1.295820
9923.000000;1.295374
9922.000000;1.294414
9921.000000;1.293350
9920.000000;1.292816
9919.000000;1.292777
9918.000000;1.292603
9917.000000;1.291901
9916.000000;1.290913
9915.000000;1.290142
9914.000000;1.289851
9913.000000;1.289900
9912.000000;1.289798
9911.000000;1.289004
9910.000000;1.287422
9909.000000;1.285593
9908.000000;1.284239
9907.000000;1.283604
9906.000000;1.283340
9905.000000;1.282953
9904.000000;1.282264
9903.000000;1.281526
9902.000000;1.281160
9901.000000;1.281305
9900.000000;1.281540
9899.000000;1.281188
9898.000000;1.279954
9897.000000;1.278182
9896.000000;1.276473
9895.000000;1.275235
9894.000000;1.274572
9893.000000;1.274277
9892.000000;1.273871
9891.000000;1.273007
9890.000000;1.271980
9889.000000;1.271483
9888.000000;1.271634
9887.000000;1.271671
9886.000000;1.270924
9885.000000;1.269720
9884.000000;1.268821
9883.000000;1.268256
9882.000000;1.267360
9881.000000;1.265867
9880.000000;1.264302
9879.000000;1.263167
9878.000000;1.262296
9877.000000;1.261328
9876.000000;1.260424
9875.000000;1.260078
9874.000000;1.260359
9873.000000;1.260714
9872.000000;1.260499
9871.000000;1.259539
9870.000000;1.258225
9869.000000;1.257216
9868.000000;1.256971
9867.000000;1.257355
9866.000000;1.257662
9865.000000;1.257116
9864.000000;1.255498
9863.000000;1.253367
9862.000000;1.251680
9861.000000;1.251070
9860.000000;1.251297
9859.000000;1.251432
9858.000000;1.250777
9857.000000;1.249672
9856.000000;1.249183
9855.000000;1.249831
9854.000000;1.250837
9853.000000;1.250843
9852.000000;1.249288
9851.000000;1.246841
9850.000000;1.244525
9849.000000;1.242782
9848.000000;1.241462
9847.000000;1.240377
9846.000000;1.239589
9845.000000;1.239258
9844.000000;1.239417
9843.000000;1.239868
9842.000000;1.240212
9841.000000;1.240067
9840.000000;1.239382
9839.000000;1.238444
9838.000000;1.237437
9837.000000;1.236148
9836.000000;1.234343
9835.000000;1.232347
9834.000000;1.230883
9833.000000;1.230297
9832.000000;1.230257
9831.000000;1.230310
9830.000000;1.230425
9829.000000;1.230716
9828.000000;1.230910
9827.000000;1.230451
9826.000000;1.229157
9825.000000;1.227530
9824.000000;1.226410
9823.000000;1.226375
9822.000000;1.227343
9821.000000;1.228517
9820.000000;1.228800
9819.000000;1.227584
9818.000000;1.225288
9817.000000;1.223050
9816.000000;1.221828
9815.000000;1.221772
9814.000000;1.222257
9813.000000;1.222398
9812.000000;1.221689
9811.000000;1.220368
9810.000000;1.219122
9809.000000;1.218304
9808.000000;1.217549
9807.000000;1.216353
9806.000000;1.214831
9805.000000;1.213546
9804.000000;1.212668
9803.000000;1.211774
9802.000000;1.210617
9801.000000;1.209626
9800.000000;1.209347
9799.000000;1.209665
9798.000000;1.209937
9797.000000;1.209747
9796.000000;1.209204
9795.000000;1.208563
9794.000000;1.207902
9793.000000;1.207264
9792.000000;1.206828
9791.000000;1.206692
9790.000000;1.206639
9789.000000;1.206322
9788.000000;1.205626
9787.000000;1.204656
9786.000000;1.203385
9785.000000;1.201604
9784.000000;1.199392
9783.000000;1.197430
9782.000000;1.196534
9781.000000;1.196834
9780.000000;1.197625
9779.000000;1.198034
9778.000000;1.197661
9777.000000;1.196588
9776.000000;1.195121
9775.000000;1.193769
9774.000000;1.193109
9773.000000;1.193264
9772.000000;1.193560
9771.000000;1.193089
9770.000000;1.191669
9769.000000;1.190016
9768.000000;1.188948
9767.000000;1.188688
9766.000000;1.188937
9765.000000;1.189304
9764.000000;1.189511
9763.000000;1.189401
9762.000000;1.188963
9761.000000;1.188299
9760.000000;1.187486
9759.000000;1.186542
9758.000000;1.185541
9757.000000;1.184631
9756.000000;1.183866
9755.000000;1.183125
9754.000000;1.182236
9753.000000;1.181147
9752.000000;1.179982
9751.000000;1.178975
9750.000000;1.178304
9749.000000;1.177855
9748.000000;1.177211
9747.000000;1.176065
9746.000000;1.174651
9745.000000;1.173576
9744.000000;1.173183
9743.000000;1.173214
9742.000000;1.173108
9741.000000;1.172508
9740.000000;1.171484
9739.000000;1.170418
9738.000000;1.169722
9737.000000;1.169479
9736.000000;1.169322
9735.000000;1.168792
9734.000000;1.167825
9733.000000;1.166716
9732.000000;1.165647
9731.000000;1.164531
9730.000000;1.163335
9729.000000;1.162267
9728.000000;1.161514
9727.000000;1.161060
9726.000000;1.160915
9725.000000;1.161260
9724.000000;1.162106
9723.000000;1.162963
9722.000000;1.163138
9721.000000;1.162352
9720.000000;1.160917
9719.000000;1.159429
9718.000000;1.158446
9717.000000;1.158324
9716.000000;1.158973
9715.000000;1.159690
9714.000000;1.159468
9713.000000;1.157730
9712.000000;1.154839
9711.000000;1.151876
9710.000000;1.149894
9709.000000;1.149254
9708.000000;1.149453
9707.000000;1.149543
9706.000000;1.148863
9705.000000;1.147538
9704.000000;1.146306
9703.000000;1.145806
9702.000000;1.146001
9701.000000;1.146247
9700.000000;1.145921
9699.000000;1.144943
9698.000000;1.143735
9697.000000;1.142763
9696.000000;1.142211
9695.000000;1.141950
9694.000000;1.141602
9693.000000;1.140686
9692.000000;1.139042
9691.000000;1.137189
9690.000000;1.135954
9689.000000;1.135553
9688.000000;1.135300
9687.000000;1.134489
9686.000000;1.133330
9685.000000;1.132635
9684.000000;1.132748
9683.000000;1.133210
9682.000000;1.133415
9681.000000;1.133134
9680.000000;1.132392
9679.000000;1.131279
9678.000000;1.130080
9677.000000;1.129207
9676.000000;1.128810
9675.000000;1.128625
9674.000000;1.128357
9673.000000;1.127979
9672.000000;1.127591
9671.000000;1.127247
9670.000000;1.126992
9669.000000;1.126799
9668.000000;1.126383
9667.000000;1.125365
9666.000000;1.123758
9665.000000;1.122005
9664.000000;1.120420
9663.000000;1.118942
9662.000000;1.117627
9661.000000;1.116986
9660.000000;1.117425
9659.000000;1.118557
9658.000000;1.119425
9657.000000;1.119304
9656.000000;1.118086
9655.000000;1.116099
9654.000000;1.113887
9653.000000;1.112034
9652.000000;1.110839
9651.000000;1.110138
9650.000000;1.109618
9649.000000;1.109234
9648.000000;1.109122
9647.000000;1.109259
9646.000000;1.109458
9645.000000;1.109559
9644.000000;1.109390
9643.000000;1.108686
9642.000000;1.107385
9641.000000;1.105928
9640.000000;1.104947
9639.000000;1.104630
9638.000000;1.104615
9637.000000;1.104443
9636.000000;1.103928
9635.000000;1.103148
9634.000000;1.102375
9633.000000;1.101937
9632.000000;1.101883
9631.000000;1.101814
9630.000000;1.101317
9629.000000;1.100498
9628.000000;1.099797
9627.000000;1.099349
9626.000000;1.098897
9625.000000;1.098307
9624.000000;1.097787
9623.000000;1.097479
9622.000000;1.097165
9621.000000;1.096547
9620.000000;1.095616
9619.000000;1.094596
9618.000000;1.093665
9617.000000;1.092794
9616.000000;1.091772
9615.000000;1.090406
9614.000000;1.088837
9613.000000;1.087582
9612.000000;1.086976
9611.000000;1.086668
9610.000000;1.086033
9609.000000;1.085079
9608.000000;1.084534
9607.000000;1.084845
9606.000000;1.085504
9605.000000;1.085632
9604.000000;1.084991
9603.000000;1.084106
9602.000000;1.083558
9601.000000;1.083415
9600.000000;1.083242
9599.000000;1.082487
9598.000000;1.080949
9597.000000;1.079038
9596.000000;1.077477
9595.000000;1.076657
9594.000000;1.076412
9593.000000;1.076459
9592.000000;1.076739
9591.000000;1.077091
9590.000000;1.076957
9589.000000;1.075859
9588.000000;1.074091
9587.000000;1.072502
9586.000000;1.071597
9585.000000;1.071177
9584.000000;1.070854
9583.000000;1.070532
9582.000000;1.070284
9581.000000;1.070046
9580.000000;1.069667
9579.000000;1.069117
9578.000000;1.068516
9577.000000;1.068041
9576.000000;1.067872
9575.000000;1.068025
9574.000000;1.068151
9573.000000;1.067678
9572.000000;1.066368
9571.000000;1.064658
9570.000000;1.063291
9569.000000;1.062591
9568.000000;1.062190
9567.000000;1.061452
9566.000000;1.060115
9565.000000;1.058516
9564.000000;1.057308
9563.000000;1.056954
9562.000000;1.057422
9561.000000;1.058268
9560.000000;1.058974
9559.000000;1.059228
9558.000000;1.058971
9557.000000;1.058330
9556.000000;1.057528
9555.000000;1.056759
9554.000000;1.056043
9553.000000;1.055262
9552.000000;1.054393
9551.000000;1.053570
9550.000000;1.052828
9549.000000;1.051894
9548.000000;1.050481
9547.000000;1.048760
9546.000000;1.047300
9545.000000;1.046389
9544.000000;1.045611
9543.000000;1.044339
9542.000000;1.042583
9541.000000;1.041135
9540.000000;1.040774
9539.000000;1.041479
9538.000000;1.042480
9537.000000;1.042977
9536.000000;1.042725
9535.000000;1.042014
9534.000000;1.041263
9533.000000;1.040648
9532.000000;1.040055
9531.000000;1.039352
9530.000000;1.038649
9529.000000;1.038214
9528.000000;1.038122
9527.000000;1.038117
9526.000000;1.037896
9525.000000;1.037390
9524.000000;1.036672
9523.000000;1.035748
9522.000000;1.034653
9521.000000;1.033674
9520.000000;1.033144
9519.000000;1.032982
9518.000000;1.032748
9517.000000;1.032230
9516.000000;1.031722
9515.000000;1.031557
9514.000000;1.031597
9513.000000;1.031390
9512.000000;1.030667
9511.000000;1.029488
9510.000000;1.028059
9509.000000;1.026686
9508.000000;1.025766
9507.000000;1.025478
9506.000000;1.025418
9505.000000;1.024848
9504.000000;1.023493
9503.000000;1.021926
9502.000000;1.020995
9501.000000;1.020934
9500.000000;1.021152
9499.000000;1.020910
9498.000000;1.020149
9497.000000;1.019543
9496.000000;1.019639
9495.000000;1.020073
9494.000000;1.019925
9493.000000;1.018926
9492.000000;1.017880
9491.000000;1.017569
9490.000000;1.017625
9489.000000;1.017043
9488.000000;1.015644
9487.000000;1.014319
9486.000000;1.013753
9485.000000;1.013631
9484.000000;1.013410
9483.000000;1.013161
9482.000000;1.013111
9481.000000;1.012881
9480.000000;1.011913
9479.000000;1.010411
9478.000000;1.009143
9477.000000;1.008365
9476.000000;1.007632
9475.000000;1.006706
9474.000000;1.006022
9473.000000;1.005998
9472.000000;1.006378
9471.000000;1.006551
9470.000000;1.006208
9469.000000;1.005434
9468.000000;1.004432
9467.000000;1.003411
9466.000000;1.002537
9465.000000;1.001786
9464.000000;1.001008
9463.000000;1.000240
9462.000000;0.999718
9461.000000;0.999478
9460.000000;0.999222
9459.000000;0.998777
9458.000000;0.998400
9457.000000;0.998392
9456.000000;0.998625
9455.000000;0.998678
9454.000000;0.998264
9453.000000;0.997372
9452.000000;0.996217
9451.000000;0.995251
9450.000000;0.994909
9449.000000;0.995047
9448.000000;0.994884
9447.000000;0.993888
9446.000000;0.992520
9445.000000;0.991693
9444.000000;0.991641
9443.000000;0.991738
9442.000000;0.991349
9441.000000;0.990441
9440.000000;0.989344
9439.000000;0.988352
9438.000000;0.987686
9437.000000;0.987484
9436.000000;0.987623
9435.000000;0.987761
9434.000000;0.987674
9433.000000;0.987376
9432.000000;0.986840
9431.000000;0.985869
9430.000000;0.984418
9429.000000;0.982844
9428.000000;0.981667
9427.000000;0.981147
9426.000000;0.981159
9425.000000;0.981348
9424.000000;0.981319
9423.000000;0.980859
9422.000000;0.980076
9421.000000;0.979222
9420.000000;0.978359
9419.000000;0.977326
9418.000000;0.976082
9417.000000;0.974909
9416.000000;0.974159
9415.000000;0.973923
9414.000000;0.973981
9413.000000;0.974029
9412.000000;0.973906
9411.000000;0.973695
9410.000000;0.973619
9409.000000;0.973754
9408.000000;0.973870
9407.000000;0.973703
9406.000000;0.973310
9405.000000;0.972928
9404.000000;0.972498
9403.000000;0.971667
9402.000000;0.970368
9401.000000;0.969107
9400.000000;0.968435
9399.000000;0.968321
9398.000000;0.968233
9397.000000;0.967706
9396.000000;0.966701
9395.000000;0.965528
9394.000000;0.964592
9393.000000;0.964105
9392.000000;0.963871
9391.000000;0.963409
9390.000000;0.962468
9389.000000;0.961364
9388.000000;0.960676
9387.000000;0.960679
9386.000000;0.961181
9385.000000;0.961808
9384.000000;0.962243
9383.000000;0.962212
9382.000000;0.961512
9381.000000;0.960226
9380.000000;0.958841
9379.000000;0.957990
9378.000000;0.957976
9377.000000;0.958486
9376.000000;0.958787
9375.000000;0.958339
9374.000000;0.957300
9373.000000;0.956355
9372.000000;0.956024
9371.000000;0.956166
9370.000000;0.956166
9369.000000;0.955486
9368.000000;0.954020
9367.000000;0.952082
9366.000000;0.950206
9365.000000;0.948904
9364.000000;0.948427
9363.000000;0.948665
9362.000000;0.949272
9361.000000;0.949823
9360.000000;0.949920
9359.000000;0.949321
9358.000000;0.948128
9357.000000;0.946789
9356.000000;0.945735
9355.000000;0.945030
9354.000000;0.944444
9353.000000;0.943825
9352.000000;0.943255
9351.000000;0.942822
9350.000000;0.942448
9349.000000;0.942039
9348.000000;0.941710
9347.000000;0.941659
9346.000000;0.941828
9345.000000;0.941863
9344.000000;0.941512
9343.000000;0.940940
9342.000000;0.940500
9341.000000;0.940260
9340.000000;0.940003
9339.000000;0.939672
9338.000000;0.939539
9337.000000;0.939770
9336.000000;0.940013
9335.000000;0.939694
9334.000000;0.938632
9333.000000;0.937146
9332.000000;0.935661
9331.000000;0.934449
9330.000000;0.933695
9329.000000;0.933500
9328.000000;0.933758
9327.000000;0.934229
9326.000000;0.934760
9325.000000;0.935250
9324.000000;0.935419
9323.000000;0.934971
9322.000000;0.934070
9321.000000;0.933313
9320.000000;0.933028
9319.000000;0.932863
9318.000000;0.932306
9317.000000;0.931406
9316.000000;0.930669
9315.000000;0.930372
9314.000000;0.930280
9313.000000;0.930034
9312.000000;0.929540
9311.000000;0.928940
9310.000000;0.928368
9309.000000;0.927844
9308.000000;0.927327
9307.000000;0.926802
9306.000000;0.926338
9305.000000;0.926015
9304.000000;0.925809
9303.000000;0.925575
9302.000000;0.925168
9301.000000;0.924506
9300.000000;0.923571
9299.000000;0.922496
9298.000000;0.921661
9297.000000;0.921456
9296.000000;0.921835
9295.000000;0.922254
9294.000000;0.922217
9293.000000;0.921727
9292.000000;0.921070
9291.000000;0.920338
9290.000000;0.919426
9289.000000;0.918401
9288.000000;0.917606
9287.000000;0.917355
9286.000000;0.917665
9285.000000;0.918258
9284.000000;0.918692
9283.000000;0.918524
9282.000000;0.917572
9281.000000;0.916096
9280.000000;0.914671
9279.000000;0.913852
9278.000000;0.913899
9277.000000;0.914655
9276.000000;0.915550
9275.000000;0.915865
9274.000000;0.915231
9273.000000;0.913942
9272.000000;0.912676
9271.000000;0.911896
9270.000000;0.911552
9269.000000;0.911296
9268.000000;0.910835
9267.000000;0.910134
9266.000000;0.909417
9265.000000;0.908967
9264.000000;0.908824
9263.000000;0.908700
9262.000000;0.908297
9261.000000;0.907636
9260.000000;0.906928
9259.000000;0.906212
9258.000000;0.905350
9257.000000;0.904375
9256.000000;0.903611
9255.000000;0.903359
9254.000000;0.903591
9253.000000;0.904023
9252.000000;0.904387
9251.000000;0.904578
9250.000000;0.904638
9249.000000;0.904682
9248.000000;0.904742
9247.000000;0.904642
9246.000000;0.904101
9245.000000;0.903061
9244.000000;0.901871
9243.000000;0.901016
9242.000000;0.900641
9241.000000;0.900415
9240.000000;0.899913
9239.000000;0.899104
9238.000000;0.898376
9237.000000;0.898052
9236.000000;0.898008
9235.000000;0.897873
9234.000000;0.897540
9233.000000;0.897219
9232.000000;0.896988
9231.000000;0.896559
9230.000000;0.895722
9229.000000;0.894833
9228.000000;0.894516
9227.000000;0.894869
9226.000000;0.895269
9225.000000;0.895064
9224.000000;0.894296
9223.000000;0.893561
9222.000000;0.893282
9221.000000;0.893317
9220.000000;0.893294
9219.000000;0.893095
9218.000000;0.892879
9217.000000;0.892699
9216.000000;0.892331
9215.000000;0.891574
9214.000000;0.890579
9213.000000;0.889701
9212.000000;0.889083
9211.000000;0.888584
9210.000000;0.888115
9209.000000;0.887799
9208.000000;0.887704
9207.000000;0.887623
9206.000000;0.887317
9205.000000;0.886823
9204.000000;0.886365
9203.000000;0.886037
9202.000000;0.885763
9201.000000;0.885515
9200.000000;0.885363
9199.000000;0.885326
9198.000000;0.885323
9197.000000;0.885287
9196.000000;0.885196
9195.000000;0.884958
9194.000000;0.884421
9193.000000;0.883575
9192.000000;0.882704
9191.000000;0.882250
9190.000000;0.882485
9189.000000;0.883236
9188.000000;0.883876
9187.000000;0.883712
9186.000000;0.882554
9185.000000;0.880926
9184.000000;0.879649
9183.000000;0.879186
9182.000000;0.879428
9181.000000;0.880000
9180.000000;0.880630
9179.000000;0.881196
9178.000000;0.881560
9177.000000;0.881499
9176.000000;0.880864
9175.000000;0.879784
9174.000000;0.878672
9173.000000;0.877949
9172.000000;0.877751
9171.000000;0.877923
9170.000000;0.878223
9169.000000;0.878408
9168.000000;0.878190
9167.000000;0.877391
9166.000000;0.876252
9165.000000;0.875352
9164.000000;0.875025
9163.000000;0.874985
9162.000000;0.874706
9161.000000;0.874061
9160.000000;0.873350
9159.000000;0.872811
9158.000000;0.872383
9157.000000;0.871972
9156.000000;0.871669
9155.000000;0.871573
9154.000000;0.871559
9153.000000;0.871357
9152.000000;0.870783
9151.000000;0.869856
9150.000000;0.868744
9149.000000;0.867659
9148.000000;0.866772
9147.000000;0.866208
9146.000000;0.866079
9145.000000;0.866416
9144.000000;0.867035
9143.000000;0.867572
9142.000000;0.867762
9141.000000;0.867625
9140.000000;0.867332
9139.000000;0.867022
9138.000000;0.866850
9137.000000;0.867033
9136.000000;0.867542
9135.000000;0.867847
9134.000000;0.867321
9133.000000;0.866006
9132.000000;0.864700
9131.000000;0.864162
9130.000000;0.864379
9129.000000;0.864726
9128.000000;0.864683
9127.000000;0.864229
9126.000000;0.863661
9125.000000;0.863270
9124.000000;0.863176
9123.000000;0.863309
9122.000000;0.863464
9121.000000;0.863434
9120.000000;0.863168
9119.000000;0.862827
9118.000000;0.862631
9117.000000;0.862649
9116.000000;0.862725
9115.000000;0.862665
9114.000000;0.862463
9113.000000;0.862293
9112.000000;0.862212
9111.000000;0.861957
9110.000000;0.861163
9109.000000;0.859812
9108.000000;0.858390
9107.000000;0.857544
9106.000000;0.857549
9105.000000;0.858070
9104.000000;0.858436
9103.000000;0.858227
9102.000000;0.857641
9101.000000;0.857236
9100.000000;0.857309
9099.000000;0.857613
9098.000000;0.857699
9097.000000;0.857389
9096.000000;0.856838
9095.000000;0.856286
9094.000000;0.855874
9093.000000;0.855609
9092.000000;0.855359
9091.000000;0.854936
9090.000000;0.854314
9089.000000;0.853719
9088.000000;0.853384
9087.000000;0.853306
9086.000000;0.853307
9085.000000;0.853242
9084.000000;0.853004
9083.000000;0.852467
9082.000000;0.851647
9081.000000;0.850875
9080.000000;0.850539
9079.000000;0.850639
9078.000000;0.850769
9077.000000;0.850573
9076.000000;0.850087
9075.000000;0.849588
9074.000000;0.849302
9073.000000;0.849300
9072.000000;0.849549
9071.000000;0.849948
9070.000000;0.850374
9069.000000;0.850702
9068.000000;0.850760
9067.000000;0.850346
9066.000000;0.849420
9065.000000;0.848287
9064.000000;0.847402
9063.000000;0.846995
9062.000000;0.846968
9061.000000;0.847132
9060.000000;0.847371
9059.000000;0.847543
9058.000000;0.847430
9057.000000;0.846897
9056.000000;0.846067
9055.000000;0.845241
9054.000000;0.844672
9053.000000;0.844392
