Criado como novo conjunto de dados;"1909daniel.spp","-4279844.8 Secs"
cm-1;Abs
10000.000000;1.397833
9999.000000;1.396876
9998.000000;1.395271
9997.000000;1.393405
9996.000000;1.391781
9995.000000;1.390461
9994.000000;1.389324
9993.000000;1.388062
9992.000000;1.386468
9991.000000;1.384475
9990.000000;1.382492
9989.000000;1.381338
9988.000000;1.381576
9987.000000;1.382770
9986.000000;1.383763
9985.000000;1.383849
9984.000000;1.383343
9983.000000;1.382807
9982.000000;1.382200
9981.000000;1.381146
9980.000000;1.379761
9979.000000;1.378637
9978.000000;1.377985
9977.000000;1.377413
9976.000000;1.376681
9975.000000;1.376075
9974.000000;1.375763
9973.000000;1.375307
9972.000000;1.374247
9971.000000;1.372833
9970.000000;1.371683
9969.000000;1.370934
9968.000000;1.370260
9967.000000;1.369575
9966.000000;1.369152
9965.000000;1.368968
9964.000000;1.368425
9963.000000;1.366980
9962.000000;1.364754
9961.000000;1.362345
9960.000000;1.360289
9959.000000;1.358862
9958.000000;1.358147
9957.000000;1.358053
9956.000000;1.358366
9955.000000;1.358922
9954.000000;1.359629
9953.000000;1.360262
9952.000000;1.360446
9951.000000;1.360000
9950.000000;1.359179
9949.000000;1.358415
9948.000000;1.357931
9947.000000;1.357685
9946.000000;1.357496
9945.000000;1.357025
9944.000000;1.355847
9943.000000;1.353895
9942.000000;1.351742
9941.000000;1.350103
9940.000000;1.349057
9939.000000;1.348139
9938.000000;1.347268
9937.000000;1.347125
9936.000000;1.348239
9935.000000;1.349886
9934.000000;1.350439
9933.000000;1.348976
9932.000000;1.346238
9931.000000;1.343817
9930.000000;1.342654
9929.000000;1.342432
9928.000000;1.342187
9927.000000;1.341294
9926.000000;1.339973
9925.000000;1.339007
9924.000000;1.338956
9923.000000;1.339590
9922.000000;1.340179
9921.000000;1.340309
9920.000000;1.340107
9919.000000;1.339616
9918.000000;1.338461
9917.000000;1.336514
9916.000000;1.334452
9915.000000;1.333058
9914.000000;1.332263
9913.000000;1.331534
9912.000000;1.330973
9911.000000;1.331136
9910.000000;1.331737
9909.000000;1.331501
9908.000000;1.329756
9907.000000;1.327368
9906.000000;1.325529
9905.000000;1.324318
9904.000000;1.323122
9903.000000;1.321917
9902.000000;1.321245
9901.000000;1.321139
9900.000000;1.320912
9899.000000;1.320084
9898.000000;1.318942
9897.000000;1.318081
9896.000000;1.317861
9895.000000;1.318360
9894.000000;1.319367
9893.000000;1.320279
9892.000000;1.320403
9891.000000;1.319510
9890.000000;1.317921
9889.000000;1.316080
9888.000000;1.314286
9887.000000;1.312716
9886.000000;1.311347
9885.000000;1.309929
9884.000000;1.308372
9883.000000;1.307099
9882.000000;1.306657
9881.000000;1.306996
9880.000000;1.307538
9879.000000;1.307917
9878.000000;1.308276
9877.000000;1.308795
9876.000000;1.309250
9875.000000;1.309105
9874.000000;1.307820
9873.000000;1.305181
9872.000000;1.301671
9871.000000;1.298437
9870.000000;1.296528
9869.000000;1.296140
9868.000000;1.296772
9867.000000;1.297850
9866.000000;1.298757
9865.000000;1.298608
9864.000000;1.296847
9863.000000;1.294134
9862.000000;1.291838
9861.000000;1.290577
9860.000000;1.289897
9859.000000;1.289397
9858.000000;1.289298
9857.000000;1.289587
9856.000000;1.289449
9855.000000;1.288293
9854.000000;1.286829
9853.000000;1.286350
9852.000000;1.287163
9851.000000;1.288292
9850.000000;1.288590
9849.000000;1.287693
9848.000000;1.286008
9847.000000;1.284231
9846.000000;1.282903
9845.000000;1.282143
9844.000000;1.281715
9843.000000;1.281412
9842.000000;1.281196
9841.000000;1.280937
9840.000000;1.280406
9839.000000;1.279748
9838.000000;1.279529
9837.000000;1.279917
9836.000000;1.280125
9835.000000;1.279135
9834.000000;1.276841
9833.000000;1.274098
9832.000000;1.271850
9831.000000;1.270607
9830.000000;1.270500
9829.000000;1.271257
9828.000000;1.272151
9827.000000;1.272384
9826.000000;1.271693
9825.000000;1.270397
9824.000000;1.268917
9823.000000;1.267525
9822.000000;1.266470
9821.000000;1.265973
9820.000000;1.266015
9819.000000;1.266331
9818.000000;1.266582
9817.000000;1.266359
9816.000000;1.265214
9815.000000;1.263081
9814.000000;1.260647
9813.000000;1.258887
9812.000000;1.258123
9811.000000;1.257806
9810.000000;1.257217
9809.000000;1.256121
9808.000000;1.254768
9807.000000;1.253577
9806.000000;1.252888
9805.000000;1.252660
9804.000000;1.252378
9803.000000;1.251634
9802.000000;1.250828
9801.000000;1.250838
9800.000000;1.251852
9799.000000;1.252942
9798.000000;1.253029
9797.000000;1.251979
9796.000000;1.250451
9795.000000;1.249040
9794.000000;1.247983
9793.000000;1.247388
9792.000000;1.247158
9791.000000;1.246738
9790.000000;1.245505
9789.000000;1.243585
9788.000000;1.241878
9787.000000;1.241095
9786.000000;1.241049
9785.000000;1.241032
9784.000000;1.240643
9783.000000;1.240033
9782.000000;1.239533
9781.000000;1.239334
9780.000000;1.239476
9779.000000;1.239856
9778.000000;1.240127
9777.000000;1.239757
9776.000000;1.238400
9775.000000;1.236285
9774.000000;1.234181
9773.000000;1.232858
9772.000000;1.232502
9771.000000;1.232636
9770.000000;1.232609
9769.000000;1.232097
9768.000000;1.231075
9767.000000;1.229520
9766.000000;1.227428
9765.000000;1.225167
9764.000000;1.223497
9763.000000;1.222973
9762.000000;1.223393
9761.000000;1.223941
9760.000000;1.223904
9759.000000;1.223215
9758.000000;1.222406
9757.000000;1.222066
9756.000000;1.222279
9755.000000;1.222562
9754.000000;1.222418
9753.000000;1.221889
9752.000000;1.221338
9751.000000;1.220762
9750.000000;1.219732
9749.000000;1.218139
9748.000000;1.216598
9747.000000;1.215789
9746.000000;1.215702
9745.000000;1.215907
9744.000000;1.216246
9743.000000;1.216687
9742.000000;1.216682
9741.000000;1.215432
9740.000000;1.212927
9739.000000;1.210135
9738.000000;1.208007
9737.000000;1.206761
9736.000000;1.206229
9735.000000;1.206294
9734.000000;1.206710
9733.000000;1.207066
9732.000000;1.207296
9731.000000;1.207696
9730.000000;1.207993
9729.000000;1.206999
9728.000000;1.204019
9727.000000;1.200254
9726.000000;1.197871
9725.000000;1.197777
9724.000000;1.198985
9723.000000;1.200083
9722.000000;1.200576
9721.000000;1.200549
9720.000000;1.199845
9719.000000;1.198324
9718.000000;1.196537
9717.000000;1.195342
9716.000000;1.194913
9715.000000;1.194614
9714.000000;1.193843
9713.000000;1.192597
9712.000000;1.191166
9711.000000;1.189754
9710.000000;1.188591
9709.000000;1.188072
9708.000000;1.188365
9707.000000;1.188961
9706.000000;1.188974
9705.000000;1.188049
9704.000000;1.186760
9703.000000;1.185912
9702.000000;1.185588
9701.000000;1.185112
9700.000000;1.183943
9699.000000;1.182393
9698.000000;1.181304
9697.000000;1.181156
9696.000000;1.181578
9695.000000;1.181699
9694.000000;1.180927
9693.000000;1.179446
9692.000000;1.177986
9691.000000;1.177102
9690.000000;1.176718
9689.000000;1.176391
9688.000000;1.175858
9687.000000;1.175162
9686.000000;1.174387
9685.000000;1.173562
9684.000000;1.172779
9683.000000;1.172074
9682.000000;1.171148
9681.000000;1.169604
9680.000000;1.167636
9679.000000;1.166084
9678.000000;1.165520
9677.000000;1.165544
9676.000000;1.165253
9675.000000;1.164183
9674.000000;1.162573
9673.000000;1.160972
9672.000000;1.159898
9671.000000;1.159604
9670.000000;1.159778
9669.000000;1.159679
9668.000000;1.158971
9667.000000;1.158281
9666.000000;1.158459
9665.000000;1.159432
9664.000000;1.160264
9663.000000;1.160257
9662.000000;1.159452
9661.000000;1.158081
9660.000000;1.156226
9659.000000;1.154218
9658.000000;1.152702
9657.000000;1.151922
9656.000000;1.151353
9655.000000;1.150475
9654.000000;1.149530
9653.000000;1.149061
9652.000000;1.149028
9651.000000;1.148883
9650.000000;1.148349
9649.000000;1.147646
9648.000000;1.147002
9647.000000;1.146402
9646.000000;1.145836
9645.000000;1.145387
9644.000000;1.144963
9643.000000;1.144287
9642.000000;1.143275
9641.000000;1.142197
9640.000000;1.141336
9639.000000;1.140698
9638.000000;1.140181
9637.000000;1.139784
9636.000000;1.139445
9635.000000;1.138848
9634.000000;1.137729
9633.000000;1.136323
9632.000000;1.135209
9631.000000;1.134676
9630.000000;1.134432
9629.000000;1.133975
9628.000000;1.133113
9627.000000;1.132098
9626.000000;1.131370
9625.000000;1.131187
9624.000000;1.131339
9623.000000;1.131254
9622.000000;1.130612
9621.000000;1.129850
9620.000000;1.129737
9619.000000;1.130303
9618.000000;1.130544
9617.000000;1.129531
9616.000000;1.127563
9615.000000;1.125795
9614.000000;1.124886
9613.000000;1.124502
9612.000000;1.124072
9611.000000;1.123518
9610.000000;1.123092
9609.000000;1.122990
9608.000000;1.123336
9607.000000;1.124094
9606.000000;1.124678
9605.000000;1.124096
9604.000000;1.122025
9603.000000;1.119523
9602.000000;1.118140
9601.000000;1.118273
9600.000000;1.118780
9599.000000;1.118291
9598.000000;1.116626
9597.000000;1.114776
9596.000000;1.113728
9595.000000;1.113570
9594.000000;1.113611
9593.000000;1.113107
9592.000000;1.111835
9591.000000;1.110128
9590.000000;1.108558
9589.000000;1.107622
9588.000000;1.107511
9587.000000;1.107958
9586.000000;1.108370
9585.000000;1.108296
9584.000000;1.107764
9583.000000;1.106992
9582.000000;1.105902
9581.000000;1.104232
9580.000000;1.102083
9579.000000;1.100021
9578.000000;1.098572
9577.000000;1.097928
9576.000000;1.098168
9575.000000;1.099289
9574.000000;1.100784
9573.000000;1.101592
9572.000000;1.100987
9571.000000;1.099376
9570.000000;1.097830
9569.000000;1.096946
9568.000000;1.096517
9567.000000;1.096129
9566.000000;1.095641
9565.000000;1.095079
9564.000000;1.094423
9563.000000;1.093630
9562.000000;1.092690
9561.000000;1.091639
9560.000000;1.090621
9559.000000;1.089890
9558.000000;1.089560
9557.000000;1.089401
9556.000000;1.089083
9555.000000;1.088558
9554.000000;1.087976
9553.000000;1.087280
9552.000000;1.086204
9551.000000;1.084655
9550.000000;1.082890
9549.000000;1.081303
9548.000000;1.080242
9547.000000;1.080015
9546.000000;1.080734
9545.000000;1.082004
9544.000000;1.082993
9543.000000;1.083044
9542.000000;1.082192
9541.000000;1.080992
9540.000000;1.079910
9539.000000;1.078973
9538.000000;1.077936
9537.000000;1.076687
9536.000000;1.075447
9535.000000;1.074575
9534.000000;1.074168
9533.000000;1.073932
9532.000000;1.073489
9531.000000;1.072743
9530.000000;1.071874
9529.000000;1.071085
9528.000000;1.070447
9527.000000;1.069916
9526.000000;1.069404
9525.000000;1.068835
9524.000000;1.068185
9523.000000;1.067487
9522.000000;1.066789
9521.000000;1.066197
9520.000000;1.065879
9519.000000;1.065882
9518.000000;1.065951
9517.000000;1.065743
9516.000000;1.065253
9515.000000;1.064789
9514.000000;1.064467
9513.000000;1.064008
9512.000000;1.063177
9511.000000;1.062169
9510.000000;1.061358
9509.000000;1.060849
9508.000000;1.060431
9507.000000;1.059781
9506.000000;1.058646
9505.000000;1.057089
9504.000000;1.055689
9503.000000;1.055148
9502.000000;1.055444
9501.000000;1.055747
9500.000000;1.055501
9499.000000;1.055198
9498.000000;1.055564
9497.000000;1.056283
9496.000000;1.056192
9495.000000;1.054726
9494.000000;1.052583
9493.000000;1.050842
9492.000000;1.049875
9491.000000;1.049297
9490.000000;1.048607
9489.000000;1.047686
9488.000000;1.046835
9487.000000;1.046424
9486.000000;1.046371
9485.000000;1.046084
9484.000000;1.045119
9483.000000;1.043820
9482.000000;1.043017
9481.000000;1.043137
9480.000000;1.043867
9479.000000;1.044560
9478.000000;1.044668
9477.000000;1.043862
9476.000000;1.042199
9475.000000;1.040238
9474.000000;1.038683
9473.000000;1.037794
9472.000000;1.037354
9471.000000;1.037098
9470.000000;1.036887
9469.000000;1.036519
9468.000000;1.035838
9467.000000;1.035087
9466.000000;1.034751
9465.000000;1.034932
9464.000000;1.035142
9463.000000;1.034849
9462.000000;1.033954
9461.000000;1.032636
9460.000000;1.031061
9459.000000;1.029411
9458.000000;1.027910
9457.000000;1.026656
9456.000000;1.025626
9455.000000;1.024943
9454.000000;1.024886
9453.000000;1.025489
9452.000000;1.026353
9451.000000;1.026952
9450.000000;1.026963
9449.000000;1.026265
9448.000000;1.024954
9447.000000;1.023481
9446.000000;1.022425
9445.000000;1.021920
9444.000000;1.021542
9443.000000;1.020948
9442.000000;1.020328
9441.000000;1.020022
9440.000000;1.019940
9439.000000;1.019721
9438.000000;1.019281
9437.000000;1.018870
9436.000000;1.018620
9435.000000;1.018331
9434.000000;1.017716
9433.000000;1.016665
9432.000000;1.015284
9431.000000;1.013836
9430.000000;1.012635
9429.000000;1.011852
9428.000000;1.011415
9427.000000;1.011124
9426.000000;1.010821
9425.000000;1.010449
9424.000000;1.010019
9423.000000;1.009606
9422.000000;1.009316
9421.000000;1.009211
9420.000000;1.009311
9419.000000;1.009630
9418.000000;1.010075
9417.000000;1.010311
9416.000000;1.009969
9415.000000;1.009055
9414.000000;1.007952
9413.000000;1.006910
9412.000000;1.005760
9411.000000;1.004309
9410.000000;1.002819
9409.000000;1.001813
9408.000000;1.001521
9407.000000;1.001739
9406.000000;1.002131
9405.000000;1.002417
9404.000000;1.002334
9403.000000;1.001732
9402.000000;1.000801
9401.000000;0.999983
9400.000000;0.999531
9399.000000;0.999257
9398.000000;0.998822
9397.000000;0.998167
9396.000000;0.997474
9395.000000;0.996797
9394.000000;0.995935
9393.000000;0.994760
9392.000000;0.993510
9391.000000;0.992607
9390.000000;0.992213
9389.000000;0.992092
9388.000000;0.991932
9387.000000;0.991690
9386.000000;0.991590
9385.000000;0.991839
9384.000000;0.992375
9383.000000;0.992814
9382.000000;0.992649
9381.000000;0.991619
9380.000000;0.989964
9379.000000;0.988248
9378.000000;0.986912
9377.000000;0.986106
9376.000000;0.985851
9375.000000;0.986052
9374.000000;0.986304
9373.000000;0.986044
9372.000000;0.985185
9371.000000;0.984319
9370.000000;0.983961
9369.000000;0.983838
9368.000000;0.983338
9367.000000;0.982488
9366.000000;0.981921
9365.000000;0.981858
9364.000000;0.981719
9363.000000;0.980984
9362.000000;0.979982
9361.000000;0.979458
9360.000000;0.979624
9359.000000;0.980029
9358.000000;0.980178
9357.000000;0.979920
9356.000000;0.979263
9355.000000;0.978154
9354.000000;0.976596
9353.000000;0.974855
9352.000000;0.973426
9351.000000;0.972741
9350.000000;0.972837
9349.000000;0.973270
9348.000000;0.973449
9347.000000;0.973162
9346.000000;0.972708
9345.000000;0.972416
9344.000000;0.972138
9343.000000;0.971418
9342.000000;0.970168
9341.000000;0.968980
9340.000000;0.968576
9339.000000;0.969031
9338.000000;0.969683
9337.000000;0.969867
9336.000000;0.969551
9335.000000;0.969121
9334.000000;0.968680
9333.000000;0.967876
9332.000000;0.966487
9331.000000;0.964894
9330.000000;0.963733
9329.000000;0.963259
9328.000000;0.963258
9327.000000;0.963462
9326.000000;0.963749
9325.000000;0.963979
9324.000000;0.963903
9323.000000;0.963359
9322.000000;0.962401
9321.000000;0.961228
9320.000000;0.960101
9319.000000;0.959299
9318.000000;0.958959
9317.000000;0.958908
9316.000000;0.958753
9315.000000;0.958180
9314.000000;0.957104
9313.000000;0.955628
9312.000000;0.954064
9311.000000;0.952916
9310.000000;0.952554
9309.000000;0.952806
9308.000000;0.953079
9307.000000;0.952972
9306.000000;0.952599
9305.000000;0.952265
9304.000000;0.952057
9303.000000;0.951876
9302.000000;0.951681
9301.000000;0.951534
9300.000000;0.951499
9299.000000;0.951566
9298.000000;0.951564
9297.000000;0.951140
9296.000000;0.950059
9295.000000;0.948598
9294.000000;0.947404
9293.000000;0.946812
9292.000000;0.946496
9291.000000;0.945995
9290.000000;0.945370
9289.000000;0.945054
9288.000000;0.945171
9287.000000;0.945375
9286.000000;0.945381
9285.000000;0.945319
9284.000000;0.945379
9283.000000;0.945375
9282.000000;0.944920
9281.000000;0.943986
9280.000000;0.943039
9279.000000;0.942554
9278.000000;0.942513
9277.000000;0.942464
9276.000000;0.941992
9275.000000;0.941049
9274.000000;0.939923
9273.000000;0.939041
9272.000000;0.938749
9271.000000;0.939062
9270.000000;0.939526
9269.000000;0.939478
9268.000000;0.938627
9267.000000;0.937348
9266.000000;0.936342
9265.000000;0.936054
9264.000000;0.936417
9263.000000;0.936975
9262.000000;0.937130
9261.000000;0.936490
9260.000000;0.935210
9259.000000;0.933914
9258.000000;0.933079
9257.000000;0.932561
9256.000000;0.931934
9255.000000;0.931203
9254.000000;0.930844
9253.000000;0.931093
9252.000000;0.931527
9251.000000;0.931536
9250.000000;0.930994
9249.000000;0.930287
9248.000000;0.929798
9247.000000;0.929530
9246.000000;0.929191
9245.000000;0.928537
9244.000000;0.927657
9243.000000;0.926955
9242.000000;0.926736
9241.000000;0.926795
9240.000000;0.926583
9239.000000;0.925879
9238.000000;0.925131
9237.000000;0.924971
9236.000000;0.925480
9235.000000;0.926098
9234.000000;0.926206
9233.000000;0.925649
9232.000000;0.924702
9231.000000;0.923718
9230.000000;0.922935
9229.000000;0.922529
9228.000000;0.922637
9227.000000;0.923146
9226.000000;0.923536
9225.000000;0.923184
9224.000000;0.922013
9223.000000;0.920688
9222.000000;0.919939
9221.000000;0.919780
9220.000000;0.919653
9219.000000;0.919262
9218.000000;0.918873
9217.000000;0.918684
9216.000000;0.918367
9215.000000;0.917591
9214.000000;0.916710
9213.000000;0.916426
9212.000000;0.916834
9211.000000;0.917231
9210.000000;0.916986
9209.000000;0.916199
9208.000000;0.915320
9207.000000;0.914467
9206.000000;0.913464
9205.000000;0.912350
9204.000000;0.911439
9203.000000;0.910893
9202.000000;0.910559
9201.000000;0.910287
9200.000000;0.910139
9199.000000;0.910172
9198.000000;0.910231
9197.000000;0.910142
9196.000000;0.909972
9195.000000;0.909877
9194.000000;0.909753
9193.000000;0.909257
9192.000000;0.908228
9191.000000;0.906996
9190.000000;0.906194
9189.000000;0.906247
9188.000000;0.906959
9187.000000;0.907592
9186.000000;0.907509
9185.000000;0.906842
9184.000000;0.906334
9183.000000;0.906375
9182.000000;0.906481
9181.000000;0.906012
9180.000000;0.905124
9179.000000;0.904526
9178.000000;0.904391
9177.000000;0.904147
9176.000000;0.903459
9175.000000;0.902836
9174.000000;0.902904
9173.000000;0.903508
9172.000000;0.903958
9171.000000;0.903876
9170.000000;0.903381
9169.000000;0.902660
9168.000000;0.901845
9167.000000;0.901226
9166.000000;0.901090
9165.000000;0.901275
9164.000000;0.901206
9163.000000;0.900507
9162.000000;0.899362
9161.000000;0.898269
9160.000000;0.897618
9159.000000;0.897473
9158.000000;0.897511
9157.000000;0.897213
9156.000000;0.896338
9155.000000;0.895251
9154.000000;0.894571
9153.000000;0.894527
9152.000000;0.894813
9151.000000;0.895025
9150.000000;0.894965
9149.000000;0.894579
9148.000000;0.893955
9147.000000;0.893438
9146.000000;0.893411
9145.000000;0.893839
9144.000000;0.894244
9143.000000;0.894259
9142.000000;0.893990
9141.000000;0.893704
9140.000000;0.893359
9139.000000;0.892644
9138.000000;0.891444
9137.000000;0.890136
9136.000000;0.889396
9135.000000;0.889604
9134.000000;0.890333
9133.000000;0.890559
9132.000000;0.889662
9131.000000;0.888240
9130.000000;0.887605
9129.000000;0.888386
9128.000000;0.889833
9127.000000;0.890590
9126.000000;0.889980
9125.000000;0.888455
9124.000000;0.886934
9123.000000;0.885922
9122.000000;0.885232
9121.000000;0.884443
9120.000000;0.883536
9119.000000;0.882987
9118.000000;0.883166
9117.000000;0.883831
9116.000000;0.884426
9115.000000;0.884765
9114.000000;0.885087
9113.000000;0.885501
9112.000000;0.885774
9111.000000;0.885731
9110.000000;0.885474
9109.000000;0.885044
9108.000000;0.884244
9107.000000;0.883034
9106.000000;0.881810
9105.000000;0.880973
9104.000000;0.880433
9103.000000;0.879839
9102.000000;0.879167
9101.000000;0.878788
9100.000000;0.878980
9099.000000;0.879611
9098.000000;0.880276
9097.000000;0.880548
9096.000000;0.880172
9095.000000;0.879241
9094.000000;0.878224
9093.000000;0.877622
9092.000000;0.877544
9091.000000;0.877673
9090.000000;0.877658
9089.000000;0.877424
9088.000000;0.877121
9087.000000;0.876888
9086.000000;0.876718
9085.000000;0.876518
9084.000000;0.876243
9083.000000;0.875967
9082.000000;0.875816
9081.000000;0.875850
9080.000000;0.875998
9079.000000;0.876063
9078.000000;0.875765
9077.000000;0.874926
9076.000000;0.873785
9075.000000;0.872996
9074.000000;0.873022
9073.000000;0.873540
9072.000000;0.873760
9071.000000;0.873403
9070.000000;0.873058
9069.000000;0.873345
9068.000000;0.874054
9067.000000;0.874433
9066.000000;0.874105
9065.000000;0.873328
9064.000000;0.872432
9063.000000;0.871431
9062.000000;0.870311
9061.000000;0.869316
9060.000000;0.868700
9059.000000;0.868382
9058.000000;0.868080
9057.000000;0.867734
9056.000000;0.867560
9055.000000;0.867679
9054.000000;0.867867
9053.000000;0.867780
