Criado como novo conjunto de dados;"1909daniel.spp","-4242942.6 Secs"
cm-1;Abs
10000.000000;1.838811
9999.000000;1.836283
9998.000000;1.833891
9997.000000;1.831262
9996.000000;1.829801
9995.000000;1.829113
9994.000000;1.827630
9993.000000;1.825824
9992.000000;1.824822
9991.000000;1.825444
9990.000000;1.827301
9989.000000;1.829599
9988.000000;1.831629
9987.000000;1.832600
9986.000000;1.831892
9985.000000;1.830056
9984.000000;1.828580
9983.000000;1.827865
9982.000000;1.826533
9981.000000;1.823876
9980.000000;1.821892
9979.000000;1.823120
9978.000000;1.826941
9977.000000;1.829677
9976.000000;1.828687
9975.000000;1.824945
9974.000000;1.820923
9973.000000;1.817684
9972.000000;1.815166
9971.000000;1.813882
9970.000000;1.814777
9969.000000;1.817715
9968.000000;1.821118
9967.000000;1.823229
9966.000000;1.823339
9965.000000;1.821841
9964.000000;1.819594
9963.000000;1.817289
9962.000000;1.815134
9961.000000;1.813104
9960.000000;1.811450
9959.000000;1.810785
9958.000000;1.811591
9957.000000;1.813600
9956.000000;1.815601
9955.000000;1.816090
9954.000000;1.814613
9953.000000;1.812502
9952.000000;1.811657
9951.000000;1.812229
9950.000000;1.812100
9949.000000;1.809350
9948.000000;1.804861
9947.000000;1.801407
9946.000000;1.800522
9945.000000;1.801390
9944.000000;1.802527
9943.000000;1.803089
9942.000000;1.802381
9941.000000;1.799856
9940.000000;1.796459
9939.000000;1.794620
9938.000000;1.795719
9937.000000;1.798222
9936.000000;1.799391
9935.000000;1.798394
9934.000000;1.796443
9933.000000;1.794362
9932.000000;1.791895
9931.000000;1.789490
9930.000000;1.788882
9929.000000;1.790974
9928.000000;1.793976
9927.000000;1.794733
9926.000000;1.792011
9925.000000;1.787773
9924.000000;1.784951
9923.000000;1.784606
9922.000000;1.785303
9921.000000;1.784818
9920.000000;1.782308
9919.000000;1.778996
9918.000000;1.777088
9917.000000;1.778108
9916.000000;1.781746
9915.000000;1.785667
9914.000000;1.786719
9913.000000;1.783404
9912.000000;1.777565
9911.000000;1.773047
9910.000000;1.772246
9909.000000;1.774062
9908.000000;1.775337
9907.000000;1.774315
9906.000000;1.772281
9905.000000;1.771710
9904.000000;1.773445
9903.000000;1.775975
9902.000000;1.777303
9901.000000;1.777082
9900.000000;1.776409
9899.000000;1.775750
9898.000000;1.774063
9897.000000;1.770547
9896.000000;1.766638
9895.000000;1.764909
9894.000000;1.765948
9893.000000;1.767438
9892.000000;1.766799
9891.000000;1.764256
9890.000000;1.762303
9889.000000;1.762307
9888.000000;1.763046
9887.000000;1.762712
9886.000000;1.761279
9885.000000;1.760356
9884.000000;1.761269
9883.000000;1.763789
9882.000000;1.766238
9881.000000;1.766507
9880.000000;1.763442
9879.000000;1.757869
9878.000000;1.752259
9877.000000;1.749105
9876.000000;1.749368
9875.000000;1.752071
9874.000000;1.754976
9873.000000;1.755867
9872.000000;1.753955
9871.000000;1.750580
9870.000000;1.748518
9869.000000;1.749849
9868.000000;1.753937
9867.000000;1.757602
9866.000000;1.757654
9865.000000;1.753553
9864.000000;1.747612
9863.000000;1.742813
9862.000000;1.740731
9861.000000;1.741145
9860.000000;1.742858
9859.000000;1.744606
9858.000000;1.745553
9857.000000;1.745456
9856.000000;1.744575
9855.000000;1.743402
9854.000000;1.742396
9853.000000;1.741864
9852.000000;1.741891
9851.000000;1.742195
9850.000000;1.742177
9849.000000;1.741383
9848.000000;1.739937
9847.000000;1.738366
9846.000000;1.737095
9845.000000;1.736310
9844.000000;1.736021
9843.000000;1.735833
9842.000000;1.734751
9841.000000;1.731789
9840.000000;1.727129
9839.000000;1.722447
9838.000000;1.719710
9837.000000;1.719561
9836.000000;1.720809
9835.000000;1.721492
9834.000000;1.720583
9833.000000;1.718760
9832.000000;1.717470
9831.000000;1.717403
9830.000000;1.718127
9829.000000;1.719061
9828.000000;1.720164
9827.000000;1.721402
9826.000000;1.722127
9825.000000;1.721638
9824.000000;1.720029
9823.000000;1.717843
9822.000000;1.715275
9821.000000;1.712507
9820.000000;1.710476
9819.000000;1.710227
9818.000000;1.711492
9817.000000;1.712895
9816.000000;1.713816
9815.000000;1.715021
9814.000000;1.717029
9813.000000;1.718869
9812.000000;1.719107
9811.000000;1.717414
9810.000000;1.714562
9809.000000;1.711642
9808.000000;1.709842
9807.000000;1.710027
9806.000000;1.711586
9805.000000;1.712407
9804.000000;1.711041
9803.000000;1.708418
9802.000000;1.706518
9801.000000;1.705914
9800.000000;1.705560
9799.000000;1.704451
9798.000000;1.702348
9797.000000;1.699255
9796.000000;1.695668
9795.000000;1.693173
9794.000000;1.693245
9793.000000;1.695179
9792.000000;1.696526
9791.000000;1.696143
9790.000000;1.695673
9789.000000;1.697026
9788.000000;1.699510
9787.000000;1.700548
9786.000000;1.698627
9785.000000;1.694461
9784.000000;1.689581
9783.000000;1.685193
9782.000000;1.682398
9781.000000;1.682159
9780.000000;1.684541
9779.000000;1.688408
9778.000000;1.692086
9777.000000;1.694220
9776.000000;1.694119
9775.000000;1.691934
9774.000000;1.688835
9773.000000;1.686541
9772.000000;1.686023
9771.000000;1.686452
9770.000000;1.685755
9769.000000;1.682709
9768.000000;1.678459
9767.000000;1.675638
9766.000000;1.675902
9765.000000;1.678483
9764.000000;1.681096
9763.000000;1.682000
9762.000000;1.680991
9761.000000;1.678785
9760.000000;1.676318
9759.000000;1.674703
9758.000000;1.674942
9757.000000;1.677116
9756.000000;1.679985
9755.000000;1.681721
9754.000000;1.681182
9753.000000;1.678563
9752.000000;1.675030
9751.000000;1.671853
9750.000000;1.669741
9749.000000;1.668858
9748.000000;1.669296
9747.000000;1.671109
9746.000000;1.673539
9745.000000;1.674696
9744.000000;1.673082
9743.000000;1.669622
9742.000000;1.667172
9741.000000;1.667590
9740.000000;1.669904
9739.000000;1.671471
9738.000000;1.670363
9737.000000;1.666509
9736.000000;1.661304
9735.000000;1.656814
9734.000000;1.654853
9733.000000;1.655777
9732.000000;1.657928
9731.000000;1.658882
9730.000000;1.657603
9729.000000;1.655066
9728.000000;1.652912
9727.000000;1.652150
9726.000000;1.652948
9725.000000;1.654741
9724.000000;1.656282
9723.000000;1.656315
9722.000000;1.654671
9721.000000;1.652248
9720.000000;1.649837
9719.000000;1.647553
9718.000000;1.645545
9717.000000;1.644459
9716.000000;1.644581
9715.000000;1.644956
9714.000000;1.644196
9713.000000;1.642080
9712.000000;1.639668
9711.000000;1.637904
9710.000000;1.636836
9709.000000;1.636322
9708.000000;1.636772
9707.000000;1.638503
9706.000000;1.640750
9705.000000;1.642159
9704.000000;1.642208
9703.000000;1.641484
9702.000000;1.640493
9701.000000;1.638982
9700.000000;1.636813
9699.000000;1.634856
9698.000000;1.634129
9697.000000;1.634270
9696.000000;1.633726
9695.000000;1.631771
9694.000000;1.629663
9693.000000;1.629230
9692.000000;1.630766
9691.000000;1.632942
9690.000000;1.634449
9689.000000;1.634891
9688.000000;1.634010
9687.000000;1.631176
9686.000000;1.626510
9685.000000;1.621877
9684.000000;1.619652
9683.000000;1.620433
9682.000000;1.622475
9681.000000;1.623478
9680.000000;1.622747
9679.000000;1.621432
9678.000000;1.620896
9677.000000;1.621223
9676.000000;1.621276
9675.000000;1.620087
9674.000000;1.618098
9673.000000;1.616863
9672.000000;1.617409
9671.000000;1.618980
9670.000000;1.619724
9669.000000;1.618748
9668.000000;1.617127
9667.000000;1.616607
9666.000000;1.617643
9665.000000;1.619128
9664.000000;1.619721
9663.000000;1.618936
9662.000000;1.616913
9661.000000;1.613794
9660.000000;1.609831
9659.000000;1.605861
9658.000000;1.603053
9657.000000;1.601998
9656.000000;1.602240
9655.000000;1.602907
9654.000000;1.603721
9653.000000;1.605122
9652.000000;1.607220
9651.000000;1.608966
9650.000000;1.608921
9649.000000;1.606967
9648.000000;1.604577
9647.000000;1.602983
9646.000000;1.601621
9645.000000;1.599037
9644.000000;1.595142
9643.000000;1.591788
9642.000000;1.590894
9641.000000;1.592617
9640.000000;1.595500
9639.000000;1.597883
9638.000000;1.598915
9637.000000;1.598661
9636.000000;1.597742
9635.000000;1.596747
9634.000000;1.595674
9633.000000;1.594039
9632.000000;1.591726
9631.000000;1.589494
9630.000000;1.588251
9629.000000;1.587927
9628.000000;1.587476
9627.000000;1.586092
9626.000000;1.584069
9625.000000;1.582315
9624.000000;1.581375
9623.000000;1.581207
9622.000000;1.581634
9621.000000;1.582643
9620.000000;1.584159
9619.000000;1.585738
9618.000000;1.586728
9617.000000;1.586760
9616.000000;1.585944
9615.000000;1.584525
9614.000000;1.582600
9613.000000;1.580399
9612.000000;1.578576
9611.000000;1.577703
9610.000000;1.577514
9609.000000;1.577199
9608.000000;1.576556
9607.000000;1.576227
9606.000000;1.576453
9605.000000;1.576226
9604.000000;1.574367
9603.000000;1.571114
9602.000000;1.567920
9601.000000;1.565840
9600.000000;1.564824
9599.000000;1.564555
9598.000000;1.565250
9597.000000;1.567253
9596.000000;1.570137
9595.000000;1.572537
9594.000000;1.572882
9593.000000;1.570475
9592.000000;1.566242
9591.000000;1.562302
9590.000000;1.560397
9589.000000;1.560606
9588.000000;1.561681
9587.000000;1.562559
9586.000000;1.563120
9585.000000;1.563500
9584.000000;1.563423
9583.000000;1.562694
9582.000000;1.561893
9581.000000;1.561908
9580.000000;1.562817
9579.000000;1.563607
9578.000000;1.563054
9577.000000;1.560780
9576.000000;1.557564
9575.000000;1.554773
9574.000000;1.553263
9573.000000;1.552678
9572.000000;1.551901
9571.000000;1.550304
9570.000000;1.548422
9569.000000;1.547311
9568.000000;1.547492
9567.000000;1.548638
9566.000000;1.549921
9565.000000;1.550392
9564.000000;1.549483
9563.000000;1.547649
9562.000000;1.546228
9561.000000;1.546062
9560.000000;1.546424
9559.000000;1.545846
9558.000000;1.543951
9557.000000;1.541762
9556.000000;1.540357
9555.000000;1.539999
9554.000000;1.540543
9553.000000;1.541866
9552.000000;1.543268
9551.000000;1.543136
9550.000000;1.540395
9549.000000;1.536200
9548.000000;1.533128
9547.000000;1.532614
9546.000000;1.533889
9545.000000;1.535459
9544.000000;1.536811
9543.000000;1.538135
9542.000000;1.539142
9541.000000;1.539207
9540.000000;1.538533
9539.000000;1.538114
9538.000000;1.538225
9537.000000;1.537862
9536.000000;1.536193
9535.000000;1.533843
9534.000000;1.531978
9533.000000;1.530648
9532.000000;1.528973
9531.000000;1.526740
9530.000000;1.524803
9529.000000;1.523767
9528.000000;1.523270
9527.000000;1.522908
9526.000000;1.522944
9525.000000;1.523388
9524.000000;1.523092
9523.000000;1.520842
9522.000000;1.517175
9521.000000;1.514074
9520.000000;1.512825
9519.000000;1.513030
9518.000000;1.513885
9517.000000;1.515533
9516.000000;1.518503
9515.000000;1.522331
9514.000000;1.525523
9513.000000;1.526849
9512.000000;1.526214
9511.000000;1.524274
9510.000000;1.521724
9509.000000;1.519038
9508.000000;1.516500
9507.000000;1.514252
9506.000000;1.512432
9505.000000;1.511256
9504.000000;1.510808
9503.000000;1.510799
9502.000000;1.510841
9501.000000;1.511011
9500.000000;1.511699
9499.000000;1.512699
9498.000000;1.512892
9497.000000;1.511388
9496.000000;1.508795
9495.000000;1.506777
9494.000000;1.506308
9493.000000;1.506825
9492.000000;1.507140
9491.000000;1.506857
9490.000000;1.506702
9489.000000;1.507594
9488.000000;1.509509
9487.000000;1.511116
9486.000000;1.510595
9485.000000;1.507213
9484.000000;1.502269
9483.000000;1.498326
9482.000000;1.497203
9481.000000;1.498575
9480.000000;1.500462
9479.000000;1.501032
9478.000000;1.500020
9477.000000;1.498602
9476.000000;1.498075
9475.000000;1.498661
9474.000000;1.499296
9473.000000;1.498621
9472.000000;1.496397
9471.000000;1.493835
9470.000000;1.492263
9469.000000;1.491732
9468.000000;1.491290
9467.000000;1.490492
9466.000000;1.490001
9465.000000;1.490474
9464.000000;1.491466
9463.000000;1.491994
9462.000000;1.491943
9461.000000;1.492214
9460.000000;1.493331
9459.000000;1.494410
9458.000000;1.493926
9457.000000;1.491358
9456.000000;1.487798
9455.000000;1.484918
9454.000000;1.483521
9453.000000;1.483053
9452.000000;1.482347
9451.000000;1.480833
9450.000000;1.479069
9449.000000;1.478071
9448.000000;1.478262
9447.000000;1.479179
9446.000000;1.480042
9445.000000;1.480402
9444.000000;1.480223
9443.000000;1.479709
9442.000000;1.479277
9441.000000;1.479364
9440.000000;1.479957
9439.000000;1.480452
9438.000000;1.480296
9437.000000;1.479629
9436.000000;1.478970
9435.000000;1.478361
9434.000000;1.477213
9433.000000;1.475036
9432.000000;1.472065
9431.000000;1.469145
9430.000000;1.467284
9429.000000;1.467212
9428.000000;1.468789
9427.000000;1.470637
9426.000000;1.470904
9425.000000;1.468921
9424.000000;1.465937
9423.000000;1.463861
9422.000000;1.463507
9421.000000;1.464180
9420.000000;1.464512
9419.000000;1.463403
9418.000000;1.460605
9417.000000;1.456868
9416.000000;1.453438
9415.000000;1.451162
9414.000000;1.450184
9413.000000;1.450555
9412.000000;1.452556
9411.000000;1.455870
9410.000000;1.458857
9409.000000;1.459727
9408.000000;1.458620
9407.000000;1.457642
9406.000000;1.458484
9405.000000;1.460694
9404.000000;1.462547
9403.000000;1.463019
9402.000000;1.462475
9401.000000;1.461788
9400.000000;1.461341
9399.000000;1.460744
9398.000000;1.459187
9397.000000;1.456175
9396.000000;1.452164
9395.000000;1.448379
9394.000000;1.445930
9393.000000;1.445228
9392.000000;1.446033
9391.000000;1.447616
9390.000000;1.448931
9389.000000;1.449302
9388.000000;1.449183
9387.000000;1.449683
9386.000000;1.451062
9385.000000;1.452281
9384.000000;1.452353
9383.000000;1.451466
9382.000000;1.450329
9381.000000;1.449174
9380.000000;1.448127
9379.000000;1.447863
9378.000000;1.448753
9377.000000;1.449645
9376.000000;1.448816
9375.000000;1.446293
9374.000000;1.444026
9373.000000;1.443384
9372.000000;1.443543
9371.000000;1.442920
9370.000000;1.441410
9369.000000;1.440287
9368.000000;1.440307
9367.000000;1.440869
9366.000000;1.441036
9365.000000;1.440630
9364.000000;1.439988
9363.000000;1.439104
9362.000000;1.437569
9361.000000;1.435312
9360.000000;1.432979
9359.000000;1.431396
9358.000000;1.430821
9357.000000;1.430838
9356.000000;1.430852
9355.000000;1.430504
9354.000000;1.429781
9353.000000;1.429008
9352.000000;1.428711
9351.000000;1.429172
9350.000000;1.430079
9349.000000;1.430851
9348.000000;1.431236
9347.000000;1.431234
9346.000000;1.430592
9345.000000;1.429089
9344.000000;1.427389
9343.000000;1.426751
9342.000000;1.427482
9341.000000;1.428349
9340.000000;1.428117
9339.000000;1.427100
9338.000000;1.426468
9337.000000;1.426576
9336.000000;1.426781
9335.000000;1.426452
9334.000000;1.425338
9333.000000;1.423333
9332.000000;1.420865
9331.000000;1.419186
9330.000000;1.419202
9329.000000;1.420103
9328.000000;1.420223
9327.000000;1.419230
9326.000000;1.418341
9325.000000;1.418320
9324.000000;1.418550
9323.000000;1.418436
9322.000000;1.418499
9321.000000;1.419339
9320.000000;1.420360
9319.000000;1.420340
9318.000000;1.418784
9317.000000;1.416133
9316.000000;1.413173
9315.000000;1.410740
9314.000000;1.409390
9313.000000;1.408808
9312.000000;1.408080
9311.000000;1.407055
9310.000000;1.406864
9309.000000;1.408434
9308.000000;1.411017
9307.000000;1.412877
9306.000000;1.413061
9305.000000;1.411841
9304.000000;1.409831
9303.000000;1.407597
9302.000000;1.405960
9301.000000;1.405694
9300.000000;1.406722
9299.000000;1.408090
9298.000000;1.408844
9297.000000;1.408647
9296.000000;1.407671
9295.000000;1.406388
9294.000000;1.405364
9293.000000;1.404845
9292.000000;1.404555
9291.000000;1.404153
9290.000000;1.403690
9289.000000;1.403341
9288.000000;1.402964
9287.000000;1.402364
9286.000000;1.401778
9285.000000;1.401633
9284.000000;1.401997
9283.000000;1.402637
9282.000000;1.403273
9281.000000;1.403382
9280.000000;1.402265
9279.000000;1.400086
9278.000000;1.398436
9277.000000;1.398893
9276.000000;1.401007
9275.000000;1.402494
9274.000000;1.401640
9273.000000;1.398945
9272.000000;1.396076
9271.000000;1.393968
9270.000000;1.392526
9269.000000;1.391619
9268.000000;1.391549
9267.000000;1.392476
9266.000000;1.393835
9265.000000;1.394684
9264.000000;1.394607
9263.000000;1.394106
9262.000000;1.394007
9261.000000;1.394551
9260.000000;1.395303
9259.000000;1.395892
9258.000000;1.396425
9257.000000;1.396965
9256.000000;1.397057
9255.000000;1.396097
9254.000000;1.393976
9253.000000;1.391084
9252.000000;1.387962
9251.000000;1.385427
9250.000000;1.384618
9249.000000;1.386120
9248.000000;1.389015
9247.000000;1.391310
9246.000000;1.391546
9245.000000;1.389857
9244.000000;1.387577
9243.000000;1.386113
9242.000000;1.385968
9241.000000;1.386342
9240.000000;1.385837
9239.000000;1.384002
9238.000000;1.381916
9237.000000;1.380732
9236.000000;1.380069
9235.000000;1.378704
9234.000000;1.376662
9233.000000;1.375484
9232.000000;1.376216
9231.000000;1.378049
9230.000000;1.379374
9229.000000;1.379538
9228.000000;1.379004
9227.000000;1.378298
9226.000000;1.377566
9225.000000;1.376925
9224.000000;1.376607
9223.000000;1.376703
9222.000000;1.377076
9221.000000;1.377536
9220.000000;1.377914
9219.000000;1.378040
9218.000000;1.377849
9217.000000;1.377464
9216.000000;1.377081
9215.000000;1.376808
9214.000000;1.376559
9213.000000;1.376008
9212.000000;1.374760
9211.000000;1.372884
9210.000000;1.371171
9209.000000;1.370468
9208.000000;1.370811
9207.000000;1.371535
9206.000000;1.372158
9205.000000;1.372679
9204.000000;1.372975
9203.000000;1.372557
9202.000000;1.371240
9201.000000;1.369602
9200.000000;1.368391
9199.000000;1.367817
9198.000000;1.367690
9197.000000;1.367858
9196.000000;1.368119
9195.000000;1.368035
9194.000000;1.367315
9193.000000;1.366294
9192.000000;1.365669
9191.000000;1.365715
9190.000000;1.365958
9189.000000;1.365606
9188.000000;1.364277
9187.000000;1.362483
9186.000000;1.361407
9185.000000;1.361943
9184.000000;1.363764
9183.000000;1.365500
9182.000000;1.366055
9181.000000;1.365560
9180.000000;1.364865
9179.000000;1.364424
9178.000000;1.363973
9177.000000;1.363029
9176.000000;1.361360
9175.000000;1.359160
9174.000000;1.357089
9173.000000;1.356015
9172.000000;1.356449
9171.000000;1.358215
9170.000000;1.360625
9169.000000;1.362731
9168.000000;1.363506
9167.000000;1.362344
9166.000000;1.359764
9165.000000;1.357273
9164.000000;1.356049
9163.000000;1.355909
9162.000000;1.355989
9161.000000;1.356169
9160.000000;1.357088
9159.000000;1.358661
9158.000000;1.359411
9157.000000;1.357896
9156.000000;1.354517
9155.000000;1.351286
9154.000000;1.349799
9153.000000;1.349935
9152.000000;1.350544
9151.000000;1.350892
9150.000000;1.350989
9149.000000;1.350810
9148.000000;1.350008
9147.000000;1.348687
9146.000000;1.347774
9145.000000;1.348035
9144.000000;1.348975
9143.000000;1.349333
9142.000000;1.348618
9141.000000;1.347578
9140.000000;1.347076
9139.000000;1.347130
9138.000000;1.347295
9137.000000;1.347518
9136.000000;1.348068
9135.000000;1.348787
9134.000000;1.348896
9133.000000;1.347691
9132.000000;1.345346
9131.000000;1.343009
9130.000000;1.342017
9129.000000;1.342822
9128.000000;1.344596
9127.000000;1.346020
9126.000000;1.346471
9125.000000;1.346327
9124.000000;1.346229
9123.000000;1.346375
9122.000000;1.346492
9121.000000;1.346081
9120.000000;1.344728
9119.000000;1.342663
9118.000000;1.341010
9117.000000;1.340890
9116.000000;1.342104
9115.000000;1.343225
9114.000000;1.343274
9113.000000;1.342737
9112.000000;1.342567
9111.000000;1.342821
9110.000000;1.342933
9109.000000;1.342839
9108.000000;1.343017
9107.000000;1.343556
9106.000000;1.343933
9105.000000;1.343696
9104.000000;1.342826
9103.000000;1.341452
9102.000000;1.339784
9101.000000;1.338317
9100.000000;1.337510
9099.000000;1.337210
9098.000000;1.336795
9097.000000;1.336021
9096.000000;1.335383
9095.000000;1.335451
9094.000000;1.336085
9093.000000;1.336590
9092.000000;1.336510
9091.000000;1.335983
9090.000000;1.335344
9089.000000;1.334572
9088.000000;1.333343
9087.000000;1.331699
9086.000000;1.330454
9085.000000;1.330546
9084.000000;1.331928
9083.000000;1.333439
9082.000000;1.333998
9081.000000;1.333581
9080.000000;1.332736
9079.000000;1.331603
9078.000000;1.330042
9077.000000;1.328435
9076.000000;1.327642
9075.000000;1.328036
9074.000000;1.329110
9073.000000;1.330171
9072.000000;1.331017
9071.000000;1.331818
9070.000000;1.332721
9069.000000;1.333728
9068.000000;1.334652
9067.000000;1.335054
9066.000000;1.334541
9065.000000;1.333251
9064.000000;1.331745
9063.000000;1.330376
9062.000000;1.329082
9061.000000;1.327854
9060.000000;1.326892
9059.000000;1.326130
9058.000000;1.325114
9057.000000;1.323694
9056.000000;1.322502
9055.000000;1.322366
9054.000000;1.323359
9053.000000;1.324731
