Criado como novo conjunto de dados;"1909daniel.spp","-4237722.0 Secs"
cm-1;Abs
10000.000000;1.562017
9999.000000;1.562444
9998.000000;1.562858
9997.000000;1.563296
9996.000000;1.563692
9995.000000;1.564176
9994.000000;1.564393
9993.000000;1.563644
9992.000000;1.562999
9991.000000;1.563404
9990.000000;1.564194
9989.000000;1.563798
9988.000000;1.561883
9987.000000;1.559696
9986.000000;1.558378
9985.000000;1.557727
9984.000000;1.556756
9983.000000;1.554973
9982.000000;1.552840
9981.000000;1.551189
9980.000000;1.550412
9979.000000;1.550174
9978.000000;1.549827
9977.000000;1.549066
9976.000000;1.548140
9975.000000;1.547495
9974.000000;1.547377
9973.000000;1.547747
9972.000000;1.548224
9971.000000;1.548000
9970.000000;1.546320
9969.000000;1.543457
9968.000000;1.540941
9967.000000;1.540329
9966.000000;1.541724
9965.000000;1.543705
9964.000000;1.544656
9963.000000;1.544011
9962.000000;1.542336
9961.000000;1.540605
9960.000000;1.539497
9959.000000;1.539040
9958.000000;1.538670
9957.000000;1.537773
9956.000000;1.536344
9955.000000;1.535037
9954.000000;1.534504
9953.000000;1.534681
9952.000000;1.534711
9951.000000;1.533676
9950.000000;1.531576
9949.000000;1.529498
9948.000000;1.528601
9947.000000;1.529052
9946.000000;1.530137
9945.000000;1.531252
9944.000000;1.532273
9943.000000;1.532900
9942.000000;1.532371
9941.000000;1.530348
9940.000000;1.527650
9939.000000;1.525586
9938.000000;1.524782
9937.000000;1.524997
9936.000000;1.525790
9935.000000;1.526885
9934.000000;1.528016
9933.000000;1.528864
9932.000000;1.529175
9931.000000;1.528765
9930.000000;1.527609
9929.000000;1.526139
9928.000000;1.525029
9927.000000;1.524309
9926.000000;1.523155
9925.000000;1.521135
9924.000000;1.519153
9923.000000;1.518318
9922.000000;1.518252
9921.000000;1.517568
9920.000000;1.515947
9919.000000;1.514646
9918.000000;1.514673
9917.000000;1.515410
9916.000000;1.515466
9915.000000;1.514152
9914.000000;1.511680
9913.000000;1.508595
9912.000000;1.505576
9911.000000;1.503353
9910.000000;1.502298
9909.000000;1.502300
9908.000000;1.503166
9907.000000;1.504643
9906.000000;1.505897
9905.000000;1.505737
9904.000000;1.503971
9903.000000;1.501926
9902.000000;1.500985
9901.000000;1.501136
9900.000000;1.501386
9899.000000;1.501030
9898.000000;1.499990
9897.000000;1.498501
9896.000000;1.497152
9895.000000;1.496769
9894.000000;1.497469
9893.000000;1.498192
9892.000000;1.497960
9891.000000;1.497278
9890.000000;1.497368
9889.000000;1.498223
9888.000000;1.498488
9887.000000;1.497290
9886.000000;1.495183
9885.000000;1.493110
9884.000000;1.491449
9883.000000;1.490368
9882.000000;1.490132
9881.000000;1.490425
9880.000000;1.490154
9879.000000;1.488666
9878.000000;1.486679
9877.000000;1.485369
9876.000000;1.484898
9875.000000;1.484515
9874.000000;1.483870
9873.000000;1.483505
9872.000000;1.483910
9871.000000;1.484626
9870.000000;1.484508
9869.000000;1.482671
9868.000000;1.479327
9867.000000;1.475974
9866.000000;1.474575
9865.000000;1.476106
9864.000000;1.479660
9863.000000;1.483072
9862.000000;1.484574
9861.000000;1.483792
9860.000000;1.481316
9859.000000;1.477914
9858.000000;1.474445
9857.000000;1.471953
9856.000000;1.471102
9855.000000;1.471528
9854.000000;1.472163
9853.000000;1.472208
9852.000000;1.471576
9851.000000;1.470521
9850.000000;1.469305
9849.000000;1.468245
9848.000000;1.467623
9847.000000;1.467318
9846.000000;1.466868
9845.000000;1.466102
9844.000000;1.465362
9843.000000;1.464843
9842.000000;1.464111
9841.000000;1.462679
9840.000000;1.460774
9839.000000;1.459025
9838.000000;1.457647
9837.000000;1.456508
9836.000000;1.455828
9835.000000;1.456053
9834.000000;1.456923
9833.000000;1.457385
9832.000000;1.456775
9831.000000;1.455536
9830.000000;1.454440
9829.000000;1.453777
9828.000000;1.453624
9827.000000;1.454190
9826.000000;1.455242
9825.000000;1.455721
9824.000000;1.454772
9823.000000;1.452957
9822.000000;1.451663
9821.000000;1.451512
9820.000000;1.452096
9819.000000;1.452949
9818.000000;1.453744
9817.000000;1.453598
9816.000000;1.451469
9815.000000;1.447798
9814.000000;1.444664
9813.000000;1.443518
9812.000000;1.443463
9811.000000;1.442553
9810.000000;1.440335
9809.000000;1.438178
9808.000000;1.437263
9807.000000;1.437320
9806.000000;1.437467
9805.000000;1.437434
9804.000000;1.437480
9803.000000;1.437666
9802.000000;1.437787
9801.000000;1.437798
9800.000000;1.437817
9799.000000;1.437785
9798.000000;1.437455
9797.000000;1.436641
9796.000000;1.435229
9795.000000;1.433191
9794.000000;1.430959
9793.000000;1.429597
9792.000000;1.430059
9791.000000;1.432180
9790.000000;1.434805
9789.000000;1.436950
9788.000000;1.438341
9787.000000;1.438640
9786.000000;1.437015
9785.000000;1.433221
9784.000000;1.428657
9783.000000;1.425459
9782.000000;1.424582
9781.000000;1.425289
9780.000000;1.426349
9779.000000;1.427067
9778.000000;1.427153
9777.000000;1.426366
9776.000000;1.424740
9775.000000;1.422775
9774.000000;1.420995
9773.000000;1.419541
9772.000000;1.418334
9771.000000;1.417290
9770.000000;1.416184
9769.000000;1.414724
9768.000000;1.413071
9767.000000;1.411908
9766.000000;1.411675
9765.000000;1.412072
9764.000000;1.412625
9763.000000;1.413339
9762.000000;1.414329
9761.000000;1.415120
9760.000000;1.414951
9759.000000;1.413652
9758.000000;1.411668
9757.000000;1.409381
9756.000000;1.407049
9755.000000;1.405277
9754.000000;1.404815
9753.000000;1.405599
9752.000000;1.406538
9751.000000;1.406604
9750.000000;1.405815
9749.000000;1.404837
9748.000000;1.403976
9747.000000;1.403021
9746.000000;1.401935
9745.000000;1.401240
9744.000000;1.401493
9743.000000;1.402492
9742.000000;1.403172
9741.000000;1.402516
9740.000000;1.400632
9739.000000;1.398707
9738.000000;1.397750
9737.000000;1.397570
9736.000000;1.397230
9735.000000;1.396317
9734.000000;1.395278
9733.000000;1.394553
9732.000000;1.393941
9731.000000;1.393143
9730.000000;1.392512
9729.000000;1.392842
9728.000000;1.394410
9727.000000;1.396458
9726.000000;1.397653
9725.000000;1.397055
9724.000000;1.394769
9723.000000;1.391769
9722.000000;1.389085
9721.000000;1.387136
9720.000000;1.385779
9719.000000;1.384815
9718.000000;1.384230
9717.000000;1.383983
9716.000000;1.383851
9715.000000;1.383606
9714.000000;1.383208
9713.000000;1.382721
9712.000000;1.382196
9711.000000;1.381720
9710.000000;1.381468
9709.000000;1.381575
9708.000000;1.381950
9707.000000;1.382255
9706.000000;1.382056
9705.000000;1.381087
9704.000000;1.379518
9703.000000;1.377945
9702.000000;1.376959
9701.000000;1.376653
9700.000000;1.376582
9699.000000;1.376184
9698.000000;1.375231
9697.000000;1.373974
9696.000000;1.373006
9695.000000;1.372885
9694.000000;1.373608
9693.000000;1.374397
9692.000000;1.374206
9691.000000;1.372608
9690.000000;1.370109
9689.000000;1.367631
9688.000000;1.365851
9687.000000;1.364961
9686.000000;1.364748
9685.000000;1.364766
9684.000000;1.364583
9683.000000;1.363994
9682.000000;1.362993
9681.000000;1.361654
9680.000000;1.360146
9679.000000;1.358735
9678.000000;1.357551
9677.000000;1.356523
9676.000000;1.355756
9675.000000;1.355765
9674.000000;1.356883
9673.000000;1.358536
9672.000000;1.359592
9671.000000;1.359516
9670.000000;1.358705
9669.000000;1.357674
9668.000000;1.356527
9667.000000;1.355407
9666.000000;1.354801
9665.000000;1.354904
9664.000000;1.355112
9663.000000;1.354574
9662.000000;1.353044
9661.000000;1.350956
9660.000000;1.349013
9659.000000;1.347971
9658.000000;1.348293
9657.000000;1.349499
9656.000000;1.350224
9655.000000;1.349569
9654.000000;1.348157
9653.000000;1.347229
9652.000000;1.346946
9651.000000;1.346318
9650.000000;1.344777
9649.000000;1.342978
9648.000000;1.341787
9647.000000;1.341231
9646.000000;1.340842
9645.000000;1.340411
9644.000000;1.339907
9643.000000;1.339112
9642.000000;1.337929
9641.000000;1.336816
9640.000000;1.336421
9639.000000;1.336812
9638.000000;1.337356
9637.000000;1.337351
9636.000000;1.336604
9635.000000;1.335469
9634.000000;1.334550
9633.000000;1.334316
9632.000000;1.334775
9631.000000;1.335425
9630.000000;1.335667
9629.000000;1.335224
9628.000000;1.334094
9627.000000;1.332266
9626.000000;1.329825
9625.000000;1.327307
9624.000000;1.325608
9623.000000;1.325280
9622.000000;1.325987
9621.000000;1.326777
9620.000000;1.326965
9619.000000;1.326690
9618.000000;1.326593
9617.000000;1.326985
9616.000000;1.327369
9615.000000;1.326837
9614.000000;1.324989
9613.000000;1.322353
9612.000000;1.319944
9611.000000;1.318552
9610.000000;1.318429
9609.000000;1.319236
9608.000000;1.320088
9607.000000;1.319969
9606.000000;1.318596
9605.000000;1.316832
9604.000000;1.315888
9603.000000;1.316049
9602.000000;1.316432
9601.000000;1.316104
9600.000000;1.315169
9599.000000;1.314427
9598.000000;1.314237
9597.000000;1.314139
9596.000000;1.313547
9595.000000;1.312443
9594.000000;1.311223
9593.000000;1.310128
9592.000000;1.309119
9591.000000;1.308155
9590.000000;1.307304
9589.000000;1.306568
9588.000000;1.305830
9587.000000;1.305083
9586.000000;1.304544
9585.000000;1.304378
9584.000000;1.304416
9583.000000;1.304302
9582.000000;1.303892
9581.000000;1.303364
9580.000000;1.302903
9579.000000;1.302488
9578.000000;1.302055
9577.000000;1.301636
9576.000000;1.301157
9575.000000;1.300287
9574.000000;1.298817
9573.000000;1.297165
9572.000000;1.296145
9571.000000;1.296054
9570.000000;1.296260
9569.000000;1.295911
9568.000000;1.294960
9567.000000;1.294213
9566.000000;1.294419
9565.000000;1.295563
9564.000000;1.296996
9563.000000;1.297902
9562.000000;1.297623
9561.000000;1.295969
9560.000000;1.293518
9559.000000;1.291418
9558.000000;1.290491
9557.000000;1.290527
9556.000000;1.290615
9555.000000;1.290187
9554.000000;1.289448
9553.000000;1.288736
9552.000000;1.287892
9551.000000;1.286581
9550.000000;1.285026
9549.000000;1.283933
9548.000000;1.283652
9547.000000;1.283738
9546.000000;1.283498
9545.000000;1.282778
9544.000000;1.282023
9543.000000;1.281688
9542.000000;1.281826
9541.000000;1.282182
9540.000000;1.282411
9539.000000;1.282161
9538.000000;1.281191
9537.000000;1.279580
9536.000000;1.277728
9535.000000;1.276098
9534.000000;1.274995
9533.000000;1.274572
9532.000000;1.274802
9531.000000;1.275264
9530.000000;1.275142
9529.000000;1.273811
9528.000000;1.271548
9527.000000;1.269420
9526.000000;1.268301
9525.000000;1.268101
9524.000000;1.268073
9523.000000;1.267762
9522.000000;1.267410
9521.000000;1.267409
9520.000000;1.267622
9519.000000;1.267494
9518.000000;1.266722
9517.000000;1.265622
9516.000000;1.264808
9515.000000;1.264698
9514.000000;1.265309
9513.000000;1.266310
9512.000000;1.267160
9511.000000;1.267362
9510.000000;1.266823
9509.000000;1.265954
9508.000000;1.265285
9507.000000;1.264956
9506.000000;1.264602
9505.000000;1.263743
9504.000000;1.262290
9503.000000;1.260784
9502.000000;1.260081
9501.000000;1.260564
9500.000000;1.261485
9499.000000;1.261381
9498.000000;1.259520
9497.000000;1.256820
9496.000000;1.254956
9495.000000;1.254592
9494.000000;1.254857
9493.000000;1.254556
9492.000000;1.253486
9491.000000;1.252344
9490.000000;1.251745
9489.000000;1.251725
9488.000000;1.251990
9487.000000;1.252244
9486.000000;1.252255
9485.000000;1.251911
9484.000000;1.251312
9483.000000;1.250684
9482.000000;1.250177
9481.000000;1.249777
9480.000000;1.249352
9479.000000;1.248710
9478.000000;1.247731
9477.000000;1.246590
9476.000000;1.245720
9475.000000;1.245386
9474.000000;1.245435
9473.000000;1.245540
9472.000000;1.245484
9471.000000;1.245044
9470.000000;1.243887
9469.000000;1.241963
9468.000000;1.239896
9467.000000;1.238570
9466.000000;1.238298
9465.000000;1.238722
9464.000000;1.239462
9463.000000;1.240424
9462.000000;1.241374
9461.000000;1.241748
9460.000000;1.241229
9459.000000;1.240231
9458.000000;1.239417
9457.000000;1.238937
9456.000000;1.238504
9455.000000;1.238021
9454.000000;1.237640
9453.000000;1.237192
9452.000000;1.236081
9451.000000;1.234070
9450.000000;1.231859
9449.000000;1.230441
9448.000000;1.229941
9447.000000;1.229512
9446.000000;1.228477
9445.000000;1.227247
9444.000000;1.226795
9443.000000;1.227460
9442.000000;1.228637
9441.000000;1.229494
9440.000000;1.229584
9439.000000;1.228769
9438.000000;1.227120
9437.000000;1.225216
9436.000000;1.224112
9435.000000;1.224482
9434.000000;1.225867
9433.000000;1.227062
9432.000000;1.227224
9431.000000;1.226402
9430.000000;1.225163
9429.000000;1.224073
9428.000000;1.223439
9427.000000;1.223184
9426.000000;1.222941
9425.000000;1.222531
9424.000000;1.222237
9423.000000;1.222366
9422.000000;1.222652
9421.000000;1.222499
9420.000000;1.221756
9419.000000;1.220733
9418.000000;1.219513
9417.000000;1.217939
9416.000000;1.216382
9415.000000;1.215743
9414.000000;1.216309
9413.000000;1.217166
9412.000000;1.217217
9411.000000;1.216390
9410.000000;1.215343
9409.000000;1.214387
9408.000000;1.213378
9407.000000;1.212458
9406.000000;1.212179
9405.000000;1.212726
9404.000000;1.213511
9403.000000;1.213722
9402.000000;1.213060
9401.000000;1.211831
9400.000000;1.210540
9399.000000;1.209549
9398.000000;1.208978
9397.000000;1.208786
9396.000000;1.208876
9395.000000;1.209047
9394.000000;1.208879
9393.000000;1.207927
9392.000000;1.206246
9391.000000;1.204572
9390.000000;1.203711
9389.000000;1.203802
9388.000000;1.204323
9387.000000;1.204686
9386.000000;1.204638
9385.000000;1.204229
9384.000000;1.203688
9383.000000;1.203316
9382.000000;1.203234
9381.000000;1.203203
9380.000000;1.202837
9379.000000;1.201973
9378.000000;1.200748
9377.000000;1.199407
9376.000000;1.198198
9375.000000;1.197328
9374.000000;1.196759
9373.000000;1.196187
9372.000000;1.195469
9371.000000;1.194964
9370.000000;1.195109
9369.000000;1.195722
9368.000000;1.196069
9367.000000;1.195637
9366.000000;1.194554
9365.000000;1.193251
9364.000000;1.192054
9363.000000;1.191191
9362.000000;1.190781
9361.000000;1.190625
9360.000000;1.190259
9359.000000;1.189469
9358.000000;1.188614
9357.000000;1.188275
9356.000000;1.188675
9355.000000;1.189511
9354.000000;1.190216
9353.000000;1.190316
9352.000000;1.189663
9351.000000;1.188551
9350.000000;1.187567
9349.000000;1.187178
9348.000000;1.187372
9347.000000;1.187694
9346.000000;1.187621
9345.000000;1.186958
9344.000000;1.185947
9343.000000;1.185008
9342.000000;1.184347
9341.000000;1.183801
9340.000000;1.183042
9339.000000;1.181867
9338.000000;1.180299
9337.000000;1.178642
9336.000000;1.177557
9335.000000;1.177758
9334.000000;1.179246
9333.000000;1.180932
9332.000000;1.181469
9331.000000;1.180639
9330.000000;1.179590
9329.000000;1.179472
9328.000000;1.180149
9327.000000;1.180547
9326.000000;1.180064
9325.000000;1.179269
9324.000000;1.179082
9323.000000;1.179562
9322.000000;1.179797
9321.000000;1.178969
9320.000000;1.177284
9319.000000;1.175638
9318.000000;1.174554
9317.000000;1.173807
9316.000000;1.173037
9315.000000;1.172261
9314.000000;1.171566
9313.000000;1.170724
9312.000000;1.169569
9311.000000;1.168499
9310.000000;1.168092
9309.000000;1.168321
9308.000000;1.168645
9307.000000;1.168846
9306.000000;1.169212
9305.000000;1.169830
9304.000000;1.170265
9303.000000;1.170201
9302.000000;1.169848
9301.000000;1.169359
9300.000000;1.168372
9299.000000;1.166666
9298.000000;1.164900
9297.000000;1.164097
9296.000000;1.164486
9295.000000;1.165310
9294.000000;1.165690
9293.000000;1.165307
9292.000000;1.164337
9291.000000;1.163240
9290.000000;1.162613
9289.000000;1.162743
9288.000000;1.163157
9287.000000;1.163035
9286.000000;1.162277
9285.000000;1.161670
9284.000000;1.161741
9283.000000;1.161938
9282.000000;1.161403
9281.000000;1.160238
9280.000000;1.159401
9279.000000;1.159421
9278.000000;1.159754
9277.000000;1.159572
9276.000000;1.158754
9275.000000;1.157814
9274.000000;1.157177
9273.000000;1.156854
9272.000000;1.156664
9271.000000;1.156477
9270.000000;1.156280
9269.000000;1.156208
9268.000000;1.156405
9267.000000;1.156671
9266.000000;1.156402
9265.000000;1.155223
9264.000000;1.153692
9263.000000;1.152961
9262.000000;1.153580
9261.000000;1.154902
9260.000000;1.155826
9259.000000;1.155886
9258.000000;1.155346
9257.000000;1.154490
9256.000000;1.153316
9255.000000;1.151955
9254.000000;1.150902
9253.000000;1.150588
9252.000000;1.150897
9251.000000;1.151291
9250.000000;1.151291
9249.000000;1.150755
9248.000000;1.149850
9247.000000;1.148881
9246.000000;1.148084
9245.000000;1.147452
9244.000000;1.146820
9243.000000;1.146161
9242.000000;1.145695
9241.000000;1.145611
9240.000000;1.145803
9239.000000;1.145955
9238.000000;1.145825
9237.000000;1.145372
9236.000000;1.144699
9235.000000;1.144056
9234.000000;1.143844
9233.000000;1.144336
9232.000000;1.145236
9231.000000;1.145713
9230.000000;1.145130
9229.000000;1.143778
9228.000000;1.142675
9227.000000;1.142546
9226.000000;1.143078
9225.000000;1.143313
9224.000000;1.142697
9223.000000;1.141556
9222.000000;1.140543
9221.000000;1.139915
9220.000000;1.139478
9219.000000;1.139022
9218.000000;1.138488
9217.000000;1.137842
9216.000000;1.137041
9215.000000;1.136197
9214.000000;1.135544
9213.000000;1.135202
9212.000000;1.135092
9211.000000;1.135124
9210.000000;1.135319
9209.000000;1.135684
9208.000000;1.136077
9207.000000;1.136246
9206.000000;1.135943
9205.000000;1.135077
9204.000000;1.133917
9203.000000;1.133054
9202.000000;1.132955
9201.000000;1.133493
9200.000000;1.134088
9199.000000;1.134309
9198.000000;1.134167
9197.000000;1.133828
9196.000000;1.133338
9195.000000;1.132755
9194.000000;1.132278
9193.000000;1.132042
9192.000000;1.131907
9191.000000;1.131688
9190.000000;1.131465
9189.000000;1.131451
9188.000000;1.131607
9187.000000;1.131623
9186.000000;1.131285
9185.000000;1.130655
9184.000000;1.129879
9183.000000;1.129008
9182.000000;1.128120
9181.000000;1.127482
9180.000000;1.127384
9179.000000;1.127775
9178.000000;1.128131
9177.000000;1.127883
9176.000000;1.127021
9175.000000;1.126139
9174.000000;1.125735
9173.000000;1.125614
9172.000000;1.125253
9171.000000;1.124651
9170.000000;1.124352
9169.000000;1.124549
9168.000000;1.124655
9167.000000;1.124155
9166.000000;1.123483
9165.000000;1.123498
9164.000000;1.124190
9163.000000;1.124473
9162.000000;1.123480
9161.000000;1.121649
9160.000000;1.120242
9159.000000;1.119986
9158.000000;1.120499
9157.000000;1.120916
9156.000000;1.120795
9155.000000;1.120327
9154.000000;1.119892
9153.000000;1.119611
9152.000000;1.119398
9151.000000;1.119254
9150.000000;1.119292
9149.000000;1.119463
9148.000000;1.119451
9147.000000;1.119024
9146.000000;1.118341
9145.000000;1.117756
9144.000000;1.117381
9143.000000;1.117075
9142.000000;1.116810
9141.000000;1.116733
9140.000000;1.116781
9139.000000;1.116498
9138.000000;1.115538
9137.000000;1.114264
9136.000000;1.113527
9135.000000;1.113742
9134.000000;1.114366
9133.000000;1.114482
9132.000000;1.113883
9131.000000;1.113359
9130.000000;1.113757
9129.000000;1.114967
9128.000000;1.116039
9127.000000;1.116232
9126.000000;1.115661
9125.000000;1.114866
9124.000000;1.114114
9123.000000;1.113362
9122.000000;1.112681
9121.000000;1.112326
9120.000000;1.112351
9119.000000;1.112414
9118.000000;1.112054
9117.000000;1.111104
9116.000000;1.109846
9115.000000;1.108864
9114.000000;1.108700
9113.000000;1.109411
9112.000000;1.110419
9111.000000;1.110925
9110.000000;1.110567
9109.000000;1.109622
9108.000000;1.108622
9107.000000;1.107953
9106.000000;1.107767
9105.000000;1.107986
9104.000000;1.108271
9103.000000;1.108210
9102.000000;1.107733
9101.000000;1.107212
9100.000000;1.107005
9099.000000;1.106998
9098.000000;1.106790
9097.000000;1.106223
9096.000000;1.105563
9095.000000;1.105152
9094.000000;1.105057
9093.000000;1.105057
9092.000000;1.104897
9091.000000;1.104512
9090.000000;1.104026
9089.000000;1.103582
9088.000000;1.103173
9087.000000;1.102706
9086.000000;1.102211
9085.000000;1.101909
9084.000000;1.101994
9083.000000;1.102417
9082.000000;1.102951
9081.000000;1.103392
9080.000000;1.103661
9079.000000;1.103765
9078.000000;1.103734
9077.000000;1.103593
9076.000000;1.103312
9075.000000;1.102802
9074.000000;1.102034
9073.000000;1.101167
9072.000000;1.100506
9071.000000;1.100301
9070.000000;1.100543
9069.000000;1.100886
9068.000000;1.100846
9067.000000;1.100221
9066.000000;1.099360
9065.000000;1.098856
9064.000000;1.098844
9063.000000;1.098740
9062.000000;1.097884
9061.000000;1.096389
9060.000000;1.095122
9059.000000;1.094803
9058.000000;1.095347
9057.000000;1.096094
9056.000000;1.096537
9055.000000;1.096660
9054.000000;1.096687
9053.000000;1.096699
