Criado como novo conjunto de dados;"1909daniel.spp","-4265624.0 Secs"
cm-1;Abs
10000.000000;1.660846
9999.000000;1.660352
9998.000000;1.659021
9997.000000;1.656342
9996.000000;1.653851
9995.000000;1.653017
9994.000000;1.653592
9993.000000;1.654432
9992.000000;1.655130
9991.000000;1.655994
9990.000000;1.656905
9989.000000;1.657191
9988.000000;1.656543
9987.000000;1.655343
9986.000000;1.654041
9985.000000;1.652723
9984.000000;1.651270
9983.000000;1.649432
9982.000000;1.646878
9981.000000;1.643744
9980.000000;1.641085
9979.000000;1.640104
9978.000000;1.640766
9977.000000;1.641609
9976.000000;1.641258
9975.000000;1.639875
9974.000000;1.638807
9973.000000;1.639029
9972.000000;1.640357
9971.000000;1.641973
9970.000000;1.643213
9969.000000;1.643719
9968.000000;1.643215
9967.000000;1.641551
9966.000000;1.638999
9965.000000;1.636315
9964.000000;1.634375
9963.000000;1.633677
9962.000000;1.634042
9961.000000;1.634710
9960.000000;1.634826
9959.000000;1.634085
9958.000000;1.632943
9957.000000;1.632166
9956.000000;1.632150
9955.000000;1.632663
9954.000000;1.633205
9953.000000;1.633486
9952.000000;1.633350
9951.000000;1.632423
9950.000000;1.630361
9949.000000;1.627434
9948.000000;1.624472
9947.000000;1.622165
9946.000000;1.620705
9945.000000;1.620161
9944.000000;1.620628
9943.000000;1.621678
9942.000000;1.622180
9941.000000;1.621296
9940.000000;1.619527
9939.000000;1.618197
9938.000000;1.617992
9937.000000;1.618517
9936.000000;1.619174
9935.000000;1.619704
9934.000000;1.619637
9933.000000;1.618060
9932.000000;1.614615
9931.000000;1.610396
9930.000000;1.607140
9929.000000;1.605598
9928.000000;1.605168
9927.000000;1.605104
9926.000000;1.605486
9925.000000;1.606683
9924.000000;1.608235
9923.000000;1.608821
9922.000000;1.607474
9921.000000;1.604668
9920.000000;1.602116
9919.000000;1.601560
9918.000000;1.603578
9917.000000;1.607103
9916.000000;1.609856
9915.000000;1.609685
9914.000000;1.606151
9913.000000;1.600930
9912.000000;1.596553
9911.000000;1.594654
9910.000000;1.595172
9909.000000;1.596866
9908.000000;1.598279
9907.000000;1.598422
9906.000000;1.597084
9905.000000;1.594795
9904.000000;1.592393
9903.000000;1.590435
9902.000000;1.589090
9901.000000;1.588575
9900.000000;1.589330
9899.000000;1.591371
9898.000000;1.593618
9897.000000;1.594373
9896.000000;1.592781
9895.000000;1.589706
9894.000000;1.587046
9893.000000;1.586261
9892.000000;1.587378
9891.000000;1.589018
9890.000000;1.589369
9889.000000;1.587581
9888.000000;1.584518
9887.000000;1.582022
9886.000000;1.581296
9885.000000;1.582004
9884.000000;1.582851
9883.000000;1.582826
9882.000000;1.581907
9881.000000;1.580841
9880.000000;1.580402
9879.000000;1.580675
9878.000000;1.580802
9877.000000;1.579634
9876.000000;1.576965
9875.000000;1.573940
9874.000000;1.571929
9873.000000;1.571166
9872.000000;1.570842
9871.000000;1.570431
9870.000000;1.570300
9869.000000;1.570753
9868.000000;1.571104
9867.000000;1.570292
9866.000000;1.568245
9865.000000;1.566100
9864.000000;1.565000
9863.000000;1.565083
9862.000000;1.565747
9861.000000;1.566470
9860.000000;1.567039
9859.000000;1.567202
9858.000000;1.566589
9857.000000;1.565020
9856.000000;1.562629
9855.000000;1.559689
9854.000000;1.556554
9853.000000;1.553821
9852.000000;1.552264
9851.000000;1.552303
9850.000000;1.553466
9849.000000;1.554583
9848.000000;1.554660
9847.000000;1.553584
9846.000000;1.552048
9845.000000;1.550939
9844.000000;1.550771
9843.000000;1.551461
9842.000000;1.552402
9841.000000;1.552758
9840.000000;1.551887
9839.000000;1.549750
9838.000000;1.547047
9837.000000;1.544846
9836.000000;1.543914
9835.000000;1.544204
9834.000000;1.544867
9833.000000;1.544830
9832.000000;1.543591
9831.000000;1.541665
9830.000000;1.540230
9829.000000;1.540147
9828.000000;1.541161
9827.000000;1.542042
9826.000000;1.541610
9825.000000;1.539705
9824.000000;1.537229
9823.000000;1.535343
9822.000000;1.534617
9821.000000;1.534738
9820.000000;1.534908
9819.000000;1.534572
9818.000000;1.533872
9817.000000;1.533378
9816.000000;1.533394
9815.000000;1.533598
9814.000000;1.533427
9813.000000;1.532685
9812.000000;1.531712
9811.000000;1.530989
9810.000000;1.530629
9809.000000;1.530208
9808.000000;1.529151
9807.000000;1.527486
9806.000000;1.526103
9805.000000;1.525922
9804.000000;1.526799
9803.000000;1.527640
9802.000000;1.527699
9801.000000;1.527227
9800.000000;1.526546
9799.000000;1.525210
9798.000000;1.522843
9797.000000;1.520365
9796.000000;1.519322
9795.000000;1.519968
9794.000000;1.520854
9793.000000;1.520580
9792.000000;1.519231
9791.000000;1.517687
9790.000000;1.516216
9789.000000;1.514441
9788.000000;1.512304
9787.000000;1.510381
9786.000000;1.509226
9785.000000;1.508845
9784.000000;1.508884
9783.000000;1.509147
9782.000000;1.509829
9781.000000;1.511137
9780.000000;1.512549
9779.000000;1.512698
9778.000000;1.510576
9777.000000;1.506920
9776.000000;1.503785
9775.000000;1.502543
9774.000000;1.502734
9773.000000;1.503020
9772.000000;1.502660
9771.000000;1.501675
9770.000000;1.500259
9769.000000;1.498819
9768.000000;1.498172
9767.000000;1.498865
9766.000000;1.500331
9765.000000;1.501357
9764.000000;1.501337
9763.000000;1.500581
9762.000000;1.499540
9761.000000;1.498484
9760.000000;1.497805
9759.000000;1.497754
9758.000000;1.497721
9757.000000;1.496687
9756.000000;1.494707
9755.000000;1.493157
9754.000000;1.493040
9753.000000;1.493690
9752.000000;1.493624
9751.000000;1.492228
9750.000000;1.490070
9749.000000;1.488008
9748.000000;1.486669
9747.000000;1.486426
9746.000000;1.487074
9745.000000;1.487625
9744.000000;1.487132
9743.000000;1.485778
9742.000000;1.484558
9741.000000;1.483780
9740.000000;1.482576
9739.000000;1.480285
9738.000000;1.477769
9737.000000;1.476716
9736.000000;1.477788
9735.000000;1.479919
9734.000000;1.481458
9733.000000;1.481669
9732.000000;1.480988
9731.000000;1.480106
9730.000000;1.479204
9729.000000;1.478052
9728.000000;1.476492
9727.000000;1.474599
9726.000000;1.472624
9725.000000;1.471052
9724.000000;1.470447
9723.000000;1.470946
9722.000000;1.471910
9721.000000;1.472154
9720.000000;1.470771
9719.000000;1.467930
9718.000000;1.464894
9717.000000;1.463146
9716.000000;1.463320
9715.000000;1.464882
9714.000000;1.466667
9713.000000;1.467724
9712.000000;1.467804
9711.000000;1.467162
9710.000000;1.466046
9709.000000;1.464537
9708.000000;1.462759
9707.000000;1.461034
9706.000000;1.459752
9705.000000;1.459131
9704.000000;1.459080
9703.000000;1.459254
9702.000000;1.459311
9701.000000;1.459135
9700.000000;1.458755
9699.000000;1.458076
9698.000000;1.456937
9697.000000;1.455532
9696.000000;1.454406
9695.000000;1.453771
9694.000000;1.453059
9693.000000;1.451653
9692.000000;1.449936
9691.000000;1.449018
9690.000000;1.449215
9689.000000;1.449346
9688.000000;1.447985
9687.000000;1.445180
9686.000000;1.442440
9685.000000;1.441055
9684.000000;1.440916
9683.000000;1.441103
9682.000000;1.441226
9681.000000;1.441776
9680.000000;1.443154
9679.000000;1.444750
9678.000000;1.445240
9677.000000;1.443794
9676.000000;1.440855
9675.000000;1.437738
9674.000000;1.435731
9673.000000;1.435504
9672.000000;1.436851
9671.000000;1.438607
9670.000000;1.439187
9669.000000;1.437825
9668.000000;1.435410
9667.000000;1.433770
9666.000000;1.433881
9665.000000;1.434908
9664.000000;1.435160
9663.000000;1.433900
9662.000000;1.431978
9661.000000;1.430730
9660.000000;1.430615
9659.000000;1.431048
9658.000000;1.431256
9657.000000;1.430947
9656.000000;1.430216
9655.000000;1.429213
9654.000000;1.428140
9653.000000;1.427312
9652.000000;1.426878
9651.000000;1.426495
9650.000000;1.425567
9649.000000;1.423861
9648.000000;1.421729
9647.000000;1.419728
9646.000000;1.418263
9645.000000;1.417542
9644.000000;1.417526
9643.000000;1.417806
9642.000000;1.417923
9641.000000;1.417926
9640.000000;1.418262
9639.000000;1.418994
9638.000000;1.419490
9637.000000;1.419068
9636.000000;1.417632
9635.000000;1.415482
9634.000000;1.412982
9633.000000;1.410785
9632.000000;1.409802
9631.000000;1.410224
9630.000000;1.410941
9629.000000;1.410726
9628.000000;1.409784
9627.000000;1.409310
9626.000000;1.409635
9625.000000;1.409719
9624.000000;1.408563
9623.000000;1.406303
9622.000000;1.403710
9621.000000;1.401478
9620.000000;1.400316
9619.000000;1.400772
9618.000000;1.402326
9617.000000;1.403316
9616.000000;1.402610
9615.000000;1.400986
9614.000000;1.400103
9613.000000;1.400436
9612.000000;1.400983
9611.000000;1.400823
9610.000000;1.400140
9609.000000;1.399582
9608.000000;1.399279
9607.000000;1.398881
9606.000000;1.398157
9605.000000;1.397151
9604.000000;1.395958
9603.000000;1.394608
9602.000000;1.393180
9601.000000;1.391929
9600.000000;1.391232
9599.000000;1.391239
9598.000000;1.391569
9597.000000;1.391583
9596.000000;1.391065
9595.000000;1.390420
9594.000000;1.390062
9593.000000;1.389911
9592.000000;1.389693
9591.000000;1.389375
9590.000000;1.388951
9589.000000;1.388180
9588.000000;1.387045
9587.000000;1.386187
9586.000000;1.386187
9585.000000;1.386510
9584.000000;1.385857
9583.000000;1.383761
9582.000000;1.381257
9581.000000;1.379623
9580.000000;1.378858
9579.000000;1.377845
9578.000000;1.375887
9577.000000;1.373672
9576.000000;1.372641
9575.000000;1.373509
9574.000000;1.375423
9573.000000;1.376607
9572.000000;1.375947
9571.000000;1.373872
9570.000000;1.371630
9569.000000;1.370067
9568.000000;1.369383
9567.000000;1.369674
9566.000000;1.371000
9565.000000;1.372787
9564.000000;1.373767
9563.000000;1.372972
9562.000000;1.370677
9561.000000;1.368152
9560.000000;1.366560
9559.000000;1.366216
9558.000000;1.366632
9557.000000;1.366976
9556.000000;1.366608
9555.000000;1.365496
9554.000000;1.364178
9553.000000;1.363341
9552.000000;1.363351
9551.000000;1.363910
9550.000000;1.363975
9549.000000;1.362354
9548.000000;1.358942
9547.000000;1.355288
9546.000000;1.353425
9545.000000;1.354073
9544.000000;1.356288
9543.000000;1.358694
9542.000000;1.360505
9541.000000;1.361175
9540.000000;1.359925
9539.000000;1.356531
9538.000000;1.352288
9537.000000;1.349339
9536.000000;1.348917
9535.000000;1.350513
9534.000000;1.352561
9533.000000;1.353734
9532.000000;1.353684
9531.000000;1.352904
9530.000000;1.352008
9529.000000;1.351059
9528.000000;1.349583
9527.000000;1.347288
9526.000000;1.344669
9525.000000;1.342714
9524.000000;1.342097
9523.000000;1.342814
9522.000000;1.344333
9521.000000;1.345723
9520.000000;1.345881
9519.000000;1.344285
9518.000000;1.341638
9517.000000;1.339401
9516.000000;1.338559
9515.000000;1.339021
9514.000000;1.340185
9513.000000;1.341686
9512.000000;1.343387
9511.000000;1.344995
9510.000000;1.346095
9509.000000;1.346413
9508.000000;1.345742
9507.000000;1.343798
9506.000000;1.340605
9505.000000;1.336996
9504.000000;1.334270
9503.000000;1.333143
9502.000000;1.333200
9501.000000;1.333438
9500.000000;1.333222
9499.000000;1.332611
9498.000000;1.331919
9497.000000;1.331155
9496.000000;1.330030
9495.000000;1.328526
9494.000000;1.327246
9493.000000;1.326933
9492.000000;1.327560
9491.000000;1.328188
9490.000000;1.327899
9489.000000;1.326690
9488.000000;1.325185
9487.000000;1.323761
9486.000000;1.322380
9485.000000;1.321142
9484.000000;1.320383
9483.000000;1.320124
9482.000000;1.319953
9481.000000;1.319686
9480.000000;1.319726
9479.000000;1.320391
9478.000000;1.321231
9477.000000;1.321422
9476.000000;1.320676
9475.000000;1.319425
9474.000000;1.318252
9473.000000;1.317460
9472.000000;1.317041
9471.000000;1.316705
9470.000000;1.316044
9469.000000;1.314952
9468.000000;1.313816
9467.000000;1.313057
9466.000000;1.312671
9465.000000;1.312470
9464.000000;1.312501
9463.000000;1.312747
9462.000000;1.312633
9461.000000;1.311489
9460.000000;1.309562
9459.000000;1.307959
9458.000000;1.307419
9457.000000;1.307665
9456.000000;1.308085
9455.000000;1.308467
9454.000000;1.308721
9453.000000;1.308416
9452.000000;1.307173
9451.000000;1.305317
9450.000000;1.303678
9449.000000;1.302771
9448.000000;1.302487
9447.000000;1.302431
9446.000000;1.302242
9445.000000;1.301719
9444.000000;1.301012
9443.000000;1.300620
9442.000000;1.300873
9441.000000;1.301413
9440.000000;1.301517
9439.000000;1.300956
9438.000000;1.300233
9437.000000;1.299884
9436.000000;1.299825
9435.000000;1.299523
9434.000000;1.298687
9433.000000;1.297603
9432.000000;1.296716
9431.000000;1.295962
9430.000000;1.294712
9429.000000;1.292592
9428.000000;1.290280
9427.000000;1.289102
9426.000000;1.289673
9425.000000;1.291177
9424.000000;1.292200
9423.000000;1.292058
9422.000000;1.291108
9421.000000;1.290045
9420.000000;1.289280
9419.000000;1.288824
9418.000000;1.288385
9417.000000;1.287632
9416.000000;1.286671
9415.000000;1.286191
9414.000000;1.286800
9413.000000;1.288250
9412.000000;1.289625
9411.000000;1.290217
9410.000000;1.289892
9409.000000;1.288708
9408.000000;1.286735
9407.000000;1.284429
9406.000000;1.282684
9405.000000;1.282135
9404.000000;1.282559
9403.000000;1.283115
9402.000000;1.283028
9401.000000;1.282023
9400.000000;1.280368
9399.000000;1.278697
9398.000000;1.277595
9397.000000;1.277122
9396.000000;1.276842
9395.000000;1.276449
9394.000000;1.276180
9393.000000;1.276338
9392.000000;1.276593
9391.000000;1.276148
9390.000000;1.274740
9389.000000;1.273174
9388.000000;1.272613
9387.000000;1.273409
9386.000000;1.274772
9385.000000;1.275594
9384.000000;1.275445
9383.000000;1.274659
9382.000000;1.273634
9381.000000;1.272415
9380.000000;1.271049
9379.000000;1.269960
9378.000000;1.269593
9377.000000;1.269788
9376.000000;1.269838
9375.000000;1.269284
9374.000000;1.268407
9373.000000;1.267823
9372.000000;1.267779
9371.000000;1.268048
9370.000000;1.268372
9369.000000;1.268672
9368.000000;1.268755
9367.000000;1.268111
9366.000000;1.266394
9365.000000;1.264169
9364.000000;1.262808
9363.000000;1.263236
9362.000000;1.264793
9361.000000;1.265690
9360.000000;1.264783
9359.000000;1.262697
9358.000000;1.260956
9357.000000;1.260308
9356.000000;1.260127
9355.000000;1.259248
9354.000000;1.257201
9353.000000;1.254735
9352.000000;1.253311
9351.000000;1.253875
9350.000000;1.255826
9349.000000;1.257337
9348.000000;1.256993
9347.000000;1.254980
9346.000000;1.252455
9345.000000;1.250177
9344.000000;1.248292
9343.000000;1.247071
9342.000000;1.247025
9341.000000;1.248176
9340.000000;1.249778
9339.000000;1.250987
9338.000000;1.251434
9337.000000;1.251088
9336.000000;1.250076
9335.000000;1.248870
9334.000000;1.248166
9333.000000;1.248223
9332.000000;1.248602
9331.000000;1.248775
9330.000000;1.248690
9329.000000;1.248537
9328.000000;1.248331
9327.000000;1.248003
9326.000000;1.247560
9325.000000;1.246831
9324.000000;1.245427
9323.000000;1.243388
9322.000000;1.241581
9321.000000;1.240981
9320.000000;1.241681
9319.000000;1.242919
9318.000000;1.243925
9317.000000;1.244363
9316.000000;1.244139
9315.000000;1.243278
9314.000000;1.242081
9313.000000;1.240987
9312.000000;1.240109
9311.000000;1.239153
9310.000000;1.237891
9309.000000;1.236534
9308.000000;1.235503
9307.000000;1.234992
9306.000000;1.234825
9305.000000;1.234633
9304.000000;1.234139
9303.000000;1.233372
9302.000000;1.232660
9301.000000;1.232395
9300.000000;1.232723
9299.000000;1.233370
9298.000000;1.233722
9297.000000;1.233182
9296.000000;1.231701
9295.000000;1.229986
9294.000000;1.229001
9293.000000;1.229139
9292.000000;1.229992
9291.000000;1.230896
9290.000000;1.231436
9289.000000;1.231360
9288.000000;1.230421
9287.000000;1.228672
9286.000000;1.226741
9285.000000;1.225469
9284.000000;1.225250
9283.000000;1.225806
9282.000000;1.226407
9281.000000;1.226251
9280.000000;1.224988
9279.000000;1.223207
9278.000000;1.222107
9277.000000;1.222242
9276.000000;1.222775
9275.000000;1.222396
9274.000000;1.220947
9273.000000;1.219662
9272.000000;1.219735
9271.000000;1.221066
9270.000000;1.222606
9269.000000;1.223525
9268.000000;1.223693
9267.000000;1.223170
9266.000000;1.221792
9265.000000;1.219558
9264.000000;1.217236
9263.000000;1.216112
9262.000000;1.216821
9261.000000;1.218568
9260.000000;1.219794
9259.000000;1.219694
9258.000000;1.218775
9257.000000;1.217869
9256.000000;1.217100
9255.000000;1.216148
9254.000000;1.215086
9253.000000;1.214390
9252.000000;1.214236
9251.000000;1.214274
9250.000000;1.214122
9249.000000;1.213700
9248.000000;1.213072
9247.000000;1.212308
9246.000000;1.211587
9245.000000;1.211144
9244.000000;1.210994
9243.000000;1.210900
9242.000000;1.210638
9241.000000;1.210157
9240.000000;1.209486
9239.000000;1.208681
9238.000000;1.207858
9237.000000;1.207127
9236.000000;1.206559
9235.000000;1.206309
9234.000000;1.206607
9233.000000;1.207341
9232.000000;1.207821
9231.000000;1.207389
9230.000000;1.206254
9229.000000;1.205312
9228.000000;1.205101
9227.000000;1.205318
9226.000000;1.205376
9225.000000;1.205026
9224.000000;1.204322
9223.000000;1.203465
9222.000000;1.202880
9221.000000;1.203042
9220.000000;1.203919
9219.000000;1.204866
9218.000000;1.205282
9217.000000;1.205085
9216.000000;1.204388
9215.000000;1.203110
9214.000000;1.201330
9213.000000;1.199673
9212.000000;1.198858
9211.000000;1.198963
9210.000000;1.199429
9209.000000;1.199654
9208.000000;1.199331
9207.000000;1.198433
9206.000000;1.197280
9205.000000;1.196472
9204.000000;1.196364
9203.000000;1.196617
9202.000000;1.196604
9201.000000;1.196221
9200.000000;1.195934
9199.000000;1.195987
9198.000000;1.195992
9197.000000;1.195444
9196.000000;1.194342
9195.000000;1.193116
9194.000000;1.192141
9193.000000;1.191517
9192.000000;1.191162
9191.000000;1.190981
9190.000000;1.191029
9189.000000;1.191562
9188.000000;1.192724
9187.000000;1.194097
9186.000000;1.194794
9185.000000;1.194244
9184.000000;1.192800
9183.000000;1.191409
9182.000000;1.190729
9181.000000;1.190722
9180.000000;1.191010
9179.000000;1.191320
9178.000000;1.191555
9177.000000;1.191659
9176.000000;1.191577
9175.000000;1.191245
9174.000000;1.190513
9173.000000;1.189182
9172.000000;1.187320
9171.000000;1.185490
9170.000000;1.184439
9169.000000;1.184416
9168.000000;1.184880
9167.000000;1.185018
9166.000000;1.184561
9165.000000;1.183945
9164.000000;1.183612
9163.000000;1.183455
9162.000000;1.183077
9161.000000;1.182410
9160.000000;1.181760
9159.000000;1.181323
9158.000000;1.181009
9157.000000;1.180834
9156.000000;1.181128
9155.000000;1.182055
9154.000000;1.183130
9153.000000;1.183610
9152.000000;1.183349
9151.000000;1.182906
9150.000000;1.182730
9149.000000;1.182629
9148.000000;1.182238
9147.000000;1.181667
9146.000000;1.181315
9145.000000;1.181205
9144.000000;1.180916
9143.000000;1.180202
9142.000000;1.179305
9141.000000;1.178522
9140.000000;1.177812
9139.000000;1.176992
9138.000000;1.176117
9137.000000;1.175455
9136.000000;1.175199
9135.000000;1.175328
9134.000000;1.175648
9133.000000;1.175826
9132.000000;1.175557
9131.000000;1.174874
9130.000000;1.174219
9129.000000;1.174024
9128.000000;1.174284
9127.000000;1.174612
9126.000000;1.174635
9125.000000;1.174213
9124.000000;1.173395
9123.000000;1.172383
9122.000000;1.171499
9121.000000;1.171023
9120.000000;1.171035
9119.000000;1.171470
9118.000000;1.172236
9117.000000;1.173132
9116.000000;1.173741
9115.000000;1.173680
9114.000000;1.172990
9113.000000;1.172118
9112.000000;1.171403
9111.000000;1.170741
9110.000000;1.169842
9109.000000;1.168734
9108.000000;1.167873
9107.000000;1.167706
9106.000000;1.168129
9105.000000;1.168439
9104.000000;1.167947
9103.000000;1.166662
9102.000000;1.165295
9101.000000;1.164623
9100.000000;1.164963
9099.000000;1.166160
9098.000000;1.167730
9097.000000;1.168898
9096.000000;1.168927
9095.000000;1.167804
9094.000000;1.166401
9093.000000;1.165580
9092.000000;1.165282
9091.000000;1.164837
9090.000000;1.163958
9089.000000;1.162986
9088.000000;1.162227
9087.000000;1.161644
9086.000000;1.161252
9085.000000;1.161249
9084.000000;1.161530
9083.000000;1.161501
9082.000000;1.160741
9081.000000;1.159601
9080.000000;1.158775
9079.000000;1.158503
9078.000000;1.158508
9077.000000;1.158579
9076.000000;1.158861
9075.000000;1.159588
9074.000000;1.160762
9073.000000;1.162117
9072.000000;1.163253
9071.000000;1.163846
9070.000000;1.163873
9069.000000;1.163601
9068.000000;1.163251
9067.000000;1.162730
9066.000000;1.161796
9065.000000;1.160397
9064.000000;1.158769
9063.000000;1.157332
9062.000000;1.156567
9061.000000;1.156751
9060.000000;1.157582
9059.000000;1.158224
9058.000000;1.158057
9057.000000;1.157291
9056.000000;1.156557
9055.000000;1.155997
9054.000000;1.155175
9053.000000;1.153927
