Criado como novo conjunto de dados;"1909daniel.spp","-4238442.5 Secs"
cm-1;Abs
10000.000000;1.256485
9999.000000;1.257626
9998.000000;1.258770
9997.000000;1.259917
9996.000000;1.261068
9995.000000;1.262221
9994.000000;1.263379
9993.000000;1.264535
9992.000000;1.265702
9991.000000;1.266858
9990.000000;1.268054
9989.000000;1.268975
9988.000000;1.268805
9987.000000;1.267388
9986.000000;1.265556
9985.000000;1.264248
9984.000000;1.263663
9983.000000;1.263408
9982.000000;1.263285
9981.000000;1.263428
9980.000000;1.263768
9979.000000;1.263858
9978.000000;1.263324
9977.000000;1.262133
9976.000000;1.260416
9975.000000;1.258483
9974.000000;1.257008
9973.000000;1.256625
9972.000000;1.257100
9971.000000;1.257341
9970.000000;1.256583
9969.000000;1.255184
9968.000000;1.253902
9967.000000;1.252838
9966.000000;1.251565
9965.000000;1.250037
9964.000000;1.248776
9963.000000;1.248170
9962.000000;1.248067
9961.000000;1.248157
9960.000000;1.248422
9959.000000;1.248982
9958.000000;1.249662
9957.000000;1.249925
9956.000000;1.249309
9955.000000;1.247823
9954.000000;1.245865
9953.000000;1.243900
9952.000000;1.242328
9951.000000;1.241514
9950.000000;1.241586
9949.000000;1.242032
9948.000000;1.241837
9947.000000;1.240461
9946.000000;1.238573
9945.000000;1.237366
9944.000000;1.237148
9943.000000;1.237059
9942.000000;1.236254
9941.000000;1.234906
9940.000000;1.233782
9939.000000;1.233266
9938.000000;1.233173
9937.000000;1.233229
9936.000000;1.233324
9935.000000;1.233308
9934.000000;1.232900
9933.000000;1.231906
9932.000000;1.230448
9931.000000;1.228972
9930.000000;1.228030
9929.000000;1.227846
9928.000000;1.228021
9927.000000;1.227857
9926.000000;1.227077
9925.000000;1.226025
9924.000000;1.225036
9923.000000;1.223989
9922.000000;1.222762
9921.000000;1.221749
9920.000000;1.221405
9919.000000;1.221450
9918.000000;1.221089
9917.000000;1.220091
9916.000000;1.219138
9915.000000;1.218880
9914.000000;1.219082
9913.000000;1.218965
9912.000000;1.218110
9911.000000;1.216714
9910.000000;1.215157
9909.000000;1.213668
9908.000000;1.212410
9907.000000;1.211606
9906.000000;1.211432
9905.000000;1.211800
9904.000000;1.212280
9903.000000;1.212314
9902.000000;1.211621
9901.000000;1.210464
9900.000000;1.209384
9899.000000;1.208599
9898.000000;1.207812
9897.000000;1.206737
9896.000000;1.205617
9895.000000;1.204931
9894.000000;1.204681
9893.000000;1.204296
9892.000000;1.203368
9891.000000;1.202237
9890.000000;1.201597
9889.000000;1.201625
9888.000000;1.201780
9887.000000;1.201435
9886.000000;1.200488
9885.000000;1.199290
9884.000000;1.198225
9883.000000;1.197491
9882.000000;1.197108
9881.000000;1.196901
9880.000000;1.196533
9879.000000;1.195767
9878.000000;1.194705
9877.000000;1.193661
9876.000000;1.192829
9875.000000;1.192198
9874.000000;1.191778
9873.000000;1.191666
9872.000000;1.191811
9871.000000;1.191866
9870.000000;1.191426
9869.000000;1.190354
9868.000000;1.188822
9867.000000;1.187160
9866.000000;1.185736
9865.000000;1.184802
9864.000000;1.184219
9863.000000;1.183422
9862.000000;1.181936
9861.000000;1.180036
9860.000000;1.178673
9859.000000;1.178588
9858.000000;1.179572
9857.000000;1.180671
9856.000000;1.181092
9855.000000;1.180788
9854.000000;1.180157
9853.000000;1.179411
9852.000000;1.178433
9851.000000;1.177133
9850.000000;1.175684
9849.000000;1.174381
9848.000000;1.173443
9847.000000;1.172970
9846.000000;1.172903
9845.000000;1.172919
9844.000000;1.172640
9843.000000;1.172089
9842.000000;1.171707
9841.000000;1.171664
9840.000000;1.171405
9839.000000;1.170277
9838.000000;1.168471
9837.000000;1.166874
9836.000000;1.166013
9835.000000;1.165626
9834.000000;1.165335
9833.000000;1.165166
9832.000000;1.165115
9831.000000;1.164708
9830.000000;1.163503
9829.000000;1.161822
9828.000000;1.160466
9827.000000;1.159761
9826.000000;1.159298
9825.000000;1.158595
9824.000000;1.157636
9823.000000;1.156679
9822.000000;1.155854
9821.000000;1.155092
9820.000000;1.154300
9819.000000;1.153509
9818.000000;1.152940
9817.000000;1.152839
9816.000000;1.153128
9815.000000;1.153337
9814.000000;1.153092
9813.000000;1.152576
9812.000000;1.152230
9811.000000;1.152100
9810.000000;1.151772
9809.000000;1.150897
9808.000000;1.149501
9807.000000;1.147846
9806.000000;1.146288
9805.000000;1.145219
9804.000000;1.144755
9803.000000;1.144410
9802.000000;1.143519
9801.000000;1.142153
9800.000000;1.141174
9799.000000;1.141170
9798.000000;1.141697
9797.000000;1.141813
9796.000000;1.141061
9795.000000;1.139660
9794.000000;1.138065
9793.000000;1.136737
9792.000000;1.136088
9791.000000;1.136184
9790.000000;1.136482
9789.000000;1.136192
9788.000000;1.134979
9787.000000;1.133186
9786.000000;1.131463
9785.000000;1.130365
9784.000000;1.130120
9783.000000;1.130453
9782.000000;1.130661
9781.000000;1.130153
9780.000000;1.128934
9779.000000;1.127441
9778.000000;1.126051
9777.000000;1.124971
9776.000000;1.124396
9775.000000;1.124409
9774.000000;1.124743
9773.000000;1.124981
9772.000000;1.124948
9771.000000;1.124631
9770.000000;1.123831
9769.000000;1.122355
9768.000000;1.120567
9767.000000;1.119221
9766.000000;1.118591
9765.000000;1.118202
9764.000000;1.117638
9763.000000;1.117159
9762.000000;1.117147
9761.000000;1.117285
9760.000000;1.116773
9759.000000;1.115300
9758.000000;1.113388
9757.000000;1.111801
9756.000000;1.110904
9755.000000;1.110625
9754.000000;1.110683
9753.000000;1.110736
9752.000000;1.110459
9751.000000;1.109706
9750.000000;1.108617
9749.000000;1.107549
9748.000000;1.106883
9747.000000;1.106789
9746.000000;1.107053
9745.000000;1.107128
9744.000000;1.106501
9743.000000;1.105122
9742.000000;1.103485
9741.000000;1.102272
9740.000000;1.101816
9739.000000;1.101877
9738.000000;1.101908
9737.000000;1.101601
9736.000000;1.101142
9735.000000;1.100855
9734.000000;1.100680
9733.000000;1.100191
9732.000000;1.099154
9731.000000;1.097877
9730.000000;1.096900
9729.000000;1.096446
9728.000000;1.096243
9727.000000;1.095787
9726.000000;1.094706
9725.000000;1.093021
9724.000000;1.091178
9723.000000;1.089761
9722.000000;1.089016
9721.000000;1.088681
9720.000000;1.088381
9719.000000;1.088083
9718.000000;1.088007
9717.000000;1.088139
9716.000000;1.088091
9715.000000;1.087600
9714.000000;1.086957
9713.000000;1.086690
9712.000000;1.086842
9711.000000;1.086809
9710.000000;1.086025
9709.000000;1.084649
9708.000000;1.083351
9707.000000;1.082511
9706.000000;1.081925
9705.000000;1.081311
9704.000000;1.080760
9703.000000;1.080479
9702.000000;1.080336
9701.000000;1.079942
9700.000000;1.079108
9699.000000;1.077960
9698.000000;1.076646
9697.000000;1.075191
9696.000000;1.073659
9695.000000;1.072226
9694.000000;1.071078
9693.000000;1.070428
9692.000000;1.070555
9691.000000;1.071510
9690.000000;1.072707
9689.000000;1.073147
9688.000000;1.072280
9687.000000;1.070475
9686.000000;1.068533
9685.000000;1.066967
9684.000000;1.065901
9683.000000;1.065315
9682.000000;1.065064
9681.000000;1.064771
9680.000000;1.064115
9679.000000;1.063313
9678.000000;1.062986
9677.000000;1.063390
9676.000000;1.063920
9675.000000;1.063615
9674.000000;1.062169
9673.000000;1.060269
9672.000000;1.058845
9671.000000;1.058136
9670.000000;1.057669
9669.000000;1.057048
9668.000000;1.056437
9667.000000;1.056098
9666.000000;1.055793
9665.000000;1.055003
9664.000000;1.053662
9663.000000;1.052325
9662.000000;1.051589
9661.000000;1.051599
9660.000000;1.052100
9659.000000;1.052674
9658.000000;1.052888
9657.000000;1.052505
9656.000000;1.051700
9655.000000;1.050898
9654.000000;1.050265
9653.000000;1.049559
9652.000000;1.048534
9651.000000;1.047238
9650.000000;1.045828
9649.000000;1.044361
9648.000000;1.042959
9647.000000;1.041928
9646.000000;1.041494
9645.000000;1.041513
9644.000000;1.041636
9643.000000;1.041618
9642.000000;1.041346
9641.000000;1.040706
9640.000000;1.039604
9639.000000;1.038077
9638.000000;1.036303
9637.000000;1.034583
9636.000000;1.033301
9635.000000;1.032691
9634.000000;1.032575
9633.000000;1.032529
9632.000000;1.032322
9631.000000;1.032015
9630.000000;1.031638
9629.000000;1.031103
9628.000000;1.030477
9627.000000;1.029967
9626.000000;1.029467
9625.000000;1.028553
9624.000000;1.027176
9623.000000;1.025952
9622.000000;1.025432
9621.000000;1.025425
9620.000000;1.025413
9619.000000;1.025313
9618.000000;1.025350
9617.000000;1.025402
9616.000000;1.025052
9615.000000;1.024225
9614.000000;1.023312
9613.000000;1.022580
9612.000000;1.021888
9611.000000;1.021055
9610.000000;1.020211
9609.000000;1.019642
9608.000000;1.019485
9607.000000;1.019561
9606.000000;1.019399
9605.000000;1.018555
9604.000000;1.017165
9603.000000;1.016037
9602.000000;1.015881
9601.000000;1.016505
9600.000000;1.017037
9599.000000;1.016851
9598.000000;1.015953
9597.000000;1.014600
9596.000000;1.013030
9595.000000;1.011611
9594.000000;1.010815
9593.000000;1.010802
9592.000000;1.011222
9591.000000;1.011501
9590.000000;1.011178
9589.000000;1.010056
9588.000000;1.008348
9587.000000;1.006691
9586.000000;1.005673
9585.000000;1.005293
9584.000000;1.005111
9583.000000;1.004881
9582.000000;1.004666
9581.000000;1.004378
9580.000000;1.003688
9579.000000;1.002590
9578.000000;1.001617
9577.000000;1.001226
9576.000000;1.001266
9575.000000;1.001273
9574.000000;1.001031
9573.000000;1.000581
9572.000000;0.999950
9571.000000;0.999147
9570.000000;0.998267
9569.000000;0.997369
9568.000000;0.996352
9567.000000;0.995138
9566.000000;0.993834
9565.000000;0.992564
9564.000000;0.991338
9563.000000;0.990277
9562.000000;0.989767
9561.000000;0.990064
9560.000000;0.990818
9559.000000;0.991271
9558.000000;0.990963
9557.000000;0.990084
9556.000000;0.989178
9555.000000;0.988674
9554.000000;0.988647
9553.000000;0.988856
9552.000000;0.988941
9551.000000;0.988672
9550.000000;0.988009
9549.000000;0.986997
9548.000000;0.985748
9547.000000;0.984578
9546.000000;0.983917
9545.000000;0.983909
9544.000000;0.984209
9543.000000;0.984341
9542.000000;0.984131
9541.000000;0.983624
9540.000000;0.982753
9539.000000;0.981402
9538.000000;0.979738
9537.000000;0.978182
9536.000000;0.977014
9535.000000;0.976204
9534.000000;0.975649
9533.000000;0.975366
9532.000000;0.975342
9531.000000;0.975402
9530.000000;0.975367
9529.000000;0.975220
9528.000000;0.975010
9527.000000;0.974695
9526.000000;0.974188
9525.000000;0.973464
9524.000000;0.972518
9523.000000;0.971329
9522.000000;0.970012
9521.000000;0.968935
9520.000000;0.968422
9519.000000;0.968306
9518.000000;0.967961
9517.000000;0.966964
9516.000000;0.965597
9515.000000;0.964550
9514.000000;0.964162
9513.000000;0.964118
9512.000000;0.963906
9511.000000;0.963406
9510.000000;0.962942
9509.000000;0.962796
9508.000000;0.962812
9507.000000;0.962515
9506.000000;0.961618
9505.000000;0.960347
9504.000000;0.959196
9503.000000;0.958394
9502.000000;0.957709
9501.000000;0.956828
9500.000000;0.955792
9499.000000;0.954960
9498.000000;0.954632
9497.000000;0.954866
9496.000000;0.955547
9495.000000;0.956400
9494.000000;0.956961
9493.000000;0.956840
9492.000000;0.956113
9491.000000;0.955249
9490.000000;0.954587
9489.000000;0.954049
9488.000000;0.953419
9487.000000;0.952614
9486.000000;0.951586
9485.000000;0.950243
9484.000000;0.948718
9483.000000;0.947452
9482.000000;0.946704
9481.000000;0.946142
9480.000000;0.945267
9479.000000;0.944177
9478.000000;0.943519
9477.000000;0.943641
9476.000000;0.944076
9475.000000;0.944031
9474.000000;0.943223
9473.000000;0.942119
9472.000000;0.941417
9471.000000;0.941360
9470.000000;0.941552
9469.000000;0.941388
9468.000000;0.940655
9467.000000;0.939645
9466.000000;0.938739
9465.000000;0.938107
9464.000000;0.937817
9463.000000;0.937893
9462.000000;0.938063
9461.000000;0.937771
9460.000000;0.936779
9459.000000;0.935588
9458.000000;0.934894
9457.000000;0.934779
9456.000000;0.934791
9455.000000;0.934684
9454.000000;0.934589
9453.000000;0.934490
9452.000000;0.934055
9451.000000;0.933165
9450.000000;0.932205
9449.000000;0.931570
9448.000000;0.931166
9447.000000;0.930628
9446.000000;0.929782
9445.000000;0.928712
9444.000000;0.927573
9443.000000;0.926576
9442.000000;0.925976
9441.000000;0.925851
9440.000000;0.925961
9439.000000;0.926007
9438.000000;0.925917
9437.000000;0.925777
9436.000000;0.925601
9435.000000;0.925325
9434.000000;0.924891
9433.000000;0.924203
9432.000000;0.923135
9431.000000;0.921740
9430.000000;0.920351
9429.000000;0.919324
9428.000000;0.918744
9427.000000;0.918472
9426.000000;0.918378
9425.000000;0.918377
9424.000000;0.918361
9423.000000;0.918224
9422.000000;0.917948
9421.000000;0.917566
9420.000000;0.917118
9419.000000;0.916687
9418.000000;0.916368
9417.000000;0.916098
9416.000000;0.915644
9415.000000;0.914867
9414.000000;0.913897
9413.000000;0.912923
9412.000000;0.911929
9411.000000;0.910817
9410.000000;0.909718
9409.000000;0.908973
9408.000000;0.908814
9407.000000;0.909159
9406.000000;0.909687
9405.000000;0.910045
9404.000000;0.910058
9403.000000;0.909828
9402.000000;0.909585
9401.000000;0.909370
9400.000000;0.908911
9399.000000;0.907958
9398.000000;0.906674
9397.000000;0.905548
9396.000000;0.904924
9395.000000;0.904722
9394.000000;0.904621
9393.000000;0.904390
9392.000000;0.904030
9391.000000;0.903677
9390.000000;0.903408
9389.000000;0.903128
9388.000000;0.902661
9387.000000;0.901965
9386.000000;0.901210
9385.000000;0.900572
9384.000000;0.899996
9383.000000;0.899255
9382.000000;0.898251
9381.000000;0.897157
9380.000000;0.896259
9379.000000;0.895691
9378.000000;0.895349
9377.000000;0.895028
9376.000000;0.894609
9375.000000;0.894137
9374.000000;0.893738
9373.000000;0.893498
9372.000000;0.893391
9371.000000;0.893295
9370.000000;0.893041
9369.000000;0.892494
9368.000000;0.891708
9367.000000;0.890957
9366.000000;0.890496
9365.000000;0.890234
9364.000000;0.889801
9363.000000;0.889021
9362.000000;0.888214
9361.000000;0.887833
9360.000000;0.887893
9359.000000;0.887934
9358.000000;0.887612
9357.000000;0.887120
9356.000000;0.886865
9355.000000;0.886843
9354.000000;0.886546
9353.000000;0.885533
9352.000000;0.883940
9351.000000;0.882341
9350.000000;0.881198
9349.000000;0.880602
9348.000000;0.880423
9347.000000;0.880494
9346.000000;0.880570
9345.000000;0.880363
9344.000000;0.879750
9343.000000;0.878898
9342.000000;0.878093
9341.000000;0.877555
9340.000000;0.877444
9339.000000;0.877817
9338.000000;0.878434
9337.000000;0.878778
9336.000000;0.878509
9335.000000;0.877794
9334.000000;0.876962
9333.000000;0.876006
9332.000000;0.874760
9331.000000;0.873465
9330.000000;0.872702
9329.000000;0.872641
9328.000000;0.872782
9327.000000;0.872640
9326.000000;0.872362
9325.000000;0.872360
9324.000000;0.872551
9323.000000;0.872358
9322.000000;0.871472
9321.000000;0.870292
9320.000000;0.869520
9319.000000;0.869460
9318.000000;0.869812
9317.000000;0.870059
9316.000000;0.869959
9315.000000;0.869642
9314.000000;0.869290
9313.000000;0.868863
9312.000000;0.868232
9311.000000;0.867495
9310.000000;0.866939
9309.000000;0.866658
9308.000000;0.866384
9307.000000;0.865780
9306.000000;0.864775
9305.000000;0.863585
9304.000000;0.862558
9303.000000;0.862044
9302.000000;0.862140
9301.000000;0.862457
9300.000000;0.862349
9299.000000;0.861589
9298.000000;0.860635
9297.000000;0.860053
9296.000000;0.859877
9295.000000;0.859753
9294.000000;0.859516
9293.000000;0.859266
9292.000000;0.858985
9291.000000;0.858465
9290.000000;0.857675
9289.000000;0.856872
9288.000000;0.856271
9287.000000;0.855863
9286.000000;0.855626
9285.000000;0.855622
9284.000000;0.855776
9283.000000;0.855791
9282.000000;0.855470
9281.000000;0.854939
9280.000000;0.854446
9279.000000;0.854109
9278.000000;0.853968
9277.000000;0.854049
9276.000000;0.854166
9275.000000;0.853871
9274.000000;0.852907
9273.000000;0.851619
9272.000000;0.850631
9271.000000;0.850140
9270.000000;0.849801
9269.000000;0.849296
9268.000000;0.848714
9267.000000;0.848301
9266.000000;0.848117
9265.000000;0.848080
9264.000000;0.848126
9263.000000;0.848130
9262.000000;0.847853
9261.000000;0.847196
9260.000000;0.846431
9259.000000;0.845950
9258.000000;0.845813
9257.000000;0.845751
9256.000000;0.845594
9255.000000;0.845477
9254.000000;0.845543
9253.000000;0.845637
9252.000000;0.845425
9251.000000;0.844744
9250.000000;0.843747
9249.000000;0.842776
9248.000000;0.842153
9247.000000;0.841987
9246.000000;0.842067
9245.000000;0.841998
9244.000000;0.841548
9243.000000;0.840848
9242.000000;0.840177
9241.000000;0.839633
9240.000000;0.839132
9239.000000;0.838696
9238.000000;0.838518
9237.000000;0.838666
9236.000000;0.838824
9235.000000;0.838529
9234.000000;0.837694
9233.000000;0.836786
9232.000000;0.836379
9231.000000;0.836556
9230.000000;0.836826
9229.000000;0.836661
9228.000000;0.835993
9227.000000;0.835138
9226.000000;0.834367
9225.000000;0.833742
9224.000000;0.833323
9223.000000;0.833257
9222.000000;0.833554
9221.000000;0.833929
9220.000000;0.834011
9219.000000;0.833643
9218.000000;0.832925
9217.000000;0.832058
9216.000000;0.831247
9215.000000;0.830622
9214.000000;0.830138
9213.000000;0.829637
9212.000000;0.829127
9211.000000;0.828890
9210.000000;0.829120
9209.000000;0.829568
9208.000000;0.829737
9207.000000;0.829394
9206.000000;0.828700
9205.000000;0.827885
9204.000000;0.827069
9203.000000;0.826400
9202.000000;0.826044
9201.000000;0.825930
9200.000000;0.825721
9199.000000;0.825249
9198.000000;0.824779
9197.000000;0.824647
9196.000000;0.824752
9195.000000;0.824658
9194.000000;0.824172
9193.000000;0.823571
9192.000000;0.823203
9191.000000;0.823049
9190.000000;0.822825
9189.000000;0.822424
9188.000000;0.822086
9187.000000;0.822100
9186.000000;0.822431
9185.000000;0.822710
9184.000000;0.822571
9183.000000;0.821957
9182.000000;0.821128
9181.000000;0.820466
9180.000000;0.820259
9179.000000;0.820525
9178.000000;0.820931
9177.000000;0.820951
9176.000000;0.820286
9175.000000;0.819145
9174.000000;0.818068
9173.000000;0.817471
9172.000000;0.817377
9171.000000;0.817495
9170.000000;0.817430
9169.000000;0.816903
9168.000000;0.815959
9167.000000;0.814988
9166.000000;0.814423
9165.000000;0.814323
9164.000000;0.814346
9163.000000;0.814127
9162.000000;0.813609
9161.000000;0.812995
9160.000000;0.812539
9159.000000;0.812453
9158.000000;0.812810
9157.000000;0.813383
9156.000000;0.813668
9155.000000;0.813271
9154.000000;0.812332
9153.000000;0.811434
9152.000000;0.811054
9151.000000;0.811157
9150.000000;0.811321
9149.000000;0.811183
9148.000000;0.810708
9147.000000;0.810073
9146.000000;0.809393
9145.000000;0.808661
9144.000000;0.807919
9143.000000;0.807369
9142.000000;0.807218
9141.000000;0.807435
9140.000000;0.807747
9139.000000;0.807875
9138.000000;0.807751
9137.000000;0.807499
9136.000000;0.807277
9135.000000;0.807116
9134.000000;0.806894
9133.000000;0.806481
9132.000000;0.805955
9131.000000;0.805631
9130.000000;0.805782
9129.000000;0.806317
9128.000000;0.806783
9127.000000;0.806704
9126.000000;0.805959
9125.000000;0.804900
9124.000000;0.804120
9123.000000;0.803974
9122.000000;0.804237
9121.000000;0.804319
9120.000000;0.803928
9119.000000;0.803398
9118.000000;0.803203
9117.000000;0.803269
9116.000000;0.803045
9115.000000;0.802240
9114.000000;0.801199
9113.000000;0.800495
9112.000000;0.800370
9111.000000;0.800662
9110.000000;0.801029
9109.000000;0.801149
9108.000000;0.800915
9107.000000;0.800586
9106.000000;0.800576
9105.000000;0.800907
9104.000000;0.801054
9103.000000;0.800519
9102.000000;0.799440
9101.000000;0.798410
9100.000000;0.797803
9099.000000;0.797531
9098.000000;0.797384
9097.000000;0.797296
9096.000000;0.797215
9095.000000;0.797001
9094.000000;0.796606
9093.000000;0.796224
9092.000000;0.796111
9091.000000;0.796309
9090.000000;0.796627
9089.000000;0.796817
9088.000000;0.796734
9087.000000;0.796381
9086.000000;0.795896
9085.000000;0.795448
9084.000000;0.795084
9083.000000;0.794696
9082.000000;0.794210
9081.000000;0.793756
9080.000000;0.793556
9079.000000;0.793639
9078.000000;0.793766
9077.000000;0.793689
9076.000000;0.793404
9075.000000;0.793108
9074.000000;0.792950
9073.000000;0.792923
9072.000000;0.792954
9071.000000;0.792992
9070.000000;0.792960
9069.000000;0.792735
9068.000000;0.792248
9067.000000;0.791573
9066.000000;0.790876
9065.000000;0.790312
9064.000000;0.789930
9063.000000;0.789604
9062.000000;0.789074
9061.000000;0.788218
9060.000000;0.787334
9059.000000;0.786956
9058.000000;0.787248
9057.000000;0.787739
9056.000000;0.787853
9055.000000;0.787575
9054.000000;0.787330
9053.000000;0.787293
