Criado como novo conjunto de dados;"1909daniel.spp","-4294605.5 Secs"
cm-1;Abs
10000.000000;1.093470
9999.000000;1.092062
9998.000000;1.090691
9997.000000;1.089255
9996.000000;1.088188
9995.000000;1.087562
9994.000000;1.086733
9993.000000;1.085653
9992.000000;1.085036
9991.000000;1.085385
9990.000000;1.086197
9989.000000;1.086598
9988.000000;1.086326
9987.000000;1.085668
9986.000000;1.084788
9985.000000;1.083648
9984.000000;1.082435
9983.000000;1.081536
9982.000000;1.081068
9981.000000;1.080789
9980.000000;1.080483
9979.000000;1.080146
9978.000000;1.079777
9977.000000;1.079263
9976.000000;1.078504
9975.000000;1.077493
9974.000000;1.076263
9973.000000;1.074944
9972.000000;1.073846
9971.000000;1.073263
9970.000000;1.073155
9969.000000;1.073156
9968.000000;1.072950
9967.000000;1.072507
9966.000000;1.071933
9965.000000;1.071233
9964.000000;1.070306
9963.000000;1.069107
9962.000000;1.067786
9961.000000;1.066644
9960.000000;1.065919
9959.000000;1.065561
9958.000000;1.065248
9957.000000;1.064680
9956.000000;1.063869
9955.000000;1.063109
9954.000000;1.062679
9953.000000;1.062592
9952.000000;1.062594
9951.000000;1.062405
9950.000000;1.061989
9949.000000;1.061535
9948.000000;1.061119
9947.000000;1.060510
9946.000000;1.059455
9945.000000;1.058113
9944.000000;1.056967
9943.000000;1.056291
9942.000000;1.055891
9941.000000;1.055397
9940.000000;1.054607
9939.000000;1.053548
9938.000000;1.052457
9937.000000;1.051748
9936.000000;1.051677
9935.000000;1.051914
9934.000000;1.051738
9933.000000;1.050874
9932.000000;1.049854
9931.000000;1.049327
9930.000000;1.049219
9929.000000;1.048853
9928.000000;1.047752
9927.000000;1.046054
9926.000000;1.044265
9925.000000;1.042903
9924.000000;1.042283
9923.000000;1.042320
9922.000000;1.042574
9921.000000;1.042656
9920.000000;1.042507
9919.000000;1.042149
9918.000000;1.041429
9917.000000;1.040309
9916.000000;1.039219
9915.000000;1.038654
9914.000000;1.038454
9913.000000;1.037897
9912.000000;1.036604
9911.000000;1.035005
9910.000000;1.033780
9909.000000;1.033106
9908.000000;1.032645
9907.000000;1.032032
9906.000000;1.031205
9905.000000;1.030363
9904.000000;1.029775
9903.000000;1.029582
9902.000000;1.029726
9901.000000;1.030061
9900.000000;1.030469
9899.000000;1.030808
9898.000000;1.030832
9897.000000;1.030345
9896.000000;1.029399
9895.000000;1.028184
9894.000000;1.026778
9893.000000;1.025200
9892.000000;1.023659
9891.000000;1.022496
9890.000000;1.021840
9889.000000;1.021517
9888.000000;1.021295
9887.000000;1.021007
9886.000000;1.020467
9885.000000;1.019580
9884.000000;1.018593
9883.000000;1.017941
9882.000000;1.017703
9881.000000;1.017450
9880.000000;1.016784
9879.000000;1.015819
9878.000000;1.014989
9877.000000;1.014576
9876.000000;1.014594
9875.000000;1.014921
9874.000000;1.015297
9873.000000;1.015312
9872.000000;1.014681
9871.000000;1.013513
9870.000000;1.012206
9869.000000;1.011076
9868.000000;1.010188
9867.000000;1.009444
9866.000000;1.008685
9865.000000;1.007744
9864.000000;1.006588
9863.000000;1.005449
9862.000000;1.004683
9861.000000;1.004461
9860.000000;1.004589
9859.000000;1.004625
9858.000000;1.004168
9857.000000;1.003105
9856.000000;1.001641
9855.000000;1.000128
9854.000000;0.998874
9853.000000;0.998107
9852.000000;0.997949
9851.000000;0.998203
9850.000000;0.998275
9849.000000;0.997609
9848.000000;0.996332
9847.000000;0.995239
9846.000000;0.994963
9845.000000;0.995305
9844.000000;0.995521
9843.000000;0.995106
9842.000000;0.994112
9841.000000;0.992852
9840.000000;0.991624
9839.000000;0.990712
9838.000000;0.990310
9837.000000;0.990285
9836.000000;0.990210
9835.000000;0.989762
9834.000000;0.989024
9833.000000;0.988264
9832.000000;0.987547
9831.000000;0.986725
9830.000000;0.985804
9829.000000;0.985106
9828.000000;0.984911
9827.000000;0.985030
9826.000000;0.984914
9825.000000;0.984230
9824.000000;0.983229
9823.000000;0.982423
9822.000000;0.981996
9821.000000;0.981697
9820.000000;0.981244
9819.000000;0.980612
9818.000000;0.979887
9817.000000;0.979058
9816.000000;0.978091
9815.000000;0.977101
9814.000000;0.976297
9813.000000;0.975819
9812.000000;0.975674
9811.000000;0.975749
9810.000000;0.975766
9809.000000;0.975327
9808.000000;0.974196
9807.000000;0.972563
9806.000000;0.970924
9805.000000;0.969680
9804.000000;0.968922
9803.000000;0.968524
9802.000000;0.968327
9801.000000;0.968211
9800.000000;0.968080
9799.000000;0.967873
9798.000000;0.967540
9797.000000;0.967003
9796.000000;0.966158
9795.000000;0.964977
9794.000000;0.963627
9793.000000;0.962492
9792.000000;0.961963
9791.000000;0.962105
9790.000000;0.962512
9789.000000;0.962598
9788.000000;0.962061
9787.000000;0.961038
9786.000000;0.959819
9785.000000;0.958592
9784.000000;0.957509
9783.000000;0.956787
9782.000000;0.956551
9781.000000;0.956637
9780.000000;0.956679
9779.000000;0.956365
9778.000000;0.955548
9777.000000;0.954268
9776.000000;0.952852
9775.000000;0.951875
9774.000000;0.951713
9773.000000;0.952091
9772.000000;0.952234
9771.000000;0.951575
9770.000000;0.950227
9769.000000;0.948756
9768.000000;0.947660
9767.000000;0.947101
9766.000000;0.946928
9765.000000;0.946823
9764.000000;0.946568
9763.000000;0.946284
9762.000000;0.946288
9761.000000;0.946601
9760.000000;0.946742
9759.000000;0.946212
9758.000000;0.945080
9757.000000;0.943864
9756.000000;0.942872
9755.000000;0.941917
9754.000000;0.940751
9753.000000;0.939527
9752.000000;0.938603
9751.000000;0.938023
9750.000000;0.937445
9749.000000;0.936592
9748.000000;0.935586
9747.000000;0.934729
9746.000000;0.934080
9745.000000;0.933439
9744.000000;0.932693
9743.000000;0.931970
9742.000000;0.931411
9741.000000;0.930966
9740.000000;0.930518
9739.000000;0.930095
9738.000000;0.929790
9737.000000;0.929527
9736.000000;0.929094
9735.000000;0.928461
9734.000000;0.927888
9733.000000;0.927601
9732.000000;0.927475
9731.000000;0.927165
9730.000000;0.926506
9729.000000;0.925655
9728.000000;0.924871
9727.000000;0.924265
9726.000000;0.923737
9725.000000;0.923060
9724.000000;0.922024
9723.000000;0.920634
9722.000000;0.919220
9721.000000;0.918252
9720.000000;0.917931
9719.000000;0.918000
9718.000000;0.918024
9717.000000;0.917827
9716.000000;0.917577
9715.000000;0.917470
9714.000000;0.917449
9713.000000;0.917235
9712.000000;0.916585
9711.000000;0.915469
9710.000000;0.914098
9709.000000;0.912809
9708.000000;0.911863
9707.000000;0.911249
9706.000000;0.910681
9705.000000;0.909860
9704.000000;0.908777
9703.000000;0.907729
9702.000000;0.907049
9701.000000;0.906854
9700.000000;0.907009
9699.000000;0.907242
9698.000000;0.907262
9697.000000;0.906888
9696.000000;0.906147
9695.000000;0.905196
9694.000000;0.904126
9693.000000;0.902935
9692.000000;0.901742
9691.000000;0.900877
9690.000000;0.900549
9689.000000;0.900508
9688.000000;0.900270
9687.000000;0.899696
9686.000000;0.899097
9685.000000;0.898716
9684.000000;0.898395
9683.000000;0.897897
9682.000000;0.897292
9681.000000;0.896742
9680.000000;0.896115
9679.000000;0.895178
9678.000000;0.894074
9677.000000;0.893210
9676.000000;0.892642
9675.000000;0.891955
9674.000000;0.890885
9673.000000;0.889725
9672.000000;0.888925
9671.000000;0.888554
9670.000000;0.888378
9669.000000;0.888252
9668.000000;0.888155
9667.000000;0.887951
9666.000000;0.887420
9665.000000;0.886527
9664.000000;0.885436
9663.000000;0.884284
9662.000000;0.883127
9661.000000;0.882098
9660.000000;0.881424
9659.000000;0.881208
9658.000000;0.881303
9657.000000;0.881420
9656.000000;0.881313
9655.000000;0.880890
9654.000000;0.880234
9653.000000;0.879483
9652.000000;0.878635
9651.000000;0.877579
9650.000000;0.876414
9649.000000;0.875564
9648.000000;0.875367
9647.000000;0.875637
9646.000000;0.875814
9645.000000;0.875495
9644.000000;0.874609
9643.000000;0.873216
9642.000000;0.871499
9641.000000;0.869967
9640.000000;0.869229
9639.000000;0.869383
9638.000000;0.869856
9637.000000;0.870009
9636.000000;0.869729
9635.000000;0.869265
9634.000000;0.868769
9633.000000;0.868210
9632.000000;0.867550
9631.000000;0.866771
9630.000000;0.865828
9629.000000;0.864787
9628.000000;0.863918
9627.000000;0.863418
9626.000000;0.863141
9625.000000;0.862798
9624.000000;0.862372
9623.000000;0.862074
9622.000000;0.861922
9621.000000;0.861607
9620.000000;0.860881
9619.000000;0.859893
9618.000000;0.859032
9617.000000;0.858531
9616.000000;0.858312
9615.000000;0.858126
9614.000000;0.857763
9613.000000;0.857172
9612.000000;0.856455
9611.000000;0.855751
9610.000000;0.855128
9609.000000;0.854573
9608.000000;0.854055
9607.000000;0.853572
9606.000000;0.853142
9605.000000;0.852740
9604.000000;0.852253
9603.000000;0.851537
9602.000000;0.850577
9601.000000;0.849553
9600.000000;0.848675
9599.000000;0.847986
9598.000000;0.847411
9597.000000;0.846954
9596.000000;0.846694
9595.000000;0.846576
9594.000000;0.846377
9593.000000;0.845948
9592.000000;0.845354
9591.000000;0.844694
9590.000000;0.843963
9589.000000;0.843223
9588.000000;0.842727
9587.000000;0.842678
9586.000000;0.842911
9585.000000;0.842975
9584.000000;0.842521
9583.000000;0.841505
9582.000000;0.840120
9581.000000;0.838699
9580.000000;0.837640
9579.000000;0.837184
9578.000000;0.837192
9577.000000;0.837231
9576.000000;0.836955
9575.000000;0.836351
9574.000000;0.835599
9573.000000;0.834771
9572.000000;0.833728
9571.000000;0.832358
9570.000000;0.830887
9569.000000;0.829857
9568.000000;0.829686
9567.000000;0.830220
9566.000000;0.830873
9565.000000;0.831193
9564.000000;0.831180
9563.000000;0.831008
9562.000000;0.830690
9561.000000;0.830179
9560.000000;0.829570
9559.000000;0.828956
9558.000000;0.828182
9557.000000;0.827040
9556.000000;0.825678
9555.000000;0.824579
9554.000000;0.824086
9553.000000;0.824099
9552.000000;0.824262
9551.000000;0.824270
9550.000000;0.823973
9549.000000;0.823400
9548.000000;0.822766
9547.000000;0.822347
9546.000000;0.822204
9545.000000;0.822072
9544.000000;0.821606
9543.000000;0.820712
9542.000000;0.819602
9541.000000;0.818531
9540.000000;0.817543
9539.000000;0.816506
9538.000000;0.815385
9537.000000;0.814373
9536.000000;0.813659
9535.000000;0.813143
9534.000000;0.812569
9533.000000;0.811928
9532.000000;0.811490
9531.000000;0.811356
9530.000000;0.811217
9529.000000;0.810749
9528.000000;0.810040
9527.000000;0.809421
9526.000000;0.809027
9525.000000;0.808744
9524.000000;0.808452
9523.000000;0.808071
9522.000000;0.807463
9521.000000;0.806584
9520.000000;0.805663
9519.000000;0.804974
9518.000000;0.804508
9517.000000;0.804102
9516.000000;0.803844
9515.000000;0.803995
9514.000000;0.804492
9513.000000;0.804852
9512.000000;0.804653
9511.000000;0.803896
9510.000000;0.802859
9509.000000;0.801831
9508.000000;0.801038
9507.000000;0.800546
9506.000000;0.800172
9505.000000;0.799697
9504.000000;0.799215
9503.000000;0.799010
9502.000000;0.799066
9501.000000;0.799002
9500.000000;0.798582
9499.000000;0.797971
9498.000000;0.797355
9497.000000;0.796632
9496.000000;0.795695
9495.000000;0.794750
9494.000000;0.794100
9493.000000;0.793778
9492.000000;0.793568
9491.000000;0.793237
9490.000000;0.792603
9489.000000;0.791608
9488.000000;0.790513
9487.000000;0.789775
9486.000000;0.789535
9485.000000;0.789419
9484.000000;0.789064
9483.000000;0.788583
9482.000000;0.788217
9481.000000;0.787767
9480.000000;0.786825
9479.000000;0.785469
9478.000000;0.784311
9477.000000;0.783796
9476.000000;0.783770
9475.000000;0.783774
9474.000000;0.783482
9473.000000;0.782796
9472.000000;0.781815
9471.000000;0.780842
9470.000000;0.780205
9469.000000;0.779927
9468.000000;0.779705
9467.000000;0.779278
9466.000000;0.778728
9465.000000;0.778327
9464.000000;0.778215
9463.000000;0.778293
9462.000000;0.778337
9461.000000;0.778171
9460.000000;0.777802
9459.000000;0.777369
9458.000000;0.776918
9457.000000;0.776273
9456.000000;0.775300
9455.000000;0.774221
9454.000000;0.773468
9453.000000;0.773198
9452.000000;0.773137
9451.000000;0.772973
9450.000000;0.772679
9449.000000;0.772360
9448.000000;0.771990
9447.000000;0.771474
9446.000000;0.770864
9445.000000;0.770317
9444.000000;0.769887
9443.000000;0.769491
9442.000000;0.769063
9441.000000;0.768635
9440.000000;0.768277
9439.000000;0.768052
9438.000000;0.768003
9437.000000;0.768119
9436.000000;0.768285
9435.000000;0.768326
9434.000000;0.768081
9433.000000;0.767439
9432.000000;0.766358
9431.000000;0.764947
9430.000000;0.763489
9429.000000;0.762297
9428.000000;0.761524
9427.000000;0.761121
9426.000000;0.760964
9425.000000;0.760948
9424.000000;0.760937
9423.000000;0.760739
9422.000000;0.760245
9421.000000;0.759599
9420.000000;0.759109
9419.000000;0.758906
9418.000000;0.758733
9417.000000;0.758205
9416.000000;0.757299
9415.000000;0.756426
9414.000000;0.755930
9413.000000;0.755644
9412.000000;0.755117
9411.000000;0.754253
9410.000000;0.753513
9409.000000;0.753396
9408.000000;0.753842
9407.000000;0.754284
9406.000000;0.754222
9405.000000;0.753620
9404.000000;0.752775
9403.000000;0.751975
9402.000000;0.751340
9401.000000;0.750870
9400.000000;0.750496
9399.000000;0.750090
9398.000000;0.749547
9397.000000;0.748893
9396.000000;0.748268
9395.000000;0.747765
9394.000000;0.747326
9393.000000;0.746832
9392.000000;0.746251
9391.000000;0.745652
9390.000000;0.745122
9389.000000;0.744740
9388.000000;0.744569
9387.000000;0.744568
9386.000000;0.744547
9385.000000;0.744334
9384.000000;0.744023
9383.000000;0.743891
9382.000000;0.744021
9381.000000;0.744130
9380.000000;0.743862
9379.000000;0.743171
9378.000000;0.742284
9377.000000;0.741393
9376.000000;0.740527
9375.000000;0.739689
9374.000000;0.738944
9373.000000;0.738363
9372.000000;0.737967
9371.000000;0.737753
9370.000000;0.737665
9369.000000;0.737522
9368.000000;0.737091
9367.000000;0.736306
9366.000000;0.735358
9365.000000;0.734526
9364.000000;0.733942
9363.000000;0.733527
9362.000000;0.733121
9361.000000;0.732635
9360.000000;0.732100
9359.000000;0.731585
9358.000000;0.731121
9357.000000;0.730724
9356.000000;0.730447
9355.000000;0.730301
9354.000000;0.730114
9353.000000;0.729621
9352.000000;0.728814
9351.000000;0.728080
9350.000000;0.727829
9349.000000;0.728033
9348.000000;0.728282
9347.000000;0.728253
9346.000000;0.727947
9345.000000;0.727462
9344.000000;0.726766
9343.000000;0.725847
9342.000000;0.724934
9341.000000;0.724368
9340.000000;0.724263
9339.000000;0.724399
9338.000000;0.724492
9337.000000;0.724466
9336.000000;0.724435
9335.000000;0.724419
9334.000000;0.724205
9333.000000;0.723553
9332.000000;0.722525
9331.000000;0.721476
9330.000000;0.720679
9329.000000;0.720064
9328.000000;0.719440
9327.000000;0.718838
9326.000000;0.718456
9325.000000;0.718331
9324.000000;0.718263
9323.000000;0.718106
9322.000000;0.717937
9321.000000;0.717849
9320.000000;0.717726
9319.000000;0.717339
9318.000000;0.716631
9317.000000;0.715820
9316.000000;0.715253
9315.000000;0.715106
9314.000000;0.715182
9313.000000;0.715054
9312.000000;0.714540
9311.000000;0.713962
9310.000000;0.713761
9309.000000;0.713865
9308.000000;0.713703
9307.000000;0.712929
9306.000000;0.711889
9305.000000;0.711241
9304.000000;0.711281
9303.000000;0.711755
9302.000000;0.712172
9301.000000;0.712118
9300.000000;0.711447
9299.000000;0.710392
9298.000000;0.709431
9297.000000;0.708863
9296.000000;0.708580
9295.000000;0.708351
9294.000000;0.708212
9293.000000;0.708359
9292.000000;0.708741
9291.000000;0.708978
9290.000000;0.708718
9289.000000;0.707912
9288.000000;0.706789
9287.000000;0.705737
9286.000000;0.705153
9285.000000;0.705185
9284.000000;0.705550
9283.000000;0.705744
9282.000000;0.705481
9281.000000;0.704856
9280.000000;0.704168
9279.000000;0.703710
9278.000000;0.703646
9277.000000;0.703823
9276.000000;0.703723
9275.000000;0.702882
9274.000000;0.701474
9273.000000;0.700269
9272.000000;0.699889
9271.000000;0.700255
9270.000000;0.700861
9269.000000;0.701354
9268.000000;0.701650
9267.000000;0.701633
9266.000000;0.701112
9265.000000;0.700118
9264.000000;0.699050
9263.000000;0.698351
9262.000000;0.698102
9261.000000;0.697996
9260.000000;0.697703
9259.000000;0.697170
9258.000000;0.696562
9257.000000;0.695960
9256.000000;0.695271
9255.000000;0.694445
9254.000000;0.693672
9253.000000;0.693255
9252.000000;0.693314
9251.000000;0.693724
9250.000000;0.694264
9249.000000;0.694701
9248.000000;0.694783
9247.000000;0.694345
9246.000000;0.693484
9245.000000;0.692527
9244.000000;0.691802
9243.000000;0.691488
9242.000000;0.691573
9241.000000;0.691805
9240.000000;0.691762
9239.000000;0.691232
9238.000000;0.690564
9237.000000;0.690337
9236.000000;0.690582
9235.000000;0.690633
9234.000000;0.689940
9233.000000;0.688771
9232.000000;0.687834
9231.000000;0.687401
9230.000000;0.687138
9229.000000;0.686703
9228.000000;0.686129
9227.000000;0.685598
9226.000000;0.685163
9225.000000;0.684824
9224.000000;0.684632
9223.000000;0.684568
9222.000000;0.684497
9221.000000;0.684372
9220.000000;0.684356
9219.000000;0.684577
9218.000000;0.684859
9217.000000;0.684833
9216.000000;0.684303
9215.000000;0.683396
9214.000000;0.682415
9213.000000;0.681644
9212.000000;0.681264
9211.000000;0.681320
9210.000000;0.681676
9209.000000;0.682068
9208.000000;0.682269
9207.000000;0.682215
9206.000000;0.681970
9205.000000;0.681613
9204.000000;0.681192
9203.000000;0.680767
9202.000000;0.680416
9201.000000;0.680168
9200.000000;0.679996
9199.000000;0.679911
9198.000000;0.679962
9197.000000;0.680057
9196.000000;0.679858
9195.000000;0.679048
9194.000000;0.677728
9193.000000;0.676421
9192.000000;0.675598
9191.000000;0.675276
9190.000000;0.675134
9189.000000;0.674897
9188.000000;0.674504
9187.000000;0.674025
9186.000000;0.673580
9185.000000;0.673312
9184.000000;0.673288
9183.000000;0.673412
9182.000000;0.673532
9181.000000;0.673622
9180.000000;0.673767
9179.000000;0.673954
9178.000000;0.673985
9177.000000;0.673659
9176.000000;0.672990
9175.000000;0.672195
9174.000000;0.671499
9173.000000;0.670995
9172.000000;0.670675
9171.000000;0.670543
9170.000000;0.670634
9169.000000;0.670885
9168.000000;0.671053
9167.000000;0.670892
9166.000000;0.670440
9165.000000;0.670019
9164.000000;0.669870
9163.000000;0.669882
9162.000000;0.669786
9161.000000;0.669517
9160.000000;0.669226
9159.000000;0.668993
9158.000000;0.668700
9157.000000;0.668227
9156.000000;0.667647
9155.000000;0.667159
9154.000000;0.666888
9153.000000;0.666778
9152.000000;0.666648
9151.000000;0.666369
9150.000000;0.666024
9149.000000;0.665813
9148.000000;0.665774
9147.000000;0.665689
9146.000000;0.665395
9145.000000;0.665051
9144.000000;0.664924
9143.000000;0.664967
9142.000000;0.664866
9141.000000;0.664504
9140.000000;0.664116
9139.000000;0.663924
9138.000000;0.663838
9137.000000;0.663660
9136.000000;0.663377
9135.000000;0.663096
9134.000000;0.662812
9133.000000;0.662415
9132.000000;0.661889
9131.000000;0.661376
9130.000000;0.661067
9129.000000;0.661077
9128.000000;0.661300
9127.000000;0.661368
9126.000000;0.660924
9125.000000;0.660089
9124.000000;0.659479
9123.000000;0.659558
9122.000000;0.660072
9121.000000;0.660368
9120.000000;0.660183
9119.000000;0.659849
9118.000000;0.659722
9117.000000;0.659719
9116.000000;0.659543
9115.000000;0.659139
9114.000000;0.658733
9113.000000;0.658527
9112.000000;0.658516
9111.000000;0.658570
9110.000000;0.658579
9109.000000;0.658519
9108.000000;0.658446
9107.000000;0.658384
9106.000000;0.658211
9105.000000;0.657718
9104.000000;0.656832
9103.000000;0.655732
9102.000000;0.654698
9101.000000;0.653932
9100.000000;0.653551
9099.000000;0.653640
9098.000000;0.654146
9097.000000;0.654776
9096.000000;0.655135
9095.000000;0.655053
9094.000000;0.654692
9093.000000;0.654317
9092.000000;0.654028
9091.000000;0.653741
9090.000000;0.653333
9089.000000;0.652747
9088.000000;0.652051
9087.000000;0.651451
9086.000000;0.651183
9085.000000;0.651282
9084.000000;0.651490
9083.000000;0.651493
9082.000000;0.651254
9081.000000;0.651027
9080.000000;0.650997
9079.000000;0.651030
9078.000000;0.650834
9077.000000;0.650320
9076.000000;0.649705
9075.000000;0.649274
9074.000000;0.649159
9073.000000;0.649353
9072.000000;0.649827
9071.000000;0.650506
9070.000000;0.651172
9069.000000;0.651510
9068.000000;0.651320
9067.000000;0.650689
9066.000000;0.649925
9065.000000;0.649321
9064.000000;0.648959
9063.000000;0.648695
9062.000000;0.648343
9061.000000;0.647876
9060.000000;0.647458
9059.000000;0.647270
9058.000000;0.647331
9057.000000;0.647484
9056.000000;0.647531
9055.000000;0.647348
9054.000000;0.646936
9053.000000;0.646452
