Criado como novo conjunto de dados;"1909daniel.spp","-4247802.6 Secs"
cm-1;Abs
10000.000000;1.767567
9999.000000;1.767965
9998.000000;1.766624
9997.000000;1.763319
9996.000000;1.758939
9995.000000;1.754798
9994.000000;1.751974
9993.000000;1.750317
9992.000000;1.749477
9991.000000;1.749495
9990.000000;1.750442
9989.000000;1.751610
9988.000000;1.752070
9987.000000;1.751783
9986.000000;1.751456
9985.000000;1.751446
9984.000000;1.751586
9983.000000;1.751975
9982.000000;1.753079
9981.000000;1.754960
9980.000000;1.757027
9979.000000;1.758637
9978.000000;1.759472
9977.000000;1.759342
9976.000000;1.758187
9975.000000;1.756378
9974.000000;1.754541
9973.000000;1.753026
9972.000000;1.751872
9971.000000;1.751127
9970.000000;1.750543
9969.000000;1.749151
9968.000000;1.746166
9967.000000;1.742364
9966.000000;1.739501
9965.000000;1.738301
9964.000000;1.737951
9963.000000;1.737692
9962.000000;1.737714
9961.000000;1.737997
9960.000000;1.737481
9959.000000;1.735437
9958.000000;1.732871
9957.000000;1.731447
9956.000000;1.731514
9955.000000;1.732071
9954.000000;1.732263
9953.000000;1.731976
9952.000000;1.731236
9951.000000;1.730006
9950.000000;1.728660
9949.000000;1.727906
9948.000000;1.728046
9947.000000;1.728747
9946.000000;1.729482
9945.000000;1.729721
9944.000000;1.728860
9943.000000;1.726682
9942.000000;1.724118
9941.000000;1.722865
9940.000000;1.723725
9939.000000;1.725515
9938.000000;1.725971
9937.000000;1.723798
9936.000000;1.719693
9935.000000;1.715431
9934.000000;1.712379
9933.000000;1.710958
9932.000000;1.710927
9931.000000;1.711687
9930.000000;1.712446
9929.000000;1.712451
9928.000000;1.711269
9927.000000;1.709115
9926.000000;1.707024
9925.000000;1.706433
9924.000000;1.708132
9923.000000;1.711434
9922.000000;1.714558
9921.000000;1.716072
9920.000000;1.715869
9919.000000;1.714557
9918.000000;1.712406
9917.000000;1.709606
9916.000000;1.707163
9915.000000;1.706480
9914.000000;1.707785
9913.000000;1.709559
9912.000000;1.709997
9911.000000;1.708776
9910.000000;1.706949
9909.000000;1.705516
9908.000000;1.704738
9907.000000;1.704508
9906.000000;1.704626
9905.000000;1.704691
9904.000000;1.704255
9903.000000;1.703111
9902.000000;1.701092
9901.000000;1.698003
9900.000000;1.694367
9899.000000;1.691646
9898.000000;1.690765
9897.000000;1.690756
9896.000000;1.689932
9895.000000;1.688347
9894.000000;1.687843
9893.000000;1.689329
9892.000000;1.691195
9891.000000;1.691231
9890.000000;1.689343
9889.000000;1.687275
9888.000000;1.686412
9887.000000;1.686864
9886.000000;1.688041
9885.000000;1.689161
9884.000000;1.689449
9883.000000;1.688612
9882.000000;1.687084
9881.000000;1.685348
9880.000000;1.683179
9879.000000;1.680080
9878.000000;1.676339
9877.000000;1.673159
9876.000000;1.671727
9875.000000;1.672375
9874.000000;1.674449
9873.000000;1.676642
9872.000000;1.677766
9871.000000;1.677697
9870.000000;1.677415
9869.000000;1.677694
9868.000000;1.677943
9867.000000;1.676813
9866.000000;1.673907
9865.000000;1.670403
9864.000000;1.667870
9863.000000;1.666943
9862.000000;1.667261
9861.000000;1.668230
9860.000000;1.669427
9859.000000;1.670323
9858.000000;1.670060
9857.000000;1.667988
9856.000000;1.664535
9855.000000;1.661282
9854.000000;1.659713
9853.000000;1.659850
9852.000000;1.660418
9851.000000;1.660333
9850.000000;1.659706
9849.000000;1.659301
9848.000000;1.659461
9847.000000;1.659977
9846.000000;1.660584
9845.000000;1.661082
9844.000000;1.661136
9843.000000;1.660383
9842.000000;1.658774
9841.000000;1.656687
9840.000000;1.654799
9839.000000;1.653806
9838.000000;1.653950
9837.000000;1.654632
9836.000000;1.654794
9835.000000;1.654045
9834.000000;1.652945
9833.000000;1.651908
9832.000000;1.650553
9831.000000;1.648687
9830.000000;1.647252
9829.000000;1.647331
9828.000000;1.648491
9827.000000;1.649112
9826.000000;1.648460
9825.000000;1.647446
9824.000000;1.647017
9823.000000;1.646777
9822.000000;1.645824
9821.000000;1.644269
9820.000000;1.642977
9819.000000;1.642047
9818.000000;1.640433
9817.000000;1.637426
9816.000000;1.633967
9815.000000;1.631827
9814.000000;1.631704
9813.000000;1.632596
9812.000000;1.633032
9811.000000;1.632606
9810.000000;1.632118
9809.000000;1.632281
9808.000000;1.632764
9807.000000;1.632698
9806.000000;1.631702
9805.000000;1.630176
9804.000000;1.628957
9803.000000;1.628914
9802.000000;1.630387
9801.000000;1.632533
9800.000000;1.633617
9799.000000;1.632580
9798.000000;1.630116
9797.000000;1.627669
9796.000000;1.625675
9795.000000;1.623615
9794.000000;1.621738
9793.000000;1.621581
9792.000000;1.624120
9791.000000;1.627993
9790.000000;1.630311
9789.000000;1.629269
9788.000000;1.625475
9787.000000;1.620812
9786.000000;1.616884
9785.000000;1.614641
9784.000000;1.614425
9783.000000;1.615570
9782.000000;1.616395
9781.000000;1.615474
9780.000000;1.613019
9779.000000;1.610524
9778.000000;1.609065
9777.000000;1.608456
9776.000000;1.608104
9775.000000;1.608026
9774.000000;1.608546
9773.000000;1.609350
9772.000000;1.609522
9771.000000;1.608559
9770.000000;1.606851
9769.000000;1.605142
9768.000000;1.604023
9767.000000;1.604013
9766.000000;1.605485
9765.000000;1.608009
9764.000000;1.610070
9763.000000;1.610069
9762.000000;1.607772
9761.000000;1.604484
9760.000000;1.601785
9759.000000;1.600356
9758.000000;1.599934
9757.000000;1.599979
9756.000000;1.600197
9755.000000;1.600521
9754.000000;1.600720
9753.000000;1.600163
9752.000000;1.598267
9751.000000;1.595280
9750.000000;1.592295
9749.000000;1.590188
9748.000000;1.588756
9747.000000;1.587252
9746.000000;1.585643
9745.000000;1.584820
9744.000000;1.585400
9743.000000;1.586746
9742.000000;1.587459
9741.000000;1.586732
9740.000000;1.584959
9739.000000;1.583092
9738.000000;1.581845
9737.000000;1.581519
9736.000000;1.581995
9735.000000;1.582672
9734.000000;1.582803
9733.000000;1.582309
9732.000000;1.582044
9731.000000;1.582733
9730.000000;1.583696
9729.000000;1.583316
9728.000000;1.581055
9727.000000;1.578347
9726.000000;1.577005
9725.000000;1.577220
9724.000000;1.577672
9723.000000;1.577389
9722.000000;1.576751
9721.000000;1.576466
9720.000000;1.576438
9719.000000;1.576190
9718.000000;1.575778
9717.000000;1.575602
9716.000000;1.575638
9715.000000;1.575446
9714.000000;1.574794
9713.000000;1.573796
9712.000000;1.572613
9711.000000;1.571494
9710.000000;1.570900
9709.000000;1.571005
9708.000000;1.571120
9707.000000;1.570239
9706.000000;1.568240
9705.000000;1.566038
9704.000000;1.564464
9703.000000;1.563475
9702.000000;1.562500
9701.000000;1.561072
9700.000000;1.559106
9699.000000;1.557179
9698.000000;1.556574
9697.000000;1.558185
9696.000000;1.560958
9695.000000;1.562211
9694.000000;1.560390
9693.000000;1.557001
9692.000000;1.554847
9691.000000;1.554803
9690.000000;1.555230
9689.000000;1.554295
9688.000000;1.551863
9687.000000;1.548958
9686.000000;1.546456
9685.000000;1.544891
9684.000000;1.544662
9683.000000;1.545504
9682.000000;1.546061
9681.000000;1.544876
9680.000000;1.542033
9679.000000;1.539271
9678.000000;1.538355
9677.000000;1.539649
9676.000000;1.542124
9675.000000;1.544259
9674.000000;1.544887
9673.000000;1.543717
9672.000000;1.541485
9671.000000;1.539497
9670.000000;1.538679
9669.000000;1.538958
9668.000000;1.539579
9667.000000;1.540008
9666.000000;1.540426
9665.000000;1.541307
9664.000000;1.542541
9663.000000;1.543113
9662.000000;1.541889
9661.000000;1.538912
9660.000000;1.535671
9659.000000;1.533689
9658.000000;1.532899
9657.000000;1.531796
9656.000000;1.529355
9655.000000;1.526417
9654.000000;1.524700
9653.000000;1.524748
9652.000000;1.525462
9651.000000;1.525621
9650.000000;1.525268
9649.000000;1.525221
9648.000000;1.525648
9647.000000;1.525840
9646.000000;1.525348
9645.000000;1.524678
9644.000000;1.524556
9643.000000;1.524882
9642.000000;1.524694
9641.000000;1.523099
9640.000000;1.520147
9639.000000;1.516883
9638.000000;1.514647
9637.000000;1.514170
9636.000000;1.515125
9635.000000;1.516510
9634.000000;1.517507
9633.000000;1.517904
9632.000000;1.517680
9631.000000;1.516612
9630.000000;1.514652
9629.000000;1.512513
9628.000000;1.511289
9627.000000;1.511307
9626.000000;1.511715
9625.000000;1.511479
9624.000000;1.510590
9623.000000;1.509958
9622.000000;1.510200
9621.000000;1.510886
9620.000000;1.511175
9619.000000;1.510946
9618.000000;1.510815
9617.000000;1.511011
9616.000000;1.510779
9615.000000;1.509261
9614.000000;1.506754
9613.000000;1.504556
9612.000000;1.503602
9611.000000;1.503718
9610.000000;1.504169
9609.000000;1.504309
9608.000000;1.503566
9607.000000;1.501556
9606.000000;1.498784
9605.000000;1.496671
9604.000000;1.496176
9603.000000;1.496699
9602.000000;1.496983
9601.000000;1.496857
9600.000000;1.497166
9599.000000;1.498051
9598.000000;1.498406
9597.000000;1.497373
9596.000000;1.495398
9595.000000;1.493216
9594.000000;1.490718
9593.000000;1.487795
9592.000000;1.485551
9591.000000;1.485450
9590.000000;1.487490
9589.000000;1.490126
9588.000000;1.492036
9587.000000;1.493168
9586.000000;1.493749
9585.000000;1.493192
9584.000000;1.490819
9583.000000;1.487257
9582.000000;1.484333
9581.000000;1.483539
9580.000000;1.484898
9579.000000;1.487108
9578.000000;1.488472
9577.000000;1.487824
9576.000000;1.485075
9575.000000;1.481251
9574.000000;1.477903
9573.000000;1.476104
9572.000000;1.475704
9571.000000;1.475506
9570.000000;1.474367
9569.000000;1.472346
9568.000000;1.470635
9567.000000;1.470272
9566.000000;1.471118
9565.000000;1.472229
9564.000000;1.472954
9563.000000;1.473329
9562.000000;1.473540
9561.000000;1.473471
9560.000000;1.472876
9559.000000;1.471684
9558.000000;1.470077
9557.000000;1.468453
9556.000000;1.467268
9555.000000;1.466607
9554.000000;1.465856
9553.000000;1.464201
9552.000000;1.461582
9551.000000;1.458887
9550.000000;1.457081
9549.000000;1.456445
9548.000000;1.456719
9547.000000;1.457591
9546.000000;1.458811
9545.000000;1.460066
9544.000000;1.461049
9543.000000;1.461562
9542.000000;1.461324
9541.000000;1.459885
9540.000000;1.457139
9539.000000;1.453956
9538.000000;1.451903
9537.000000;1.452013
9536.000000;1.453791
9535.000000;1.455532
9534.000000;1.455743
9533.000000;1.454373
9532.000000;1.452633
9531.000000;1.451792
9530.000000;1.452244
9529.000000;1.453484
9528.000000;1.454567
9527.000000;1.454440
9526.000000;1.452345
9525.000000;1.448639
9524.000000;1.445003
9523.000000;1.443168
9522.000000;1.443363
9521.000000;1.444272
9520.000000;1.444496
9519.000000;1.443859
9518.000000;1.443256
9517.000000;1.443550
9516.000000;1.444728
9515.000000;1.445917
9514.000000;1.446055
9513.000000;1.444698
9512.000000;1.442364
9511.000000;1.440043
9510.000000;1.438383
9509.000000;1.437400
9508.000000;1.436800
9507.000000;1.436309
9506.000000;1.435790
9505.000000;1.435327
9504.000000;1.435148
9503.000000;1.435197
9502.000000;1.434971
9501.000000;1.434230
9500.000000;1.433693
9499.000000;1.434307
9498.000000;1.435842
9497.000000;1.436951
9496.000000;1.436863
9495.000000;1.436256
9494.000000;1.436028
9493.000000;1.435911
9492.000000;1.434932
9491.000000;1.432872
9490.000000;1.430559
9489.000000;1.428965
9488.000000;1.428513
9487.000000;1.429041
9486.000000;1.429917
9485.000000;1.430318
9484.000000;1.429841
9483.000000;1.428837
9482.000000;1.427921
9481.000000;1.427225
9480.000000;1.426398
9479.000000;1.425209
9478.000000;1.423868
9477.000000;1.422864
9476.000000;1.422641
9475.000000;1.423244
9474.000000;1.424058
9473.000000;1.424149
9472.000000;1.423136
9471.000000;1.421463
9470.000000;1.419641
9469.000000;1.417749
9468.000000;1.415994
9467.000000;1.415105
9466.000000;1.415531
9465.000000;1.416620
9464.000000;1.417265
9463.000000;1.417193
9462.000000;1.416925
9461.000000;1.416703
9460.000000;1.416168
9459.000000;1.414996
9458.000000;1.413214
9457.000000;1.411012
9456.000000;1.408890
9455.000000;1.407757
9454.000000;1.408006
9453.000000;1.408431
9452.000000;1.407006
9451.000000;1.403192
9450.000000;1.398802
9449.000000;1.396143
9448.000000;1.395890
9447.000000;1.397067
9446.000000;1.398456
9445.000000;1.399496
9444.000000;1.400128
9443.000000;1.400441
9442.000000;1.400565
9441.000000;1.400648
9440.000000;1.400877
9439.000000;1.401470
9438.000000;1.402416
9437.000000;1.403246
9436.000000;1.403405
9435.000000;1.402879
9434.000000;1.402100
9433.000000;1.401200
9432.000000;1.399851
9431.000000;1.397937
9430.000000;1.395914
9429.000000;1.394287
9428.000000;1.393142
9427.000000;1.392394
9426.000000;1.392083
9425.000000;1.392086
9424.000000;1.391945
9423.000000;1.391377
9422.000000;1.390727
9421.000000;1.390578
9420.000000;1.391096
9419.000000;1.391960
9418.000000;1.392696
9417.000000;1.392880
9416.000000;1.392311
9415.000000;1.391315
9414.000000;1.390537
9413.000000;1.390048
9412.000000;1.389048
9411.000000;1.386999
9410.000000;1.384720
9409.000000;1.383659
9408.000000;1.384137
9407.000000;1.384986
9406.000000;1.384954
9405.000000;1.383921
9404.000000;1.382535
9403.000000;1.381199
9402.000000;1.379841
9401.000000;1.378399
9400.000000;1.377076
9399.000000;1.376173
9398.000000;1.375898
9397.000000;1.376241
9396.000000;1.376826
9395.000000;1.377070
9394.000000;1.376697
9393.000000;1.376004
9392.000000;1.375388
9391.000000;1.374793
9390.000000;1.373946
9389.000000;1.373058
9388.000000;1.372826
9387.000000;1.373487
9386.000000;1.374162
9385.000000;1.373552
9384.000000;1.371374
9383.000000;1.368853
9382.000000;1.367648
9381.000000;1.368353
9380.000000;1.370052
9379.000000;1.371242
9378.000000;1.371204
9377.000000;1.370497
9376.000000;1.370103
9375.000000;1.370208
9374.000000;1.369970
9373.000000;1.368548
9372.000000;1.366196
9371.000000;1.364079
9370.000000;1.363105
9369.000000;1.363178
9368.000000;1.363485
9367.000000;1.363196
9366.000000;1.361925
9365.000000;1.359962
9364.000000;1.358306
9363.000000;1.358082
9362.000000;1.359481
9361.000000;1.361338
9360.000000;1.362115
9359.000000;1.361389
9358.000000;1.360146
9357.000000;1.359636
9356.000000;1.360192
9355.000000;1.361041
9354.000000;1.361013
9353.000000;1.359487
9352.000000;1.356990
9351.000000;1.354928
9350.000000;1.354484
9349.000000;1.355648
9348.000000;1.357312
9347.000000;1.358192
9346.000000;1.357637
9345.000000;1.355787
9344.000000;1.353326
9343.000000;1.351055
9342.000000;1.349404
9341.000000;1.348252
9340.000000;1.347385
9339.000000;1.347000
9338.000000;1.347468
9337.000000;1.348661
9336.000000;1.349892
9335.000000;1.350513
9334.000000;1.350282
9333.000000;1.349198
9332.000000;1.347395
9331.000000;1.345335
9330.000000;1.343682
9329.000000;1.342680
9328.000000;1.341908
9327.000000;1.340901
9326.000000;1.339828
9325.000000;1.339403
9324.000000;1.340222
9323.000000;1.342188
9322.000000;1.344320
9321.000000;1.345142
9320.000000;1.343789
9319.000000;1.341025
9318.000000;1.338837
9317.000000;1.338778
9316.000000;1.340785
9315.000000;1.343516
9314.000000;1.345522
9313.000000;1.346020
9312.000000;1.344983
9311.000000;1.342976
9310.000000;1.340807
9309.000000;1.339010
9308.000000;1.337629
9307.000000;1.336598
9306.000000;1.336042
9305.000000;1.335967
9304.000000;1.335874
9303.000000;1.335101
9302.000000;1.333535
9301.000000;1.331777
9300.000000;1.330613
9299.000000;1.330452
9298.000000;1.331128
9297.000000;1.332039
9296.000000;1.332571
9295.000000;1.332561
9294.000000;1.332331
9293.000000;1.332222
9292.000000;1.332203
9291.000000;1.332000
9290.000000;1.331431
9289.000000;1.330518
9288.000000;1.329418
9287.000000;1.328343
9286.000000;1.327434
9285.000000;1.326692
9284.000000;1.326158
9283.000000;1.326068
9282.000000;1.326473
9281.000000;1.326788
9280.000000;1.326285
9279.000000;1.325173
9278.000000;1.324564
9277.000000;1.325003
9276.000000;1.325634
9275.000000;1.325310
9274.000000;1.324020
9273.000000;1.322580
9272.000000;1.321392
9271.000000;1.320326
9270.000000;1.319563
9269.000000;1.319628
9268.000000;1.320474
9267.000000;1.321268
9266.000000;1.321325
9265.000000;1.320749
9264.000000;1.320010
9263.000000;1.319421
9262.000000;1.319190
9261.000000;1.319456
9260.000000;1.320001
9259.000000;1.320300
9258.000000;1.320126
9257.000000;1.319797
9256.000000;1.319652
9255.000000;1.319597
9254.000000;1.319353
9253.000000;1.318859
9252.000000;1.318208
9251.000000;1.317463
9250.000000;1.316761
9249.000000;1.316327
9248.000000;1.316190
9247.000000;1.316076
9246.000000;1.315747
9245.000000;1.315212
9244.000000;1.314492
9243.000000;1.313419
9242.000000;1.311847
9241.000000;1.309913
9240.000000;1.308034
9239.000000;1.306872
9238.000000;1.307171
9237.000000;1.309100
9236.000000;1.311566
9235.000000;1.312779
9234.000000;1.311931
9233.000000;1.309932
9232.000000;1.308149
9231.000000;1.306890
9230.000000;1.305543
9229.000000;1.303763
9228.000000;1.301883
9227.000000;1.300343
9226.000000;1.299371
9225.000000;1.299226
9224.000000;1.300164
9223.000000;1.301996
9222.000000;1.304039
9221.000000;1.305605
9220.000000;1.306250
9219.000000;1.305607
9218.000000;1.303528
9217.000000;1.300605
9216.000000;1.298092
9215.000000;1.296973
9214.000000;1.297220
9213.000000;1.298035
9212.000000;1.298630
9211.000000;1.298688
9210.000000;1.298315
9209.000000;1.297797
9208.000000;1.297278
9207.000000;1.296541
9206.000000;1.295264
9205.000000;1.293613
9204.000000;1.292362
9203.000000;1.292124
9202.000000;1.292563
9201.000000;1.292701
9200.000000;1.292104
9199.000000;1.291474
9198.000000;1.291808
9197.000000;1.293090
9196.000000;1.294073
9195.000000;1.293469
9194.000000;1.291274
9193.000000;1.288814
9192.000000;1.287583
9191.000000;1.288114
9190.000000;1.289815
9189.000000;1.291573
9188.000000;1.292504
9187.000000;1.292410
9186.000000;1.291777
9185.000000;1.291330
9184.000000;1.291466
9183.000000;1.291982
9182.000000;1.292293
9181.000000;1.291906
9180.000000;1.290721
9179.000000;1.289094
9178.000000;1.287724
9177.000000;1.287244
9176.000000;1.287624
9175.000000;1.288040
9174.000000;1.287589
9173.000000;1.286216
9172.000000;1.284781
9171.000000;1.284180
9170.000000;1.284512
9169.000000;1.285123
9168.000000;1.285428
9167.000000;1.285602
9166.000000;1.286384
9165.000000;1.288102
9164.000000;1.289924
9163.000000;1.290386
9162.000000;1.288782
9161.000000;1.285871
9160.000000;1.283103
9159.000000;1.281369
9158.000000;1.280657
9157.000000;1.280585
9156.000000;1.280877
9155.000000;1.281344
9154.000000;1.281749
9153.000000;1.281820
9152.000000;1.281318
9151.000000;1.280179
9150.000000;1.278793
9149.000000;1.277981
9148.000000;1.278300
9147.000000;1.279303
9146.000000;1.279791
9145.000000;1.278999
9144.000000;1.277326
9143.000000;1.275789
9142.000000;1.275036
9141.000000;1.275020
9140.000000;1.275357
9139.000000;1.275725
9138.000000;1.275992
9137.000000;1.276140
9136.000000;1.276083
9135.000000;1.275617
9134.000000;1.274647
9133.000000;1.273396
9132.000000;1.272191
9131.000000;1.271092
9130.000000;1.270007
9129.000000;1.269111
9128.000000;1.268708
9127.000000;1.268608
9126.000000;1.268161
9125.000000;1.267211
9124.000000;1.266572
9123.000000;1.267061
9122.000000;1.268335
9121.000000;1.269255
9120.000000;1.269283
9119.000000;1.268958
9118.000000;1.268913
9117.000000;1.268984
9116.000000;1.268628
9115.000000;1.267872
9114.000000;1.267422
9113.000000;1.267856
9112.000000;1.268946
9111.000000;1.269865
9110.000000;1.270010
9109.000000;1.269511
9108.000000;1.268900
9107.000000;1.268437
9106.000000;1.267980
9105.000000;1.267447
9104.000000;1.267067
9103.000000;1.267001
9102.000000;1.266966
9101.000000;1.266479
9100.000000;1.265351
9099.000000;1.263755
9098.000000;1.262009
9097.000000;1.260572
9096.000000;1.260054
9095.000000;1.260827
9094.000000;1.262557
9093.000000;1.264343
9092.000000;1.265308
9091.000000;1.265009
9090.000000;1.263570
9089.000000;1.261737
9088.000000;1.260514
9087.000000;1.260261
9086.000000;1.260205
9085.000000;1.259309
9084.000000;1.257616
9083.000000;1.256233
9082.000000;1.255998
9081.000000;1.256694
9080.000000;1.257618
9079.000000;1.258281
9078.000000;1.258367
9077.000000;1.257660
9076.000000;1.256507
9075.000000;1.255875
9074.000000;1.256404
9073.000000;1.257631
9072.000000;1.258576
9071.000000;1.258854
9070.000000;1.258787
9069.000000;1.258647
9068.000000;1.258317
9067.000000;1.257655
9066.000000;1.256713
9065.000000;1.255565
9064.000000;1.254243
9063.000000;1.252885
9062.000000;1.251705
9061.000000;1.250822
9060.000000;1.250282
9059.000000;1.250166
9058.000000;1.250448
9057.000000;1.250817
9056.000000;1.250904
9055.000000;1.250683
9054.000000;1.250433
9053.000000;1.250350
