Criado como novo conjunto de dados;"1909daniel.spp","-4258063.1 Secs"
cm-1;Abs
10000.000000;1.767320
9999.000000;1.766841
9998.000000;1.765476
9997.000000;1.762900
9996.000000;1.759583
9995.000000;1.756308
9994.000000;1.753990
9993.000000;1.753336
9992.000000;1.754535
9991.000000;1.756924
9990.000000;1.759193
9989.000000;1.759983
9988.000000;1.758568
9987.000000;1.755326
9986.000000;1.751711
9985.000000;1.749558
9984.000000;1.749974
9983.000000;1.752506
9982.000000;1.755255
9981.000000;1.756092
9980.000000;1.754255
9979.000000;1.750891
9978.000000;1.747787
9977.000000;1.745560
9976.000000;1.743473
9975.000000;1.741127
9974.000000;1.739667
9973.000000;1.740593
9972.000000;1.743654
9971.000000;1.746761
9970.000000;1.748130
9969.000000;1.747842
9968.000000;1.747006
9967.000000;1.746154
9966.000000;1.745013
9965.000000;1.743386
9964.000000;1.741557
9963.000000;1.739858
9962.000000;1.738383
9961.000000;1.737241
9960.000000;1.736733
9959.000000;1.737152
9958.000000;1.738462
9957.000000;1.740167
9956.000000;1.741461
9955.000000;1.741622
9954.000000;1.740361
9953.000000;1.737874
9952.000000;1.734732
9951.000000;1.731791
9950.000000;1.729882
9949.000000;1.729157
9948.000000;1.728721
9947.000000;1.727504
9946.000000;1.725650
9945.000000;1.724300
9944.000000;1.724033
9943.000000;1.724302
9942.000000;1.724504
9941.000000;1.724821
9940.000000;1.725449
9939.000000;1.725696
9938.000000;1.724653
9937.000000;1.722348
9936.000000;1.719561
9935.000000;1.716858
9934.000000;1.714589
9933.000000;1.713452
9932.000000;1.714131
9931.000000;1.716275
9930.000000;1.718447
9929.000000;1.719343
9928.000000;1.718810
9927.000000;1.717627
9926.000000;1.716585
9925.000000;1.715885
9924.000000;1.715022
9923.000000;1.713157
9922.000000;1.710030
9921.000000;1.706503
9920.000000;1.703821
9919.000000;1.702433
9918.000000;1.701964
9917.000000;1.702145
9916.000000;1.703084
9915.000000;1.704527
9914.000000;1.705505
9913.000000;1.705162
9912.000000;1.703704
9911.000000;1.702156
9910.000000;1.701354
9909.000000;1.701275
9908.000000;1.701158
9907.000000;1.700424
9906.000000;1.699597
9905.000000;1.700052
9904.000000;1.702460
9903.000000;1.705222
9902.000000;1.705185
9901.000000;1.700914
9900.000000;1.694649
9899.000000;1.690067
9898.000000;1.688713
9897.000000;1.689251
9896.000000;1.689657
9895.000000;1.689196
9894.000000;1.688072
9893.000000;1.686259
9892.000000;1.683716
9891.000000;1.681313
9890.000000;1.680543
9889.000000;1.681988
9888.000000;1.684486
9887.000000;1.686216
9886.000000;1.686505
9885.000000;1.686160
9884.000000;1.686171
9883.000000;1.686598
9882.000000;1.686700
9881.000000;1.685707
9880.000000;1.683375
9879.000000;1.680208
9878.000000;1.677415
9877.000000;1.676229
9876.000000;1.676888
9875.000000;1.678429
9874.000000;1.679672
9873.000000;1.680130
9872.000000;1.679795
9871.000000;1.678574
9870.000000;1.676524
9869.000000;1.674339
9868.000000;1.672833
9867.000000;1.671978
9866.000000;1.671077
9865.000000;1.669910
9864.000000;1.669090
9863.000000;1.669059
9862.000000;1.669202
9861.000000;1.668407
9860.000000;1.666376
9859.000000;1.664055
9858.000000;1.662731
9857.000000;1.662860
9856.000000;1.663809
9855.000000;1.664693
9854.000000;1.665335
9853.000000;1.666122
9852.000000;1.666992
9851.000000;1.667041
9850.000000;1.665420
9849.000000;1.662338
9848.000000;1.658811
9847.000000;1.655781
9846.000000;1.653857
9845.000000;1.653390
9844.000000;1.654175
9843.000000;1.655209
9842.000000;1.655359
9841.000000;1.654386
9840.000000;1.652997
9839.000000;1.651989
9838.000000;1.651660
9837.000000;1.651845
9836.000000;1.652023
9835.000000;1.651594
9834.000000;1.650512
9833.000000;1.649393
9832.000000;1.648564
9831.000000;1.647430
9830.000000;1.645544
9829.000000;1.643889
9828.000000;1.643878
9827.000000;1.645136
9826.000000;1.645602
9825.000000;1.644284
9824.000000;1.642718
9823.000000;1.642796
9822.000000;1.644196
9821.000000;1.644976
9820.000000;1.644015
9819.000000;1.641769
9818.000000;1.638981
9817.000000;1.635822
9816.000000;1.632467
9815.000000;1.629744
9814.000000;1.628744
9813.000000;1.629905
9812.000000;1.632538
9811.000000;1.635211
9810.000000;1.636810
9809.000000;1.637357
9808.000000;1.637460
9807.000000;1.636910
9806.000000;1.634566
9805.000000;1.630072
9804.000000;1.625064
9803.000000;1.621862
9802.000000;1.621308
9801.000000;1.622343
9800.000000;1.623320
9799.000000;1.623257
9798.000000;1.621995
9797.000000;1.620088
9796.000000;1.618687
9795.000000;1.618637
9794.000000;1.619492
9793.000000;1.620011
9792.000000;1.619720
9791.000000;1.619354
9790.000000;1.619545
9789.000000;1.619850
9788.000000;1.619499
9787.000000;1.618498
9786.000000;1.617495
9785.000000;1.616804
9784.000000;1.615977
9783.000000;1.614424
9782.000000;1.612215
9781.000000;1.610241
9780.000000;1.609601
9779.000000;1.610688
9778.000000;1.612751
9777.000000;1.614408
9776.000000;1.614765
9775.000000;1.613981
9774.000000;1.612613
9773.000000;1.610706
9772.000000;1.607938
9771.000000;1.604583
9770.000000;1.601942
9769.000000;1.601536
9768.000000;1.603802
9767.000000;1.607548
9766.000000;1.610737
9765.000000;1.611940
9764.000000;1.611121
9763.000000;1.609061
9762.000000;1.606343
9761.000000;1.603165
9760.000000;1.599866
9759.000000;1.597048
9758.000000;1.595056
9757.000000;1.593790
9756.000000;1.593258
9755.000000;1.593843
9754.000000;1.595512
9753.000000;1.596991
9752.000000;1.596448
9751.000000;1.593481
9750.000000;1.589975
9749.000000;1.588280
9748.000000;1.588815
9747.000000;1.590031
9746.000000;1.590541
9745.000000;1.590552
9744.000000;1.590902
9743.000000;1.591448
9742.000000;1.591169
9741.000000;1.589567
9740.000000;1.587308
9739.000000;1.585519
9738.000000;1.584917
9737.000000;1.585498
9736.000000;1.586483
9735.000000;1.586623
9734.000000;1.585202
9733.000000;1.582848
9732.000000;1.580823
9731.000000;1.579542
9730.000000;1.578437
9729.000000;1.577234
9728.000000;1.576426
9727.000000;1.576162
9726.000000;1.575671
9725.000000;1.574498
9724.000000;1.573611
9723.000000;1.574280
9722.000000;1.576238
9721.000000;1.577897
9720.000000;1.578222
9719.000000;1.577560
9718.000000;1.576675
9717.000000;1.575852
9716.000000;1.575056
9715.000000;1.574181
9714.000000;1.572875
9713.000000;1.570739
9712.000000;1.568084
9711.000000;1.565931
9710.000000;1.564900
9709.000000;1.564509
9708.000000;1.563960
9707.000000;1.563280
9706.000000;1.563235
9705.000000;1.564243
9704.000000;1.565745
9703.000000;1.566628
9702.000000;1.566078
9701.000000;1.564057
9700.000000;1.561206
9699.000000;1.558447
9698.000000;1.556617
9697.000000;1.556240
9696.000000;1.557342
9695.000000;1.559188
9694.000000;1.560410
9693.000000;1.559999
9692.000000;1.558372
9691.000000;1.557107
9690.000000;1.557379
9689.000000;1.558758
9688.000000;1.559665
9687.000000;1.558927
9686.000000;1.556844
9685.000000;1.554797
9684.000000;1.553891
9683.000000;1.553893
9682.000000;1.553459
9681.000000;1.551553
9680.000000;1.548691
9679.000000;1.546488
9678.000000;1.545918
9677.000000;1.546284
9676.000000;1.546040
9675.000000;1.544469
9674.000000;1.542336
9673.000000;1.540902
9672.000000;1.540503
9671.000000;1.540266
9670.000000;1.539241
9669.000000;1.537535
9668.000000;1.536092
9667.000000;1.535511
9666.000000;1.535476
9665.000000;1.535410
9664.000000;1.535257
9663.000000;1.535273
9662.000000;1.535362
9661.000000;1.535152
9660.000000;1.534599
9659.000000;1.533982
9658.000000;1.533321
9657.000000;1.532331
9656.000000;1.531064
9655.000000;1.530118
9654.000000;1.529976
9653.000000;1.530464
9652.000000;1.531032
9651.000000;1.531205
9650.000000;1.530629
9649.000000;1.529185
9648.000000;1.527322
9647.000000;1.525872
9646.000000;1.525242
9645.000000;1.525035
9644.000000;1.524708
9643.000000;1.524297
9642.000000;1.524066
9641.000000;1.523736
9640.000000;1.522722
9639.000000;1.521151
9638.000000;1.520064
9637.000000;1.520345
9636.000000;1.521771
9635.000000;1.523247
9634.000000;1.523699
9633.000000;1.522672
9632.000000;1.520415
9631.000000;1.517772
9630.000000;1.515876
9629.000000;1.515434
9628.000000;1.516051
9627.000000;1.516485
9626.000000;1.515866
9625.000000;1.514584
9624.000000;1.513730
9623.000000;1.513764
9622.000000;1.514006
9621.000000;1.513479
9620.000000;1.512014
9619.000000;1.510310
9618.000000;1.509118
9617.000000;1.508667
9616.000000;1.508757
9615.000000;1.509090
9614.000000;1.509420
9613.000000;1.509546
9612.000000;1.509239
9611.000000;1.508183
9610.000000;1.506158
9609.000000;1.503565
9608.000000;1.501563
9607.000000;1.501181
9606.000000;1.502125
9605.000000;1.502841
9604.000000;1.502048
9603.000000;1.500058
9602.000000;1.498328
9601.000000;1.497907
9600.000000;1.498606
9599.000000;1.499449
9598.000000;1.499543
9597.000000;1.498636
9596.000000;1.497072
9595.000000;1.495373
9594.000000;1.493952
9593.000000;1.493125
9592.000000;1.493171
9591.000000;1.494145
9590.000000;1.495564
9589.000000;1.496536
9588.000000;1.496387
9587.000000;1.495109
9586.000000;1.493159
9585.000000;1.491052
9584.000000;1.489167
9583.000000;1.487640
9582.000000;1.486285
9581.000000;1.484798
9580.000000;1.483322
9579.000000;1.482614
9578.000000;1.483338
9577.000000;1.485200
9576.000000;1.486886
9575.000000;1.486914
9574.000000;1.484686
9573.000000;1.480884
9572.000000;1.476954
9571.000000;1.474128
9570.000000;1.472772
9569.000000;1.472557
9568.000000;1.473058
9567.000000;1.473938
9566.000000;1.474648
9565.000000;1.474506
9564.000000;1.473431
9563.000000;1.472335
9562.000000;1.472335
9561.000000;1.473600
9560.000000;1.475203
9559.000000;1.476024
9558.000000;1.475510
9557.000000;1.473720
9556.000000;1.471115
9555.000000;1.468470
9554.000000;1.466648
9553.000000;1.466205
9552.000000;1.467080
9551.000000;1.468591
9550.000000;1.469748
9549.000000;1.469838
9548.000000;1.469010
9547.000000;1.468182
9546.000000;1.468040
9545.000000;1.468164
9544.000000;1.467492
9543.000000;1.465686
9542.000000;1.463601
9541.000000;1.462194
9540.000000;1.461418
9539.000000;1.460527
9538.000000;1.459237
9537.000000;1.458119
9536.000000;1.457690
9535.000000;1.457608
9534.000000;1.457042
9533.000000;1.455685
9532.000000;1.454161
9531.000000;1.453361
9530.000000;1.453486
9529.000000;1.453915
9528.000000;1.453974
9527.000000;1.453646
9526.000000;1.453401
9525.000000;1.453447
9524.000000;1.453395
9523.000000;1.452729
9522.000000;1.451423
9521.000000;1.449899
9520.000000;1.448502
9519.000000;1.447272
9518.000000;1.446239
9517.000000;1.445694
9516.000000;1.445828
9515.000000;1.446223
9514.000000;1.446125
9513.000000;1.445371
9512.000000;1.444761
9511.000000;1.445212
9510.000000;1.446668
9509.000000;1.448152
9508.000000;1.448853
9507.000000;1.448765
9506.000000;1.448142
9505.000000;1.446826
9504.000000;1.444564
9503.000000;1.441738
9502.000000;1.439325
9501.000000;1.438091
9500.000000;1.438002
9499.000000;1.438385
9498.000000;1.438530
9497.000000;1.438194
9496.000000;1.437664
9495.000000;1.437293
9494.000000;1.436889
9493.000000;1.435787
9492.000000;1.433768
9491.000000;1.431695
9490.000000;1.430795
9489.000000;1.431366
9488.000000;1.432519
9487.000000;1.433147
9486.000000;1.432827
9485.000000;1.431820
9484.000000;1.430709
9483.000000;1.430160
9482.000000;1.430467
9481.000000;1.430974
9480.000000;1.430322
9479.000000;1.427849
9478.000000;1.424608
9477.000000;1.422486
9476.000000;1.422259
9475.000000;1.422926
9474.000000;1.423067
9473.000000;1.422426
9472.000000;1.421784
9471.000000;1.421564
9470.000000;1.421232
9469.000000;1.420265
9468.000000;1.419174
9467.000000;1.418955
9466.000000;1.419675
9465.000000;1.420183
9464.000000;1.419410
9463.000000;1.417524
9462.000000;1.415593
9461.000000;1.414578
9460.000000;1.414882
9459.000000;1.416257
9458.000000;1.417583
9457.000000;1.417245
9456.000000;1.414700
9455.000000;1.411583
9454.000000;1.410383
9453.000000;1.411840
9452.000000;1.414221
9451.000000;1.415325
9450.000000;1.414732
9449.000000;1.413641
9448.000000;1.413005
9447.000000;1.412565
9446.000000;1.411582
9445.000000;1.409958
9444.000000;1.408483
9443.000000;1.408160
9442.000000;1.409266
9441.000000;1.410889
9440.000000;1.411463
9439.000000;1.410055
9438.000000;1.407189
9437.000000;1.404304
9436.000000;1.402593
9435.000000;1.402418
9434.000000;1.403377
9433.000000;1.404600
9432.000000;1.405135
9431.000000;1.404363
9430.000000;1.402308
9429.000000;1.399577
9428.000000;1.397003
9427.000000;1.395201
9426.000000;1.394275
9425.000000;1.393929
9424.000000;1.393939
9423.000000;1.394389
9422.000000;1.395282
9421.000000;1.396150
9420.000000;1.396429
9419.000000;1.396165
9418.000000;1.395928
9417.000000;1.396010
9416.000000;1.396182
9415.000000;1.396264
9414.000000;1.396386
9413.000000;1.396474
9412.000000;1.396101
9411.000000;1.395169
9410.000000;1.394167
9409.000000;1.393376
9408.000000;1.392380
9407.000000;1.390852
9406.000000;1.389316
9405.000000;1.388550
9404.000000;1.388593
9403.000000;1.388950
9402.000000;1.389403
9401.000000;1.389892
9400.000000;1.389927
9399.000000;1.389007
9398.000000;1.387468
9397.000000;1.386058
9396.000000;1.384791
9395.000000;1.383213
9394.000000;1.381771
9393.000000;1.381747
9392.000000;1.383370
9391.000000;1.384946
9390.000000;1.384634
9389.000000;1.382611
9388.000000;1.380592
9387.000000;1.379629
9386.000000;1.379243
9385.000000;1.378541
9384.000000;1.377371
9383.000000;1.376150
9382.000000;1.375117
9381.000000;1.374218
9380.000000;1.373541
9379.000000;1.373482
9378.000000;1.374307
9377.000000;1.375712
9376.000000;1.377021
9375.000000;1.377845
9374.000000;1.378319
9373.000000;1.378595
9372.000000;1.378404
9371.000000;1.377413
9370.000000;1.375778
9369.000000;1.373959
9368.000000;1.372188
9367.000000;1.370513
9366.000000;1.369221
9365.000000;1.368686
9364.000000;1.368815
9363.000000;1.369114
9362.000000;1.369332
9361.000000;1.369530
9360.000000;1.369481
9359.000000;1.368727
9358.000000;1.367504
9357.000000;1.366868
9356.000000;1.367393
9355.000000;1.368283
9354.000000;1.368286
9353.000000;1.367158
9352.000000;1.365608
9351.000000;1.364045
9350.000000;1.362127
9349.000000;1.359624
9348.000000;1.357160
9347.000000;1.355772
9346.000000;1.355946
9345.000000;1.357190
9344.000000;1.358410
9343.000000;1.358721
9342.000000;1.358111
9341.000000;1.357396
9340.000000;1.357483
9339.000000;1.358664
9338.000000;1.360463
9337.000000;1.361917
9336.000000;1.362032
9335.000000;1.360315
9334.000000;1.357173
9333.000000;1.353778
9332.000000;1.351388
9331.000000;1.350659
9330.000000;1.351312
9329.000000;1.352308
9328.000000;1.352568
9327.000000;1.351896
9326.000000;1.351158
9325.000000;1.351251
9324.000000;1.351872
9323.000000;1.351778
9322.000000;1.350380
9321.000000;1.348491
9320.000000;1.347266
9319.000000;1.347007
9318.000000;1.347322
9317.000000;1.347858
9316.000000;1.348338
9315.000000;1.348250
9314.000000;1.347163
9313.000000;1.345306
9312.000000;1.343424
9311.000000;1.342128
9310.000000;1.341617
9309.000000;1.341776
9308.000000;1.342150
9307.000000;1.342032
9306.000000;1.341067
9305.000000;1.339777
9304.000000;1.339095
9303.000000;1.339373
9302.000000;1.340131
9301.000000;1.340655
9300.000000;1.340585
9299.000000;1.340069
9298.000000;1.339591
9297.000000;1.339571
9296.000000;1.339854
9295.000000;1.339733
9294.000000;1.338742
9293.000000;1.337278
9292.000000;1.336144
9291.000000;1.335767
9290.000000;1.336135
9289.000000;1.337074
9288.000000;1.338082
9287.000000;1.338333
9286.000000;1.337543
9285.000000;1.336629
9284.000000;1.336743
9283.000000;1.337738
9282.000000;1.338250
9281.000000;1.337264
9280.000000;1.334968
9279.000000;1.332146
9278.000000;1.329547
9277.000000;1.327906
9276.000000;1.327683
9275.000000;1.328407
9274.000000;1.328902
9273.000000;1.328528
9272.000000;1.327691
9271.000000;1.326878
9270.000000;1.325981
9269.000000;1.325023
9268.000000;1.324771
9267.000000;1.325812
9266.000000;1.327488
9265.000000;1.328528
9264.000000;1.328569
9263.000000;1.328269
9262.000000;1.328038
9261.000000;1.327463
9260.000000;1.326207
9259.000000;1.324810
9258.000000;1.324216
9257.000000;1.324729
9256.000000;1.325676
9255.000000;1.325996
9254.000000;1.325085
9253.000000;1.323232
9252.000000;1.321393
9251.000000;1.320469
9250.000000;1.320646
9249.000000;1.321340
9248.000000;1.321748
9247.000000;1.321498
9246.000000;1.320867
9245.000000;1.320347
9244.000000;1.319980
9243.000000;1.319291
9242.000000;1.318029
9241.000000;1.316780
9240.000000;1.316483
9239.000000;1.317348
9238.000000;1.318532
9237.000000;1.318996
9236.000000;1.318471
9235.000000;1.317442
9234.000000;1.316495
9233.000000;1.315898
9232.000000;1.315621
9231.000000;1.315536
9230.000000;1.315534
9229.000000;1.315486
9228.000000;1.315114
9227.000000;1.314093
9226.000000;1.312477
9225.000000;1.310870
9224.000000;1.309822
9223.000000;1.309131
9222.000000;1.308153
9221.000000;1.306799
9220.000000;1.305773
9219.000000;1.305716
9218.000000;1.306542
9217.000000;1.307722
9216.000000;1.308746
9215.000000;1.309104
9214.000000;1.308414
9213.000000;1.306999
9212.000000;1.305899
9211.000000;1.305852
9210.000000;1.306539
9209.000000;1.307159
9208.000000;1.307381
9207.000000;1.307286
9206.000000;1.306810
9205.000000;1.305955
9204.000000;1.305309
9203.000000;1.305559
9202.000000;1.306438
9201.000000;1.306813
9200.000000;1.306044
9199.000000;1.304785
9198.000000;1.304161
9197.000000;1.304446
9196.000000;1.304832
9195.000000;1.304362
9194.000000;1.302908
9193.000000;1.301269
9192.000000;1.300378
9191.000000;1.300360
9190.000000;1.300458
9189.000000;1.299937
9188.000000;1.298907
9187.000000;1.298094
9186.000000;1.297999
9185.000000;1.298509
9184.000000;1.299096
9183.000000;1.299168
9182.000000;1.298434
9181.000000;1.297282
9180.000000;1.296578
9179.000000;1.296680
9178.000000;1.296836
9177.000000;1.296069
9176.000000;1.294589
9175.000000;1.293684
9174.000000;1.294086
9173.000000;1.295065
9172.000000;1.295371
9171.000000;1.294620
9170.000000;1.293400
9169.000000;1.292399
9168.000000;1.291869
9167.000000;1.291785
9166.000000;1.292117
9165.000000;1.292862
9164.000000;1.293919
9163.000000;1.294921
9162.000000;1.295243
9161.000000;1.294445
9160.000000;1.292793
9159.000000;1.291092
9158.000000;1.289899
9157.000000;1.289188
9156.000000;1.288856
9155.000000;1.289130
9154.000000;1.290045
9153.000000;1.290821
9152.000000;1.290309
9151.000000;1.288224
9150.000000;1.285611
9149.000000;1.283911
9148.000000;1.283763
9147.000000;1.284680
9146.000000;1.285659
9145.000000;1.286014
9144.000000;1.285805
9143.000000;1.285597
9142.000000;1.285811
9141.000000;1.286278
9140.000000;1.286462
9139.000000;1.286058
9138.000000;1.285243
9137.000000;1.284346
9136.000000;1.283509
9135.000000;1.282795
9134.000000;1.282440
9133.000000;1.282720
9132.000000;1.283504
9131.000000;1.284160
9130.000000;1.284091
9129.000000;1.283281
9128.000000;1.282163
9127.000000;1.281106
9126.000000;1.280250
9125.000000;1.279754
9124.000000;1.279799
9123.000000;1.280290
9122.000000;1.280830
9121.000000;1.281186
9120.000000;1.281573
9119.000000;1.282305
9118.000000;1.283314
9117.000000;1.284157
9116.000000;1.284359
9115.000000;1.283664
9114.000000;1.282185
9113.000000;1.280519
9112.000000;1.279464
9111.000000;1.279324
9110.000000;1.279615
9109.000000;1.279709
9108.000000;1.279582
9107.000000;1.279572
9106.000000;1.279616
9105.000000;1.279211
9104.000000;1.278144
9103.000000;1.276816
9102.000000;1.275738
9101.000000;1.275077
9100.000000;1.274841
9099.000000;1.275089
9098.000000;1.275680
9097.000000;1.276069
9096.000000;1.275683
9095.000000;1.274490
9094.000000;1.273024
9093.000000;1.271887
9092.000000;1.271300
9091.000000;1.271066
9090.000000;1.270924
9089.000000;1.270906
9088.000000;1.271250
9087.000000;1.271891
9086.000000;1.272267
9085.000000;1.271920
9084.000000;1.271180
9083.000000;1.270850
9082.000000;1.271241
9081.000000;1.271906
9080.000000;1.272332
9079.000000;1.272471
9078.000000;1.272502
9077.000000;1.272453
9076.000000;1.272297
9075.000000;1.272063
9074.000000;1.271661
9073.000000;1.270883
9072.000000;1.269785
9071.000000;1.268875
9070.000000;1.268667
9069.000000;1.269222
9068.000000;1.270177
9067.000000;1.270911
9066.000000;1.270680
9065.000000;1.269176
9064.000000;1.267108
9063.000000;1.265677
9062.000000;1.265224
9061.000000;1.264902
9060.000000;1.263992
9059.000000;1.263010
9058.000000;1.262999
9057.000000;1.264092
9056.000000;1.265435
9055.000000;1.266303
9054.000000;1.266656
9053.000000;1.266613
