Criado como novo conjunto de dados;"1909daniel.spp","-4283265.0 Secs"
cm-1;Abs
10000.000000;1.114608
9999.000000;1.112024
9998.000000;1.109659
9997.000000;1.108177
9996.000000;1.107682
9995.000000;1.107769
9994.000000;1.108099
9993.000000;1.108716
9992.000000;1.109554
9991.000000;1.109967
9990.000000;1.109362
9989.000000;1.108107
9988.000000;1.107108
9987.000000;1.106588
9986.000000;1.105926
9985.000000;1.104700
9984.000000;1.103197
9983.000000;1.101815
9982.000000;1.100613
9981.000000;1.099606
9980.000000;1.098884
9979.000000;1.098290
9978.000000;1.097524
9977.000000;1.096703
9976.000000;1.096233
9975.000000;1.096037
9974.000000;1.095534
9973.000000;1.094571
9972.000000;1.093719
9971.000000;1.093367
9970.000000;1.093109
9969.000000;1.092350
9968.000000;1.091030
9967.000000;1.089486
9966.000000;1.088063
9965.000000;1.087085
9964.000000;1.086743
9963.000000;1.086769
9962.000000;1.086673
9961.000000;1.086462
9960.000000;1.086592
9959.000000;1.087037
9958.000000;1.087040
9957.000000;1.086091
9956.000000;1.084583
9955.000000;1.083183
9954.000000;1.082083
9953.000000;1.081205
9952.000000;1.080569
9951.000000;1.080092
9950.000000;1.079499
9949.000000;1.078771
9948.000000;1.078203
9947.000000;1.077726
9946.000000;1.076776
9945.000000;1.075204
9944.000000;1.073725
9943.000000;1.072952
9942.000000;1.072523
9941.000000;1.071725
9940.000000;1.070532
9939.000000;1.069445
9938.000000;1.068697
9937.000000;1.068217
9936.000000;1.068042
9935.000000;1.068170
9934.000000;1.068231
9933.000000;1.067908
9932.000000;1.067527
9931.000000;1.067641
9930.000000;1.068091
9929.000000;1.067980
9928.000000;1.066661
9927.000000;1.064410
9926.000000;1.062117
9925.000000;1.060562
9924.000000;1.059926
9923.000000;1.059719
9922.000000;1.059214
9921.000000;1.058122
9920.000000;1.056768
9919.000000;1.055594
9918.000000;1.054763
9917.000000;1.054295
9916.000000;1.054199
9915.000000;1.054249
9914.000000;1.053949
9913.000000;1.053008
9912.000000;1.051647
9911.000000;1.050257
9910.000000;1.049046
9909.000000;1.048159
9908.000000;1.047771
9907.000000;1.047774
9906.000000;1.047677
9905.000000;1.047109
9904.000000;1.046182
9903.000000;1.045170
9902.000000;1.044142
9901.000000;1.043134
9900.000000;1.042296
9899.000000;1.041597
9898.000000;1.040716
9897.000000;1.039542
9896.000000;1.038488
9895.000000;1.037975
9894.000000;1.037917
9893.000000;1.037958
9892.000000;1.037887
9891.000000;1.037533
9890.000000;1.036645
9889.000000;1.035308
9888.000000;1.034161
9887.000000;1.033755
9886.000000;1.033895
9885.000000;1.033986
9884.000000;1.033777
9883.000000;1.033413
9882.000000;1.032991
9881.000000;1.032516
9880.000000;1.032098
9879.000000;1.031720
9878.000000;1.031002
9877.000000;1.029656
9876.000000;1.028086
9875.000000;1.027009
9874.000000;1.026498
9873.000000;1.025864
9872.000000;1.024577
9871.000000;1.022928
9870.000000;1.021639
9869.000000;1.021075
9868.000000;1.020974
9867.000000;1.020810
9866.000000;1.020279
9865.000000;1.019472
9864.000000;1.018635
9863.000000;1.017875
9862.000000;1.017221
9861.000000;1.016832
9860.000000;1.016844
9859.000000;1.016958
9858.000000;1.016570
9857.000000;1.015505
9856.000000;1.014321
9855.000000;1.013604
9854.000000;1.013238
9853.000000;1.012643
9852.000000;1.011543
9851.000000;1.010193
9850.000000;1.008979
9849.000000;1.008094
9848.000000;1.007513
9847.000000;1.007034
9846.000000;1.006395
9845.000000;1.005548
9844.000000;1.004744
9843.000000;1.004205
9842.000000;1.003788
9841.000000;1.003178
9840.000000;1.002305
9839.000000;1.001405
9838.000000;1.000723
9837.000000;1.000291
9836.000000;0.999955
9835.000000;0.999500
9834.000000;0.998792
9833.000000;0.997887
9832.000000;0.996977
9831.000000;0.996218
9830.000000;0.995644
9829.000000;0.995168
9828.000000;0.994552
9827.000000;0.993494
9826.000000;0.991996
9825.000000;0.990579
9824.000000;0.989861
9823.000000;0.989903
9822.000000;0.990253
9821.000000;0.990557
9820.000000;0.990766
9819.000000;0.990718
9818.000000;0.990023
9817.000000;0.988527
9816.000000;0.986560
9815.000000;0.984555
9814.000000;0.982776
9813.000000;0.981515
9812.000000;0.981080
9811.000000;0.981320
9810.000000;0.981532
9809.000000;0.981110
9808.000000;0.980112
9807.000000;0.978989
9806.000000;0.978051
9805.000000;0.977419
9804.000000;0.977131
9803.000000;0.976979
9802.000000;0.976503
9801.000000;0.975480
9800.000000;0.974251
9799.000000;0.973302
9798.000000;0.972713
9797.000000;0.972207
9796.000000;0.971562
9795.000000;0.970731
9794.000000;0.969752
9793.000000;0.968808
9792.000000;0.968209
9791.000000;0.968080
9790.000000;0.968140
9789.000000;0.967966
9788.000000;0.967351
9787.000000;0.966372
9786.000000;0.965289
9785.000000;0.964479
9784.000000;0.964196
9783.000000;0.964236
9782.000000;0.964045
9781.000000;0.963314
9780.000000;0.962257
9779.000000;0.961191
9778.000000;0.960135
9777.000000;0.958972
9776.000000;0.957737
9775.000000;0.956567
9774.000000;0.955606
9773.000000;0.955057
9772.000000;0.955022
9771.000000;0.955140
9770.000000;0.954767
9769.000000;0.953725
9768.000000;0.952537
9767.000000;0.951682
9766.000000;0.951005
9765.000000;0.950149
9764.000000;0.949201
9763.000000;0.948534
9762.000000;0.948266
9761.000000;0.948262
9760.000000;0.948444
9759.000000;0.948702
9758.000000;0.948690
9757.000000;0.948111
9756.000000;0.947120
9755.000000;0.946152
9754.000000;0.945427
9753.000000;0.944860
9752.000000;0.944287
9751.000000;0.943524
9750.000000;0.942361
9749.000000;0.940838
9748.000000;0.939393
9747.000000;0.938447
9746.000000;0.937908
9745.000000;0.937312
9744.000000;0.936347
9743.000000;0.935035
9742.000000;0.933583
9741.000000;0.932339
9740.000000;0.931715
9739.000000;0.931806
9738.000000;0.932131
9737.000000;0.932071
9736.000000;0.931540
9735.000000;0.930958
9734.000000;0.930578
9733.000000;0.930150
9732.000000;0.929317
9731.000000;0.928094
9730.000000;0.926835
9729.000000;0.925877
9728.000000;0.925283
9727.000000;0.924854
9726.000000;0.924345
9725.000000;0.923689
9724.000000;0.923022
9723.000000;0.922509
9722.000000;0.922185
9721.000000;0.921977
9720.000000;0.921774
9719.000000;0.921469
9718.000000;0.921003
9717.000000;0.920384
9716.000000;0.919601
9715.000000;0.918589
9714.000000;0.917388
9713.000000;0.916232
9712.000000;0.915330
9711.000000;0.914661
9710.000000;0.914164
9709.000000;0.913950
9708.000000;0.914019
9707.000000;0.913906
9706.000000;0.913034
9705.000000;0.911428
9704.000000;0.909668
9703.000000;0.908173
9702.000000;0.906978
9701.000000;0.906224
9700.000000;0.906246
9699.000000;0.906948
9698.000000;0.907568
9697.000000;0.907418
9696.000000;0.906547
9695.000000;0.905418
9694.000000;0.904314
9693.000000;0.903356
9692.000000;0.902733
9691.000000;0.902494
9690.000000;0.902308
9689.000000;0.901760
9688.000000;0.900772
9687.000000;0.899571
9686.000000;0.898444
9685.000000;0.897688
9684.000000;0.897452
9683.000000;0.897374
9682.000000;0.896704
9681.000000;0.895157
9680.000000;0.893406
9679.000000;0.892352
9678.000000;0.892088
9677.000000;0.891903
9676.000000;0.891190
9675.000000;0.890044
9674.000000;0.889053
9673.000000;0.888724
9672.000000;0.889030
9671.000000;0.889339
9670.000000;0.888903
9669.000000;0.887586
9668.000000;0.885988
9667.000000;0.884735
9666.000000;0.883899
9665.000000;0.883234
9664.000000;0.882660
9663.000000;0.882249
9662.000000;0.881961
9661.000000;0.881684
9660.000000;0.881387
9659.000000;0.881033
9658.000000;0.880507
9657.000000;0.879805
9656.000000;0.879064
9655.000000;0.878224
9654.000000;0.876962
9653.000000;0.875228
9652.000000;0.873561
9651.000000;0.872552
9650.000000;0.872178
9649.000000;0.871968
9648.000000;0.871591
9647.000000;0.871015
9646.000000;0.870302
9645.000000;0.869617
9644.000000;0.869268
9643.000000;0.869375
9642.000000;0.869584
9641.000000;0.869433
9640.000000;0.868901
9639.000000;0.868324
9638.000000;0.867870
9637.000000;0.867419
9636.000000;0.866849
9635.000000;0.866132
9634.000000;0.865227
9633.000000;0.864172
9632.000000;0.863210
9631.000000;0.862508
9630.000000;0.861870
9629.000000;0.861001
9628.000000;0.860005
9627.000000;0.859284
9626.000000;0.858998
9625.000000;0.858888
9624.000000;0.858608
9623.000000;0.857967
9622.000000;0.856901
9621.000000;0.855532
9620.000000;0.854226
9619.000000;0.853332
9618.000000;0.852820
9617.000000;0.852389
9616.000000;0.851882
9615.000000;0.851383
9614.000000;0.850961
9613.000000;0.850588
9612.000000;0.850298
9611.000000;0.850157
9610.000000;0.850030
9609.000000;0.849594
9608.000000;0.848684
9607.000000;0.847493
9606.000000;0.846403
9605.000000;0.845712
9604.000000;0.845473
9603.000000;0.845414
9602.000000;0.845084
9601.000000;0.844270
9600.000000;0.843246
9599.000000;0.842462
9598.000000;0.842027
9597.000000;0.841655
9596.000000;0.841079
9595.000000;0.840311
9594.000000;0.839515
9593.000000;0.838796
9592.000000;0.838139
9591.000000;0.837422
9590.000000;0.836507
9589.000000;0.835439
9588.000000;0.834525
9587.000000;0.834055
9586.000000;0.833965
9585.000000;0.833892
9584.000000;0.833564
9583.000000;0.833005
9582.000000;0.832413
9581.000000;0.831954
9580.000000;0.831652
9579.000000;0.831298
9578.000000;0.830535
9577.000000;0.829230
9576.000000;0.827734
9575.000000;0.826559
9574.000000;0.825790
9573.000000;0.825019
9572.000000;0.823936
9571.000000;0.822776
9570.000000;0.822026
9569.000000;0.821821
9568.000000;0.821787
9567.000000;0.821477
9566.000000;0.820835
9565.000000;0.820152
9564.000000;0.819650
9563.000000;0.819248
9562.000000;0.818754
9561.000000;0.818159
9560.000000;0.817594
9559.000000;0.817076
9558.000000;0.816493
9557.000000;0.815857
9556.000000;0.815345
9555.000000;0.814993
9554.000000;0.814555
9553.000000;0.813842
9552.000000;0.813044
9551.000000;0.812510
9550.000000;0.812283
9549.000000;0.812044
9548.000000;0.811521
9547.000000;0.810771
9546.000000;0.810020
9545.000000;0.809361
9544.000000;0.808699
9543.000000;0.807936
9542.000000;0.807109
9541.000000;0.806329
9540.000000;0.805597
9539.000000;0.804812
9538.000000;0.803999
9537.000000;0.803412
9536.000000;0.803231
9535.000000;0.803226
9534.000000;0.802971
9533.000000;0.802407
9532.000000;0.801922
9531.000000;0.801735
9530.000000;0.801436
9529.000000;0.800373
9528.000000;0.798391
9527.000000;0.796058
9526.000000;0.794217
9525.000000;0.793406
9524.000000;0.793537
9523.000000;0.793956
9522.000000;0.793931
9521.000000;0.793287
9520.000000;0.792514
9519.000000;0.792156
9518.000000;0.792203
9517.000000;0.792221
9516.000000;0.791955
9515.000000;0.791553
9514.000000;0.791244
9513.000000;0.791025
9512.000000;0.790741
9511.000000;0.790299
9510.000000;0.789709
9509.000000;0.789012
9508.000000;0.788226
9507.000000;0.787355
9506.000000;0.786410
9505.000000;0.785432
9504.000000;0.784494
9503.000000;0.783697
9502.000000;0.783179
9501.000000;0.783048
9500.000000;0.783220
9499.000000;0.783334
9498.000000;0.782997
9497.000000;0.782171
9496.000000;0.781222
9495.000000;0.780500
9494.000000;0.779996
9493.000000;0.779483
9492.000000;0.778856
9491.000000;0.778174
9490.000000;0.777450
9489.000000;0.776604
9488.000000;0.775628
9487.000000;0.774675
9486.000000;0.773926
9485.000000;0.773453
9484.000000;0.773206
9483.000000;0.773056
9482.000000;0.772816
9481.000000;0.772305
9480.000000;0.771507
9479.000000;0.770630
9478.000000;0.769933
9477.000000;0.769424
9476.000000;0.768804
9475.000000;0.767828
9474.000000;0.766676
9473.000000;0.765824
9472.000000;0.765508
9471.000000;0.765457
9470.000000;0.765251
9469.000000;0.764772
9468.000000;0.764180
9467.000000;0.763584
9466.000000;0.762964
9465.000000;0.762356
9464.000000;0.761826
9463.000000;0.761272
9462.000000;0.760486
9461.000000;0.759491
9460.000000;0.758626
9459.000000;0.758173
9458.000000;0.758074
9457.000000;0.758096
9456.000000;0.758109
9455.000000;0.758058
9454.000000;0.757752
9453.000000;0.756925
9452.000000;0.755577
9451.000000;0.754166
9450.000000;0.753315
9449.000000;0.753250
9448.000000;0.753539
9447.000000;0.753522
9446.000000;0.753013
9445.000000;0.752447
9444.000000;0.752269
9443.000000;0.752369
9442.000000;0.752280
9441.000000;0.751732
9440.000000;0.750800
9439.000000;0.749654
9438.000000;0.748488
9437.000000;0.747650
9436.000000;0.747446
9435.000000;0.747721
9434.000000;0.747888
9433.000000;0.747483
9432.000000;0.746512
9431.000000;0.745232
9430.000000;0.743853
9429.000000;0.742556
9428.000000;0.741544
9427.000000;0.740901
9426.000000;0.740540
9425.000000;0.740406
9424.000000;0.740551
9423.000000;0.740875
9422.000000;0.740993
9421.000000;0.740590
9420.000000;0.739810
9419.000000;0.739100
9418.000000;0.738692
9417.000000;0.738421
9416.000000;0.738034
9415.000000;0.737498
9414.000000;0.736943
9413.000000;0.736390
9412.000000;0.735664
9411.000000;0.734625
9410.000000;0.733431
9409.000000;0.732491
9408.000000;0.732062
9407.000000;0.731988
9406.000000;0.731880
9405.000000;0.731523
9404.000000;0.731001
9403.000000;0.730509
9402.000000;0.730167
9401.000000;0.729972
9400.000000;0.729778
9399.000000;0.729347
9398.000000;0.728572
9397.000000;0.727665
9396.000000;0.726976
9395.000000;0.726618
9394.000000;0.726375
9393.000000;0.725969
9392.000000;0.725293
9391.000000;0.724431
9390.000000;0.723584
9389.000000;0.722988
9388.000000;0.722748
9387.000000;0.722714
9386.000000;0.722666
9385.000000;0.722575
9384.000000;0.722548
9383.000000;0.722510
9382.000000;0.722185
9381.000000;0.721421
9380.000000;0.720351
9379.000000;0.719192
9378.000000;0.718067
9377.000000;0.717106
9376.000000;0.716520
9375.000000;0.716395
9374.000000;0.716530
9373.000000;0.716584
9372.000000;0.716356
9371.000000;0.715838
9370.000000;0.715057
9369.000000;0.713995
9368.000000;0.712691
9367.000000;0.711389
9366.000000;0.710504
9365.000000;0.710294
9364.000000;0.710489
9363.000000;0.710397
9362.000000;0.709573
9361.000000;0.708342
9360.000000;0.707477
9359.000000;0.707377
9358.000000;0.707738
9357.000000;0.707969
9356.000000;0.707750
9355.000000;0.707140
9354.000000;0.706345
9353.000000;0.705511
9352.000000;0.704666
9351.000000;0.703792
9350.000000;0.702984
9349.000000;0.702475
9348.000000;0.702384
9347.000000;0.702451
9346.000000;0.702225
9345.000000;0.701545
9344.000000;0.700710
9343.000000;0.700123
9342.000000;0.699893
9341.000000;0.699826
9340.000000;0.699691
9339.000000;0.699416
9338.000000;0.699112
9337.000000;0.698937
9336.000000;0.698916
9335.000000;0.698861
9334.000000;0.698509
9333.000000;0.697733
9332.000000;0.696629
9331.000000;0.695472
9330.000000;0.694613
9329.000000;0.694270
9328.000000;0.694308
9327.000000;0.694324
9326.000000;0.694045
9325.000000;0.693545
9324.000000;0.692976
9323.000000;0.692303
9322.000000;0.691500
9321.000000;0.690828
9320.000000;0.690612
9319.000000;0.690756
9318.000000;0.690768
9317.000000;0.690326
9316.000000;0.689602
9315.000000;0.688987
9314.000000;0.688652
9313.000000;0.688443
9312.000000;0.688104
9311.000000;0.687557
9310.000000;0.686992
9309.000000;0.686644
9308.000000;0.686423
9307.000000;0.685934
9306.000000;0.684961
9305.000000;0.683790
9304.000000;0.682867
9303.000000;0.682278
9302.000000;0.681812
9301.000000;0.681374
9300.000000;0.681044
9299.000000;0.680783
9298.000000;0.680401
9297.000000;0.679833
9296.000000;0.679219
9295.000000;0.678690
9294.000000;0.678292
9293.000000;0.678101
9292.000000;0.678181
9291.000000;0.678367
9290.000000;0.678292
9289.000000;0.677693
9288.000000;0.676612
9287.000000;0.675352
9286.000000;0.674381
9285.000000;0.674133
9284.000000;0.674600
9283.000000;0.675144
9282.000000;0.675003
9281.000000;0.674064
9280.000000;0.672944
9279.000000;0.672304
9278.000000;0.672259
9277.000000;0.672461
9276.000000;0.672520
9275.000000;0.672290
9274.000000;0.671917
9273.000000;0.671649
9272.000000;0.671522
9271.000000;0.671284
9270.000000;0.670743
9269.000000;0.670072
9268.000000;0.669546
9267.000000;0.669099
9266.000000;0.668466
9265.000000;0.667708
9264.000000;0.667247
9263.000000;0.667328
9262.000000;0.667730
9261.000000;0.668049
9260.000000;0.668029
9259.000000;0.667585
9258.000000;0.666774
9257.000000;0.665830
9256.000000;0.665016
9255.000000;0.664379
9254.000000;0.663822
9253.000000;0.663362
9252.000000;0.663112
9251.000000;0.663003
9250.000000;0.662836
9249.000000;0.662605
9248.000000;0.662471
9247.000000;0.662374
9246.000000;0.661999
9245.000000;0.661266
9244.000000;0.660567
9243.000000;0.660334
9242.000000;0.660524
9241.000000;0.660670
9240.000000;0.660343
9239.000000;0.659502
9238.000000;0.658521
9237.000000;0.657888
9236.000000;0.657724
9235.000000;0.657613
9234.000000;0.657085
9233.000000;0.656181
9232.000000;0.655311
9231.000000;0.654656
9230.000000;0.654051
9229.000000;0.653457
9228.000000;0.653094
9227.000000;0.652972
9226.000000;0.652690
9225.000000;0.651942
9224.000000;0.650984
9223.000000;0.650338
9222.000000;0.650240
9221.000000;0.650556
9220.000000;0.651024
9219.000000;0.651374
9218.000000;0.651361
9217.000000;0.650939
9216.000000;0.650337
9215.000000;0.649827
9214.000000;0.649482
9213.000000;0.649250
9212.000000;0.649109
9211.000000;0.649027
9210.000000;0.648875
9209.000000;0.648532
9208.000000;0.648004
9207.000000;0.647376
9206.000000;0.646740
9205.000000;0.646229
9204.000000;0.645974
9203.000000;0.645897
9202.000000;0.645684
9201.000000;0.645136
9200.000000;0.644494
9199.000000;0.644236
9198.000000;0.644542
9197.000000;0.645024
9196.000000;0.645019
9195.000000;0.644157
9194.000000;0.642685
9193.000000;0.641274
9192.000000;0.640512
9191.000000;0.640535
9190.000000;0.641052
9189.000000;0.641620
9188.000000;0.641846
9187.000000;0.641528
9186.000000;0.640746
9185.000000;0.639794
9184.000000;0.638914
9183.000000;0.638142
9182.000000;0.637464
9181.000000;0.636976
9180.000000;0.636765
9179.000000;0.636738
9178.000000;0.636739
9177.000000;0.636709
9176.000000;0.636613
9175.000000;0.636342
9174.000000;0.635905
9173.000000;0.635596
9172.000000;0.635717
9171.000000;0.636206
9170.000000;0.636716
9169.000000;0.636961
9168.000000;0.636794
9167.000000;0.636129
9166.000000;0.635088
9165.000000;0.634122
9164.000000;0.633606
9163.000000;0.633361
9162.000000;0.632890
9161.000000;0.632076
9160.000000;0.631323
9159.000000;0.630978
9158.000000;0.630932
9157.000000;0.630837
9156.000000;0.630432
9155.000000;0.629633
9154.000000;0.628599
9153.000000;0.627766
9152.000000;0.627519
9151.000000;0.627746
9150.000000;0.627952
9149.000000;0.627820
9148.000000;0.627438
9147.000000;0.626982
9146.000000;0.626510
9145.000000;0.626114
9144.000000;0.625930
9143.000000;0.625872
9142.000000;0.625667
9141.000000;0.625271
9140.000000;0.624956
9139.000000;0.624900
9138.000000;0.624987
9137.000000;0.625113
9136.000000;0.625345
9135.000000;0.625588
9134.000000;0.625394
9133.000000;0.624452
9132.000000;0.623070
9131.000000;0.621940
9130.000000;0.621484
9129.000000;0.621580
9128.000000;0.621774
9127.000000;0.621627
9126.000000;0.621026
9125.000000;0.620301
9124.000000;0.619935
9123.000000;0.619996
9122.000000;0.620013
9121.000000;0.619574
9120.000000;0.618903
9119.000000;0.618644
9118.000000;0.619132
9117.000000;0.620014
9116.000000;0.620589
9115.000000;0.620429
9114.000000;0.619694
9113.000000;0.618921
9112.000000;0.618513
9111.000000;0.618412
9110.000000;0.618270
9109.000000;0.617876
9108.000000;0.617340
9107.000000;0.616891
9106.000000;0.616640
9105.000000;0.616519
9104.000000;0.616322
9103.000000;0.615848
9102.000000;0.615150
9101.000000;0.614606
9100.000000;0.614573
9099.000000;0.614967
9098.000000;0.615342
9097.000000;0.615350
9096.000000;0.614949
9095.000000;0.614226
9094.000000;0.613293
9093.000000;0.612386
9092.000000;0.611780
9091.000000;0.611501
9090.000000;0.611282
9089.000000;0.610888
9088.000000;0.610333
9087.000000;0.609752
9086.000000;0.609251
9085.000000;0.608928
9084.000000;0.608854
9083.000000;0.608967
9082.000000;0.609149
9081.000000;0.609405
9080.000000;0.609756
9079.000000;0.609958
9078.000000;0.609627
9077.000000;0.608758
9076.000000;0.607858
9075.000000;0.607390
9074.000000;0.607280
9073.000000;0.607138
9072.000000;0.606808
9071.000000;0.606491
9070.000000;0.606426
9069.000000;0.606629
9068.000000;0.606923
9067.000000;0.607104
9066.000000;0.607095
9065.000000;0.606939
9064.000000;0.606667
9063.000000;0.606194
9062.000000;0.605472
9061.000000;0.604665
9060.000000;0.604025
9059.000000;0.603614
9058.000000;0.603303
9057.000000;0.603031
9056.000000;0.602869
9055.000000;0.602810
9054.000000;0.602713
9053.000000;0.602518
