Criado como novo conjunto de dados;"1909daniel.spp","-4277504.4 Secs"
cm-1;Abs
10000.000000;1.302539
9999.000000;1.302579
9998.000000;1.302628
9997.000000;1.302659
9996.000000;1.302772
9995.000000;1.302989
9994.000000;1.303248
9993.000000;1.303217
9992.000000;1.302355
9991.000000;1.300657
9990.000000;1.298913
9989.000000;1.297995
9988.000000;1.297901
9987.000000;1.297773
9986.000000;1.296853
9985.000000;1.295226
9984.000000;1.293552
9983.000000;1.292325
9982.000000;1.291617
9981.000000;1.291249
9980.000000;1.290885
9979.000000;1.290177
9978.000000;1.289153
9977.000000;1.288357
9976.000000;1.288334
9975.000000;1.288939
9974.000000;1.289441
9973.000000;1.289395
9972.000000;1.289020
9971.000000;1.288581
9970.000000;1.287837
9969.000000;1.286409
9968.000000;1.284468
9967.000000;1.282662
9966.000000;1.281393
9965.000000;1.280496
9964.000000;1.279680
9963.000000;1.278968
9962.000000;1.278558
9961.000000;1.278484
9960.000000;1.278568
9959.000000;1.278595
9958.000000;1.278405
9957.000000;1.277914
9956.000000;1.277160
9955.000000;1.276340
9954.000000;1.275693
9953.000000;1.275249
9952.000000;1.274655
9951.000000;1.273376
9950.000000;1.271250
9949.000000;1.268826
9948.000000;1.266938
9947.000000;1.265893
9946.000000;1.265218
9945.000000;1.264311
9944.000000;1.263272
9943.000000;1.262908
9942.000000;1.263906
9941.000000;1.266074
9940.000000;1.268286
9939.000000;1.269158
9938.000000;1.268007
9937.000000;1.265371
9936.000000;1.262534
9935.000000;1.260444
9934.000000;1.259158
9933.000000;1.258330
9932.000000;1.257941
9931.000000;1.258225
9930.000000;1.259002
9929.000000;1.259522
9928.000000;1.259153
9927.000000;1.258045
9926.000000;1.256926
9925.000000;1.256306
9924.000000;1.255966
9923.000000;1.255235
9922.000000;1.253770
9921.000000;1.252051
9920.000000;1.250934
9919.000000;1.250671
9918.000000;1.250571
9917.000000;1.249868
9916.000000;1.248713
9915.000000;1.247880
9914.000000;1.247570
9913.000000;1.247034
9912.000000;1.245517
9911.000000;1.243237
9910.000000;1.241138
9909.000000;1.239886
9908.000000;1.239446
9907.000000;1.239500
9906.000000;1.239845
9905.000000;1.240368
9904.000000;1.240843
9903.000000;1.240893
9902.000000;1.240183
9901.000000;1.238731
9900.000000;1.237058
9899.000000;1.235879
9898.000000;1.235493
9897.000000;1.235539
9896.000000;1.235466
9895.000000;1.235156
9894.000000;1.234873
9893.000000;1.234684
9892.000000;1.234228
9891.000000;1.233157
9890.000000;1.231609
9889.000000;1.230046
9888.000000;1.228728
9887.000000;1.227526
9886.000000;1.226273
9885.000000;1.225110
9884.000000;1.224403
9883.000000;1.224372
9882.000000;1.224822
9881.000000;1.225214
9880.000000;1.225028
9879.000000;1.224169
9878.000000;1.223057
9877.000000;1.222238
9876.000000;1.221843
9875.000000;1.221505
9874.000000;1.220852
9873.000000;1.219925
9872.000000;1.218943
9871.000000;1.217831
9870.000000;1.216315
9869.000000;1.214497
9868.000000;1.212998
9867.000000;1.212340
9866.000000;1.212402
9865.000000;1.212654
9864.000000;1.212736
9863.000000;1.212566
9862.000000;1.212058
9861.000000;1.211097
9860.000000;1.209800
9859.000000;1.208535
9858.000000;1.207585
9857.000000;1.206910
9856.000000;1.206259
9855.000000;1.205437
9854.000000;1.204451
9853.000000;1.203462
9852.000000;1.202600
9851.000000;1.201768
9850.000000;1.200686
9849.000000;1.199213
9848.000000;1.197533
9847.000000;1.195961
9846.000000;1.194723
9845.000000;1.194019
9844.000000;1.194054
9843.000000;1.194753
9842.000000;1.195620
9841.000000;1.196183
9840.000000;1.196445
9839.000000;1.196531
9838.000000;1.196132
9837.000000;1.194811
9836.000000;1.192837
9835.000000;1.191132
9834.000000;1.190246
9833.000000;1.189841
9832.000000;1.189365
9831.000000;1.188822
9830.000000;1.188566
9829.000000;1.188699
9828.000000;1.188965
9827.000000;1.188954
9826.000000;1.188178
9825.000000;1.186401
9824.000000;1.184315
9823.000000;1.183419
9822.000000;1.184539
9821.000000;1.186553
9820.000000;1.187212
9819.000000;1.185429
9818.000000;1.182295
9817.000000;1.179697
9816.000000;1.178500
9815.000000;1.178302
9814.000000;1.178372
9813.000000;1.178275
9812.000000;1.177805
9811.000000;1.176865
9810.000000;1.175552
9809.000000;1.174165
9808.000000;1.173017
9807.000000;1.172174
9806.000000;1.171337
9805.000000;1.170099
9804.000000;1.168484
9803.000000;1.167176
9802.000000;1.167012
9801.000000;1.168046
9800.000000;1.169312
9799.000000;1.169750
9798.000000;1.169237
9797.000000;1.168441
9796.000000;1.167837
9795.000000;1.167317
9794.000000;1.166696
9793.000000;1.166047
9792.000000;1.165350
9791.000000;1.164304
9790.000000;1.162858
9789.000000;1.161591
9788.000000;1.161082
9787.000000;1.161034
9786.000000;1.160543
9785.000000;1.159290
9784.000000;1.157952
9783.000000;1.157239
9782.000000;1.156942
9781.000000;1.156261
9780.000000;1.154819
9779.000000;1.153020
9778.000000;1.151560
9777.000000;1.150901
9776.000000;1.151121
9775.000000;1.151931
9774.000000;1.152761
9773.000000;1.153068
9772.000000;1.152645
9771.000000;1.151594
9770.000000;1.150091
9769.000000;1.148342
9768.000000;1.146643
9767.000000;1.145236
9766.000000;1.144105
9765.000000;1.143147
9764.000000;1.142516
9763.000000;1.142565
9762.000000;1.143360
9761.000000;1.144455
9760.000000;1.145207
9759.000000;1.145200
9758.000000;1.144368
9757.000000;1.142935
9756.000000;1.141336
9755.000000;1.140051
9754.000000;1.139392
9753.000000;1.139414
9752.000000;1.139888
9751.000000;1.140208
9750.000000;1.139548
9749.000000;1.137569
9748.000000;1.135000
9747.000000;1.133114
9746.000000;1.132481
9745.000000;1.132539
9744.000000;1.132476
9743.000000;1.132099
9742.000000;1.131606
9741.000000;1.130933
9740.000000;1.129908
9739.000000;1.128812
9738.000000;1.128174
9737.000000;1.127953
9736.000000;1.127410
9735.000000;1.126047
9734.000000;1.124327
9733.000000;1.123181
9732.000000;1.122982
9731.000000;1.123276
9730.000000;1.123418
9729.000000;1.123228
9728.000000;1.122954
9727.000000;1.122766
9726.000000;1.122471
9725.000000;1.121761
9724.000000;1.120600
9723.000000;1.119252
9722.000000;1.117971
9721.000000;1.116788
9720.000000;1.115634
9719.000000;1.114531
9718.000000;1.113556
9717.000000;1.112751
9716.000000;1.112164
9715.000000;1.111885
9714.000000;1.111930
9713.000000;1.112153
9712.000000;1.112366
9711.000000;1.112477
9710.000000;1.112403
9709.000000;1.111948
9708.000000;1.110949
9707.000000;1.109542
9706.000000;1.108089
9705.000000;1.106826
9704.000000;1.105684
9703.000000;1.104443
9702.000000;1.102981
9701.000000;1.101408
9700.000000;1.100070
9699.000000;1.099368
9698.000000;1.099410
9697.000000;1.099859
9696.000000;1.100233
9695.000000;1.100325
9694.000000;1.100194
9693.000000;1.099883
9692.000000;1.099414
9691.000000;1.099018
9690.000000;1.098961
9689.000000;1.098996
9688.000000;1.098325
9687.000000;1.096408
9686.000000;1.093662
9685.000000;1.091108
9684.000000;1.089440
9683.000000;1.088645
9682.000000;1.088346
9681.000000;1.088207
9680.000000;1.088003
9679.000000;1.087626
9678.000000;1.087186
9677.000000;1.086908
9676.000000;1.086844
9675.000000;1.086777
9674.000000;1.086432
9673.000000;1.085694
9672.000000;1.084617
9671.000000;1.083395
9670.000000;1.082366
9669.000000;1.081803
9668.000000;1.081573
9667.000000;1.081213
9666.000000;1.080519
9665.000000;1.079912
9664.000000;1.079946
9663.000000;1.080517
9662.000000;1.080830
9661.000000;1.080243
9660.000000;1.078931
9659.000000;1.077567
9658.000000;1.076535
9657.000000;1.075665
9656.000000;1.074653
9655.000000;1.073517
9654.000000;1.072520
9653.000000;1.071761
9652.000000;1.071025
9651.000000;1.070057
9650.000000;1.068908
9649.000000;1.067883
9648.000000;1.067119
9647.000000;1.066401
9646.000000;1.065536
9645.000000;1.064716
9644.000000;1.064243
9643.000000;1.064001
9642.000000;1.063565
9641.000000;1.062896
9640.000000;1.062526
9639.000000;1.062820
9638.000000;1.063342
9637.000000;1.063327
9636.000000;1.062623
9635.000000;1.061789
9634.000000;1.061278
9633.000000;1.060899
9632.000000;1.060192
9631.000000;1.059006
9630.000000;1.057590
9629.000000;1.056329
9628.000000;1.055604
9627.000000;1.055658
9626.000000;1.056274
9625.000000;1.056662
9624.000000;1.056012
9623.000000;1.054296
9622.000000;1.052387
9621.000000;1.051284
9620.000000;1.051277
9619.000000;1.051836
9618.000000;1.052204
9617.000000;1.052003
9616.000000;1.051333
9615.000000;1.050492
9614.000000;1.049716
9613.000000;1.049090
9612.000000;1.048541
9611.000000;1.047869
9610.000000;1.046931
9609.000000;1.045877
9608.000000;1.045084
9607.000000;1.044726
9606.000000;1.044448
9605.000000;1.043661
9604.000000;1.042175
9603.000000;1.040414
9602.000000;1.038963
9601.000000;1.038017
9600.000000;1.037372
9599.000000;1.036828
9598.000000;1.036448
9597.000000;1.036379
9596.000000;1.036536
9595.000000;1.036555
9594.000000;1.036089
9593.000000;1.035119
9592.000000;1.033928
9591.000000;1.032822
9590.000000;1.031945
9589.000000;1.031353
9588.000000;1.031065
9587.000000;1.030944
9586.000000;1.030656
9585.000000;1.029927
9584.000000;1.028843
9583.000000;1.027764
9582.000000;1.026952
9581.000000;1.026400
9580.000000;1.026000
9579.000000;1.025714
9578.000000;1.025537
9577.000000;1.025412
9576.000000;1.025277
9575.000000;1.025118
9574.000000;1.024920
9573.000000;1.024590
9572.000000;1.023964
9571.000000;1.022901
9570.000000;1.021418
9569.000000;1.019818
9568.000000;1.018594
9567.000000;1.018079
9566.000000;1.018165
9565.000000;1.018450
9564.000000;1.018604
9563.000000;1.018516
9562.000000;1.018158
9561.000000;1.017523
9560.000000;1.016709
9559.000000;1.015843
9558.000000;1.014895
9557.000000;1.013779
9556.000000;1.012644
9555.000000;1.011803
9554.000000;1.011256
9553.000000;1.010584
9552.000000;1.009545
9551.000000;1.008513
9550.000000;1.008013
9549.000000;1.007982
9548.000000;1.007833
9547.000000;1.007229
9546.000000;1.006461
9545.000000;1.005994
9544.000000;1.005883
9543.000000;1.005794
9542.000000;1.005450
9541.000000;1.004898
9540.000000;1.004370
9539.000000;1.003971
9538.000000;1.003554
9537.000000;1.002848
9536.000000;1.001735
9535.000000;1.000377
9534.000000;0.999071
9533.000000;0.998009
9532.000000;0.997169
9531.000000;0.996378
9530.000000;0.995459
9529.000000;0.994414
9528.000000;0.993525
9527.000000;0.993164
9526.000000;0.993377
9525.000000;0.993754
9524.000000;0.993826
9523.000000;0.993502
9522.000000;0.992977
9521.000000;0.992363
9520.000000;0.991626
9519.000000;0.990842
9518.000000;0.990249
9517.000000;0.989963
9516.000000;0.989827
9515.000000;0.989623
9514.000000;0.989276
9513.000000;0.988747
9512.000000;0.987884
9511.000000;0.986580
9510.000000;0.985071
9509.000000;0.983896
9508.000000;0.983491
9507.000000;0.983789
9506.000000;0.984209
9505.000000;0.984084
9504.000000;0.983184
9503.000000;0.981884
9502.000000;0.980791
9501.000000;0.980197
9500.000000;0.979937
9499.000000;0.979723
9498.000000;0.979460
9497.000000;0.979178
9496.000000;0.978836
9495.000000;0.978363
9494.000000;0.977870
9493.000000;0.977617
9492.000000;0.977696
9491.000000;0.977800
9490.000000;0.977446
9489.000000;0.976435
9488.000000;0.975077
9487.000000;0.973930
9486.000000;0.973325
9485.000000;0.973147
9484.000000;0.973042
9483.000000;0.972770
9482.000000;0.972325
9481.000000;0.971787
9480.000000;0.971192
9479.000000;0.970550
9478.000000;0.969912
9477.000000;0.969320
9476.000000;0.968728
9475.000000;0.968023
9474.000000;0.967127
9473.000000;0.966039
9472.000000;0.964830
9471.000000;0.963657
9470.000000;0.962767
9469.000000;0.962396
9468.000000;0.962571
9467.000000;0.962995
9466.000000;0.963202
9465.000000;0.962902
9464.000000;0.962187
9463.000000;0.961365
9462.000000;0.960626
9461.000000;0.959963
9460.000000;0.959403
9459.000000;0.959149
9458.000000;0.959346
9457.000000;0.959769
9456.000000;0.959940
9455.000000;0.959591
9454.000000;0.958900
9453.000000;0.958183
9452.000000;0.957487
9451.000000;0.956594
9450.000000;0.955359
9449.000000;0.953975
9448.000000;0.952900
9447.000000;0.952547
9446.000000;0.952953
9445.000000;0.953624
9444.000000;0.953785
9443.000000;0.952961
9442.000000;0.951373
9441.000000;0.949693
9440.000000;0.948432
9439.000000;0.947629
9438.000000;0.947090
9437.000000;0.946712
9436.000000;0.946485
9435.000000;0.946366
9434.000000;0.946303
9433.000000;0.946308
9432.000000;0.946311
9431.000000;0.945987
9430.000000;0.944960
9429.000000;0.943263
9428.000000;0.941459
9427.000000;0.940197
9426.000000;0.939753
9425.000000;0.940033
9424.000000;0.940805
9423.000000;0.941750
9422.000000;0.942401
9421.000000;0.942347
9420.000000;0.941550
9419.000000;0.940320
9418.000000;0.938963
9417.000000;0.937634
9416.000000;0.936519
9415.000000;0.935865
9414.000000;0.935642
9413.000000;0.935402
9412.000000;0.934736
9411.000000;0.933792
9410.000000;0.933066
9409.000000;0.932748
9408.000000;0.932572
9407.000000;0.932335
9406.000000;0.932170
9405.000000;0.932142
9404.000000;0.931909
9403.000000;0.931148
9402.000000;0.930143
9401.000000;0.929525
9400.000000;0.929418
9399.000000;0.929219
9398.000000;0.928391
9397.000000;0.927146
9396.000000;0.926112
9395.000000;0.925551
9394.000000;0.925196
9393.000000;0.924731
9392.000000;0.924103
9391.000000;0.923391
9390.000000;0.922666
9389.000000;0.922072
9388.000000;0.921791
9387.000000;0.921801
9386.000000;0.921860
9385.000000;0.921849
9384.000000;0.921911
9383.000000;0.922101
9382.000000;0.922113
9381.000000;0.921607
9380.000000;0.920672
9379.000000;0.919685
9378.000000;0.918776
9377.000000;0.917788
9376.000000;0.916777
9375.000000;0.916177
9374.000000;0.916238
9373.000000;0.916555
9372.000000;0.916454
9371.000000;0.915769
9370.000000;0.914970
9369.000000;0.914532
9368.000000;0.914448
9367.000000;0.914376
9366.000000;0.914034
9365.000000;0.913331
9364.000000;0.912295
9363.000000;0.911067
9362.000000;0.909919
9361.000000;0.909123
9360.000000;0.908773
9359.000000;0.908776
9358.000000;0.908991
9357.000000;0.909269
9356.000000;0.909349
9355.000000;0.908861
9354.000000;0.907639
9353.000000;0.906026
9352.000000;0.904719
9351.000000;0.904149
9350.000000;0.904050
9349.000000;0.903740
9348.000000;0.902856
9347.000000;0.901686
9346.000000;0.900770
9345.000000;0.900357
9344.000000;0.900351
9343.000000;0.900600
9342.000000;0.900985
9341.000000;0.901303
9340.000000;0.901324
9339.000000;0.901071
9338.000000;0.900835
9337.000000;0.900770
9336.000000;0.900594
9335.000000;0.899875
9334.000000;0.898555
9333.000000;0.897044
9332.000000;0.895813
9331.000000;0.895063
9330.000000;0.894790
9329.000000;0.894986
9328.000000;0.895604
9327.000000;0.896356
9326.000000;0.896708
9325.000000;0.896226
9324.000000;0.895004
9323.000000;0.893721
9322.000000;0.893147
9321.000000;0.893453
9320.000000;0.893964
9319.000000;0.893715
9318.000000;0.892382
9317.000000;0.890633
9316.000000;0.889487
9315.000000;0.889298
9314.000000;0.889461
9313.000000;0.889129
9312.000000;0.888165
9311.000000;0.887226
9310.000000;0.886938
9309.000000;0.887175
9308.000000;0.887279
9307.000000;0.886852
9306.000000;0.886094
9305.000000;0.885398
9304.000000;0.884883
9303.000000;0.884488
9302.000000;0.884237
9301.000000;0.884152
9300.000000;0.883990
9299.000000;0.883429
9298.000000;0.882558
9297.000000;0.881857
9296.000000;0.881540
9295.000000;0.881198
9294.000000;0.880357
9293.000000;0.879237
9292.000000;0.878576
9291.000000;0.878703
9290.000000;0.879109
9289.000000;0.879073
9288.000000;0.878494
9287.000000;0.877888
9286.000000;0.877691
9285.000000;0.877797
9284.000000;0.877765
9283.000000;0.877311
9282.000000;0.876546
9281.000000;0.875850
9280.000000;0.875576
9279.000000;0.875786
9278.000000;0.876184
9277.000000;0.876325
9276.000000;0.875934
9275.000000;0.875070
9274.000000;0.874030
9273.000000;0.873127
9272.000000;0.872517
9271.000000;0.872153
9270.000000;0.871889
9269.000000;0.871639
9268.000000;0.871399
9267.000000;0.871105
9266.000000;0.870578
9265.000000;0.869751
9264.000000;0.868919
9263.000000;0.868549
9262.000000;0.868764
9261.000000;0.869154
9260.000000;0.869193
9259.000000;0.868753
9258.000000;0.868072
9257.000000;0.867327
9256.000000;0.866470
9255.000000;0.865513
9254.000000;0.864741
9253.000000;0.864464
9252.000000;0.864632
9251.000000;0.864844
9250.000000;0.864758
9249.000000;0.864403
9248.000000;0.864085
9247.000000;0.864032
9246.000000;0.864181
9245.000000;0.864247
9244.000000;0.863947
9243.000000;0.863147
9242.000000;0.861872
9241.000000;0.860298
9240.000000;0.858783
9239.000000;0.857827
9238.000000;0.857782
9237.000000;0.858485
9236.000000;0.859231
9235.000000;0.859319
9234.000000;0.858674
9233.000000;0.857858
9232.000000;0.857458
9231.000000;0.857548
9230.000000;0.857778
9229.000000;0.857853
9228.000000;0.857730
9227.000000;0.857406
9226.000000;0.856780
9225.000000;0.855885
9224.000000;0.855099
9223.000000;0.854839
9222.000000;0.855039
9221.000000;0.855105
9220.000000;0.854505
9219.000000;0.853305
9218.000000;0.852024
9217.000000;0.851103
9216.000000;0.850621
9215.000000;0.850467
9214.000000;0.850569
9213.000000;0.850882
9212.000000;0.851274
9211.000000;0.851517
9210.000000;0.851414
9209.000000;0.850918
9208.000000;0.850152
9207.000000;0.849323
9206.000000;0.848610
9205.000000;0.848098
9204.000000;0.847767
9203.000000;0.847528
9202.000000;0.847263
9201.000000;0.846922
9200.000000;0.846623
9199.000000;0.846572
9198.000000;0.846776
9197.000000;0.846894
9196.000000;0.846490
9195.000000;0.845470
9194.000000;0.844166
9193.000000;0.843010
9192.000000;0.842249
9191.000000;0.841975
9190.000000;0.842243
9189.000000;0.842967
9188.000000;0.843802
9187.000000;0.844313
9186.000000;0.844314
9185.000000;0.843976
9184.000000;0.843597
9183.000000;0.843304
9182.000000;0.842981
9181.000000;0.842437
9180.000000;0.841644
9179.000000;0.840814
9178.000000;0.840224
9177.000000;0.839925
9176.000000;0.839705
9175.000000;0.839371
9174.000000;0.839006
9173.000000;0.838838
9172.000000;0.838912
9171.000000;0.839000
9170.000000;0.838826
9169.000000;0.838303
9168.000000;0.837563
9167.000000;0.836831
9166.000000;0.836262
9165.000000;0.835789
9164.000000;0.835175
9163.000000;0.834319
9162.000000;0.833489
9161.000000;0.833095
9160.000000;0.833222
9159.000000;0.833507
9158.000000;0.833527
9157.000000;0.833153
9156.000000;0.832486
9155.000000;0.831687
9154.000000;0.830992
9153.000000;0.830699
9152.000000;0.830891
9151.000000;0.831203
9150.000000;0.831091
9149.000000;0.830377
9148.000000;0.829423
9147.000000;0.828748
9146.000000;0.828555
9145.000000;0.828580
9144.000000;0.828300
9143.000000;0.827364
9142.000000;0.826012
9141.000000;0.825030
9140.000000;0.825090
9139.000000;0.826066
9138.000000;0.827133
9137.000000;0.827631
9136.000000;0.827671
9135.000000;0.827763
9134.000000;0.828041
9133.000000;0.828105
9132.000000;0.827593
9131.000000;0.826671
9130.000000;0.825836
9129.000000;0.825377
9128.000000;0.825135
9127.000000;0.824765
9126.000000;0.824171
9125.000000;0.823650
9124.000000;0.823578
9123.000000;0.823929
9122.000000;0.824185
9121.000000;0.823840
9120.000000;0.822966
9119.000000;0.822146
9118.000000;0.821825
9117.000000;0.821859
9116.000000;0.821785
9115.000000;0.821378
9114.000000;0.820798
9113.000000;0.820287
9112.000000;0.819964
9111.000000;0.819897
9110.000000;0.820141
9109.000000;0.820572
9108.000000;0.820850
9107.000000;0.820710
9106.000000;0.820261
9105.000000;0.819842
9104.000000;0.819615
9103.000000;0.819456
9102.000000;0.819232
9101.000000;0.819024
9100.000000;0.818990
9099.000000;0.819109
9098.000000;0.819164
9097.000000;0.818936
9096.000000;0.818330
9095.000000;0.817400
9094.000000;0.816342
9093.000000;0.815450
9092.000000;0.814917
9091.000000;0.814641
9090.000000;0.814295
9089.000000;0.813668
9088.000000;0.812913
9087.000000;0.812422
9086.000000;0.812471
9085.000000;0.812976
9084.000000;0.813527
9083.000000;0.813673
9082.000000;0.813260
9081.000000;0.812552
9080.000000;0.811943
9079.000000;0.811544
9078.000000;0.811135
9077.000000;0.810567
9076.000000;0.810023
9075.000000;0.809751
9074.000000;0.809691
9073.000000;0.809641
9072.000000;0.809713
9071.000000;0.810275
9070.000000;0.811322
9069.000000;0.812210
9068.000000;0.812256
9067.000000;0.811424
9066.000000;0.810212
9065.000000;0.809046
9064.000000;0.808044
9063.000000;0.807255
9062.000000;0.806766
9061.000000;0.806530
9060.000000;0.806368
9059.000000;0.806220
9058.000000;0.806175
9057.000000;0.806168
9056.000000;0.805895
9055.000000;0.805196
9054.000000;0.804353
9053.000000;0.803850
