Criado como novo conjunto de dados;"1909daniel.spp","-4276424.5 Secs"
cm-1;Abs
10000.000000;1.451941
9999.000000;1.452833
9998.000000;1.453727
9997.000000;1.454623
9996.000000;1.455523
9995.000000;1.456418
9994.000000;1.457328
9993.000000;1.458217
9992.000000;1.459146
9991.000000;1.460008
9990.000000;1.461021
9989.000000;1.461246
9988.000000;1.459661
9987.000000;1.456848
9986.000000;1.453624
9985.000000;1.450386
9984.000000;1.447350
9983.000000;1.445292
9982.000000;1.445104
9981.000000;1.446740
9980.000000;1.449048
9979.000000;1.450770
9978.000000;1.451364
9977.000000;1.450765
9976.000000;1.448935
9975.000000;1.446209
9974.000000;1.443769
9973.000000;1.442959
9972.000000;1.443810
9971.000000;1.444748
9970.000000;1.444268
9969.000000;1.442686
9968.000000;1.441640
9967.000000;1.442045
9966.000000;1.443189
9965.000000;1.443840
9964.000000;1.443576
9963.000000;1.442721
9962.000000;1.441578
9961.000000;1.440243
9960.000000;1.438862
9959.000000;1.437493
9958.000000;1.435888
9957.000000;1.433900
9956.000000;1.432054
9955.000000;1.431227
9954.000000;1.431635
9953.000000;1.432486
9952.000000;1.432799
9951.000000;1.432339
9950.000000;1.431522
9949.000000;1.430624
9948.000000;1.429445
9947.000000;1.427789
9946.000000;1.426009
9945.000000;1.424773
9944.000000;1.424351
9943.000000;1.424338
9942.000000;1.424152
9941.000000;1.423564
9940.000000;1.422585
9939.000000;1.421182
9938.000000;1.419489
9937.000000;1.418155
9936.000000;1.417965
9935.000000;1.418998
9934.000000;1.420423
9933.000000;1.421159
9932.000000;1.420568
9931.000000;1.418650
9930.000000;1.416062
9929.000000;1.413997
9928.000000;1.413453
9927.000000;1.414264
9926.000000;1.415110
9925.000000;1.414795
9924.000000;1.413340
9923.000000;1.411631
9922.000000;1.410364
9921.000000;1.409661
9920.000000;1.409360
9919.000000;1.409179
9918.000000;1.408786
9917.000000;1.408106
9916.000000;1.407454
9915.000000;1.407088
9914.000000;1.406824
9913.000000;1.406365
9912.000000;1.405741
9911.000000;1.405106
9910.000000;1.404274
9909.000000;1.402950
9908.000000;1.401370
9907.000000;1.400304
9906.000000;1.400322
9905.000000;1.401233
9904.000000;1.402164
9903.000000;1.401968
9902.000000;1.399889
9901.000000;1.396328
9900.000000;1.392927
9899.000000;1.391415
9898.000000;1.392162
9897.000000;1.393998
9896.000000;1.395379
9895.000000;1.395514
9894.000000;1.394457
9893.000000;1.392637
9892.000000;1.390554
9891.000000;1.388547
9890.000000;1.386633
9889.000000;1.384727
9888.000000;1.383098
9887.000000;1.382275
9886.000000;1.382335
9885.000000;1.382653
9884.000000;1.382684
9883.000000;1.382660
9882.000000;1.383113
9881.000000;1.383917
9880.000000;1.384208
9879.000000;1.383264
9878.000000;1.381220
9877.000000;1.378836
9876.000000;1.376821
9875.000000;1.375506
9874.000000;1.374946
9873.000000;1.375043
9872.000000;1.375524
9871.000000;1.375877
9870.000000;1.375458
9869.000000;1.373929
9868.000000;1.371688
9867.000000;1.369713
9866.000000;1.368789
9865.000000;1.368870
9864.000000;1.369219
9863.000000;1.369127
9862.000000;1.368430
9861.000000;1.367411
9860.000000;1.366420
9859.000000;1.365683
9858.000000;1.365290
9857.000000;1.365180
9856.000000;1.365105
9855.000000;1.364759
9854.000000;1.364003
9853.000000;1.362954
9852.000000;1.361800
9851.000000;1.360583
9850.000000;1.359330
9849.000000;1.358328
9848.000000;1.357971
9847.000000;1.358164
9846.000000;1.358101
9845.000000;1.357004
9844.000000;1.355084
9843.000000;1.353392
9842.000000;1.352628
9841.000000;1.352458
9840.000000;1.352160
9839.000000;1.351564
9838.000000;1.351002
9837.000000;1.350575
9836.000000;1.349921
9835.000000;1.348722
9834.000000;1.347029
9833.000000;1.344994
9832.000000;1.342683
9831.000000;1.340383
9830.000000;1.338797
9829.000000;1.338496
9828.000000;1.339215
9827.000000;1.340011
9826.000000;1.340212
9825.000000;1.339980
9824.000000;1.339818
9823.000000;1.339779
9822.000000;1.339436
9821.000000;1.338569
9820.000000;1.337575
9819.000000;1.337019
9818.000000;1.336939
9817.000000;1.336834
9816.000000;1.336286
9815.000000;1.335393
9814.000000;1.334516
9813.000000;1.333807
9812.000000;1.333101
9811.000000;1.332173
9810.000000;1.330969
9809.000000;1.329645
9808.000000;1.328432
9807.000000;1.327390
9806.000000;1.326229
9805.000000;1.324563
9804.000000;1.322529
9803.000000;1.321049
9802.000000;1.321128
9801.000000;1.322832
9800.000000;1.325090
9799.000000;1.326501
9798.000000;1.326271
9797.000000;1.324528
9796.000000;1.322045
9795.000000;1.319762
9794.000000;1.318303
9793.000000;1.317711
9792.000000;1.317628
9791.000000;1.317703
9790.000000;1.317685
9789.000000;1.317222
9788.000000;1.315944
9787.000000;1.313899
9786.000000;1.311630
9785.000000;1.309701
9784.000000;1.308378
9783.000000;1.307842
9782.000000;1.308283
9781.000000;1.309460
9780.000000;1.310487
9779.000000;1.310569
9778.000000;1.309865
9777.000000;1.309157
9776.000000;1.308684
9775.000000;1.307823
9774.000000;1.306118
9773.000000;1.304194
9772.000000;1.303228
9771.000000;1.303682
9770.000000;1.304848
9769.000000;1.305582
9768.000000;1.305234
9767.000000;1.303857
9766.000000;1.301811
9765.000000;1.299469
9764.000000;1.297322
9763.000000;1.295997
9762.000000;1.295863
9761.000000;1.296602
9760.000000;1.297373
9759.000000;1.297490
9758.000000;1.296808
9757.000000;1.295515
9756.000000;1.293873
9755.000000;1.292265
9754.000000;1.291139
9753.000000;1.290639
9752.000000;1.290459
9751.000000;1.290267
9750.000000;1.290045
9749.000000;1.289805
9748.000000;1.289306
9747.000000;1.288365
9746.000000;1.287169
9745.000000;1.285989
9744.000000;1.284867
9743.000000;1.283914
9742.000000;1.283510
9741.000000;1.283642
9740.000000;1.283444
9739.000000;1.282183
9738.000000;1.280526
9737.000000;1.279895
9736.000000;1.280562
9735.000000;1.281290
9734.000000;1.280982
9733.000000;1.279817
9732.000000;1.278415
9731.000000;1.276872
9730.000000;1.275240
9729.000000;1.274078
9728.000000;1.273646
9727.000000;1.273064
9726.000000;1.271264
9725.000000;1.268623
9724.000000;1.266836
9723.000000;1.267121
9722.000000;1.269030
9721.000000;1.270908
9720.000000;1.271126
9719.000000;1.269145
9718.000000;1.265979
9717.000000;1.263548
9716.000000;1.263083
9715.000000;1.264103
9714.000000;1.265132
9713.000000;1.265261
9712.000000;1.264619
9711.000000;1.263567
9710.000000;1.262173
9709.000000;1.260541
9708.000000;1.258983
9707.000000;1.257645
9706.000000;1.256434
9705.000000;1.255477
9704.000000;1.255166
9703.000000;1.255510
9702.000000;1.255860
9701.000000;1.255610
9700.000000;1.254833
9699.000000;1.253961
9698.000000;1.253119
9697.000000;1.252155
9696.000000;1.251125
9695.000000;1.250341
9694.000000;1.249915
9693.000000;1.249547
9692.000000;1.248911
9691.000000;1.248082
9690.000000;1.247388
9689.000000;1.246828
9688.000000;1.245866
9687.000000;1.244020
9686.000000;1.241666
9685.000000;1.239915
9684.000000;1.239510
9683.000000;1.240090
9682.000000;1.240717
9681.000000;1.240862
9680.000000;1.240626
9679.000000;1.240239
9678.000000;1.239769
9677.000000;1.239290
9676.000000;1.238940
9675.000000;1.238709
9674.000000;1.238440
9673.000000;1.238044
9672.000000;1.237474
9671.000000;1.236507
9670.000000;1.234929
9669.000000;1.233070
9668.000000;1.231830
9667.000000;1.231933
9666.000000;1.233142
9665.000000;1.234258
9664.000000;1.233910
9663.000000;1.231615
9662.000000;1.228318
9661.000000;1.225754
9660.000000;1.224932
9659.000000;1.225277
9658.000000;1.225458
9657.000000;1.224927
9656.000000;1.224225
9655.000000;1.223842
9654.000000;1.223442
9653.000000;1.222508
9652.000000;1.221262
9651.000000;1.220419
9650.000000;1.220195
9649.000000;1.220025
9648.000000;1.219275
9647.000000;1.217990
9646.000000;1.216780
9645.000000;1.216054
9644.000000;1.215547
9643.000000;1.214673
9642.000000;1.213334
9641.000000;1.212131
9640.000000;1.211654
9639.000000;1.211799
9638.000000;1.212035
9637.000000;1.212078
9636.000000;1.211881
9635.000000;1.211182
9634.000000;1.209717
9633.000000;1.207878
9632.000000;1.206464
9631.000000;1.205591
9630.000000;1.204520
9629.000000;1.202847
9628.000000;1.201278
9627.000000;1.200727
9626.000000;1.201080
9625.000000;1.201395
9624.000000;1.201059
9623.000000;1.200184
9622.000000;1.199053
9621.000000;1.197843
9620.000000;1.196907
9619.000000;1.196716
9618.000000;1.197281
9617.000000;1.197973
9616.000000;1.198092
9615.000000;1.197432
9614.000000;1.196242
9613.000000;1.194875
9612.000000;1.193651
9611.000000;1.192819
9610.000000;1.192425
9609.000000;1.192219
9608.000000;1.191853
9607.000000;1.191193
9606.000000;1.190453
9605.000000;1.189975
9604.000000;1.189827
9603.000000;1.189658
9602.000000;1.189066
9601.000000;1.188087
9600.000000;1.187158
9599.000000;1.186553
9598.000000;1.186067
9597.000000;1.185372
9596.000000;1.184487
9595.000000;1.183653
9594.000000;1.182928
9593.000000;1.182184
9592.000000;1.181451
9591.000000;1.180942
9590.000000;1.180706
9589.000000;1.180542
9588.000000;1.180293
9587.000000;1.180020
9586.000000;1.179759
9585.000000;1.179285
9584.000000;1.178297
9583.000000;1.176807
9582.000000;1.175258
9581.000000;1.174241
9580.000000;1.174070
9579.000000;1.174502
9578.000000;1.174824
9577.000000;1.174422
9576.000000;1.173370
9575.000000;1.172344
9574.000000;1.171915
9573.000000;1.171998
9572.000000;1.172009
9571.000000;1.171491
9570.000000;1.170443
9569.000000;1.169156
9568.000000;1.167916
9567.000000;1.166915
9566.000000;1.166258
9565.000000;1.165892
9564.000000;1.165623
9563.000000;1.165321
9562.000000;1.165081
9561.000000;1.165054
9560.000000;1.165090
9559.000000;1.164745
9558.000000;1.163698
9557.000000;1.162043
9556.000000;1.160081
9555.000000;1.158006
9554.000000;1.155961
9553.000000;1.154282
9552.000000;1.153349
9551.000000;1.153150
9550.000000;1.153199
9549.000000;1.153014
9548.000000;1.152559
9547.000000;1.152106
9546.000000;1.151818
9545.000000;1.151625
9544.000000;1.151382
9543.000000;1.150953
9542.000000;1.150183
9541.000000;1.148979
9540.000000;1.147448
9539.000000;1.145877
9538.000000;1.144550
9537.000000;1.143664
9536.000000;1.143403
9535.000000;1.143906
9534.000000;1.144986
9533.000000;1.145968
9532.000000;1.146108
9531.000000;1.145295
9530.000000;1.144180
9529.000000;1.143449
9528.000000;1.143018
9527.000000;1.142165
9526.000000;1.140476
9525.000000;1.138441
9524.000000;1.136966
9523.000000;1.136449
9522.000000;1.136519
9521.000000;1.136544
9520.000000;1.136223
9519.000000;1.135732
9518.000000;1.135485
9517.000000;1.135700
9516.000000;1.136046
9515.000000;1.135799
9514.000000;1.134585
9513.000000;1.132910
9512.000000;1.131684
9511.000000;1.131221
9510.000000;1.131000
9509.000000;1.130458
9508.000000;1.129650
9507.000000;1.128930
9506.000000;1.128314
9505.000000;1.127553
9504.000000;1.126595
9503.000000;1.125569
9502.000000;1.124459
9501.000000;1.123278
9500.000000;1.122510
9499.000000;1.122842
9498.000000;1.124239
9497.000000;1.125640
9496.000000;1.125887
9495.000000;1.124792
9494.000000;1.123084
9493.000000;1.121537
9492.000000;1.120471
9491.000000;1.119864
9490.000000;1.119498
9489.000000;1.118973
9488.000000;1.117962
9487.000000;1.116625
9486.000000;1.115540
9485.000000;1.115086
9484.000000;1.115041
9483.000000;1.114845
9482.000000;1.114113
9481.000000;1.112842
9480.000000;1.111330
9479.000000;1.110083
9478.000000;1.109571
9477.000000;1.109780
9476.000000;1.110071
9475.000000;1.109824
9474.000000;1.109161
9473.000000;1.108755
9472.000000;1.108908
9471.000000;1.109170
9470.000000;1.108992
9469.000000;1.108400
9468.000000;1.107702
9467.000000;1.106837
9466.000000;1.105490
9465.000000;1.103807
9464.000000;1.102484
9463.000000;1.101988
9462.000000;1.102000
9461.000000;1.101897
9460.000000;1.101552
9459.000000;1.101352
9458.000000;1.101495
9457.000000;1.101665
9456.000000;1.101503
9455.000000;1.101051
9454.000000;1.100446
9453.000000;1.099449
9452.000000;1.097704
9451.000000;1.095457
9450.000000;1.093580
9449.000000;1.092699
9448.000000;1.092598
9447.000000;1.092712
9446.000000;1.092892
9445.000000;1.093319
9444.000000;1.093838
9443.000000;1.093916
9442.000000;1.093320
9441.000000;1.092416
9440.000000;1.091634
9439.000000;1.090964
9438.000000;1.090219
9437.000000;1.089509
9436.000000;1.089099
9435.000000;1.088954
9434.000000;1.088694
9433.000000;1.088019
9432.000000;1.086997
9431.000000;1.085935
9430.000000;1.085072
9429.000000;1.084388
9428.000000;1.083652
9427.000000;1.082746
9426.000000;1.081962
9425.000000;1.081804
9424.000000;1.082341
9423.000000;1.082895
9422.000000;1.082580
9421.000000;1.081187
9420.000000;1.079403
9419.000000;1.078139
9418.000000;1.077692
9417.000000;1.077546
9416.000000;1.076936
9415.000000;1.075640
9414.000000;1.074201
9413.000000;1.073303
9412.000000;1.073027
9411.000000;1.072880
9410.000000;1.072535
9409.000000;1.072243
9408.000000;1.072350
9407.000000;1.072682
9406.000000;1.072709
9405.000000;1.072148
9404.000000;1.071151
9403.000000;1.070060
9402.000000;1.069244
9401.000000;1.068995
9400.000000;1.069188
9399.000000;1.069118
9398.000000;1.068088
9397.000000;1.066195
9396.000000;1.064191
9395.000000;1.062582
9394.000000;1.061314
9393.000000;1.060409
9392.000000;1.060360
9391.000000;1.061485
9390.000000;1.063172
9389.000000;1.064247
9388.000000;1.064089
9387.000000;1.063123
9386.000000;1.062191
9385.000000;1.061744
9384.000000;1.061668
9383.000000;1.061635
9382.000000;1.061407
9381.000000;1.060919
9380.000000;1.060231
9379.000000;1.059461
9378.000000;1.058722
9377.000000;1.058066
9376.000000;1.057492
9375.000000;1.056992
9374.000000;1.056568
9373.000000;1.056213
9372.000000;1.055931
9371.000000;1.055729
9370.000000;1.055560
9369.000000;1.055283
9368.000000;1.054718
9367.000000;1.053785
9366.000000;1.052572
9365.000000;1.051266
9364.000000;1.050052
9363.000000;1.049113
9362.000000;1.048583
9361.000000;1.048337
9360.000000;1.047921
9359.000000;1.046965
9358.000000;1.045718
9357.000000;1.044928
9356.000000;1.045074
9355.000000;1.045834
9354.000000;1.046432
9353.000000;1.046343
9352.000000;1.045560
9351.000000;1.044327
9350.000000;1.042915
9349.000000;1.041632
9348.000000;1.040819
9347.000000;1.040677
9346.000000;1.041068
9345.000000;1.041499
9344.000000;1.041336
9343.000000;1.040237
9342.000000;1.038502
9341.000000;1.036926
9340.000000;1.036169
9339.000000;1.036283
9338.000000;1.036847
9337.000000;1.037440
9336.000000;1.037875
9335.000000;1.038076
9334.000000;1.037887
9333.000000;1.037114
9332.000000;1.035763
9331.000000;1.034271
9330.000000;1.033377
9329.000000;1.033499
9328.000000;1.034204
9327.000000;1.034504
9326.000000;1.033830
9325.000000;1.032547
9324.000000;1.031438
9323.000000;1.030945
9322.000000;1.030998
9321.000000;1.031265
9320.000000;1.031255
9319.000000;1.030478
9318.000000;1.028900
9317.000000;1.027156
9316.000000;1.026003
9315.000000;1.025595
9314.000000;1.025498
9313.000000;1.025271
9312.000000;1.024819
9311.000000;1.024294
9310.000000;1.023928
9309.000000;1.023840
9308.000000;1.023788
9307.000000;1.023247
9306.000000;1.022056
9305.000000;1.020837
9304.000000;1.020374
9303.000000;1.020682
9302.000000;1.021099
9301.000000;1.021179
9300.000000;1.021026
9299.000000;1.020753
9298.000000;1.020153
9297.000000;1.019144
9296.000000;1.018127
9295.000000;1.017656
9294.000000;1.017995
9293.000000;1.019039
9292.000000;1.020287
9291.000000;1.020817
9290.000000;1.019810
9289.000000;1.017449
9288.000000;1.014990
9287.000000;1.013640
9286.000000;1.013542
9285.000000;1.013985
9284.000000;1.014302
9283.000000;1.014261
9282.000000;1.013843
9281.000000;1.013092
9280.000000;1.012173
9279.000000;1.011317
9278.000000;1.010687
9277.000000;1.010416
9276.000000;1.010644
9275.000000;1.011268
9274.000000;1.011778
9273.000000;1.011611
9272.000000;1.010708
9271.000000;1.009554
9270.000000;1.008690
9269.000000;1.008324
9268.000000;1.008320
9267.000000;1.008323
9266.000000;1.007937
9265.000000;1.006987
9264.000000;1.005665
9263.000000;1.004295
9262.000000;1.003010
9261.000000;1.001813
9260.000000;1.000888
9259.000000;1.000553
9258.000000;1.000809
9257.000000;1.001132
9256.000000;1.000934
9255.000000;1.000166
9254.000000;0.999333
9253.000000;0.998972
9252.000000;0.999243
9251.000000;0.999977
9250.000000;1.000901
9249.000000;1.001705
9248.000000;1.002064
9247.000000;1.001807
9246.000000;1.001066
9245.000000;1.000116
9244.000000;0.999084
9243.000000;0.997939
9242.000000;0.996745
9241.000000;0.995714
9240.000000;0.994946
9239.000000;0.994353
9238.000000;0.993938
9237.000000;0.993912
9236.000000;0.994329
9235.000000;0.994839
9234.000000;0.995047
9233.000000;0.994971
9232.000000;0.994849
9231.000000;0.994640
9230.000000;0.994078
9229.000000;0.993209
9228.000000;0.992435
9227.000000;0.991968
9226.000000;0.991547
9225.000000;0.990836
9224.000000;0.989810
9223.000000;0.988649
9222.000000;0.987553
9221.000000;0.986812
9220.000000;0.986748
9219.000000;0.987346
9218.000000;0.988127
9217.000000;0.988566
9216.000000;0.988508
9215.000000;0.988040
9214.000000;0.987217
9213.000000;0.986133
9212.000000;0.985030
9211.000000;0.984082
9210.000000;0.983236
9209.000000;0.982518
9208.000000;0.982245
9207.000000;0.982606
9206.000000;0.983158
9205.000000;0.983197
9204.000000;0.982629
9203.000000;0.982085
9202.000000;0.982053
9201.000000;0.982287
9200.000000;0.982272
9199.000000;0.981956
9198.000000;0.981707
9197.000000;0.981697
9196.000000;0.981631
9195.000000;0.981115
9194.000000;0.980087
9193.000000;0.978862
9192.000000;0.977896
9191.000000;0.977523
9190.000000;0.977769
9189.000000;0.978325
9188.000000;0.978742
9187.000000;0.978743
9186.000000;0.978342
9185.000000;0.977679
9184.000000;0.976838
9183.000000;0.975896
9182.000000;0.975036
9181.000000;0.974433
9180.000000;0.974016
9179.000000;0.973499
9178.000000;0.972733
9177.000000;0.971904
9176.000000;0.971291
9175.000000;0.970948
9174.000000;0.970774
9173.000000;0.970814
9172.000000;0.971253
9171.000000;0.972031
9170.000000;0.972614
9169.000000;0.972314
9168.000000;0.970876
9167.000000;0.968788
9166.000000;0.967026
9165.000000;0.966397
9164.000000;0.966923
9163.000000;0.967777
9162.000000;0.967937
9161.000000;0.967003
9160.000000;0.965428
9159.000000;0.963999
9158.000000;0.963177
9157.000000;0.962904
9156.000000;0.962900
9155.000000;0.963026
9154.000000;0.963364
9153.000000;0.963958
9152.000000;0.964548
9151.000000;0.964716
9150.000000;0.964323
9149.000000;0.963627
9148.000000;0.962904
9147.000000;0.962199
9146.000000;0.961616
9145.000000;0.961555
9144.000000;0.962265
9143.000000;0.963246
9142.000000;0.963562
9141.000000;0.962848
9140.000000;0.961648
9139.000000;0.960633
9138.000000;0.959916
9137.000000;0.959314
9136.000000;0.958868
9135.000000;0.958692
9134.000000;0.958549
9133.000000;0.958042
9132.000000;0.957186
9131.000000;0.956484
9130.000000;0.956363
9129.000000;0.956759
9128.000000;0.957251
9127.000000;0.957398
9126.000000;0.956977
9125.000000;0.956154
9124.000000;0.955455
9123.000000;0.955314
9122.000000;0.955542
9121.000000;0.955448
9120.000000;0.954644
9119.000000;0.953554
9118.000000;0.952978
9117.000000;0.953207
9116.000000;0.953788
9115.000000;0.954128
9114.000000;0.954103
9113.000000;0.953980
9112.000000;0.953885
9111.000000;0.953581
9110.000000;0.952809
9109.000000;0.951723
9108.000000;0.950861
9107.000000;0.950695
9106.000000;0.951219
9105.000000;0.951930
9104.000000;0.952181
9103.000000;0.951643
9102.000000;0.950529
9101.000000;0.949346
9100.000000;0.948413
9099.000000;0.947653
9098.000000;0.946913
9097.000000;0.946339
9096.000000;0.946255
9095.000000;0.946697
9094.000000;0.947271
9093.000000;0.947514
9092.000000;0.947262
9091.000000;0.946627
9090.000000;0.945840
9089.000000;0.945203
9088.000000;0.944988
9087.000000;0.945158
9086.000000;0.945282
9085.000000;0.944907
9084.000000;0.944032
9083.000000;0.943108
9082.000000;0.942618
9081.000000;0.942740
9080.000000;0.943250
9079.000000;0.943607
9078.000000;0.943237
9077.000000;0.942010
9076.000000;0.940485
9075.000000;0.939475
9074.000000;0.939313
9073.000000;0.939685
9072.000000;0.940146
9071.000000;0.940574
9070.000000;0.940987
9069.000000;0.941172
9068.000000;0.940797
9067.000000;0.939867
9066.000000;0.938796
9065.000000;0.937958
9064.000000;0.937351
9063.000000;0.936781
9062.000000;0.936236
9061.000000;0.935902
9060.000000;0.935855
9059.000000;0.935928
9058.000000;0.935959
9057.000000;0.936022
9056.000000;0.936251
9055.000000;0.936523
9054.000000;0.936476
9053.000000;0.935889
