Criado como novo conjunto de dados;"1909daniel.spp","-4213601.3 Secs"
cm-1;Abs
10000.000000;1.224683
9999.000000;1.224825
9998.000000;1.224926
9997.000000;1.225109
9996.000000;1.224929
9995.000000;1.224628
9994.000000;1.224764
9993.000000;1.224786
9992.000000;1.223932
9991.000000;1.222132
9990.000000;1.220215
9989.000000;1.219073
9988.000000;1.218859
9987.000000;1.218923
9986.000000;1.218452
9985.000000;1.217139
9984.000000;1.215249
9983.000000;1.213152
9982.000000;1.211056
9981.000000;1.209237
9980.000000;1.208140
9979.000000;1.207946
9978.000000;1.208194
9977.000000;1.208172
9976.000000;1.207635
9975.000000;1.206902
9974.000000;1.206314
9973.000000;1.205943
9972.000000;1.205758
9971.000000;1.205723
9970.000000;1.205687
9969.000000;1.205432
9968.000000;1.204864
9967.000000;1.203949
9966.000000;1.202574
9965.000000;1.200803
9964.000000;1.199216
9963.000000;1.198580
9962.000000;1.199033
9961.000000;1.199858
9960.000000;1.200203
9959.000000;1.199803
9958.000000;1.198943
9957.000000;1.197973
9956.000000;1.196988
9955.000000;1.195829
9954.000000;1.194350
9953.000000;1.192813
9952.000000;1.191860
9951.000000;1.191808
9950.000000;1.192041
9949.000000;1.191529
9948.000000;1.189966
9947.000000;1.187960
9946.000000;1.186057
9945.000000;1.184223
9944.000000;1.182527
9943.000000;1.181653
9942.000000;1.182117
9941.000000;1.183321
9940.000000;1.184020
9939.000000;1.183729
9938.000000;1.183162
9937.000000;1.183167
9936.000000;1.183616
9935.000000;1.183539
9934.000000;1.182177
9933.000000;1.179752
9932.000000;1.177249
9931.000000;1.175548
9930.000000;1.174757
9929.000000;1.174322
9928.000000;1.173690
9927.000000;1.172805
9926.000000;1.172035
9925.000000;1.171807
9924.000000;1.172243
9923.000000;1.172923
9922.000000;1.172976
9921.000000;1.171734
9920.000000;1.169442
9919.000000;1.167142
9918.000000;1.165778
9917.000000;1.165568
9916.000000;1.166123
9915.000000;1.166815
9914.000000;1.167001
9913.000000;1.166377
9912.000000;1.165292
9911.000000;1.164371
9910.000000;1.163616
9909.000000;1.162346
9908.000000;1.160298
9907.000000;1.158302
9906.000000;1.157354
9905.000000;1.157398
9904.000000;1.157531
9903.000000;1.157136
9902.000000;1.156230
9901.000000;1.154866
9900.000000;1.153002
9899.000000;1.151094
9898.000000;1.150118
9897.000000;1.150553
9896.000000;1.151646
9895.000000;1.152033
9894.000000;1.151022
9893.000000;1.149085
9892.000000;1.147226
9891.000000;1.146085
9890.000000;1.145561
9889.000000;1.145135
9888.000000;1.144480
9887.000000;1.143759
9886.000000;1.143325
9885.000000;1.143239
9884.000000;1.143219
9883.000000;1.143017
9882.000000;1.142676
9881.000000;1.142336
9880.000000;1.141938
9879.000000;1.141242
9878.000000;1.140122
9877.000000;1.138776
9876.000000;1.137625
9875.000000;1.136960
9874.000000;1.136623
9873.000000;1.136084
9872.000000;1.134962
9871.000000;1.133481
9870.000000;1.132319
9869.000000;1.131942
9868.000000;1.132141
9867.000000;1.132215
9866.000000;1.131614
9865.000000;1.130410
9864.000000;1.129178
9863.000000;1.128430
9862.000000;1.128152
9861.000000;1.127864
9860.000000;1.127120
9859.000000;1.125905
9858.000000;1.124598
9857.000000;1.123587
9856.000000;1.122903
9855.000000;1.122206
9854.000000;1.121136
9853.000000;1.119783
9852.000000;1.118746
9851.000000;1.118538
9850.000000;1.118948
9849.000000;1.119158
9848.000000;1.118556
9847.000000;1.117285
9846.000000;1.115940
9845.000000;1.114899
9844.000000;1.114068
9843.000000;1.113170
9842.000000;1.112166
9841.000000;1.111385
9840.000000;1.111207
9839.000000;1.111564
9838.000000;1.111819
9837.000000;1.111380
9836.000000;1.110415
9835.000000;1.109709
9834.000000;1.109759
9833.000000;1.110190
9832.000000;1.110153
9831.000000;1.109090
9830.000000;1.107097
9829.000000;1.104775
9828.000000;1.102854
9827.000000;1.101742
9826.000000;1.101250
9825.000000;1.100888
9824.000000;1.100498
9823.000000;1.100374
9822.000000;1.100628
9821.000000;1.100758
9820.000000;1.100157
9819.000000;1.098866
9818.000000;1.097528
9817.000000;1.096670
9816.000000;1.096284
9815.000000;1.096034
9814.000000;1.095623
9813.000000;1.094939
9812.000000;1.094049
9811.000000;1.093085
9810.000000;1.092079
9809.000000;1.090952
9808.000000;1.089745
9807.000000;1.088716
9806.000000;1.088066
9805.000000;1.087637
9804.000000;1.087065
9803.000000;1.086162
9802.000000;1.085046
9801.000000;1.083962
9800.000000;1.083144
9799.000000;1.082750
9798.000000;1.082719
9797.000000;1.082702
9796.000000;1.082286
9795.000000;1.081354
9794.000000;1.080228
9793.000000;1.079418
9792.000000;1.079207
9791.000000;1.079343
9790.000000;1.079166
9789.000000;1.078176
9788.000000;1.076518
9787.000000;1.074759
9786.000000;1.073255
9785.000000;1.071975
9784.000000;1.070934
9783.000000;1.070397
9782.000000;1.070424
9781.000000;1.070538
9780.000000;1.070192
9779.000000;1.069424
9778.000000;1.068727
9777.000000;1.068370
9776.000000;1.068146
9775.000000;1.067719
9774.000000;1.066975
9773.000000;1.066050
9772.000000;1.065242
9771.000000;1.064837
9770.000000;1.064758
9769.000000;1.064410
9768.000000;1.063191
9767.000000;1.061279
9766.000000;1.059668
9765.000000;1.059250
9764.000000;1.059866
9763.000000;1.060373
9762.000000;1.059690
9761.000000;1.057790
9760.000000;1.055619
9759.000000;1.054069
9758.000000;1.053148
9757.000000;1.052258
9756.000000;1.051129
9755.000000;1.050201
9754.000000;1.050028
9753.000000;1.050605
9752.000000;1.051373
9751.000000;1.051668
9750.000000;1.051076
9749.000000;1.049659
9748.000000;1.048048
9747.000000;1.047059
9746.000000;1.046970
9745.000000;1.047273
9744.000000;1.047292
9743.000000;1.046827
9742.000000;1.046009
9741.000000;1.044841
9740.000000;1.043266
9739.000000;1.041512
9738.000000;1.039948
9737.000000;1.038709
9736.000000;1.037751
9735.000000;1.037149
9734.000000;1.036950
9733.000000;1.036804
9732.000000;1.036214
9731.000000;1.035216
9730.000000;1.034424
9729.000000;1.034289
9728.000000;1.034565
9727.000000;1.034605
9726.000000;1.033935
9725.000000;1.032510
9724.000000;1.030702
9723.000000;1.029165
9722.000000;1.028443
9721.000000;1.028499
9720.000000;1.028749
9719.000000;1.028638
9718.000000;1.028079
9717.000000;1.027291
9716.000000;1.026492
9715.000000;1.025828
9714.000000;1.025399
9713.000000;1.025135
9712.000000;1.024747
9711.000000;1.023978
9710.000000;1.022901
9709.000000;1.021900
9708.000000;1.021314
9707.000000;1.021097
9706.000000;1.020807
9705.000000;1.019984
9704.000000;1.018559
9703.000000;1.016864
9702.000000;1.015301
9701.000000;1.014163
9700.000000;1.013712
9699.000000;1.014093
9698.000000;1.014973
9697.000000;1.015535
9696.000000;1.015120
9695.000000;1.013775
9694.000000;1.012014
9693.000000;1.010263
9692.000000;1.008799
9691.000000;1.007919
9690.000000;1.007701
9689.000000;1.007714
9688.000000;1.007400
9687.000000;1.006723
9686.000000;1.006040
9685.000000;1.005424
9684.000000;1.004618
9683.000000;1.003647
9682.000000;1.002922
9681.000000;1.002604
9680.000000;1.002400
9679.000000;1.002165
9678.000000;1.002150
9677.000000;1.002330
9676.000000;1.002031
9675.000000;1.000726
9674.000000;0.998877
9673.000000;0.997428
9672.000000;0.996684
9671.000000;0.996194
9670.000000;0.995587
9669.000000;0.994971
9668.000000;0.994500
9667.000000;0.994044
9666.000000;0.993437
9665.000000;0.992684
9664.000000;0.991768
9663.000000;0.990573
9662.000000;0.989215
9661.000000;0.988180
9660.000000;0.987840
9659.000000;0.987952
9658.000000;0.987891
9657.000000;0.987333
9656.000000;0.986515
9655.000000;0.985786
9654.000000;0.985114
9653.000000;0.984159
9652.000000;0.982735
9651.000000;0.981078
9650.000000;0.979628
9649.000000;0.978667
9648.000000;0.978210
9647.000000;0.978133
9646.000000;0.978272
9645.000000;0.978424
9644.000000;0.978382
9643.000000;0.978027
9642.000000;0.977353
9641.000000;0.976426
9640.000000;0.975428
9639.000000;0.974705
9638.000000;0.974577
9637.000000;0.974959
9636.000000;0.975322
9635.000000;0.975165
9634.000000;0.974464
9633.000000;0.973528
9632.000000;0.972496
9631.000000;0.971232
9630.000000;0.969729
9629.000000;0.968362
9628.000000;0.967533
9627.000000;0.967142
9626.000000;0.966603
9625.000000;0.965432
9624.000000;0.963730
9623.000000;0.962042
9622.000000;0.960864
9621.000000;0.960391
9620.000000;0.960586
9619.000000;0.961241
9618.000000;0.961883
9617.000000;0.961881
9616.000000;0.960928
9615.000000;0.959456
9614.000000;0.958324
9613.000000;0.957976
9612.000000;0.957985
9611.000000;0.957520
9610.000000;0.956204
9609.000000;0.954454
9608.000000;0.953034
9607.000000;0.952378
9606.000000;0.952317
9605.000000;0.952391
9604.000000;0.952333
9603.000000;0.952227
9602.000000;0.952199
9601.000000;0.952092
9600.000000;0.951562
9599.000000;0.950510
9598.000000;0.949298
9597.000000;0.948445
9596.000000;0.948165
9595.000000;0.948193
9594.000000;0.948014
9593.000000;0.947263
9592.000000;0.946017
9591.000000;0.944752
9590.000000;0.943929
9589.000000;0.943551
9588.000000;0.943185
9587.000000;0.942477
9586.000000;0.941533
9585.000000;0.940673
9584.000000;0.939908
9583.000000;0.938898
9582.000000;0.937492
9581.000000;0.936081
9580.000000;0.935217
9579.000000;0.934946
9578.000000;0.934719
9577.000000;0.934036
9576.000000;0.933075
9575.000000;0.932517
9574.000000;0.932756
9573.000000;0.933373
9572.000000;0.933485
9571.000000;0.932585
9570.000000;0.930974
9569.000000;0.929390
9568.000000;0.928358
9567.000000;0.927904
9566.000000;0.927726
9565.000000;0.927495
9564.000000;0.927090
9563.000000;0.926662
9562.000000;0.926453
9561.000000;0.926413
9560.000000;0.926087
9559.000000;0.925091
9558.000000;0.923692
9557.000000;0.922632
9556.000000;0.922278
9555.000000;0.922147
9554.000000;0.921496
9553.000000;0.920208
9552.000000;0.918839
9551.000000;0.917868
9550.000000;0.917220
9549.000000;0.916578
9548.000000;0.915935
9547.000000;0.915620
9546.000000;0.915873
9545.000000;0.916473
9544.000000;0.916763
9543.000000;0.916078
9542.000000;0.914334
9541.000000;0.912289
9540.000000;0.911028
9539.000000;0.910979
9538.000000;0.911505
9537.000000;0.911600
9536.000000;0.910943
9535.000000;0.910083
9534.000000;0.909596
9533.000000;0.909347
9532.000000;0.908705
9531.000000;0.907332
9530.000000;0.905544
9529.000000;0.903918
9528.000000;0.902730
9527.000000;0.901870
9526.000000;0.901180
9525.000000;0.900692
9524.000000;0.900512
9523.000000;0.900584
9522.000000;0.900712
9521.000000;0.900711
9520.000000;0.900423
9519.000000;0.899636
9518.000000;0.898226
9517.000000;0.896442
9516.000000;0.894867
9515.000000;0.893995
9514.000000;0.893918
9513.000000;0.894415
9512.000000;0.895162
9511.000000;0.895750
9510.000000;0.895721
9509.000000;0.894870
9508.000000;0.893492
9507.000000;0.892159
9506.000000;0.891252
9505.000000;0.890776
9504.000000;0.890493
9503.000000;0.890082
9502.000000;0.889303
9501.000000;0.888236
9500.000000;0.887292
9499.000000;0.886801
9498.000000;0.886660
9497.000000;0.886546
9496.000000;0.886363
9495.000000;0.886212
9494.000000;0.886030
9493.000000;0.885608
9492.000000;0.884969
9491.000000;0.884398
9490.000000;0.883991
9489.000000;0.883487
9488.000000;0.882676
9487.000000;0.881714
9486.000000;0.880874
9485.000000;0.880190
9484.000000;0.879547
9483.000000;0.878914
9482.000000;0.878282
9481.000000;0.877546
9480.000000;0.876668
9479.000000;0.875833
9478.000000;0.875212
9477.000000;0.874691
9476.000000;0.874050
9475.000000;0.873344
9474.000000;0.872877
9473.000000;0.872763
9472.000000;0.872671
9471.000000;0.872069
9470.000000;0.870694
9469.000000;0.868840
9468.000000;0.867218
9467.000000;0.866447
9466.000000;0.866536
9465.000000;0.866919
9464.000000;0.867046
9463.000000;0.866858
9462.000000;0.866607
9461.000000;0.866394
9460.000000;0.866080
9459.000000;0.865561
9458.000000;0.864890
9457.000000;0.864152
9456.000000;0.863441
9455.000000;0.862924
9454.000000;0.862689
9453.000000;0.862519
9452.000000;0.862042
9451.000000;0.861211
9450.000000;0.860429
9449.000000;0.860008
9448.000000;0.859680
9447.000000;0.858869
9446.000000;0.857446
9445.000000;0.855994
9444.000000;0.855239
9443.000000;0.855353
9442.000000;0.855869
9441.000000;0.856142
9440.000000;0.855775
9439.000000;0.854731
9438.000000;0.853308
9437.000000;0.852081
9436.000000;0.851608
9435.000000;0.851926
9434.000000;0.852414
9433.000000;0.852347
9432.000000;0.851582
9431.000000;0.850513
9430.000000;0.849427
9429.000000;0.848239
9428.000000;0.846933
9427.000000;0.845938
9426.000000;0.845739
9425.000000;0.846203
9424.000000;0.846545
9423.000000;0.846023
9422.000000;0.844608
9421.000000;0.842977
9420.000000;0.841906
9419.000000;0.841627
9418.000000;0.841663
9417.000000;0.841309
9416.000000;0.840327
9415.000000;0.839124
9414.000000;0.838233
9413.000000;0.837757
9412.000000;0.837411
9411.000000;0.836989
9410.000000;0.836595
9409.000000;0.836431
9408.000000;0.836515
9407.000000;0.836687
9406.000000;0.836814
9405.000000;0.836873
9404.000000;0.836811
9403.000000;0.836403
9402.000000;0.835374
9401.000000;0.833757
9400.000000;0.832054
9399.000000;0.830872
9398.000000;0.830375
9397.000000;0.830206
9396.000000;0.829933
9395.000000;0.829424
9394.000000;0.828760
9393.000000;0.827988
9392.000000;0.827136
9391.000000;0.826362
9390.000000;0.825918
9389.000000;0.825952
9388.000000;0.826416
9387.000000;0.827075
9386.000000;0.827562
9385.000000;0.827536
9384.000000;0.826930
9383.000000;0.826028
9382.000000;0.825194
9381.000000;0.824591
9380.000000;0.824189
9379.000000;0.823910
9378.000000;0.823626
9377.000000;0.823125
9376.000000;0.822289
9375.000000;0.821307
9374.000000;0.820547
9373.000000;0.820189
9372.000000;0.820072
9371.000000;0.819897
9370.000000;0.819475
9369.000000;0.818798
9368.000000;0.817973
9367.000000;0.817101
9366.000000;0.816144
9365.000000;0.814947
9364.000000;0.813494
9363.000000;0.812081
9362.000000;0.811133
9361.000000;0.810852
9360.000000;0.811139
9359.000000;0.811790
9358.000000;0.812615
9357.000000;0.813369
9356.000000;0.813736
9355.000000;0.813485
9354.000000;0.812602
9353.000000;0.811254
9352.000000;0.809703
9351.000000;0.808242
9350.000000;0.807091
9349.000000;0.806309
9348.000000;0.805817
9347.000000;0.805526
9346.000000;0.805424
9345.000000;0.805526
9344.000000;0.805766
9343.000000;0.805901
9342.000000;0.805594
9341.000000;0.804722
9340.000000;0.803629
9339.000000;0.802917
9338.000000;0.802827
9337.000000;0.802925
9336.000000;0.802543
9335.000000;0.801488
9334.000000;0.800205
9333.000000;0.799309
9332.000000;0.799116
9331.000000;0.799496
9330.000000;0.799956
9329.000000;0.799920
9328.000000;0.799206
9327.000000;0.798238
9326.000000;0.797587
9325.000000;0.797299
9324.000000;0.796888
9323.000000;0.796040
9322.000000;0.795020
9321.000000;0.794269
9320.000000;0.793843
9319.000000;0.793467
9318.000000;0.792971
9317.000000;0.792468
9316.000000;0.792152
9315.000000;0.792111
9314.000000;0.792273
9313.000000;0.792408
9312.000000;0.792211
9311.000000;0.791565
9310.000000;0.790695
9309.000000;0.789933
9308.000000;0.789340
9307.000000;0.788691
9306.000000;0.787796
9305.000000;0.786724
9304.000000;0.785718
9303.000000;0.785001
9302.000000;0.784675
9301.000000;0.784691
9300.000000;0.784880
9299.000000;0.785071
9298.000000;0.785206
9297.000000;0.785291
9296.000000;0.785281
9295.000000;0.785108
9294.000000;0.784819
9293.000000;0.784514
9292.000000;0.784092
9291.000000;0.783234
9290.000000;0.781781
9289.000000;0.780046
9288.000000;0.778593
9287.000000;0.777726
9286.000000;0.777315
9285.000000;0.777119
9284.000000;0.777101
9283.000000;0.777298
9282.000000;0.777501
9281.000000;0.777279
9280.000000;0.776394
9279.000000;0.775125
9278.000000;0.774080
9277.000000;0.773690
9276.000000;0.773898
9275.000000;0.774283
9274.000000;0.774421
9273.000000;0.774187
9272.000000;0.773775
9271.000000;0.773441
9270.000000;0.773214
9269.000000;0.772889
9268.000000;0.772322
9267.000000;0.771655
9266.000000;0.771188
9265.000000;0.771082
9264.000000;0.771279
9263.000000;0.771616
9262.000000;0.771872
9261.000000;0.771741
9260.000000;0.771033
9259.000000;0.769976
9258.000000;0.769107
9257.000000;0.768710
9256.000000;0.768491
9255.000000;0.767985
9254.000000;0.767149
9253.000000;0.766349
9252.000000;0.765836
9251.000000;0.765533
9250.000000;0.765290
9249.000000;0.765082
9248.000000;0.764850
9247.000000;0.764425
9246.000000;0.763751
9245.000000;0.763041
9244.000000;0.762556
9243.000000;0.762307
9242.000000;0.762098
9241.000000;0.761768
9240.000000;0.761326
9239.000000;0.760929
9238.000000;0.760810
9237.000000;0.761059
9236.000000;0.761373
9235.000000;0.761186
9234.000000;0.760237
9233.000000;0.758904
9232.000000;0.757795
9231.000000;0.757114
9230.000000;0.756632
9229.000000;0.756144
9228.000000;0.755654
9227.000000;0.755130
9226.000000;0.754418
9225.000000;0.753507
9224.000000;0.752642
9223.000000;0.752052
9222.000000;0.751753
9221.000000;0.751713
9220.000000;0.751978
9219.000000;0.752470
9218.000000;0.752854
9217.000000;0.752834
9216.000000;0.752493
9215.000000;0.752123
9214.000000;0.751812
9213.000000;0.751386
9212.000000;0.750725
9211.000000;0.749955
9210.000000;0.749302
9209.000000;0.748876
9208.000000;0.748595
9207.000000;0.748249
9206.000000;0.747657
9205.000000;0.746869
9204.000000;0.746178
9203.000000;0.745854
9202.000000;0.745888
9201.000000;0.746076
9200.000000;0.746292
9199.000000;0.746531
9198.000000;0.746729
9197.000000;0.746702
9196.000000;0.746318
9195.000000;0.745642
9194.000000;0.744898
9193.000000;0.744311
9192.000000;0.743981
9191.000000;0.743813
9190.000000;0.743625
9189.000000;0.743361
9188.000000;0.743143
9187.000000;0.743046
9186.000000;0.742917
9185.000000;0.742580
9184.000000;0.742149
9183.000000;0.741912
9182.000000;0.741881
9181.000000;0.741686
9180.000000;0.741016
9179.000000;0.739999
9178.000000;0.739037
9177.000000;0.738397
9176.000000;0.738087
9175.000000;0.738033
9174.000000;0.738167
9173.000000;0.738350
9172.000000;0.738357
9171.000000;0.738055
9170.000000;0.737539
9169.000000;0.737008
9168.000000;0.736531
9167.000000;0.735989
9166.000000;0.735268
9165.000000;0.734445
9164.000000;0.733709
9163.000000;0.733143
9162.000000;0.732705
9161.000000;0.732426
9160.000000;0.732459
9159.000000;0.732807
9158.000000;0.733114
9157.000000;0.732922
9156.000000;0.732153
9155.000000;0.731213
9154.000000;0.730585
9153.000000;0.730393
9152.000000;0.730389
9151.000000;0.730265
9150.000000;0.729902
9149.000000;0.729363
9148.000000;0.728767
9147.000000;0.728202
9146.000000;0.727747
9145.000000;0.727488
9144.000000;0.727435
9143.000000;0.727436
9142.000000;0.727289
9141.000000;0.726991
9140.000000;0.726765
9139.000000;0.726787
9138.000000;0.726950
9137.000000;0.727015
9136.000000;0.726899
9135.000000;0.726664
9134.000000;0.726287
9133.000000;0.725651
9132.000000;0.724816
9131.000000;0.724152
9130.000000;0.724042
9129.000000;0.724463
9128.000000;0.724923
9127.000000;0.724876
9126.000000;0.724236
9125.000000;0.723467
9124.000000;0.723112
9123.000000;0.723200
9122.000000;0.723228
9121.000000;0.722762
9120.000000;0.721913
9119.000000;0.721109
9118.000000;0.720558
9117.000000;0.720123
9116.000000;0.719682
9115.000000;0.719353
9114.000000;0.719327
9113.000000;0.719631
9112.000000;0.720135
9111.000000;0.720669
9110.000000;0.721051
9109.000000;0.721127
9108.000000;0.720858
9107.000000;0.720355
9106.000000;0.719774
9105.000000;0.719170
9104.000000;0.718461
9103.000000;0.717543
9102.000000;0.716490
9101.000000;0.715638
9100.000000;0.715333
9099.000000;0.715531
9098.000000;0.715777
9097.000000;0.715685
9096.000000;0.715324
9095.000000;0.715014
9094.000000;0.714870
9093.000000;0.714735
9092.000000;0.714461
9091.000000;0.713999
9090.000000;0.713272
9089.000000;0.712230
9088.000000;0.711047
9087.000000;0.710049
9086.000000;0.709413
9085.000000;0.709105
9084.000000;0.709091
9083.000000;0.709380
9082.000000;0.709838
9081.000000;0.710227
9080.000000;0.710479
9079.000000;0.710692
9078.000000;0.710810
9077.000000;0.710579
9076.000000;0.709943
9075.000000;0.709208
9074.000000;0.708645
9073.000000;0.708192
9072.000000;0.707747
9071.000000;0.707493
9070.000000;0.707655
9069.000000;0.708042
9068.000000;0.708166
9067.000000;0.707790
9066.000000;0.707175
9065.000000;0.706754
9064.000000;0.706677
9063.000000;0.706667
9062.000000;0.706270
9061.000000;0.705302
9060.000000;0.704134
9059.000000;0.703450
9058.000000;0.703611
9057.000000;0.704330
9056.000000;0.704971
9055.000000;0.705093
9054.000000;0.704654
9053.000000;0.703887
