Criado como novo conjunto de dados;"1909daniel.spp","-4278584.4 Secs"
cm-1;Abs
10000.000000;1.346806
9999.000000;1.345026
9998.000000;1.343980
9997.000000;1.343605
9996.000000;1.343160
9995.000000;1.342514
9994.000000;1.342077
9993.000000;1.341892
9992.000000;1.341454
9991.000000;1.340759
9990.000000;1.340441
9989.000000;1.340605
9988.000000;1.340350
9987.000000;1.338972
9986.000000;1.336954
9985.000000;1.335254
9984.000000;1.334154
9983.000000;1.333295
9982.000000;1.332383
9981.000000;1.331373
9980.000000;1.330276
9979.000000;1.329185
9978.000000;1.328303
9977.000000;1.327728
9976.000000;1.327487
9975.000000;1.327772
9974.000000;1.328602
9973.000000;1.329192
9972.000000;1.328337
9971.000000;1.325818
9970.000000;1.322821
9969.000000;1.320582
9968.000000;1.319184
9967.000000;1.318129
9966.000000;1.317488
9965.000000;1.317827
9964.000000;1.319200
9963.000000;1.320835
9962.000000;1.321843
9961.000000;1.321875
9960.000000;1.321097
9959.000000;1.319879
9958.000000;1.318626
9957.000000;1.317681
9956.000000;1.317158
9955.000000;1.316828
9954.000000;1.316207
9953.000000;1.314960
9952.000000;1.313246
9951.000000;1.311513
9950.000000;1.309959
9949.000000;1.308523
9948.000000;1.307523
9947.000000;1.307681
9946.000000;1.309035
9945.000000;1.310253
9944.000000;1.309804
9943.000000;1.307671
9942.000000;1.305160
9941.000000;1.303211
9940.000000;1.301753
9939.000000;1.300582
9938.000000;1.299936
9937.000000;1.299925
9936.000000;1.300145
9935.000000;1.300186
9934.000000;1.299994
9933.000000;1.299532
9932.000000;1.298626
9931.000000;1.297394
9930.000000;1.296320
9929.000000;1.295600
9928.000000;1.294925
9927.000000;1.294080
9926.000000;1.293251
9925.000000;1.292541
9924.000000;1.291741
9923.000000;1.290864
9922.000000;1.290352
9921.000000;1.290433
9920.000000;1.290668
9919.000000;1.290459
9918.000000;1.289631
9917.000000;1.288352
9916.000000;1.286898
9915.000000;1.285700
9914.000000;1.285157
9913.000000;1.285088
9912.000000;1.284765
9911.000000;1.283773
9910.000000;1.282454
9909.000000;1.281249
9908.000000;1.280040
9907.000000;1.278561
9906.000000;1.277083
9905.000000;1.276230
9904.000000;1.276200
9903.000000;1.276484
9902.000000;1.276332
9901.000000;1.275416
9900.000000;1.274152
9899.000000;1.273359
9898.000000;1.273333
9897.000000;1.273299
9896.000000;1.272211
9895.000000;1.270098
9894.000000;1.268140
9893.000000;1.267340
9892.000000;1.267583
9891.000000;1.268129
9890.000000;1.268508
9889.000000;1.268598
9888.000000;1.268153
9887.000000;1.266815
9886.000000;1.264670
9885.000000;1.262544
9884.000000;1.261523
9883.000000;1.262011
9882.000000;1.263184
9881.000000;1.263622
9880.000000;1.262743
9879.000000;1.261328
9878.000000;1.260348
9877.000000;1.259671
9876.000000;1.258500
9875.000000;1.256767
9874.000000;1.255319
9873.000000;1.254764
9872.000000;1.254913
9871.000000;1.255416
9870.000000;1.256106
9869.000000;1.256449
9868.000000;1.255501
9867.000000;1.252977
9866.000000;1.249921
9865.000000;1.247826
9864.000000;1.247367
9863.000000;1.248166
9862.000000;1.249365
9861.000000;1.250065
9860.000000;1.249580
9859.000000;1.247811
9858.000000;1.245424
9857.000000;1.243425
9856.000000;1.242483
9855.000000;1.242568
9854.000000;1.243052
9853.000000;1.243131
9852.000000;1.242445
9851.000000;1.241407
9850.000000;1.240761
9849.000000;1.240814
9848.000000;1.241252
9847.000000;1.241559
9846.000000;1.241275
9845.000000;1.240021
9844.000000;1.237797
9843.000000;1.235276
9842.000000;1.233377
9841.000000;1.232408
9840.000000;1.231944
9839.000000;1.231515
9838.000000;1.231027
9837.000000;1.230479
9836.000000;1.229767
9835.000000;1.228907
9834.000000;1.228114
9833.000000;1.227491
9832.000000;1.226875
9831.000000;1.226075
9830.000000;1.225065
9829.000000;1.223957
9828.000000;1.223001
9827.000000;1.222510
9826.000000;1.222485
9825.000000;1.222465
9824.000000;1.222091
9823.000000;1.221612
9822.000000;1.221408
9821.000000;1.221251
9820.000000;1.220628
9819.000000;1.219630
9818.000000;1.218784
9817.000000;1.218041
9816.000000;1.216756
9815.000000;1.214872
9814.000000;1.213356
9813.000000;1.213032
9812.000000;1.213513
9811.000000;1.213665
9810.000000;1.212795
9809.000000;1.211106
9808.000000;1.209274
9807.000000;1.207878
9806.000000;1.207085
9805.000000;1.206669
9804.000000;1.206377
9803.000000;1.206184
9802.000000;1.206037
9801.000000;1.205562
9800.000000;1.204440
9799.000000;1.202930
9798.000000;1.201584
9797.000000;1.200539
9796.000000;1.199575
9795.000000;1.198745
9794.000000;1.198342
9793.000000;1.198317
9792.000000;1.198370
9791.000000;1.198563
9790.000000;1.199177
9789.000000;1.199909
9788.000000;1.199887
9787.000000;1.198700
9786.000000;1.196886
9785.000000;1.195185
9784.000000;1.193850
9783.000000;1.192818
9782.000000;1.192066
9781.000000;1.191589
9780.000000;1.191435
9779.000000;1.191797
9778.000000;1.192589
9777.000000;1.192969
9776.000000;1.192007
9775.000000;1.189954
9774.000000;1.188091
9773.000000;1.187150
9772.000000;1.186609
9771.000000;1.185745
9770.000000;1.184567
9769.000000;1.183312
9768.000000;1.181776
9767.000000;1.179791
9766.000000;1.177870
9765.000000;1.176715
9764.000000;1.176331
9763.000000;1.176121
9762.000000;1.175691
9761.000000;1.175201
9760.000000;1.175022
9759.000000;1.175334
9758.000000;1.175928
9757.000000;1.176245
9756.000000;1.175783
9755.000000;1.174580
9754.000000;1.173129
9753.000000;1.171814
9752.000000;1.170677
9751.000000;1.169680
9750.000000;1.168784
9749.000000;1.167743
9748.000000;1.166301
9747.000000;1.164700
9746.000000;1.163583
9745.000000;1.163255
9744.000000;1.163404
9743.000000;1.163626
9742.000000;1.163804
9741.000000;1.163923
9740.000000;1.163907
9739.000000;1.163741
9738.000000;1.163392
9737.000000;1.162650
9736.000000;1.161507
9735.000000;1.160576
9734.000000;1.160478
9733.000000;1.160822
9732.000000;1.160499
9731.000000;1.159159
9730.000000;1.157595
9729.000000;1.156465
9728.000000;1.155479
9727.000000;1.154192
9726.000000;1.152844
9725.000000;1.151894
9724.000000;1.151307
9723.000000;1.150802
9722.000000;1.150327
9721.000000;1.149809
9720.000000;1.148883
9719.000000;1.147384
9718.000000;1.145709
9717.000000;1.144313
9716.000000;1.143261
9715.000000;1.142646
9714.000000;1.142874
9713.000000;1.143934
9712.000000;1.144802
9711.000000;1.144319
9710.000000;1.142540
9709.000000;1.140667
9708.000000;1.139697
9707.000000;1.139588
9706.000000;1.139648
9705.000000;1.139299
9704.000000;1.138452
9703.000000;1.137467
9702.000000;1.136798
9701.000000;1.136548
9700.000000;1.136396
9699.000000;1.136018
9698.000000;1.135416
9697.000000;1.134723
9696.000000;1.133909
9695.000000;1.132852
9694.000000;1.131540
9693.000000;1.130104
9692.000000;1.128796
9691.000000;1.127935
9690.000000;1.127604
9689.000000;1.127381
9688.000000;1.126742
9687.000000;1.125820
9686.000000;1.125328
9685.000000;1.125504
9684.000000;1.125547
9683.000000;1.124427
9682.000000;1.122030
9681.000000;1.119248
9680.000000;1.117166
9679.000000;1.116389
9678.000000;1.116837
9677.000000;1.117820
9676.000000;1.118484
9675.000000;1.118461
9674.000000;1.118048
9673.000000;1.117690
9672.000000;1.117517
9671.000000;1.117467
9670.000000;1.117528
9669.000000;1.117641
9668.000000;1.117575
9667.000000;1.117115
9666.000000;1.116250
9665.000000;1.115107
9664.000000;1.113905
9663.000000;1.112982
9662.000000;1.112479
9661.000000;1.111911
9660.000000;1.110479
9659.000000;1.108075
9658.000000;1.105633
9657.000000;1.104219
9656.000000;1.103985
9655.000000;1.104133
9654.000000;1.103677
9653.000000;1.102152
9652.000000;1.099896
9651.000000;1.097879
9650.000000;1.097013
9649.000000;1.097409
9648.000000;1.098336
9647.000000;1.098961
9646.000000;1.098986
9645.000000;1.098577
9644.000000;1.098024
9643.000000;1.097581
9642.000000;1.097316
9641.000000;1.096947
9640.000000;1.096067
9639.000000;1.094655
9638.000000;1.093160
9637.000000;1.092042
9636.000000;1.091468
9635.000000;1.091413
9634.000000;1.091675
9633.000000;1.091763
9632.000000;1.091178
9631.000000;1.089955
9630.000000;1.088608
9629.000000;1.087489
9628.000000;1.086561
9627.000000;1.085772
9626.000000;1.085152
9625.000000;1.084445
9624.000000;1.083195
9623.000000;1.081415
9622.000000;1.079776
9621.000000;1.078897
9620.000000;1.078799
9619.000000;1.079194
9618.000000;1.079886
9617.000000;1.080596
9616.000000;1.080823
9615.000000;1.080267
9614.000000;1.079173
9613.000000;1.077971
9612.000000;1.076829
9611.000000;1.075760
9610.000000;1.074895
9609.000000;1.074387
9608.000000;1.074235
9607.000000;1.074327
9606.000000;1.074435
9605.000000;1.074151
9604.000000;1.073214
9603.000000;1.071995
9602.000000;1.071241
9601.000000;1.071114
9600.000000;1.070904
9599.000000;1.069931
9598.000000;1.068345
9597.000000;1.066761
9596.000000;1.065516
9595.000000;1.064615
9594.000000;1.064058
9593.000000;1.063823
9592.000000;1.063724
9591.000000;1.063553
9590.000000;1.063186
9589.000000;1.062419
9588.000000;1.061055
9587.000000;1.059407
9586.000000;1.058332
9585.000000;1.058370
9584.000000;1.059092
9583.000000;1.059573
9582.000000;1.059320
9581.000000;1.058495
9580.000000;1.057484
9579.000000;1.056555
9578.000000;1.055768
9577.000000;1.054947
9576.000000;1.053925
9575.000000;1.052973
9574.000000;1.052672
9573.000000;1.053088
9572.000000;1.053380
9571.000000;1.052636
9570.000000;1.050917
9569.000000;1.049089
9568.000000;1.047793
9567.000000;1.046981
9566.000000;1.046340
9565.000000;1.045730
9564.000000;1.045183
9563.000000;1.044807
9562.000000;1.044762
9561.000000;1.045093
9560.000000;1.045506
9559.000000;1.045445
9558.000000;1.044526
9557.000000;1.042862
9556.000000;1.040996
9555.000000;1.039510
9554.000000;1.038640
9553.000000;1.038232
9552.000000;1.038034
9551.000000;1.037906
9550.000000;1.037696
9549.000000;1.037137
9548.000000;1.036161
9547.000000;1.035178
9546.000000;1.034666
9545.000000;1.034542
9544.000000;1.034279
9543.000000;1.033615
9542.000000;1.032734
9541.000000;1.031729
9540.000000;1.030411
9539.000000;1.028838
9538.000000;1.027573
9537.000000;1.027117
9536.000000;1.027365
9535.000000;1.027818
9534.000000;1.028091
9533.000000;1.028038
9532.000000;1.027615
9531.000000;1.026849
9530.000000;1.025793
9529.000000;1.024433
9528.000000;1.022847
9527.000000;1.021467
9526.000000;1.020807
9525.000000;1.020804
9524.000000;1.020796
9523.000000;1.020303
9522.000000;1.019512
9521.000000;1.018839
9520.000000;1.018397
9519.000000;1.018132
9518.000000;1.018093
9517.000000;1.018272
9516.000000;1.018454
9515.000000;1.018484
9514.000000;1.018432
9513.000000;1.018288
9512.000000;1.017776
9511.000000;1.016729
9510.000000;1.015377
9509.000000;1.014022
9508.000000;1.012675
9507.000000;1.011252
9506.000000;1.009848
9505.000000;1.008564
9504.000000;1.007315
9503.000000;1.006090
9502.000000;1.005151
9501.000000;1.004698
9500.000000;1.004491
9499.000000;1.004100
9498.000000;1.003431
9497.000000;1.002787
9496.000000;1.002526
9495.000000;1.002797
9494.000000;1.003451
9493.000000;1.004053
9492.000000;1.004114
9491.000000;1.003467
9490.000000;1.002293
9489.000000;1.000833
9488.000000;0.999380
9487.000000;0.998465
9486.000000;0.998504
9485.000000;0.999070
9484.000000;0.999056
9483.000000;0.997922
9482.000000;0.996344
9481.000000;0.995249
9480.000000;0.994679
9479.000000;0.994100
9478.000000;0.993416
9477.000000;0.993017
9476.000000;0.993018
9475.000000;0.993111
9474.000000;0.993120
9473.000000;0.993157
9472.000000;0.993151
9471.000000;0.992769
9470.000000;0.991900
9469.000000;0.990834
9468.000000;0.989865
9467.000000;0.989031
9466.000000;0.988333
9465.000000;0.987852
9464.000000;0.987563
9463.000000;0.987294
9462.000000;0.986974
9461.000000;0.986680
9460.000000;0.986349
9459.000000;0.985704
9458.000000;0.984654
9457.000000;0.983569
9456.000000;0.982967
9455.000000;0.982945
9454.000000;0.983050
9453.000000;0.982686
9452.000000;0.981652
9451.000000;0.980279
9450.000000;0.979079
9449.000000;0.978255
9448.000000;0.977613
9447.000000;0.976952
9446.000000;0.976365
9445.000000;0.976009
9444.000000;0.975695
9443.000000;0.974979
9442.000000;0.973716
9441.000000;0.972369
9440.000000;0.971613
9439.000000;0.971684
9438.000000;0.972184
9437.000000;0.972548
9436.000000;0.972582
9435.000000;0.972466
9434.000000;0.972306
9433.000000;0.971905
9432.000000;0.971047
9431.000000;0.969784
9430.000000;0.968280
9429.000000;0.966590
9428.000000;0.964869
9427.000000;0.963629
9426.000000;0.963358
9425.000000;0.963833
9424.000000;0.964183
9423.000000;0.963812
9422.000000;0.962983
9421.000000;0.962346
9420.000000;0.962133
9419.000000;0.962036
9418.000000;0.961697
9417.000000;0.961109
9416.000000;0.960572
9415.000000;0.960372
9414.000000;0.960427
9413.000000;0.960233
9412.000000;0.959324
9411.000000;0.957852
9410.000000;0.956541
9409.000000;0.955976
9408.000000;0.956065
9407.000000;0.956279
9406.000000;0.956206
9405.000000;0.955777
9404.000000;0.955162
9403.000000;0.954605
9402.000000;0.954204
9401.000000;0.953717
9400.000000;0.952767
9399.000000;0.951405
9398.000000;0.950245
9397.000000;0.949807
9396.000000;0.949880
9395.000000;0.949779
9394.000000;0.949168
9393.000000;0.948338
9392.000000;0.947691
9391.000000;0.947250
9390.000000;0.946749
9389.000000;0.946028
9388.000000;0.945191
9387.000000;0.944461
9386.000000;0.943975
9385.000000;0.943720
9384.000000;0.943611
9383.000000;0.943588
9382.000000;0.943659
9381.000000;0.943852
9380.000000;0.944114
9379.000000;0.944231
9378.000000;0.943861
9377.000000;0.942770
9376.000000;0.941099
9375.000000;0.939331
9374.000000;0.937952
9373.000000;0.937197
9372.000000;0.937088
9371.000000;0.937513
9370.000000;0.938112
9369.000000;0.938301
9368.000000;0.937682
9367.000000;0.936387
9366.000000;0.934855
9365.000000;0.933401
9364.000000;0.932197
9363.000000;0.931480
9362.000000;0.931391
9361.000000;0.931633
9360.000000;0.931637
9359.000000;0.931191
9358.000000;0.930637
9357.000000;0.930404
9356.000000;0.930552
9355.000000;0.930806
9354.000000;0.930808
9353.000000;0.930300
9352.000000;0.929290
9351.000000;0.928090
9350.000000;0.926976
9349.000000;0.925857
9348.000000;0.924532
9347.000000;0.923199
9346.000000;0.922356
9345.000000;0.922151
9344.000000;0.922186
9343.000000;0.922061
9342.000000;0.921771
9341.000000;0.921439
9340.000000;0.921028
9339.000000;0.920544
9338.000000;0.920223
9337.000000;0.920237
9336.000000;0.920413
9335.000000;0.920441
9334.000000;0.920208
9333.000000;0.919738
9332.000000;0.919016
9331.000000;0.918089
9330.000000;0.917181
9329.000000;0.916488
9328.000000;0.915974
9327.000000;0.915511
9326.000000;0.915074
9325.000000;0.914648
9324.000000;0.914125
9323.000000;0.913512
9322.000000;0.913103
9321.000000;0.913186
9320.000000;0.913617
9319.000000;0.913887
9318.000000;0.913678
9317.000000;0.913227
9316.000000;0.913066
9315.000000;0.913388
9314.000000;0.913683
9313.000000;0.913141
9312.000000;0.911526
9311.000000;0.909527
9310.000000;0.908065
9309.000000;0.907376
9308.000000;0.907037
9307.000000;0.906697
9306.000000;0.906373
9305.000000;0.906041
9304.000000;0.905471
9303.000000;0.904653
9302.000000;0.903960
9301.000000;0.903629
9300.000000;0.903418
9299.000000;0.903039
9298.000000;0.902643
9297.000000;0.902513
9296.000000;0.902542
9295.000000;0.902373
9294.000000;0.901913
9293.000000;0.901368
9292.000000;0.900866
9291.000000;0.900316
9290.000000;0.899592
9289.000000;0.898626
9288.000000;0.897428
9287.000000;0.896267
9286.000000;0.895688
9285.000000;0.896036
9284.000000;0.896977
9283.000000;0.897747
9282.000000;0.897880
9281.000000;0.897467
9280.000000;0.896808
9279.000000;0.896113
9278.000000;0.895556
9277.000000;0.895268
9276.000000;0.895135
9275.000000;0.894849
9274.000000;0.894285
9273.000000;0.893656
9272.000000;0.893156
9271.000000;0.892667
9270.000000;0.892023
9269.000000;0.891381
9268.000000;0.891044
9267.000000;0.890968
9266.000000;0.890762
9265.000000;0.890249
9264.000000;0.889732
9263.000000;0.889512
9262.000000;0.889361
9261.000000;0.888798
9260.000000;0.887821
9259.000000;0.886966
9258.000000;0.886582
9257.000000;0.886398
9256.000000;0.886024
9255.000000;0.885549
9254.000000;0.885299
9253.000000;0.885194
9252.000000;0.884810
9251.000000;0.884096
9250.000000;0.883600
9249.000000;0.883774
9248.000000;0.884307
9247.000000;0.884361
9246.000000;0.883423
9245.000000;0.881838
9244.000000;0.880552
9243.000000;0.880300
9242.000000;0.880953
9241.000000;0.881638
9240.000000;0.881619
9239.000000;0.880990
9238.000000;0.880355
9237.000000;0.879980
9236.000000;0.879604
9235.000000;0.879026
9234.000000;0.878464
9233.000000;0.878162
9232.000000;0.877974
9231.000000;0.877590
9230.000000;0.876949
9229.000000;0.876198
9228.000000;0.875413
9227.000000;0.874606
9226.000000;0.873905
9225.000000;0.873454
9224.000000;0.873180
9223.000000;0.872886
9222.000000;0.872554
9221.000000;0.872374
9220.000000;0.872418
9219.000000;0.872453
9218.000000;0.872187
9217.000000;0.871636
9216.000000;0.871101
9215.000000;0.870784
9214.000000;0.870509
9213.000000;0.869920
9212.000000;0.868966
9211.000000;0.868067
9210.000000;0.867711
9209.000000;0.867947
9208.000000;0.868383
9207.000000;0.868593
9206.000000;0.868409
9205.000000;0.867881
9204.000000;0.867164
9203.000000;0.866475
9202.000000;0.865986
9201.000000;0.865686
9200.000000;0.865467
9199.000000;0.865329
9198.000000;0.865313
9197.000000;0.865232
9196.000000;0.864697
9195.000000;0.863571
9194.000000;0.862225
9193.000000;0.861226
9192.000000;0.860865
9191.000000;0.861050
9190.000000;0.861506
9189.000000;0.861904
9188.000000;0.861936
9187.000000;0.861493
9186.000000;0.860793
9185.000000;0.860234
9184.000000;0.860045
9183.000000;0.860122
9182.000000;0.860153
9181.000000;0.859891
9180.000000;0.859335
9179.000000;0.858694
9178.000000;0.858186
9177.000000;0.857835
9176.000000;0.857512
9175.000000;0.857130
9174.000000;0.856749
9173.000000;0.856475
9172.000000;0.856328
9171.000000;0.856252
9170.000000;0.856177
9169.000000;0.856038
9168.000000;0.855746
9167.000000;0.855209
9166.000000;0.854391
9165.000000;0.853397
9164.000000;0.852468
9163.000000;0.851806
9162.000000;0.851365
9161.000000;0.850915
9160.000000;0.850371
9159.000000;0.849966
9158.000000;0.849968
9157.000000;0.850307
9156.000000;0.850630
9155.000000;0.850664
9154.000000;0.850398
9153.000000;0.849935
9152.000000;0.849337
9151.000000;0.848676
9150.000000;0.848081
9149.000000;0.847696
9148.000000;0.847579
9147.000000;0.847649
9146.000000;0.847672
9145.000000;0.847405
9144.000000;0.846839
9143.000000;0.846230
9142.000000;0.845798
9141.000000;0.845479
9140.000000;0.845076
9139.000000;0.844542
9138.000000;0.843971
9137.000000;0.843467
9136.000000;0.843188
9135.000000;0.843375
9134.000000;0.844038
9133.000000;0.844715
9132.000000;0.844860
9131.000000;0.844473
9130.000000;0.844035
9129.000000;0.843778
9128.000000;0.843412
9127.000000;0.842687
9126.000000;0.841881
9125.000000;0.841448
9124.000000;0.841383
9123.000000;0.841218
9122.000000;0.840622
9121.000000;0.839759
9120.000000;0.839036
9119.000000;0.838657
9118.000000;0.838486
9117.000000;0.838269
9116.000000;0.837914
9115.000000;0.837483
9114.000000;0.836993
9113.000000;0.836397
9112.000000;0.835817
9111.000000;0.835614
9110.000000;0.836003
9109.000000;0.836681
9108.000000;0.837089
9107.000000;0.837022
9106.000000;0.836730
9105.000000;0.836403
9104.000000;0.835874
9103.000000;0.834970
9102.000000;0.833927
9101.000000;0.833214
9100.000000;0.833022
9099.000000;0.833109
9098.000000;0.833111
9097.000000;0.832899
9096.000000;0.832637
9095.000000;0.832533
9094.000000;0.832520
9093.000000;0.832193
9092.000000;0.831198
9091.000000;0.829721
9090.000000;0.828457
9089.000000;0.828018
9088.000000;0.828403
9087.000000;0.829103
9086.000000;0.829619
9085.000000;0.829767
9084.000000;0.829549
9083.000000;0.828954
9082.000000;0.828016
9081.000000;0.827007
9080.000000;0.826380
9079.000000;0.826390
9078.000000;0.826772
9077.000000;0.826965
9076.000000;0.826693
9075.000000;0.826205
9074.000000;0.825874
9073.000000;0.825724
9072.000000;0.825519
9071.000000;0.825205
9070.000000;0.825039
9069.000000;0.825240
9068.000000;0.825698
9067.000000;0.826087
9066.000000;0.826157
9065.000000;0.825853
9064.000000;0.825251
9063.000000;0.824470
9062.000000;0.823660
9061.000000;0.822996
9060.000000;0.822595
9059.000000;0.822371
9058.000000;0.822032
9057.000000;0.821371
9056.000000;0.820565
9055.000000;0.820037
9054.000000;0.819988
9053.000000;0.820213
