Criado como novo conjunto de dados;"1909daniel.spp","-4217921.5 Secs"
cm-1;Abs
10000.000000;1.382532
9999.000000;1.380216
9998.000000;1.377898
9997.000000;1.375619
9996.000000;1.373304
9995.000000;1.371096
9994.000000;1.368646
9993.000000;1.365808
9992.000000;1.364196
9991.000000;1.364450
9990.000000;1.366078
9989.000000;1.367826
9988.000000;1.368667
9987.000000;1.368108
9986.000000;1.366209
9985.000000;1.363467
9984.000000;1.360601
9983.000000;1.358336
9982.000000;1.357246
9981.000000;1.357493
9980.000000;1.358500
9979.000000;1.359215
9978.000000;1.359064
9977.000000;1.358479
9976.000000;1.358143
9975.000000;1.357996
9974.000000;1.357491
9973.000000;1.356631
9972.000000;1.356095
9971.000000;1.356222
9970.000000;1.356382
9969.000000;1.355642
9968.000000;1.353802
9967.000000;1.351533
9966.000000;1.349705
9965.000000;1.348740
9964.000000;1.348456
9963.000000;1.348371
9962.000000;1.348202
9961.000000;1.348094
9960.000000;1.348234
9959.000000;1.348335
9958.000000;1.347808
9957.000000;1.346535
9956.000000;1.345205
9955.000000;1.344624
9954.000000;1.344784
9953.000000;1.344840
9952.000000;1.344000
9951.000000;1.342199
9950.000000;1.339869
9949.000000;1.337395
9948.000000;1.335129
9947.000000;1.333763
9946.000000;1.334032
9945.000000;1.335713
9944.000000;1.337232
9943.000000;1.336892
9942.000000;1.334612
9941.000000;1.332015
9940.000000;1.330702
9939.000000;1.330960
9938.000000;1.332194
9937.000000;1.333898
9936.000000;1.335655
9935.000000;1.336661
9934.000000;1.336153
9933.000000;1.334354
9932.000000;1.332353
9931.000000;1.330880
9930.000000;1.329651
9929.000000;1.328094
9928.000000;1.326258
9927.000000;1.324732
9926.000000;1.323977
9925.000000;1.323991
9924.000000;1.324366
9923.000000;1.324430
9922.000000;1.323625
9921.000000;1.322093
9920.000000;1.320765
9919.000000;1.320530
9918.000000;1.321363
9917.000000;1.322459
9916.000000;1.323074
9915.000000;1.322933
9914.000000;1.321907
9913.000000;1.319865
9912.000000;1.317075
9911.000000;1.314382
9910.000000;1.312598
9909.000000;1.311833
9908.000000;1.311625
9907.000000;1.311601
9906.000000;1.311727
9905.000000;1.311945
9904.000000;1.311896
9903.000000;1.311181
9902.000000;1.309839
9901.000000;1.308498
9900.000000;1.308007
9899.000000;1.308733
9898.000000;1.310023
9897.000000;1.310473
9896.000000;1.309109
9895.000000;1.306430
9894.000000;1.304033
9893.000000;1.303159
9892.000000;1.303736
9891.000000;1.304685
9890.000000;1.304826
9889.000000;1.303576
9888.000000;1.301270
9887.000000;1.298995
9886.000000;1.297751
9885.000000;1.297543
9884.000000;1.297522
9883.000000;1.297181
9882.000000;1.296965
9881.000000;1.297330
9880.000000;1.297752
9879.000000;1.297389
9878.000000;1.296397
9877.000000;1.295739
9876.000000;1.295771
9875.000000;1.295788
9874.000000;1.295018
9873.000000;1.293384
9872.000000;1.291150
9871.000000;1.288599
9870.000000;1.286368
9869.000000;1.285357
9868.000000;1.285842
9867.000000;1.287100
9866.000000;1.288259
9865.000000;1.289084
9864.000000;1.289606
9863.000000;1.289558
9862.000000;1.288769
9861.000000;1.287707
9860.000000;1.286947
9859.000000;1.286332
9858.000000;1.285249
9857.000000;1.283581
9856.000000;1.281805
9855.000000;1.280244
9854.000000;1.278821
9853.000000;1.277477
9852.000000;1.276302
9851.000000;1.275255
9850.000000;1.274265
9849.000000;1.273621
9848.000000;1.273797
9847.000000;1.274776
9846.000000;1.275886
9845.000000;1.276377
9844.000000;1.275856
9843.000000;1.274250
9842.000000;1.271863
9841.000000;1.269581
9840.000000;1.268445
9839.000000;1.268653
9838.000000;1.269298
9837.000000;1.269376
9836.000000;1.268799
9835.000000;1.268095
9834.000000;1.267428
9833.000000;1.266464
9832.000000;1.265137
9831.000000;1.264020
9830.000000;1.263703
9829.000000;1.264028
9828.000000;1.264199
9827.000000;1.263595
9826.000000;1.262388
9825.000000;1.261375
9824.000000;1.261302
9823.000000;1.262287
9822.000000;1.263643
9821.000000;1.264160
9820.000000;1.262811
9819.000000;1.259616
9818.000000;1.255871
9817.000000;1.253253
9816.000000;1.252450
9815.000000;1.252712
9814.000000;1.252803
9813.000000;1.252284
9812.000000;1.251647
9811.000000;1.251430
9810.000000;1.251645
9809.000000;1.252094
9808.000000;1.252755
9807.000000;1.253540
9806.000000;1.253868
9805.000000;1.252914
9804.000000;1.250497
9803.000000;1.247564
9802.000000;1.245553
9801.000000;1.245125
9800.000000;1.245555
9799.000000;1.245518
9798.000000;1.244512
9797.000000;1.243283
9796.000000;1.242767
9795.000000;1.242938
9794.000000;1.242979
9793.000000;1.242336
9792.000000;1.241197
9791.000000;1.240017
9790.000000;1.239007
9789.000000;1.238151
9788.000000;1.237313
9787.000000;1.236231
9786.000000;1.234759
9785.000000;1.233279
9784.000000;1.232501
9783.000000;1.232636
9782.000000;1.233000
9781.000000;1.232715
9780.000000;1.231596
9779.000000;1.230128
9778.000000;1.228834
9777.000000;1.228036
9776.000000;1.227983
9775.000000;1.228657
9774.000000;1.229412
9773.000000;1.229256
9772.000000;1.227824
9771.000000;1.225858
9770.000000;1.224450
9769.000000;1.223926
9768.000000;1.223685
9767.000000;1.223087
9766.000000;1.222247
9765.000000;1.221801
9764.000000;1.222028
9763.000000;1.222443
9762.000000;1.222304
9761.000000;1.221350
9760.000000;1.219921
9759.000000;1.218477
9758.000000;1.217247
9757.000000;1.216319
9756.000000;1.215838
9755.000000;1.215902
9754.000000;1.216360
9753.000000;1.216800
9752.000000;1.216768
9751.000000;1.216015
9750.000000;1.214707
9749.000000;1.213398
9748.000000;1.212580
9747.000000;1.212112
9746.000000;1.211298
9745.000000;1.209760
9744.000000;1.208094
9743.000000;1.207322
9742.000000;1.207758
9741.000000;1.208739
9740.000000;1.209458
9739.000000;1.209645
9738.000000;1.209304
9737.000000;1.208216
9736.000000;1.206217
9735.000000;1.203848
9734.000000;1.202225
9733.000000;1.202073
9732.000000;1.203106
9731.000000;1.204404
9730.000000;1.205179
9729.000000;1.205059
9728.000000;1.204009
9727.000000;1.202319
9726.000000;1.200599
9725.000000;1.199398
9724.000000;1.198718
9723.000000;1.198048
9722.000000;1.196984
9721.000000;1.195625
9720.000000;1.194282
9719.000000;1.193060
9718.000000;1.191936
9717.000000;1.191077
9716.000000;1.190791
9715.000000;1.191138
9714.000000;1.191747
9713.000000;1.192116
9712.000000;1.192052
9711.000000;1.191708
9710.000000;1.191283
9709.000000;1.190753
9708.000000;1.189911
9707.000000;1.188639
9706.000000;1.187122
9705.000000;1.185725
9704.000000;1.184654
9703.000000;1.183729
9702.000000;1.182580
9701.000000;1.181137
9700.000000;1.179875
9699.000000;1.179467
9698.000000;1.180098
9697.000000;1.181150
9696.000000;1.181633
9695.000000;1.180965
9694.000000;1.179339
9693.000000;1.177394
9692.000000;1.175689
9691.000000;1.174528
9690.000000;1.174013
9689.000000;1.173982
9688.000000;1.173959
9687.000000;1.173461
9686.000000;1.172470
9685.000000;1.171441
9684.000000;1.170803
9683.000000;1.170594
9682.000000;1.170655
9681.000000;1.170863
9680.000000;1.171041
9679.000000;1.170894
9678.000000;1.170342
9677.000000;1.169767
9676.000000;1.169639
9675.000000;1.169929
9674.000000;1.170151
9673.000000;1.169976
9672.000000;1.169465
9671.000000;1.168723
9670.000000;1.167674
9669.000000;1.166335
9668.000000;1.165050
9667.000000;1.164170
9666.000000;1.163614
9665.000000;1.162989
9664.000000;1.162104
9663.000000;1.161212
9662.000000;1.160682
9661.000000;1.160512
9660.000000;1.160227
9659.000000;1.159316
9658.000000;1.157847
9657.000000;1.156532
9656.000000;1.156004
9655.000000;1.156051
9654.000000;1.155816
9653.000000;1.154846
9652.000000;1.153665
9651.000000;1.153029
9650.000000;1.152857
9649.000000;1.152305
9648.000000;1.150907
9647.000000;1.149234
9646.000000;1.148212
9645.000000;1.148054
9644.000000;1.148114
9643.000000;1.147671
9642.000000;1.146638
9641.000000;1.145439
9640.000000;1.144436
9639.000000;1.143673
9638.000000;1.143122
9637.000000;1.142948
9636.000000;1.143372
9635.000000;1.144263
9634.000000;1.144994
9633.000000;1.144850
9632.000000;1.143630
9631.000000;1.141810
9630.000000;1.140109
9629.000000;1.138977
9628.000000;1.138444
9627.000000;1.138303
9626.000000;1.138269
9625.000000;1.137966
9624.000000;1.137000
9623.000000;1.135326
9622.000000;1.133582
9621.000000;1.132787
9620.000000;1.133400
9619.000000;1.134683
9618.000000;1.135237
9617.000000;1.134362
9616.000000;1.132700
9615.000000;1.131415
9614.000000;1.130926
9613.000000;1.130730
9612.000000;1.130298
9611.000000;1.129736
9610.000000;1.129392
9609.000000;1.129226
9608.000000;1.128870
9607.000000;1.128202
9606.000000;1.127504
9605.000000;1.127022
9604.000000;1.126613
9603.000000;1.125970
9602.000000;1.125038
9601.000000;1.124055
9600.000000;1.123244
9599.000000;1.122601
9598.000000;1.122008
9597.000000;1.121464
9596.000000;1.121082
9595.000000;1.120862
9594.000000;1.120521
9593.000000;1.119634
9592.000000;1.118029
9591.000000;1.116028
9590.000000;1.114251
9589.000000;1.113181
9588.000000;1.112906
9587.000000;1.113170
9586.000000;1.113573
9585.000000;1.113783
9584.000000;1.113680
9583.000000;1.113360
9582.000000;1.112976
9581.000000;1.112567
9580.000000;1.112071
9579.000000;1.111453
9578.000000;1.110748
9577.000000;1.110031
9576.000000;1.109468
9575.000000;1.109305
9574.000000;1.109556
9573.000000;1.109650
9572.000000;1.108757
9571.000000;1.106719
9570.000000;1.104432
9569.000000;1.102979
9568.000000;1.102508
9567.000000;1.102262
9566.000000;1.101674
9565.000000;1.101022
9564.000000;1.100821
9563.000000;1.100982
9562.000000;1.100933
9561.000000;1.100453
9560.000000;1.100004
9559.000000;1.100100
9558.000000;1.100594
9557.000000;1.100770
9556.000000;1.100030
9555.000000;1.098405
9554.000000;1.096475
9553.000000;1.094901
9552.000000;1.094047
9551.000000;1.093872
9550.000000;1.094025
9549.000000;1.094036
9548.000000;1.093581
9547.000000;1.092708
9546.000000;1.091805
9545.000000;1.091253
9544.000000;1.091077
9543.000000;1.091008
9542.000000;1.090840
9541.000000;1.090595
9540.000000;1.090298
9539.000000;1.089807
9538.000000;1.089022
9537.000000;1.088133
9536.000000;1.087450
9535.000000;1.087027
9534.000000;1.086660
9533.000000;1.086235
9532.000000;1.085839
9531.000000;1.085446
9530.000000;1.084702
9529.000000;1.083236
9528.000000;1.081152
9527.000000;1.079026
9526.000000;1.077465
9525.000000;1.076723
9524.000000;1.076635
9523.000000;1.076744
9522.000000;1.076583
9521.000000;1.076038
9520.000000;1.075482
9519.000000;1.075376
9518.000000;1.075725
9517.000000;1.076075
9516.000000;1.076072
9515.000000;1.075852
9514.000000;1.075750
9513.000000;1.075760
9512.000000;1.075455
9511.000000;1.074439
9510.000000;1.072784
9509.000000;1.071082
9508.000000;1.070088
9507.000000;1.070155
9506.000000;1.070821
9505.000000;1.071050
9504.000000;1.070141
9503.000000;1.068454
9502.000000;1.067053
9501.000000;1.066604
9500.000000;1.066772
9499.000000;1.066760
9498.000000;1.066229
9497.000000;1.065497
9496.000000;1.064992
9495.000000;1.064802
9494.000000;1.064744
9493.000000;1.064604
9492.000000;1.064165
9491.000000;1.063171
9490.000000;1.061539
9489.000000;1.059655
9488.000000;1.058273
9487.000000;1.057948
9486.000000;1.058542
9485.000000;1.059398
9484.000000;1.059991
9483.000000;1.060260
9482.000000;1.060278
9481.000000;1.059876
9480.000000;1.058872
9479.000000;1.057551
9478.000000;1.056538
9477.000000;1.056090
9476.000000;1.055819
9475.000000;1.055281
9474.000000;1.054599
9473.000000;1.054199
9472.000000;1.054098
9471.000000;1.053777
9470.000000;1.052810
9469.000000;1.051377
9468.000000;1.050035
9467.000000;1.049148
9466.000000;1.048618
9465.000000;1.048104
9464.000000;1.047408
9463.000000;1.046671
9462.000000;1.046192
9461.000000;1.046024
9460.000000;1.045812
9459.000000;1.045100
9458.000000;1.043780
9457.000000;1.042177
9456.000000;1.040786
9455.000000;1.040024
9454.000000;1.040095
9453.000000;1.040839
9452.000000;1.041680
9451.000000;1.041941
9450.000000;1.041355
9449.000000;1.040231
9448.000000;1.039120
9447.000000;1.038439
9446.000000;1.038332
9445.000000;1.038619
9444.000000;1.038804
9443.000000;1.038384
9442.000000;1.037337
9441.000000;1.036198
9440.000000;1.035541
9439.000000;1.035444
9438.000000;1.035514
9437.000000;1.035294
9436.000000;1.034573
9435.000000;1.033485
9434.000000;1.032481
9433.000000;1.032066
9432.000000;1.032364
9431.000000;1.032931
9430.000000;1.033139
9429.000000;1.032700
9428.000000;1.031766
9427.000000;1.030638
9426.000000;1.029606
9425.000000;1.028997
9424.000000;1.029057
9423.000000;1.029605
9422.000000;1.029968
9421.000000;1.029473
9420.000000;1.028086
9419.000000;1.026469
9418.000000;1.025347
9417.000000;1.024824
9416.000000;1.024373
9415.000000;1.023519
9414.000000;1.022438
9413.000000;1.021743
9412.000000;1.021708
9411.000000;1.021898
9410.000000;1.021661
9409.000000;1.020833
9408.000000;1.019850
9407.000000;1.019277
9406.000000;1.019368
9405.000000;1.019975
9404.000000;1.020642
9403.000000;1.020831
9402.000000;1.020251
9401.000000;1.019072
9400.000000;1.017798
9399.000000;1.016943
9398.000000;1.016801
9397.000000;1.017282
9396.000000;1.017798
9395.000000;1.017531
9394.000000;1.016143
9393.000000;1.014190
9392.000000;1.012573
9391.000000;1.011626
9390.000000;1.011012
9389.000000;1.010408
9388.000000;1.009888
9387.000000;1.009571
9386.000000;1.009350
9385.000000;1.009219
9384.000000;1.009527
9383.000000;1.010514
9382.000000;1.011784
9381.000000;1.012541
9380.000000;1.012295
9379.000000;1.011116
9378.000000;1.009369
9377.000000;1.007565
9376.000000;1.006327
9375.000000;1.006004
9374.000000;1.006231
9373.000000;1.006226
9372.000000;1.005667
9371.000000;1.004974
9370.000000;1.004617
9369.000000;1.004498
9368.000000;1.004222
9367.000000;1.003645
9366.000000;1.002905
9365.000000;1.002145
9364.000000;1.001540
9363.000000;1.001386
9362.000000;1.001781
9361.000000;1.002280
9360.000000;1.002227
9359.000000;1.001477
9358.000000;1.000502
9357.000000;0.999787
9356.000000;0.999398
9355.000000;0.999187
9354.000000;0.999047
9353.000000;0.998784
9352.000000;0.998047
9351.000000;0.996683
9350.000000;0.995091
9349.000000;0.993944
9348.000000;0.993558
9347.000000;0.993637
9346.000000;0.993596
9345.000000;0.993081
9344.000000;0.992213
9343.000000;0.991392
9342.000000;0.990847
9341.000000;0.990384
9340.000000;0.989663
9339.000000;0.988717
9338.000000;0.988008
9337.000000;0.987888
9336.000000;0.988167
9335.000000;0.988329
9334.000000;0.988032
9333.000000;0.987308
9332.000000;0.986420
9331.000000;0.985679
9330.000000;0.985277
9329.000000;0.985149
9328.000000;0.985081
9327.000000;0.985049
9326.000000;0.985253
9325.000000;0.985678
9324.000000;0.985854
9323.000000;0.985335
9322.000000;0.984273
9321.000000;0.983216
9320.000000;0.982453
9319.000000;0.981860
9318.000000;0.981324
9317.000000;0.980945
9316.000000;0.980800
9315.000000;0.980826
9314.000000;0.980979
9313.000000;0.981200
9312.000000;0.981214
9311.000000;0.980678
9310.000000;0.979609
9309.000000;0.978340
9308.000000;0.977026
9307.000000;0.975593
9306.000000;0.974248
9305.000000;0.973566
9304.000000;0.973758
9303.000000;0.974225
9302.000000;0.974215
9301.000000;0.973699
9300.000000;0.973276
9299.000000;0.973424
9298.000000;0.974149
9297.000000;0.975144
9296.000000;0.975894
9295.000000;0.975766
9294.000000;0.974496
9293.000000;0.972627
9292.000000;0.971114
9291.000000;0.970403
9290.000000;0.970131
9289.000000;0.969705
9288.000000;0.968924
9287.000000;0.967982
9286.000000;0.967189
9285.000000;0.966834
9284.000000;0.967089
9283.000000;0.967789
9282.000000;0.968399
9281.000000;0.968406
9280.000000;0.967790
9279.000000;0.967045
9278.000000;0.966697
9277.000000;0.966816
9276.000000;0.967020
9275.000000;0.966954
9274.000000;0.966675
9273.000000;0.966420
9272.000000;0.966036
9271.000000;0.964997
9270.000000;0.963209
9269.000000;0.961479
9268.000000;0.960791
9267.000000;0.961183
9266.000000;0.961723
9265.000000;0.961611
9264.000000;0.960955
9263.000000;0.960380
9262.000000;0.960235
9261.000000;0.960471
9260.000000;0.960944
9259.000000;0.961436
9258.000000;0.961480
9257.000000;0.960610
9256.000000;0.958941
9255.000000;0.957288
9254.000000;0.956474
9253.000000;0.956553
9252.000000;0.956811
9251.000000;0.956563
9250.000000;0.955846
9249.000000;0.955263
9248.000000;0.955227
9247.000000;0.955545
9246.000000;0.955724
9245.000000;0.955510
9244.000000;0.955026
9243.000000;0.954510
9242.000000;0.954075
9241.000000;0.953630
9240.000000;0.952952
9239.000000;0.951953
9238.000000;0.951017
9237.000000;0.950849
9236.000000;0.951711
9235.000000;0.952923
9234.000000;0.953470
9233.000000;0.953059
9232.000000;0.952206
9231.000000;0.951312
9230.000000;0.950144
9229.000000;0.948440
9228.000000;0.946548
9227.000000;0.945110
9226.000000;0.944384
9225.000000;0.944227
9224.000000;0.944528
9223.000000;0.945250
9222.000000;0.946133
9221.000000;0.946751
9220.000000;0.946946
9219.000000;0.946907
9218.000000;0.946758
9217.000000;0.946311
9216.000000;0.945396
9215.000000;0.944228
9214.000000;0.943311
9213.000000;0.943019
9212.000000;0.943319
9211.000000;0.943810
9210.000000;0.943979
9209.000000;0.943524
9208.000000;0.942530
9207.000000;0.941335
9206.000000;0.940239
9205.000000;0.939410
9204.000000;0.939009
9203.000000;0.939189
9202.000000;0.939854
9201.000000;0.940544
9200.000000;0.940718
9199.000000;0.940221
9198.000000;0.939423
9197.000000;0.938853
9196.000000;0.938700
9195.000000;0.938645
9194.000000;0.938216
9193.000000;0.937333
9192.000000;0.936452
9191.000000;0.936110
9190.000000;0.936343
9189.000000;0.936679
9188.000000;0.936703
9187.000000;0.936469
9186.000000;0.936288
9185.000000;0.936239
9184.000000;0.936071
9183.000000;0.935561
9182.000000;0.934834
9181.000000;0.934233
9180.000000;0.933942
9179.000000;0.933794
9178.000000;0.933435
9177.000000;0.932696
9176.000000;0.931836
9175.000000;0.931375
9174.000000;0.931612
9173.000000;0.932280
9172.000000;0.932740
9171.000000;0.932551
9170.000000;0.931770
9169.000000;0.930683
9168.000000;0.929426
9167.000000;0.928032
9166.000000;0.926746
9165.000000;0.926011
9164.000000;0.926046
9163.000000;0.926560
9162.000000;0.927005
9161.000000;0.927057
9160.000000;0.926771
9159.000000;0.926358
9158.000000;0.925946
9157.000000;0.925535
9156.000000;0.925138
9155.000000;0.924899
9154.000000;0.925010
9153.000000;0.925444
9152.000000;0.925792
9151.000000;0.925552
9150.000000;0.924638
9149.000000;0.923468
9148.000000;0.922490
9147.000000;0.921784
9146.000000;0.921260
9145.000000;0.921013
9144.000000;0.921244
9143.000000;0.921884
9142.000000;0.922597
9141.000000;0.923144
9140.000000;0.923537
9139.000000;0.923785
9138.000000;0.923764
9137.000000;0.923424
9136.000000;0.922921
9135.000000;0.922396
9134.000000;0.921768
9133.000000;0.920912
9132.000000;0.919958
9131.000000;0.919270
9130.000000;0.919117
9129.000000;0.919377
9128.000000;0.919555
9127.000000;0.919143
9126.000000;0.918162
9125.000000;0.917319
9124.000000;0.917399
9123.000000;0.918361
9122.000000;0.919219
9121.000000;0.918997
9120.000000;0.917747
9119.000000;0.916479
9118.000000;0.916165
9117.000000;0.916890
9116.000000;0.917835
9115.000000;0.917995
9114.000000;0.917019
9113.000000;0.915468
9112.000000;0.914238
9111.000000;0.913743
9110.000000;0.913758
9109.000000;0.913967
9108.000000;0.914355
9107.000000;0.914916
9106.000000;0.915282
9105.000000;0.914985
9104.000000;0.913999
9103.000000;0.912765
9102.000000;0.911784
9101.000000;0.911349
9100.000000;0.911478
9099.000000;0.911811
9098.000000;0.911700
9097.000000;0.910821
9096.000000;0.909643
9095.000000;0.908969
9094.000000;0.909010
9093.000000;0.909247
9092.000000;0.909206
9091.000000;0.908953
9090.000000;0.908736
9089.000000;0.908579
9088.000000;0.908478
9087.000000;0.908630
9086.000000;0.909094
9085.000000;0.909495
9084.000000;0.909407
9083.000000;0.908900
9082.000000;0.908410
9081.000000;0.908172
9080.000000;0.908048
9079.000000;0.907808
9078.000000;0.907335
9077.000000;0.906612
9076.000000;0.905782
9075.000000;0.905160
9074.000000;0.904964
9073.000000;0.905081
9072.000000;0.905278
9071.000000;0.905556
9070.000000;0.906016
9069.000000;0.906475
9068.000000;0.906557
9067.000000;0.906197
9066.000000;0.905723
9065.000000;0.905340
9064.000000;0.904869
9063.000000;0.904135
9062.000000;0.903356
9061.000000;0.902885
9060.000000;0.902747
9059.000000;0.902680
9058.000000;0.902540
9057.000000;0.902426
9056.000000;0.902399
9055.000000;0.902262
9054.000000;0.901725
9053.000000;0.900800
