Criado como novo conjunto de dados;"1909daniel.spp","-4273724.2 Secs"
cm-1;Abs
10000.000000;1.315470
9999.000000;1.314616
9998.000000;1.314832
9997.000000;1.315622
9996.000000;1.316234
9995.000000;1.316406
9994.000000;1.315988
9993.000000;1.315228
9992.000000;1.314339
9991.000000;1.313361
9990.000000;1.312117
9989.000000;1.310739
9988.000000;1.309748
9987.000000;1.309490
9986.000000;1.309673
9985.000000;1.309679
9984.000000;1.309121
9983.000000;1.307890
9982.000000;1.305981
9981.000000;1.303660
9980.000000;1.301581
9979.000000;1.300321
9978.000000;1.299865
9977.000000;1.299862
9976.000000;1.300223
9975.000000;1.301055
9974.000000;1.302083
9973.000000;1.302616
9972.000000;1.302203
9971.000000;1.301025
9970.000000;1.299512
9969.000000;1.297896
9968.000000;1.296294
9967.000000;1.294984
9966.000000;1.294339
9965.000000;1.294495
9964.000000;1.295061
9963.000000;1.295165
9962.000000;1.294033
9961.000000;1.291792
9960.000000;1.289546
9959.000000;1.288373
9958.000000;1.288291
9957.000000;1.288433
9956.000000;1.288102
9955.000000;1.287292
9954.000000;1.286313
9953.000000;1.285444
9952.000000;1.285036
9951.000000;1.285381
9950.000000;1.286184
9949.000000;1.286538
9948.000000;1.285775
9947.000000;1.284160
9946.000000;1.282514
9945.000000;1.281371
9944.000000;1.280754
9943.000000;1.280508
9942.000000;1.280494
9941.000000;1.280542
9940.000000;1.280497
9939.000000;1.280306
9938.000000;1.279931
9937.000000;1.279259
9936.000000;1.278272
9935.000000;1.277144
9934.000000;1.276020
9933.000000;1.274837
9932.000000;1.273575
9931.000000;1.272489
9930.000000;1.271754
9929.000000;1.271010
9928.000000;1.269684
9927.000000;1.267840
9926.000000;1.266329
9925.000000;1.265910
9924.000000;1.266428
9923.000000;1.267037
9922.000000;1.267087
9921.000000;1.266545
9920.000000;1.265646
9919.000000;1.264508
9918.000000;1.263167
9917.000000;1.261764
9916.000000;1.260496
9915.000000;1.259426
9914.000000;1.258430
9913.000000;1.257381
9912.000000;1.256355
9911.000000;1.255635
9910.000000;1.255460
9909.000000;1.255753
9908.000000;1.256064
9907.000000;1.255818
9906.000000;1.254733
9905.000000;1.253060
9904.000000;1.251406
9903.000000;1.250246
9902.000000;1.249590
9901.000000;1.249071
9900.000000;1.248338
9899.000000;1.247351
9898.000000;1.246385
9897.000000;1.245795
9896.000000;1.245742
9895.000000;1.246017
9894.000000;1.246097
9893.000000;1.245510
9892.000000;1.244268
9891.000000;1.242876
9890.000000;1.241806
9889.000000;1.240978
9888.000000;1.239946
9887.000000;1.238602
9886.000000;1.237474
9885.000000;1.237147
9884.000000;1.237555
9883.000000;1.238069
9882.000000;1.238265
9881.000000;1.238268
9880.000000;1.238186
9879.000000;1.237606
9878.000000;1.236092
9877.000000;1.234006
9876.000000;1.232332
9875.000000;1.231557
9874.000000;1.231099
9873.000000;1.230132
9872.000000;1.228685
9871.000000;1.227517
9870.000000;1.227014
9869.000000;1.226675
9868.000000;1.225847
9867.000000;1.224662
9866.000000;1.223965
9865.000000;1.224351
9864.000000;1.225481
9863.000000;1.226390
9862.000000;1.226389
9861.000000;1.225556
9860.000000;1.224405
9859.000000;1.223254
9858.000000;1.222006
9857.000000;1.220461
9856.000000;1.218657
9855.000000;1.216908
9854.000000;1.215626
9853.000000;1.215091
9852.000000;1.215260
9851.000000;1.215717
9850.000000;1.215917
9849.000000;1.215522
9848.000000;1.214478
9847.000000;1.212859
9846.000000;1.210895
9845.000000;1.209146
9844.000000;1.208278
9843.000000;1.208412
9842.000000;1.208880
9841.000000;1.208894
9840.000000;1.208341
9839.000000;1.207615
9838.000000;1.206859
9837.000000;1.205803
9836.000000;1.204403
9835.000000;1.203188
9834.000000;1.202710
9833.000000;1.202896
9832.000000;1.203211
9831.000000;1.203340
9830.000000;1.203411
9829.000000;1.203536
9828.000000;1.203348
9827.000000;1.202220
9826.000000;1.199984
9825.000000;1.197365
9824.000000;1.195556
9823.000000;1.195245
9822.000000;1.196006
9821.000000;1.196724
9820.000000;1.196623
9819.000000;1.195791
9818.000000;1.194754
9817.000000;1.193798
9816.000000;1.192891
9815.000000;1.192090
9814.000000;1.191703
9813.000000;1.191920
9812.000000;1.192462
9811.000000;1.192727
9810.000000;1.192290
9809.000000;1.191192
9808.000000;1.189783
9807.000000;1.188364
9806.000000;1.187034
9805.000000;1.185821
9804.000000;1.184856
9803.000000;1.184338
9802.000000;1.184301
9801.000000;1.184424
9800.000000;1.184127
9799.000000;1.182961
9798.000000;1.181047
9797.000000;1.179115
9796.000000;1.178005
9795.000000;1.178008
9794.000000;1.178642
9793.000000;1.179088
9792.000000;1.178846
9791.000000;1.178069
9790.000000;1.177354
9789.000000;1.177191
9788.000000;1.177468
9787.000000;1.177445
9786.000000;1.176400
9785.000000;1.174418
9784.000000;1.172366
9783.000000;1.170945
9782.000000;1.169948
9781.000000;1.168712
9780.000000;1.167142
9779.000000;1.165924
9778.000000;1.165678
9777.000000;1.166253
9776.000000;1.166968
9775.000000;1.167298
9774.000000;1.167085
9773.000000;1.166356
9772.000000;1.165250
9771.000000;1.164079
9770.000000;1.163145
9769.000000;1.162410
9768.000000;1.161562
9767.000000;1.160477
9766.000000;1.159435
9765.000000;1.158784
9764.000000;1.158505
9763.000000;1.158224
9762.000000;1.157610
9761.000000;1.156704
9760.000000;1.155882
9759.000000;1.155519
9758.000000;1.155569
9757.000000;1.155479
9756.000000;1.154671
9755.000000;1.153212
9754.000000;1.151860
9753.000000;1.151277
9752.000000;1.151300
9751.000000;1.151147
9750.000000;1.150293
9749.000000;1.148951
9748.000000;1.147679
9747.000000;1.146805
9746.000000;1.146318
9745.000000;1.146061
9744.000000;1.145782
9743.000000;1.145143
9742.000000;1.143965
9741.000000;1.142533
9740.000000;1.141421
9739.000000;1.140919
9738.000000;1.140705
9737.000000;1.140193
9736.000000;1.139173
9735.000000;1.138050
9734.000000;1.137444
9733.000000;1.137581
9732.000000;1.138072
9731.000000;1.138291
9730.000000;1.137975
9729.000000;1.137435
9728.000000;1.137135
9727.000000;1.137105
9726.000000;1.136835
9725.000000;1.135795
9724.000000;1.134040
9723.000000;1.132260
9722.000000;1.131176
9721.000000;1.130868
9720.000000;1.130713
9719.000000;1.130044
9718.000000;1.128832
9717.000000;1.127657
9716.000000;1.127027
9715.000000;1.126866
9714.000000;1.126652
9713.000000;1.125908
9712.000000;1.124556
9711.000000;1.122945
9710.000000;1.121598
9709.000000;1.120787
9708.000000;1.120268
9707.000000;1.119579
9706.000000;1.118624
9705.000000;1.117741
9704.000000;1.117106
9703.000000;1.116451
9702.000000;1.115619
9701.000000;1.115026
9700.000000;1.115127
9699.000000;1.115597
9698.000000;1.115572
9697.000000;1.114693
9696.000000;1.113394
9695.000000;1.112128
9694.000000;1.110842
9693.000000;1.109458
9692.000000;1.108354
9691.000000;1.107954
9690.000000;1.108058
9689.000000;1.107962
9688.000000;1.107188
9687.000000;1.105893
9686.000000;1.104649
9685.000000;1.103997
9684.000000;1.104125
9683.000000;1.104735
9682.000000;1.105260
9681.000000;1.105319
9680.000000;1.104894
9679.000000;1.104062
9678.000000;1.102821
9677.000000;1.101314
9676.000000;1.099955
9675.000000;1.099068
9674.000000;1.098596
9673.000000;1.098372
9672.000000;1.098426
9671.000000;1.098664
9670.000000;1.098497
9669.000000;1.097322
9668.000000;1.095428
9667.000000;1.093913
9666.000000;1.093503
9665.000000;1.093744
9664.000000;1.093562
9663.000000;1.092428
9662.000000;1.090768
9661.000000;1.089385
9660.000000;1.088730
9659.000000;1.088697
9658.000000;1.088858
9657.000000;1.088799
9656.000000;1.088330
9655.000000;1.087577
9654.000000;1.086898
9653.000000;1.086603
9652.000000;1.086624
9651.000000;1.086487
9650.000000;1.085767
9649.000000;1.084569
9648.000000;1.083420
9647.000000;1.082650
9646.000000;1.082075
9645.000000;1.081351
9644.000000;1.080431
9643.000000;1.079521
9642.000000;1.078715
9641.000000;1.077912
9640.000000;1.077005
9639.000000;1.075972
9638.000000;1.074840
9637.000000;1.073746
9636.000000;1.072952
9635.000000;1.072600
9634.000000;1.072502
9633.000000;1.072350
9632.000000;1.072075
9631.000000;1.071782
9630.000000;1.071402
9629.000000;1.070681
9628.000000;1.069581
9627.000000;1.068487
9626.000000;1.067895
9625.000000;1.067996
9624.000000;1.068550
9623.000000;1.069033
9622.000000;1.068946
9621.000000;1.068169
9620.000000;1.067061
9619.000000;1.066067
9618.000000;1.065231
9617.000000;1.064248
9616.000000;1.062992
9615.000000;1.061749
9614.000000;1.060888
9613.000000;1.060477
9612.000000;1.060310
9611.000000;1.060135
9610.000000;1.059755
9609.000000;1.059094
9608.000000;1.058307
9607.000000;1.057693
9606.000000;1.057358
9605.000000;1.057088
9604.000000;1.056648
9603.000000;1.056061
9602.000000;1.055419
9601.000000;1.054583
9600.000000;1.053338
9599.000000;1.051821
9598.000000;1.050523
9597.000000;1.049809
9596.000000;1.049538
9595.000000;1.049202
9594.000000;1.048367
9593.000000;1.046993
9592.000000;1.045499
9591.000000;1.044518
9590.000000;1.044466
9589.000000;1.045166
9588.000000;1.045924
9587.000000;1.046085
9586.000000;1.045533
9585.000000;1.044646
9584.000000;1.043828
9583.000000;1.043195
9582.000000;1.042630
9581.000000;1.041966
9580.000000;1.041062
9579.000000;1.039862
9578.000000;1.038547
9577.000000;1.037536
9576.000000;1.037177
9575.000000;1.037332
9574.000000;1.037409
9573.000000;1.036885
9572.000000;1.035807
9571.000000;1.034709
9570.000000;1.034091
9569.000000;1.034087
9568.000000;1.034556
9567.000000;1.035307
9566.000000;1.036078
9565.000000;1.036393
9564.000000;1.035698
9563.000000;1.033859
9562.000000;1.031486
9561.000000;1.029565
9560.000000;1.028666
9559.000000;1.028560
9558.000000;1.028621
9557.000000;1.028475
9556.000000;1.028104
9555.000000;1.027487
9554.000000;1.026465
9553.000000;1.025055
9552.000000;1.023652
9551.000000;1.022716
9550.000000;1.022360
9549.000000;1.022364
9548.000000;1.022494
9547.000000;1.022635
9546.000000;1.022687
9545.000000;1.022526
9544.000000;1.022084
9543.000000;1.021388
9542.000000;1.020483
9541.000000;1.019414
9540.000000;1.018244
9539.000000;1.017030
9538.000000;1.015770
9537.000000;1.014490
9536.000000;1.013320
9535.000000;1.012421
9534.000000;1.011830
9533.000000;1.011462
9532.000000;1.011231
9531.000000;1.011030
9530.000000;1.010612
9529.000000;1.009727
9528.000000;1.008486
9527.000000;1.007432
9526.000000;1.007050
9525.000000;1.007250
9524.000000;1.007472
9523.000000;1.007291
9522.000000;1.006773
9521.000000;1.006194
9520.000000;1.005594
9519.000000;1.004789
9518.000000;1.003742
9517.000000;1.002716
9516.000000;1.001990
9515.000000;1.001572
9514.000000;1.001320
9513.000000;1.001234
9512.000000;1.001452
9511.000000;1.001957
9510.000000;1.002425
9509.000000;1.002434
9508.000000;1.001730
9507.000000;1.000358
9506.000000;0.998659
9505.000000;0.997145
9504.000000;0.996224
9503.000000;0.995913
9502.000000;0.995901
9501.000000;0.995913
9500.000000;0.995940
9499.000000;0.996072
9498.000000;0.996266
9497.000000;0.996374
9496.000000;0.996240
9495.000000;0.995653
9494.000000;0.994365
9493.000000;0.992398
9492.000000;0.990239
9491.000000;0.988541
9490.000000;0.987591
9489.000000;0.987180
9488.000000;0.986960
9487.000000;0.986756
9486.000000;0.986518
9485.000000;0.986168
9484.000000;0.985605
9483.000000;0.984837
9482.000000;0.984034
9481.000000;0.983454
9480.000000;0.983258
9479.000000;0.983349
9478.000000;0.983436
9477.000000;0.983343
9476.000000;0.983196
9475.000000;0.983158
9474.000000;0.983027
9473.000000;0.982339
9472.000000;0.980949
9471.000000;0.979339
9470.000000;0.978178
9469.000000;0.977696
9468.000000;0.977586
9467.000000;0.977411
9466.000000;0.976934
9465.000000;0.976106
9464.000000;0.974977
9463.000000;0.973746
9462.000000;0.972776
9461.000000;0.972364
9460.000000;0.972465
9459.000000;0.972687
9458.000000;0.972604
9457.000000;0.972110
9456.000000;0.971496
9455.000000;0.971223
9454.000000;0.971536
9453.000000;0.972194
9452.000000;0.972563
9451.000000;0.972073
9450.000000;0.970710
9449.000000;0.969021
9448.000000;0.967648
9447.000000;0.966886
9446.000000;0.966663
9445.000000;0.966727
9444.000000;0.966745
9443.000000;0.966379
9442.000000;0.965521
9441.000000;0.964446
9440.000000;0.963544
9439.000000;0.962936
9438.000000;0.962506
9437.000000;0.962253
9436.000000;0.962302
9435.000000;0.962506
9434.000000;0.962394
9433.000000;0.961727
9432.000000;0.960876
9431.000000;0.960371
9430.000000;0.960204
9429.000000;0.959873
9428.000000;0.959055
9427.000000;0.957949
9426.000000;0.956927
9425.000000;0.956131
9424.000000;0.955505
9423.000000;0.954993
9422.000000;0.954554
9421.000000;0.954096
9420.000000;0.953541
9419.000000;0.952938
9418.000000;0.952403
9417.000000;0.952007
9416.000000;0.951761
9415.000000;0.951620
9414.000000;0.951393
9413.000000;0.950729
9412.000000;0.949410
9411.000000;0.947711
9410.000000;0.946352
9409.000000;0.945913
9408.000000;0.946314
9407.000000;0.946912
9406.000000;0.947104
9405.000000;0.946736
9404.000000;0.945977
9403.000000;0.945034
9402.000000;0.944115
9401.000000;0.943448
9400.000000;0.943079
9399.000000;0.942715
9398.000000;0.942020
9397.000000;0.941066
9396.000000;0.940249
9395.000000;0.939757
9394.000000;0.939407
9393.000000;0.939071
9392.000000;0.938894
9391.000000;0.938901
9390.000000;0.938698
9389.000000;0.937923
9388.000000;0.936829
9387.000000;0.936075
9386.000000;0.935994
9385.000000;0.936350
9384.000000;0.936727
9383.000000;0.936836
9382.000000;0.936520
9381.000000;0.935834
9380.000000;0.935194
9379.000000;0.935054
9378.000000;0.935245
9377.000000;0.934935
9376.000000;0.933547
9375.000000;0.931548
9374.000000;0.930039
9373.000000;0.929634
9372.000000;0.929933
9371.000000;0.930065
9370.000000;0.929576
9369.000000;0.928743
9368.000000;0.928118
9367.000000;0.927866
9366.000000;0.927576
9365.000000;0.926774
9364.000000;0.925556
9363.000000;0.924577
9362.000000;0.924339
9361.000000;0.924668
9360.000000;0.924961
9359.000000;0.924838
9358.000000;0.924385
9357.000000;0.923868
9356.000000;0.923432
9355.000000;0.923092
9354.000000;0.922787
9353.000000;0.922356
9352.000000;0.921591
9351.000000;0.920473
9350.000000;0.919295
9349.000000;0.918416
9348.000000;0.917906
9347.000000;0.917515
9346.000000;0.917005
9345.000000;0.916399
9344.000000;0.915848
9343.000000;0.915360
9342.000000;0.914797
9341.000000;0.914146
9340.000000;0.913633
9339.000000;0.913477
9338.000000;0.913618
9337.000000;0.913766
9336.000000;0.913691
9335.000000;0.913343
9334.000000;0.912716
9333.000000;0.911793
9332.000000;0.910692
9331.000000;0.909739
9330.000000;0.909233
9329.000000;0.909158
9328.000000;0.909236
9327.000000;0.909239
9326.000000;0.909150
9325.000000;0.908991
9324.000000;0.908682
9323.000000;0.908157
9322.000000;0.907567
9321.000000;0.907168
9320.000000;0.906994
9319.000000;0.906787
9318.000000;0.906365
9317.000000;0.905943
9316.000000;0.905905
9315.000000;0.906207
9314.000000;0.906233
9313.000000;0.905380
9312.000000;0.903731
9311.000000;0.902009
9310.000000;0.900880
9309.000000;0.900444
9308.000000;0.900369
9307.000000;0.900323
9306.000000;0.900131
9305.000000;0.899657
9304.000000;0.898814
9303.000000;0.897755
9302.000000;0.896880
9301.000000;0.896501
9300.000000;0.896526
9299.000000;0.896615
9298.000000;0.896591
9297.000000;0.896569
9296.000000;0.896653
9295.000000;0.896687
9294.000000;0.896453
9293.000000;0.895982
9292.000000;0.895496
9291.000000;0.895060
9290.000000;0.894516
9289.000000;0.893789
9288.000000;0.893105
9287.000000;0.892784
9286.000000;0.892940
9285.000000;0.893436
9284.000000;0.894030
9283.000000;0.894451
9282.000000;0.894412
9281.000000;0.893762
9280.000000;0.892684
9279.000000;0.891615
9278.000000;0.890880
9277.000000;0.890385
9276.000000;0.889746
9275.000000;0.888728
9274.000000;0.887567
9273.000000;0.886824
9272.000000;0.886852
9271.000000;0.887404
9270.000000;0.887848
9269.000000;0.887776
9268.000000;0.887285
9267.000000;0.886652
9266.000000;0.885923
9265.000000;0.884986
9264.000000;0.883931
9263.000000;0.883105
9262.000000;0.882752
9261.000000;0.882771
9260.000000;0.882848
9259.000000;0.882737
9258.000000;0.882336
9257.000000;0.881635
9256.000000;0.880713
9255.000000;0.879793
9254.000000;0.879196
9253.000000;0.879161
9252.000000;0.879677
9251.000000;0.880474
9250.000000;0.881227
9249.000000;0.881765
9248.000000;0.882029
9247.000000;0.881836
9246.000000;0.880895
9245.000000;0.879228
9244.000000;0.877463
9243.000000;0.876415
9242.000000;0.876289
9241.000000;0.876484
9240.000000;0.876276
9239.000000;0.875574
9238.000000;0.874870
9237.000000;0.874554
9236.000000;0.874490
9235.000000;0.874283
9234.000000;0.873838
9233.000000;0.873474
9232.000000;0.873447
9231.000000;0.873448
9230.000000;0.872779
9229.000000;0.871179
9228.000000;0.869334
9227.000000;0.868308
9226.000000;0.868443
9225.000000;0.869036
9224.000000;0.869167
9223.000000;0.868665
9222.000000;0.868062
9221.000000;0.867798
9220.000000;0.867788
9219.000000;0.867744
9218.000000;0.867578
9217.000000;0.867326
9216.000000;0.866900
9215.000000;0.866169
9214.000000;0.865270
9213.000000;0.864630
9212.000000;0.864588
9211.000000;0.865042
9210.000000;0.865509
9209.000000;0.865552
9208.000000;0.865163
9207.000000;0.864730
9206.000000;0.864620
9205.000000;0.864794
9204.000000;0.864848
9203.000000;0.864419
9202.000000;0.863540
9201.000000;0.862608
9200.000000;0.862060
9199.000000;0.862082
9198.000000;0.862466
9197.000000;0.862683
9196.000000;0.862179
9195.000000;0.860807
9194.000000;0.859048
9193.000000;0.857741
9192.000000;0.857473
9191.000000;0.858162
9190.000000;0.859160
9189.000000;0.859739
9188.000000;0.859535
9187.000000;0.858688
9186.000000;0.857677
9185.000000;0.857005
9184.000000;0.856918
9183.000000;0.857277
9182.000000;0.857672
9181.000000;0.857711
9180.000000;0.857299
9179.000000;0.856671
9178.000000;0.856128
9177.000000;0.855716
9176.000000;0.855223
9175.000000;0.854526
9174.000000;0.853820
9173.000000;0.853385
9172.000000;0.853181
9171.000000;0.852857
9170.000000;0.852182
9169.000000;0.851336
9168.000000;0.850695
9167.000000;0.850467
9166.000000;0.850620
9165.000000;0.850998
9164.000000;0.851342
9163.000000;0.851342
9162.000000;0.850897
9161.000000;0.850275
9160.000000;0.849823
9159.000000;0.849513
9158.000000;0.848998
9157.000000;0.848112
9156.000000;0.847123
9155.000000;0.846410
9154.000000;0.846091
9153.000000;0.846052
9152.000000;0.846157
9151.000000;0.846288
9150.000000;0.846322
9149.000000;0.846222
9148.000000;0.846062
9147.000000;0.845861
9146.000000;0.845490
9145.000000;0.844870
9144.000000;0.844116
9143.000000;0.843366
9142.000000;0.842597
9141.000000;0.841808
9140.000000;0.841265
9139.000000;0.841301
9138.000000;0.841919
9137.000000;0.842784
9136.000000;0.843539
9135.000000;0.843887
9134.000000;0.843478
9133.000000;0.842159
9132.000000;0.840451
9131.000000;0.839382
9130.000000;0.839549
9129.000000;0.840512
9128.000000;0.841306
9127.000000;0.841413
9126.000000;0.841021
9125.000000;0.840543
9124.000000;0.840189
9123.000000;0.839950
9122.000000;0.839707
9121.000000;0.839308
9120.000000;0.838727
9119.000000;0.838177
9118.000000;0.837895
9117.000000;0.837826
9116.000000;0.837697
9115.000000;0.837398
9114.000000;0.837103
9113.000000;0.836986
9112.000000;0.836999
9111.000000;0.836975
9110.000000;0.836794
9109.000000;0.836389
9108.000000;0.835777
9107.000000;0.835158
9106.000000;0.834818
9105.000000;0.834794
9104.000000;0.834765
9103.000000;0.834419
9102.000000;0.833819
9101.000000;0.833297
9100.000000;0.833045
9099.000000;0.832982
9098.000000;0.832959
9097.000000;0.832945
9096.000000;0.832958
9095.000000;0.832960
9094.000000;0.832844
9093.000000;0.832496
9092.000000;0.831871
9091.000000;0.831074
9090.000000;0.830385
9089.000000;0.830085
9088.000000;0.830184
9087.000000;0.830354
9086.000000;0.830191
9085.000000;0.829584
9084.000000;0.828812
9083.000000;0.828254
9082.000000;0.828026
9081.000000;0.827937
9080.000000;0.827791
9079.000000;0.827649
9078.000000;0.827676
9077.000000;0.827810
9076.000000;0.827762
9075.000000;0.827375
9074.000000;0.826851
9073.000000;0.826531
9072.000000;0.826579
9071.000000;0.826937
9070.000000;0.827434
9069.000000;0.827842
9068.000000;0.827944
9067.000000;0.827683
9066.000000;0.827182
9065.000000;0.826510
9064.000000;0.825545
9063.000000;0.824214
9062.000000;0.822784
9061.000000;0.821723
9060.000000;0.821317
9059.000000;0.821553
9058.000000;0.822275
9057.000000;0.823229
9056.000000;0.823987
9055.000000;0.824119
9054.000000;0.823569
9053.000000;0.822721
