Criado como novo conjunto de dados;"1909daniel.spp","-4221881.7 Secs"
cm-1;Abs
10000.000000;1.477221
9999.000000;1.477370
9998.000000;1.475910
9997.000000;1.473025
9996.000000;1.469835
9995.000000;1.467878
9994.000000;1.467940
9993.000000;1.469298
9992.000000;1.470399
9991.000000;1.470395
9990.000000;1.469694
9989.000000;1.468976
9988.000000;1.468297
9987.000000;1.467426
9986.000000;1.466531
9985.000000;1.465956
9984.000000;1.465569
9983.000000;1.464863
9982.000000;1.463603
9981.000000;1.461897
9980.000000;1.459702
9979.000000;1.456863
9978.000000;1.453889
9977.000000;1.452161
9976.000000;1.452847
9975.000000;1.455587
9974.000000;1.458540
9973.000000;1.459901
9972.000000;1.459382
9971.000000;1.458092
9970.000000;1.457162
9969.000000;1.456831
9968.000000;1.456736
9967.000000;1.456457
9966.000000;1.455577
9965.000000;1.453789
9964.000000;1.451537
9963.000000;1.450158
9962.000000;1.450637
9961.000000;1.452287
9960.000000;1.453278
9959.000000;1.452561
9958.000000;1.450674
9957.000000;1.448588
9956.000000;1.446591
9955.000000;1.444666
9954.000000;1.443141
9953.000000;1.442310
9952.000000;1.441883
9951.000000;1.441402
9950.000000;1.440935
9949.000000;1.440801
9948.000000;1.440859
9947.000000;1.440657
9946.000000;1.440172
9945.000000;1.439919
9944.000000;1.440265
9943.000000;1.440902
9942.000000;1.441014
9941.000000;1.439879
9940.000000;1.437498
9939.000000;1.434863
9938.000000;1.433366
9937.000000;1.433558
9936.000000;1.434577
9935.000000;1.434985
9934.000000;1.434146
9933.000000;1.432655
9932.000000;1.431565
9931.000000;1.431437
9930.000000;1.431953
9929.000000;1.432213
9928.000000;1.431560
9927.000000;1.430302
9926.000000;1.429393
9925.000000;1.429312
9924.000000;1.429513
9923.000000;1.429187
9922.000000;1.428243
9921.000000;1.427213
9920.000000;1.426497
9919.000000;1.426085
9918.000000;1.425807
9917.000000;1.425492
9916.000000;1.424936
9915.000000;1.423983
9914.000000;1.422510
9913.000000;1.420345
9912.000000;1.417593
9911.000000;1.415171
9910.000000;1.414430
9909.000000;1.415847
9908.000000;1.418397
9907.000000;1.420551
9906.000000;1.421515
9905.000000;1.421120
9904.000000;1.419149
9903.000000;1.415622
9902.000000;1.411488
9901.000000;1.408141
9900.000000;1.406265
9899.000000;1.405690
9898.000000;1.406107
9897.000000;1.407141
9896.000000;1.407913
9895.000000;1.407432
9894.000000;1.405667
9893.000000;1.403619
9892.000000;1.402099
9891.000000;1.401027
9890.000000;1.400099
9889.000000;1.399432
9888.000000;1.399179
9887.000000;1.399074
9886.000000;1.398891
9885.000000;1.398942
9884.000000;1.399575
9883.000000;1.400424
9882.000000;1.400708
9881.000000;1.400245
9880.000000;1.399738
9879.000000;1.399929
9878.000000;1.400675
9877.000000;1.401011
9876.000000;1.400108
9875.000000;1.398118
9874.000000;1.396029
9873.000000;1.394692
9872.000000;1.394067
9871.000000;1.393481
9870.000000;1.392458
9869.000000;1.391156
9868.000000;1.390103
9867.000000;1.389741
9866.000000;1.390148
9865.000000;1.390931
9864.000000;1.391403
9863.000000;1.391041
9862.000000;1.389821
9861.000000;1.388107
9860.000000;1.386371
9859.000000;1.385103
9858.000000;1.384656
9857.000000;1.384880
9856.000000;1.385114
9855.000000;1.384910
9854.000000;1.384549
9853.000000;1.384546
9852.000000;1.384842
9851.000000;1.384907
9850.000000;1.384523
9849.000000;1.383907
9848.000000;1.383057
9847.000000;1.381549
9846.000000;1.379210
9845.000000;1.376599
9844.000000;1.374589
9843.000000;1.373709
9842.000000;1.373978
9841.000000;1.375011
9840.000000;1.376107
9839.000000;1.376472
9838.000000;1.375630
9837.000000;1.373660
9836.000000;1.371122
9835.000000;1.368891
9834.000000;1.367832
9833.000000;1.368166
9832.000000;1.369100
9831.000000;1.369437
9830.000000;1.368660
9829.000000;1.367200
9828.000000;1.365696
9827.000000;1.364453
9826.000000;1.363589
9825.000000;1.363122
9824.000000;1.362736
9823.000000;1.361936
9822.000000;1.360740
9821.000000;1.359863
9820.000000;1.359907
9819.000000;1.360689
9818.000000;1.361586
9817.000000;1.362161
9816.000000;1.362195
9815.000000;1.361525
9814.000000;1.360308
9813.000000;1.359124
9812.000000;1.358302
9811.000000;1.357456
9810.000000;1.356231
9809.000000;1.355129
9808.000000;1.354942
9807.000000;1.355537
9806.000000;1.355811
9805.000000;1.354933
9804.000000;1.353112
9803.000000;1.350987
9802.000000;1.348868
9801.000000;1.346961
9800.000000;1.345874
9799.000000;1.346274
9798.000000;1.348022
9797.000000;1.349954
9796.000000;1.350645
9795.000000;1.349376
9794.000000;1.346506
9793.000000;1.343130
9792.000000;1.340421
9791.000000;1.339013
9790.000000;1.338756
9789.000000;1.339000
9788.000000;1.339137
9787.000000;1.338917
9786.000000;1.338341
9785.000000;1.337459
9784.000000;1.336374
9783.000000;1.335324
9782.000000;1.334557
9781.000000;1.334106
9780.000000;1.333762
9779.000000;1.333268
9778.000000;1.332497
9777.000000;1.331532
9776.000000;1.330694
9775.000000;1.330421
9774.000000;1.330881
9773.000000;1.331614
9772.000000;1.331754
9771.000000;1.330780
9770.000000;1.329006
9769.000000;1.327258
9768.000000;1.326180
9767.000000;1.325910
9766.000000;1.326196
9765.000000;1.326650
9764.000000;1.326994
9763.000000;1.327212
9762.000000;1.327384
9761.000000;1.327315
9760.000000;1.326608
9759.000000;1.325297
9758.000000;1.324132
9757.000000;1.323838
9756.000000;1.324217
9755.000000;1.324364
9754.000000;1.323753
9753.000000;1.322692
9752.000000;1.321676
9751.000000;1.320753
9750.000000;1.319765
9749.000000;1.318831
9748.000000;1.318237
9747.000000;1.317970
9746.000000;1.317652
9745.000000;1.316980
9744.000000;1.316041
9743.000000;1.315141
9742.000000;1.314435
9741.000000;1.313801
9740.000000;1.313027
9739.000000;1.312011
9738.000000;1.310758
9737.000000;1.309266
9736.000000;1.307608
9735.000000;1.306142
9734.000000;1.305355
9733.000000;1.305297
9732.000000;1.305388
9731.000000;1.305065
9730.000000;1.304475
9729.000000;1.304161
9728.000000;1.304113
9727.000000;1.303529
9726.000000;1.301737
9725.000000;1.299146
9724.000000;1.297048
9723.000000;1.296536
9722.000000;1.297675
9721.000000;1.299503
9720.000000;1.300800
9719.000000;1.301012
9718.000000;1.300540
9717.000000;1.300073
9716.000000;1.299695
9715.000000;1.298829
9714.000000;1.297105
9713.000000;1.295020
9712.000000;1.293544
9711.000000;1.293115
9710.000000;1.293148
9709.000000;1.292581
9708.000000;1.290952
9707.000000;1.288948
9706.000000;1.287771
9705.000000;1.287911
9704.000000;1.288662
9703.000000;1.288927
9702.000000;1.288417
9701.000000;1.287805
9700.000000;1.287777
9699.000000;1.288267
9698.000000;1.288682
9697.000000;1.288566
9696.000000;1.287867
9695.000000;1.286710
9694.000000;1.285197
9693.000000;1.283476
9692.000000;1.281863
9691.000000;1.280764
9690.000000;1.280353
9689.000000;1.280303
9688.000000;1.280023
9687.000000;1.279291
9686.000000;1.278515
9685.000000;1.278200
9684.000000;1.278284
9683.000000;1.278211
9682.000000;1.277556
9681.000000;1.276375
9680.000000;1.275084
9679.000000;1.274222
9678.000000;1.274185
9677.000000;1.274772
9676.000000;1.275094
9675.000000;1.274412
9674.000000;1.273101
9673.000000;1.272305
9672.000000;1.272496
9671.000000;1.272807
9670.000000;1.272069
9669.000000;1.270228
9668.000000;1.268410
9667.000000;1.267702
9666.000000;1.268082
9665.000000;1.268542
9664.000000;1.268213
9663.000000;1.267336
9662.000000;1.266916
9661.000000;1.267281
9660.000000;1.267385
9659.000000;1.266049
9658.000000;1.263620
9657.000000;1.261571
9656.000000;1.260528
9655.000000;1.259666
9654.000000;1.258243
9653.000000;1.256822
9652.000000;1.256366
9651.000000;1.256808
9650.000000;1.257300
9649.000000;1.257406
9648.000000;1.257239
9647.000000;1.256697
9646.000000;1.255445
9645.000000;1.253664
9644.000000;1.252064
9643.000000;1.251085
9642.000000;1.250616
9641.000000;1.250520
9640.000000;1.250891
9639.000000;1.251675
9638.000000;1.252507
9637.000000;1.253010
9636.000000;1.252902
9635.000000;1.251891
9634.000000;1.250062
9633.000000;1.248373
9632.000000;1.248040
9631.000000;1.249161
9630.000000;1.250422
9629.000000;1.250417
9628.000000;1.248824
9627.000000;1.246135
9626.000000;1.242951
9625.000000;1.240050
9624.000000;1.238476
9623.000000;1.238739
9622.000000;1.240074
9621.000000;1.241078
9620.000000;1.241126
9619.000000;1.240655
9618.000000;1.240112
9617.000000;1.239281
9616.000000;1.237875
9615.000000;1.236317
9614.000000;1.235531
9613.000000;1.236005
9612.000000;1.237205
9611.000000;1.237931
9610.000000;1.237316
9609.000000;1.235601
9608.000000;1.233891
9607.000000;1.233135
9606.000000;1.233415
9605.000000;1.234171
9604.000000;1.234782
9603.000000;1.234766
9602.000000;1.233820
9601.000000;1.232111
9600.000000;1.230345
9599.000000;1.229110
9598.000000;1.228238
9597.000000;1.227208
9596.000000;1.226038
9595.000000;1.225262
9594.000000;1.225043
9593.000000;1.224923
9592.000000;1.224619
9591.000000;1.224422
9590.000000;1.224441
9589.000000;1.224039
9588.000000;1.222603
9587.000000;1.220540
9586.000000;1.218873
9585.000000;1.218005
9584.000000;1.217476
9583.000000;1.216878
9582.000000;1.216438
9581.000000;1.216571
9580.000000;1.217244
9579.000000;1.217991
9578.000000;1.218311
9577.000000;1.217965
9576.000000;1.217121
9575.000000;1.216297
9574.000000;1.215951
9573.000000;1.216010
9572.000000;1.215977
9571.000000;1.215535
9570.000000;1.214845
9569.000000;1.214207
9568.000000;1.213687
9567.000000;1.213150
9566.000000;1.212439
9565.000000;1.211455
9564.000000;1.210293
9563.000000;1.209348
9562.000000;1.208989
9561.000000;1.209050
9560.000000;1.208966
9559.000000;1.208528
9558.000000;1.208113
9557.000000;1.207983
9556.000000;1.207766
9555.000000;1.206925
9554.000000;1.205384
9553.000000;1.203401
9552.000000;1.201267
9551.000000;1.199586
9550.000000;1.199346
9549.000000;1.200979
9548.000000;1.203474
9547.000000;1.205171
9546.000000;1.205436
9545.000000;1.204861
9544.000000;1.203864
9543.000000;1.202148
9542.000000;1.199858
9541.000000;1.198197
9540.000000;1.198122
9539.000000;1.198952
9538.000000;1.199093
9537.000000;1.197919
9536.000000;1.196230
9535.000000;1.194992
9534.000000;1.194363
9533.000000;1.193972
9532.000000;1.193534
9531.000000;1.192993
9530.000000;1.192400
9529.000000;1.191836
9528.000000;1.191232
9527.000000;1.190330
9526.000000;1.189140
9525.000000;1.188312
9524.000000;1.188520
9523.000000;1.189393
9522.000000;1.189602
9521.000000;1.188302
9520.000000;1.186132
9519.000000;1.184443
9518.000000;1.183892
9517.000000;1.184107
9516.000000;1.184436
9515.000000;1.184583
9514.000000;1.184621
9513.000000;1.184761
9512.000000;1.185109
9511.000000;1.185384
9510.000000;1.184940
9509.000000;1.183385
9508.000000;1.181192
9507.000000;1.179398
9506.000000;1.178637
9505.000000;1.178623
9504.000000;1.178568
9503.000000;1.177891
9502.000000;1.176549
9501.000000;1.174973
9500.000000;1.173807
9499.000000;1.173537
9498.000000;1.174197
9497.000000;1.175417
9496.000000;1.176693
9495.000000;1.177523
9494.000000;1.177428
9493.000000;1.176176
9492.000000;1.174123
9491.000000;1.172101
9490.000000;1.170775
9489.000000;1.170226
9488.000000;1.170149
9487.000000;1.170281
9486.000000;1.170534
9485.000000;1.170902
9484.000000;1.171367
9483.000000;1.171764
9482.000000;1.171621
9481.000000;1.170366
9480.000000;1.167930
9479.000000;1.165086
9478.000000;1.162930
9477.000000;1.161955
9476.000000;1.161763
9475.000000;1.161658
9474.000000;1.161401
9473.000000;1.161311
9472.000000;1.161705
9471.000000;1.162315
9470.000000;1.162333
9469.000000;1.161147
9468.000000;1.159067
9467.000000;1.157194
9466.000000;1.156483
9465.000000;1.156994
9464.000000;1.158019
9463.000000;1.158762
9462.000000;1.158809
9461.000000;1.158123
9460.000000;1.156867
9459.000000;1.155302
9458.000000;1.153757
9457.000000;1.152632
9456.000000;1.152307
9455.000000;1.152777
9454.000000;1.153318
9453.000000;1.152875
9452.000000;1.151100
9451.000000;1.148853
9450.000000;1.147362
9449.000000;1.147047
9448.000000;1.147417
9447.000000;1.147911
9446.000000;1.148318
9445.000000;1.148427
9444.000000;1.147947
9443.000000;1.147049
9442.000000;1.146472
9441.000000;1.146697
9440.000000;1.147266
9439.000000;1.147298
9438.000000;1.146560
9437.000000;1.145686
9436.000000;1.145445
9435.000000;1.146095
9434.000000;1.147350
9433.000000;1.148552
9432.000000;1.148853
9431.000000;1.147629
9430.000000;1.145058
9429.000000;1.142181
9428.000000;1.140173
9427.000000;1.139470
9426.000000;1.139554
9425.000000;1.139526
9424.000000;1.138872
9423.000000;1.137718
9422.000000;1.136529
9421.000000;1.135675
9420.000000;1.135246
9419.000000;1.135106
9418.000000;1.135018
9417.000000;1.134822
9416.000000;1.134585
9415.000000;1.134499
9414.000000;1.134529
9413.000000;1.134262
9412.000000;1.133353
9411.000000;1.132054
9410.000000;1.131026
9409.000000;1.130575
9408.000000;1.130320
9407.000000;1.129762
9406.000000;1.128942
9405.000000;1.128356
9404.000000;1.128352
9403.000000;1.128802
9402.000000;1.129276
9401.000000;1.129420
9400.000000;1.129206
9399.000000;1.128918
9398.000000;1.128868
9397.000000;1.129073
9396.000000;1.129220
9395.000000;1.128930
9394.000000;1.127986
9393.000000;1.126406
9392.000000;1.124496
9391.000000;1.122780
9390.000000;1.121627
9389.000000;1.120907
9388.000000;1.120268
9387.000000;1.119732
9386.000000;1.119685
9385.000000;1.120157
9384.000000;1.120564
9383.000000;1.120431
9382.000000;1.120041
9381.000000;1.119985
9380.000000;1.120274
9379.000000;1.120238
9378.000000;1.119258
9377.000000;1.117385
9376.000000;1.115317
9375.000000;1.113936
9374.000000;1.113712
9373.000000;1.114290
9372.000000;1.114802
9371.000000;1.114778
9370.000000;1.114555
9369.000000;1.114550
9368.000000;1.114486
9367.000000;1.113760
9366.000000;1.112377
9365.000000;1.111026
9364.000000;1.110266
9363.000000;1.110082
9362.000000;1.110183
9361.000000;1.110256
9360.000000;1.109947
9359.000000;1.109127
9358.000000;1.108334
9357.000000;1.108427
9356.000000;1.109463
9355.000000;1.110247
9354.000000;1.109398
9353.000000;1.106785
9352.000000;1.103688
9351.000000;1.101608
9350.000000;1.101059
9349.000000;1.101412
9348.000000;1.101670
9347.000000;1.101383
9346.000000;1.100854
9345.000000;1.100572
9344.000000;1.100632
9343.000000;1.100819
9342.000000;1.100983
9341.000000;1.101036
9340.000000;1.100758
9339.000000;1.100031
9338.000000;1.099267
9337.000000;1.099134
9336.000000;1.099740
9335.000000;1.100437
9334.000000;1.100581
9333.000000;1.100148
9332.000000;1.099430
9331.000000;1.098512
9330.000000;1.097356
9329.000000;1.096127
9328.000000;1.095102
9327.000000;1.094359
9326.000000;1.093809
9325.000000;1.093398
9324.000000;1.093102
9323.000000;1.092854
9322.000000;1.092649
9321.000000;1.092592
9320.000000;1.092665
9319.000000;1.092585
9318.000000;1.092084
9317.000000;1.091207
9316.000000;1.090159
9315.000000;1.089043
9314.000000;1.087965
9313.000000;1.087231
9312.000000;1.087081
9311.000000;1.087272
9310.000000;1.087213
9309.000000;1.086605
9308.000000;1.085735
9307.000000;1.085103
9306.000000;1.084940
9305.000000;1.085124
9304.000000;1.085373
9303.000000;1.085497
9302.000000;1.085546
9301.000000;1.085711
9300.000000;1.086013
9299.000000;1.086189
9298.000000;1.086026
9297.000000;1.085692
9296.000000;1.085497
9295.000000;1.085383
9294.000000;1.084973
9293.000000;1.084151
9292.000000;1.083239
9291.000000;1.082442
9290.000000;1.081414
9289.000000;1.079727
9288.000000;1.077709
9287.000000;1.076419
9286.000000;1.076654
9285.000000;1.078128
9284.000000;1.079704
9283.000000;1.080365
9282.000000;1.079946
9281.000000;1.079081
9280.000000;1.078597
9279.000000;1.078854
9278.000000;1.079461
9277.000000;1.079640
9276.000000;1.079028
9275.000000;1.078090
9274.000000;1.077561
9273.000000;1.077565
9272.000000;1.077530
9271.000000;1.077052
9270.000000;1.076497
9269.000000;1.076441
9268.000000;1.076785
9267.000000;1.076831
9266.000000;1.076157
9265.000000;1.075051
9264.000000;1.074031
9263.000000;1.073291
9262.000000;1.072730
9261.000000;1.072225
9260.000000;1.071687
9259.000000;1.071049
9258.000000;1.070381
9257.000000;1.069904
9256.000000;1.069752
9255.000000;1.069849
9254.000000;1.070101
9253.000000;1.070500
9252.000000;1.070911
9251.000000;1.071000
9250.000000;1.070593
9249.000000;1.069932
9248.000000;1.069297
9247.000000;1.068480
9246.000000;1.067002
9245.000000;1.064888
9244.000000;1.062967
9243.000000;1.062171
9242.000000;1.062590
9241.000000;1.063309
9240.000000;1.063237
9239.000000;1.062122
9238.000000;1.060737
9237.000000;1.060040
9236.000000;1.060226
9235.000000;1.060743
9234.000000;1.061146
9233.000000;1.061569
9232.000000;1.062243
9231.000000;1.062894
9230.000000;1.062995
9229.000000;1.062497
9228.000000;1.061878
9227.000000;1.061424
9226.000000;1.060848
9225.000000;1.059783
9224.000000;1.058370
9223.000000;1.057090
9222.000000;1.056213
9221.000000;1.055679
9220.000000;1.055446
9219.000000;1.055649
9218.000000;1.056266
9217.000000;1.056820
9216.000000;1.056642
9215.000000;1.055542
9214.000000;1.054127
9213.000000;1.053338
9212.000000;1.053617
9211.000000;1.054539
9210.000000;1.055274
9209.000000;1.055353
9208.000000;1.054947
9207.000000;1.054498
9206.000000;1.054207
9205.000000;1.053950
9204.000000;1.053582
9203.000000;1.053219
9202.000000;1.053176
9201.000000;1.053609
9200.000000;1.054270
9199.000000;1.054650
9198.000000;1.054398
9197.000000;1.053572
9196.000000;1.052469
9195.000000;1.051331
9194.000000;1.050285
9193.000000;1.049441
9192.000000;1.048838
9191.000000;1.048327
9190.000000;1.047695
9189.000000;1.047006
9188.000000;1.046680
9187.000000;1.047083
9186.000000;1.048072
9185.000000;1.049037
9184.000000;1.049402
9183.000000;1.049045
9182.000000;1.048244
9181.000000;1.047355
9180.000000;1.046588
9179.000000;1.046019
9178.000000;1.045643
9177.000000;1.045398
9176.000000;1.045199
9175.000000;1.045002
9174.000000;1.044832
9173.000000;1.044748
9172.000000;1.044809
9171.000000;1.045015
9170.000000;1.045209
9169.000000;1.045075
9168.000000;1.044412
9167.000000;1.043451
9166.000000;1.042690
9165.000000;1.042318
9164.000000;1.041944
9163.000000;1.041090
9162.000000;1.039776
9161.000000;1.038411
9160.000000;1.037242
9159.000000;1.036234
9158.000000;1.035439
9157.000000;1.035132
9156.000000;1.035451
9155.000000;1.036168
9154.000000;1.036880
9153.000000;1.037274
9152.000000;1.037148
9151.000000;1.036529
9150.000000;1.035886
9149.000000;1.035899
9148.000000;1.036638
9147.000000;1.037204
9146.000000;1.036629
9145.000000;1.035073
9144.000000;1.033708
9143.000000;1.033398
9142.000000;1.033894
9141.000000;1.034350
9140.000000;1.034280
9139.000000;1.033827
9138.000000;1.033388
9137.000000;1.033280
9136.000000;1.033645
9135.000000;1.034368
9134.000000;1.035052
9133.000000;1.035282
9132.000000;1.035000
9131.000000;1.034542
9130.000000;1.034260
9129.000000;1.034169
9128.000000;1.033989
9127.000000;1.033488
9126.000000;1.032768
9125.000000;1.032212
9124.000000;1.032117
9123.000000;1.032347
9122.000000;1.032426
9121.000000;1.032059
9120.000000;1.031470
9119.000000;1.031131
9118.000000;1.031231
9117.000000;1.031532
9116.000000;1.031716
9115.000000;1.031648
9114.000000;1.031265
9113.000000;1.030465
9112.000000;1.029316
9111.000000;1.028238
9110.000000;1.027701
9109.000000;1.027761
9108.000000;1.028098
9107.000000;1.028526
9106.000000;1.029150
9105.000000;1.029870
9104.000000;1.030024
9103.000000;1.028948
9102.000000;1.026897
9101.000000;1.025070
9100.000000;1.024495
9099.000000;1.025068
9098.000000;1.025823
9097.000000;1.026024
9096.000000;1.025782
9095.000000;1.025609
9094.000000;1.025675
9093.000000;1.025697
9092.000000;1.025448
9091.000000;1.025055
9090.000000;1.024669
9089.000000;1.024097
9088.000000;1.023049
9087.000000;1.021710
9086.000000;1.020692
9085.000000;1.020313
9084.000000;1.020213
9083.000000;1.019950
9082.000000;1.019745
9081.000000;1.020229
9080.000000;1.021481
9079.000000;1.022642
9078.000000;1.022652
9077.000000;1.021222
9076.000000;1.019034
9075.000000;1.017189
9074.000000;1.016529
9073.000000;1.017220
9072.000000;1.018730
9071.000000;1.020218
9070.000000;1.021130
9069.000000;1.021455
9068.000000;1.021451
9067.000000;1.021265
9066.000000;1.020876
9065.000000;1.020236
9064.000000;1.019345
9063.000000;1.018313
9062.000000;1.017431
9061.000000;1.017030
9060.000000;1.017137
9059.000000;1.017356
9058.000000;1.017245
9057.000000;1.016742
9056.000000;1.016106
9055.000000;1.015568
9054.000000;1.015175
9053.000000;1.014863
