Criado como novo conjunto de dados;"1909daniel.spp","-4287045.2 Secs"
cm-1;Abs
10000.000000;1.996012
9999.000000;1.993693
9998.000000;1.991687
9997.000000;1.990548
9996.000000;1.990390
9995.000000;1.990340
9994.000000;1.989706
9993.000000;1.988924
9992.000000;1.988685
9991.000000;1.988833
9990.000000;1.988742
9989.000000;1.988347
9988.000000;1.987882
9987.000000;1.987248
9986.000000;1.986703
9985.000000;1.987643
9984.000000;1.990928
9983.000000;1.994552
9982.000000;1.995036
9981.000000;1.991662
9980.000000;1.987272
9979.000000;1.984150
9978.000000;1.981479
9977.000000;1.977964
9976.000000;1.974794
9975.000000;1.974103
9974.000000;1.975688
9973.000000;1.977425
9972.000000;1.978541
9971.000000;1.980144
9970.000000;1.982174
9969.000000;1.982248
9968.000000;1.978793
9967.000000;1.973683
9966.000000;1.970293
9965.000000;1.970175
9964.000000;1.972612
9963.000000;1.976135
9962.000000;1.979196
9961.000000;1.980035
9960.000000;1.977546
9959.000000;1.972708
9958.000000;1.968118
9957.000000;1.965855
9956.000000;1.966354
9955.000000;1.968978
9954.000000;1.972812
9953.000000;1.976408
9952.000000;1.977440
9951.000000;1.974179
9950.000000;1.967708
9949.000000;1.961568
9948.000000;1.958556
9947.000000;1.958200
9946.000000;1.957764
9945.000000;1.955932
9944.000000;1.954738
9943.000000;1.956909
9942.000000;1.961985
9941.000000;1.966323
9940.000000;1.967144
9939.000000;1.965517
9938.000000;1.964331
9937.000000;1.964329
9936.000000;1.963692
9935.000000;1.961036
9934.000000;1.957175
9933.000000;1.953797
9932.000000;1.951641
9931.000000;1.950403
9930.000000;1.949353
9929.000000;1.947421
9928.000000;1.943491
9927.000000;1.937644
9926.000000;1.931944
9925.000000;1.928856
9924.000000;1.928560
9923.000000;1.928866
9922.000000;1.928343
9921.000000;1.928571
9920.000000;1.932091
9919.000000;1.938653
9918.000000;1.944630
9917.000000;1.946422
9916.000000;1.943938
9915.000000;1.940099
9914.000000;1.937514
9913.000000;1.936531
9912.000000;1.936143
9911.000000;1.935929
9910.000000;1.936571
9909.000000;1.938536
9908.000000;1.940815
9907.000000;1.941583
9906.000000;1.940102
9905.000000;1.937537
9904.000000;1.935542
9903.000000;1.934458
9902.000000;1.933691
9901.000000;1.933518
9900.000000;1.935228
9899.000000;1.939119
9898.000000;1.943234
9897.000000;1.944893
9896.000000;1.943146
9895.000000;1.939063
9894.000000;1.933854
9893.000000;1.927736
9892.000000;1.920920
9891.000000;1.914853
9890.000000;1.911724
9889.000000;1.912737
9888.000000;1.917149
9887.000000;1.922838
9886.000000;1.927500
9885.000000;1.929581
9884.000000;1.928778
9883.000000;1.926251
9882.000000;1.924251
9881.000000;1.924533
9880.000000;1.926671
9879.000000;1.928310
9878.000000;1.927402
9877.000000;1.923953
9876.000000;1.919338
9875.000000;1.914644
9874.000000;1.910379
9873.000000;1.907061
9872.000000;1.905094
9871.000000;1.904252
9870.000000;1.903922
9869.000000;1.903755
9868.000000;1.903425
9867.000000;1.902051
9866.000000;1.899045
9865.000000;1.895666
9864.000000;1.894569
9863.000000;1.897211
9862.000000;1.902130
9861.000000;1.906185
9860.000000;1.907203
9859.000000;1.904874
9858.000000;1.899867
9857.000000;1.893411
9856.000000;1.887638
9855.000000;1.884935
9854.000000;1.886032
9853.000000;1.888949
9852.000000;1.890609
9851.000000;1.889723
9850.000000;1.887380
9849.000000;1.884841
9848.000000;1.881976
9847.000000;1.878546
9846.000000;1.875971
9845.000000;1.876295
9844.000000;1.879430
9843.000000;1.882673
9842.000000;1.883615
9841.000000;1.882735
9840.000000;1.882382
9839.000000;1.884041
9838.000000;1.887280
9837.000000;1.890678
9836.000000;1.892998
9835.000000;1.893842
9834.000000;1.893974
9833.000000;1.894723
9832.000000;1.896285
9831.000000;1.897052
9830.000000;1.895456
9829.000000;1.891961
9828.000000;1.888305
9827.000000;1.885436
9826.000000;1.883293
9825.000000;1.882139
9824.000000;1.882783
9823.000000;1.885334
9822.000000;1.888452
9821.000000;1.889997
9820.000000;1.888236
9819.000000;1.882923
9818.000000;1.876117
9817.000000;1.871580
9816.000000;1.872000
9815.000000;1.876340
9814.000000;1.880226
9813.000000;1.879504
9812.000000;1.873713
9811.000000;1.866106
9810.000000;1.860857
9809.000000;1.860226
9808.000000;1.863244
9807.000000;1.866583
9806.000000;1.867300
9805.000000;1.865023
9804.000000;1.861286
9803.000000;1.857407
9802.000000;1.853819
9801.000000;1.850749
9800.000000;1.848489
9799.000000;1.847165
9798.000000;1.847085
9797.000000;1.849149
9796.000000;1.853569
9795.000000;1.858207
9794.000000;1.859964
9793.000000;1.858233
9792.000000;1.855401
9791.000000;1.853659
9790.000000;1.852913
9789.000000;1.852127
9788.000000;1.851290
9787.000000;1.851213
9786.000000;1.852262
9785.000000;1.854189
9784.000000;1.856542
9783.000000;1.858619
9782.000000;1.859585
9781.000000;1.859023
9780.000000;1.857176
9779.000000;1.854707
9778.000000;1.852545
9777.000000;1.851707
9776.000000;1.852345
9775.000000;1.852752
9774.000000;1.850526
9773.000000;1.845616
9772.000000;1.840841
9771.000000;1.838654
9770.000000;1.838802
9769.000000;1.839499
9768.000000;1.839705
9767.000000;1.839630
9766.000000;1.839848
9765.000000;1.840671
9764.000000;1.841848
9763.000000;1.842391
9762.000000;1.841231
9761.000000;1.838363
9760.000000;1.834785
9759.000000;1.831357
9758.000000;1.828600
9757.000000;1.827380
9756.000000;1.828351
9755.000000;1.830374
9754.000000;1.830931
9753.000000;1.829013
9752.000000;1.826454
9751.000000;1.825500
9750.000000;1.826188
9749.000000;1.827012
9748.000000;1.827068
9747.000000;1.826310
9746.000000;1.824651
9745.000000;1.822312
9744.000000;1.820408
9743.000000;1.819830
9742.000000;1.819892
9741.000000;1.819251
9740.000000;1.817915
9739.000000;1.817105
9738.000000;1.817326
9737.000000;1.817714
9736.000000;1.817373
9735.000000;1.816543
9734.000000;1.816113
9733.000000;1.816529
9732.000000;1.817535
9731.000000;1.818785
9730.000000;1.820364
9729.000000;1.822383
9728.000000;1.823953
9727.000000;1.823199
9726.000000;1.819207
9725.000000;1.813686
9724.000000;1.809549
9723.000000;1.807814
9722.000000;1.807049
9721.000000;1.806230
9720.000000;1.806530
9719.000000;1.809179
9718.000000;1.813019
9717.000000;1.815502
9716.000000;1.815650
9715.000000;1.814721
9714.000000;1.813976
9713.000000;1.813219
9712.000000;1.811593
9711.000000;1.808632
9710.000000;1.804389
9709.000000;1.799422
9708.000000;1.794929
9707.000000;1.792301
9706.000000;1.792294
9705.000000;1.794727
9704.000000;1.798671
9703.000000;1.802735
9702.000000;1.805628
9701.000000;1.806909
9700.000000;1.807042
9699.000000;1.806566
9698.000000;1.805447
9697.000000;1.803374
9696.000000;1.800274
9695.000000;1.796245
9694.000000;1.791668
9693.000000;1.787987
9692.000000;1.787402
9691.000000;1.790702
9690.000000;1.795751
9689.000000;1.798975
9688.000000;1.798382
9687.000000;1.794684
9686.000000;1.790039
9685.000000;1.786453
9684.000000;1.784965
9683.000000;1.785408
9682.000000;1.786704
9681.000000;1.787686
9680.000000;1.787561
9679.000000;1.785783
9678.000000;1.782252
9677.000000;1.777896
9676.000000;1.774385
9675.000000;1.772742
9674.000000;1.772585
9673.000000;1.772978
9672.000000;1.773489
9671.000000;1.774042
9670.000000;1.774397
9669.000000;1.774571
9668.000000;1.775361
9667.000000;1.777592
9666.000000;1.780785
9665.000000;1.783178
9664.000000;1.783026
9663.000000;1.779712
9662.000000;1.774406
9661.000000;1.769825
9660.000000;1.768382
9659.000000;1.769957
9658.000000;1.771766
9657.000000;1.771088
9656.000000;1.767965
9655.000000;1.764671
9654.000000;1.763060
9653.000000;1.763106
9652.000000;1.763526
9651.000000;1.763172
9650.000000;1.762045
9649.000000;1.761384
9648.000000;1.762547
9647.000000;1.765464
9646.000000;1.768476
9645.000000;1.769964
9644.000000;1.769682
9643.000000;1.768136
9642.000000;1.765519
9641.000000;1.762062
9640.000000;1.758685
9639.000000;1.756278
9638.000000;1.754806
9637.000000;1.753864
9636.000000;1.753589
9635.000000;1.754132
9634.000000;1.754710
9633.000000;1.754416
9632.000000;1.753801
9631.000000;1.754287
9630.000000;1.756020
9629.000000;1.757680
9628.000000;1.758542
9627.000000;1.759409
9626.000000;1.760856
9625.000000;1.761680
9624.000000;1.760123
9623.000000;1.756034
9622.000000;1.750881
9621.000000;1.746198
9620.000000;1.742975
9619.000000;1.742018
9618.000000;1.743653
9617.000000;1.746730
9616.000000;1.748715
9615.000000;1.747708
9614.000000;1.744461
9613.000000;1.741714
9612.000000;1.741272
9611.000000;1.742199
9610.000000;1.742141
9609.000000;1.740148
9608.000000;1.737610
9607.000000;1.736453
9606.000000;1.737164
9605.000000;1.738776
9604.000000;1.740141
9603.000000;1.740766
9602.000000;1.740767
9601.000000;1.740547
9600.000000;1.740454
9599.000000;1.740400
9598.000000;1.739894
9597.000000;1.738631
9596.000000;1.736859
9595.000000;1.735152
9594.000000;1.734189
9593.000000;1.734611
9592.000000;1.736350
9591.000000;1.737900
9590.000000;1.737232
9589.000000;1.734101
9588.000000;1.730690
9587.000000;1.729338
9586.000000;1.730155
9585.000000;1.731341
9584.000000;1.731272
9583.000000;1.729600
9582.000000;1.726926
9581.000000;1.724443
9580.000000;1.723387
9579.000000;1.723637
9578.000000;1.723052
9577.000000;1.719592
9576.000000;1.714285
9575.000000;1.710686
9574.000000;1.711099
9573.000000;1.714374
9572.000000;1.717727
9571.000000;1.719835
9570.000000;1.721224
9569.000000;1.722434
9568.000000;1.723267
9567.000000;1.723464
9566.000000;1.722922
9565.000000;1.721174
9564.000000;1.717555
9563.000000;1.712427
9562.000000;1.707693
9561.000000;1.705505
9560.000000;1.706441
9559.000000;1.709178
9558.000000;1.711721
9557.000000;1.712486
9556.000000;1.710623
9555.000000;1.706376
9554.000000;1.701546
9553.000000;1.698802
9552.000000;1.699592
9551.000000;1.702634
9550.000000;1.704948
9549.000000;1.704724
9548.000000;1.702864
9547.000000;1.701473
9546.000000;1.701315
9545.000000;1.701223
9544.000000;1.699806
9543.000000;1.697256
9542.000000;1.695303
9541.000000;1.695420
9540.000000;1.697132
9539.000000;1.698413
9538.000000;1.697823
9537.000000;1.696018
9536.000000;1.695080
9535.000000;1.696386
9534.000000;1.699322
9533.000000;1.702068
9532.000000;1.703440
9531.000000;1.703830
9530.000000;1.704280
9529.000000;1.704805
9528.000000;1.703920
9527.000000;1.700177
9526.000000;1.694185
9525.000000;1.688456
9524.000000;1.684975
9523.000000;1.683611
9522.000000;1.683193
9521.000000;1.683372
9520.000000;1.684589
9519.000000;1.686524
9518.000000;1.687773
9517.000000;1.687338
9516.000000;1.685582
9515.000000;1.683363
9514.000000;1.681065
9513.000000;1.678977
9512.000000;1.677841
9511.000000;1.678286
9510.000000;1.680031
9509.000000;1.682171
9508.000000;1.684005
9507.000000;1.685140
9506.000000;1.685126
9505.000000;1.683627
9504.000000;1.680910
9503.000000;1.677806
9502.000000;1.675254
9501.000000;1.674046
9500.000000;1.674568
9499.000000;1.676363
9498.000000;1.678157
9497.000000;1.678905
9496.000000;1.678883
9495.000000;1.679351
9494.000000;1.681065
9493.000000;1.683389
9492.000000;1.684844
9491.000000;1.684335
9490.000000;1.681885
9489.000000;1.678541
9488.000000;1.675794
9487.000000;1.674823
9486.000000;1.675721
9485.000000;1.677208
9484.000000;1.677427
9483.000000;1.675545
9482.000000;1.672689
9481.000000;1.670818
9480.000000;1.670480
9479.000000;1.670138
9478.000000;1.668022
9477.000000;1.664182
9476.000000;1.660064
9475.000000;1.656666
9474.000000;1.654141
9473.000000;1.652806
9472.000000;1.653362
9471.000000;1.655816
9470.000000;1.658772
9469.000000;1.660392
9468.000000;1.660071
9467.000000;1.658794
9466.000000;1.658036
9465.000000;1.658574
9464.000000;1.660026
9463.000000;1.661210
9462.000000;1.661032
9461.000000;1.659292
9460.000000;1.656652
9459.000000;1.653892
9458.000000;1.651633
9457.000000;1.650544
9456.000000;1.651034
9455.000000;1.652566
9454.000000;1.653812
9453.000000;1.653873
9452.000000;1.653163
9451.000000;1.652811
9450.000000;1.653421
9449.000000;1.654579
9448.000000;1.655373
9447.000000;1.655173
9446.000000;1.654004
9445.000000;1.652315
9444.000000;1.650457
9443.000000;1.648506
9442.000000;1.646590
9441.000000;1.644991
9440.000000;1.643715
9439.000000;1.642475
9438.000000;1.641547
9437.000000;1.641998
9436.000000;1.644167
9435.000000;1.646349
9434.000000;1.646304
9433.000000;1.644127
9432.000000;1.642220
9431.000000;1.642159
9430.000000;1.642926
9429.000000;1.642810
9428.000000;1.641773
9427.000000;1.640667
9426.000000;1.639333
9425.000000;1.637157
9424.000000;1.634933
9423.000000;1.634530
9422.000000;1.636506
9421.000000;1.639156
9420.000000;1.640216
9419.000000;1.639009
9418.000000;1.636630
9417.000000;1.634562
9416.000000;1.633634
9415.000000;1.633733
9414.000000;1.633879
9413.000000;1.632804
9412.000000;1.630053
9411.000000;1.626594
9410.000000;1.624111
9409.000000;1.623621
9408.000000;1.624718
9407.000000;1.625987
9406.000000;1.626153
9405.000000;1.625125
9404.000000;1.624084
9403.000000;1.624452
9402.000000;1.626391
9401.000000;1.628156
9400.000000;1.627542
9399.000000;1.624407
9398.000000;1.621118
9397.000000;1.620018
9396.000000;1.620907
9395.000000;1.621593
9394.000000;1.620748
9393.000000;1.619247
9392.000000;1.618418
9391.000000;1.618124
9390.000000;1.617440
9389.000000;1.616547
9388.000000;1.616848
9387.000000;1.619153
9386.000000;1.622409
9385.000000;1.624378
9384.000000;1.623459
9383.000000;1.620016
9382.000000;1.616127
9381.000000;1.613860
9380.000000;1.613497
9379.000000;1.613551
9378.000000;1.612719
9377.000000;1.611365
9376.000000;1.610649
9375.000000;1.610850
9374.000000;1.611383
9373.000000;1.611965
9372.000000;1.612779
9371.000000;1.613607
9370.000000;1.613720
9369.000000;1.612686
9368.000000;1.610709
9367.000000;1.608261
9366.000000;1.605878
9365.000000;1.604252
9364.000000;1.603888
9363.000000;1.604600
9362.000000;1.605744
9361.000000;1.606727
9360.000000;1.606885
9359.000000;1.605427
9358.000000;1.602416
9357.000000;1.599480
9356.000000;1.598609
9355.000000;1.600282
9354.000000;1.603294
9353.000000;1.606062
9352.000000;1.607528
9351.000000;1.607367
9350.000000;1.606388
9349.000000;1.606280
9348.000000;1.607607
9347.000000;1.608274
9346.000000;1.605527
9345.000000;1.599663
9344.000000;1.594062
9343.000000;1.591311
9342.000000;1.590992
9341.000000;1.591510
9340.000000;1.592365
9339.000000;1.593660
9338.000000;1.594892
9337.000000;1.595657
9336.000000;1.596558
9335.000000;1.597999
9334.000000;1.598816
9333.000000;1.597618
9332.000000;1.595187
9331.000000;1.593962
9330.000000;1.594938
9329.000000;1.596199
9328.000000;1.595035
9327.000000;1.591024
9326.000000;1.586479
9325.000000;1.584117
9324.000000;1.584705
9323.000000;1.586798
9322.000000;1.588456
9321.000000;1.588989
9320.000000;1.588876
9319.000000;1.588459
9318.000000;1.587514
9317.000000;1.586049
9316.000000;1.584648
9315.000000;1.583794
9314.000000;1.583474
9313.000000;1.583570
9312.000000;1.583920
9311.000000;1.583857
9310.000000;1.582697
9309.000000;1.581057
9308.000000;1.580722
9307.000000;1.582500
9306.000000;1.584913
9305.000000;1.585778
9304.000000;1.584809
9303.000000;1.583723
9302.000000;1.583983
9301.000000;1.585217
9300.000000;1.585682
9299.000000;1.583801
9298.000000;1.579695
9297.000000;1.575642
9296.000000;1.574434
9295.000000;1.576616
9294.000000;1.579623
9293.000000;1.580397
9292.000000;1.578705
9291.000000;1.576907
9290.000000;1.576626
9289.000000;1.576936
9288.000000;1.575964
9287.000000;1.573337
9286.000000;1.570436
9285.000000;1.568710
9284.000000;1.568307
9283.000000;1.568191
9282.000000;1.567360
9281.000000;1.565889
9280.000000;1.564720
9279.000000;1.564481
9278.000000;1.564834
9277.000000;1.565221
9276.000000;1.565849
9275.000000;1.567335
9274.000000;1.569415
9273.000000;1.570641
9272.000000;1.569767
9271.000000;1.567260
9270.000000;1.565050
9269.000000;1.564755
9268.000000;1.566272
9267.000000;1.567969
9266.000000;1.568191
9265.000000;1.566625
9264.000000;1.564286
9263.000000;1.562437
9262.000000;1.561774
9261.000000;1.562356
9260.000000;1.563747
9259.000000;1.565099
9258.000000;1.565485
9257.000000;1.564574
9256.000000;1.562893
9255.000000;1.561293
9254.000000;1.560209
9253.000000;1.559455
9252.000000;1.558549
9251.000000;1.557259
9250.000000;1.555884
9249.000000;1.554913
9248.000000;1.554357
9247.000000;1.553709
9246.000000;1.552692
9245.000000;1.551715
9244.000000;1.551248
9243.000000;1.551148
9242.000000;1.551240
9241.000000;1.552134
9240.000000;1.554383
9239.000000;1.556883
9238.000000;1.557360
9237.000000;1.554981
9236.000000;1.551403
9235.000000;1.548687
9234.000000;1.547320
9233.000000;1.546849
9232.000000;1.547239
9231.000000;1.548431
9230.000000;1.549225
9229.000000;1.548144
9228.000000;1.545471
9227.000000;1.543186
9226.000000;1.542799
9225.000000;1.544141
9224.000000;1.546152
9223.000000;1.548020
9222.000000;1.549384
9221.000000;1.550173
9220.000000;1.550570
9219.000000;1.550757
9218.000000;1.550549
9217.000000;1.549693
9216.000000;1.548537
9215.000000;1.547853
9214.000000;1.547906
9213.000000;1.548206
9212.000000;1.548286
9211.000000;1.548197
9210.000000;1.547952
9209.000000;1.547040
9208.000000;1.545061
9207.000000;1.542489
9206.000000;1.540289
9205.000000;1.539082
9204.000000;1.538941
9203.000000;1.539657
9202.000000;1.540756
9201.000000;1.541524
9200.000000;1.541710
9199.000000;1.542062
9198.000000;1.543462
9197.000000;1.545402
9196.000000;1.546023
9195.000000;1.544189
9194.000000;1.540946
9193.000000;1.538127
9192.000000;1.536063
9191.000000;1.533688
9190.000000;1.530772
9189.000000;1.528917
9188.000000;1.529858
9187.000000;1.533516
9186.000000;1.538133
9185.000000;1.541696
9184.000000;1.542859
9183.000000;1.541262
9182.000000;1.537996
9181.000000;1.535331
9180.000000;1.534907
9179.000000;1.536114
9178.000000;1.536919
9177.000000;1.536313
9176.000000;1.535152
9175.000000;1.534510
9174.000000;1.534329
9173.000000;1.534120
9172.000000;1.534047
9171.000000;1.534571
9170.000000;1.535553
9169.000000;1.536427
9168.000000;1.536905
9167.000000;1.536870
9166.000000;1.535927
9165.000000;1.533794
9164.000000;1.531044
9163.000000;1.528815
9162.000000;1.527715
9161.000000;1.527416
9160.000000;1.527352
9159.000000;1.527422
9158.000000;1.527797
9157.000000;1.528328
9156.000000;1.528526
9155.000000;1.528131
9154.000000;1.527436
9153.000000;1.526963
9152.000000;1.526927
9151.000000;1.527100
9150.000000;1.527087
9149.000000;1.526645
9148.000000;1.525725
9147.000000;1.524373
9146.000000;1.522802
9145.000000;1.521523
9144.000000;1.521125
9143.000000;1.521801
9142.000000;1.523169
9141.000000;1.524572
9140.000000;1.525504
9139.000000;1.525794
9138.000000;1.525586
9137.000000;1.525224
9136.000000;1.524989
9135.000000;1.524978
9134.000000;1.525305
9133.000000;1.526154
9132.000000;1.527331
9131.000000;1.527980
9130.000000;1.527295
9129.000000;1.525607
9128.000000;1.524167
9127.000000;1.523659
9126.000000;1.523429
9125.000000;1.522550
9124.000000;1.521259
9123.000000;1.520665
9122.000000;1.521069
9121.000000;1.521303
9120.000000;1.519986
9119.000000;1.516955
9118.000000;1.513292
9117.000000;1.510389
9116.000000;1.509225
9115.000000;1.510151
9114.000000;1.512637
9113.000000;1.515158
9112.000000;1.516064
9111.000000;1.515046
9110.000000;1.513415
9109.000000;1.512564
9108.000000;1.512558
9107.000000;1.512668
9106.000000;1.512821
9105.000000;1.513773
9104.000000;1.515887
9103.000000;1.518433
9102.000000;1.520303
9101.000000;1.520895
9100.000000;1.520040
9099.000000;1.517827
9098.000000;1.515119
9097.000000;1.513646
9096.000000;1.514681
9095.000000;1.517566
9094.000000;1.520001
9093.000000;1.519969
9092.000000;1.517222
9091.000000;1.513077
9090.000000;1.509287
9089.000000;1.507090
9088.000000;1.506705
9087.000000;1.507434
9086.000000;1.508391
9085.000000;1.509146
9084.000000;1.509557
9083.000000;1.509315
9082.000000;1.508238
9081.000000;1.506929
9080.000000;1.506507
9079.000000;1.507478
9078.000000;1.509217
9077.000000;1.510701
9076.000000;1.511442
9075.000000;1.511541
9074.000000;1.511194
9073.000000;1.510522
9072.000000;1.509679
9071.000000;1.508810
9070.000000;1.507963
9069.000000;1.507149
9068.000000;1.506420
9067.000000;1.505742
9066.000000;1.504924
9065.000000;1.503876
9064.000000;1.502963
9063.000000;1.502870
9062.000000;1.503896
9061.000000;1.505423
9060.000000;1.506317
9059.000000;1.505966
9058.000000;1.504745
9057.000000;1.503350
9056.000000;1.502039
9055.000000;1.500860
9054.000000;1.500270
9053.000000;1.500809
