Criado como novo conjunto de dados;"1909daniel.spp","-4211800.9 Secs"
cm-1;Abs
10000.000000;1.353763
9999.000000;1.352195
9998.000000;1.350632
9997.000000;1.349075
9996.000000;1.347525
9995.000000;1.345977
9994.000000;1.344440
9993.000000;1.342897
9992.000000;1.341381
9991.000000;1.339832
9990.000000;1.338365
9989.000000;1.336634
9988.000000;1.334908
9987.000000;1.333613
9986.000000;1.332699
9985.000000;1.332500
9984.000000;1.333017
9983.000000;1.333606
9982.000000;1.333479
9981.000000;1.332525
9980.000000;1.331138
9979.000000;1.329565
9978.000000;1.327918
9977.000000;1.326569
9976.000000;1.325880
9975.000000;1.325649
9974.000000;1.325348
9973.000000;1.324850
9972.000000;1.324439
9971.000000;1.324141
9970.000000;1.323638
9969.000000;1.322917
9968.000000;1.322433
9967.000000;1.322359
9966.000000;1.322215
9965.000000;1.321557
9964.000000;1.320619
9963.000000;1.319836
9962.000000;1.319052
9961.000000;1.317757
9960.000000;1.315953
9959.000000;1.314241
9958.000000;1.313056
9957.000000;1.312336
9956.000000;1.311994
9955.000000;1.312193
9954.000000;1.312836
9953.000000;1.313166
9952.000000;1.312383
9951.000000;1.310605
9950.000000;1.308824
9949.000000;1.307864
9948.000000;1.307663
9947.000000;1.307621
9946.000000;1.307351
9945.000000;1.306846
9944.000000;1.306120
9943.000000;1.305037
9942.000000;1.303608
9941.000000;1.302208
9940.000000;1.301263
9939.000000;1.300771
9938.000000;1.300350
9937.000000;1.299789
9936.000000;1.299314
9935.000000;1.299193
9934.000000;1.299240
9933.000000;1.298904
9932.000000;1.297865
9931.000000;1.296406
9930.000000;1.295197
9929.000000;1.294756
9928.000000;1.295052
9927.000000;1.295498
9926.000000;1.295360
9925.000000;1.294328
9924.000000;1.292773
9923.000000;1.291338
9922.000000;1.290290
9921.000000;1.289414
9920.000000;1.288493
9919.000000;1.287623
9918.000000;1.286959
9917.000000;1.286394
9916.000000;1.285672
9915.000000;1.284695
9914.000000;1.283580
9913.000000;1.282466
9912.000000;1.281415
9911.000000;1.280478
9910.000000;1.279733
9909.000000;1.279219
9908.000000;1.278873
9907.000000;1.278530
9906.000000;1.278017
9905.000000;1.277282
9904.000000;1.276402
9903.000000;1.275390
9902.000000;1.274151
9901.000000;1.272839
9900.000000;1.272130
9899.000000;1.272705
9898.000000;1.274333
9897.000000;1.275776
9896.000000;1.275854
9895.000000;1.274437
9894.000000;1.272264
9893.000000;1.270140
9892.000000;1.268539
9891.000000;1.267633
9890.000000;1.267247
9889.000000;1.266875
9888.000000;1.266092
9887.000000;1.264975
9886.000000;1.263992
9885.000000;1.263563
9884.000000;1.263773
9883.000000;1.264227
9882.000000;1.264003
9881.000000;1.262196
9880.000000;1.258990
9879.000000;1.255938
9878.000000;1.254701
9877.000000;1.255498
9876.000000;1.257031
9875.000000;1.257795
9874.000000;1.257194
9873.000000;1.255595
9872.000000;1.253810
9871.000000;1.252543
9870.000000;1.251890
9869.000000;1.251297
9868.000000;1.250329
9867.000000;1.249386
9866.000000;1.249195
9865.000000;1.249681
9864.000000;1.249947
9863.000000;1.249437
9862.000000;1.248500
9861.000000;1.247567
9860.000000;1.246405
9859.000000;1.244649
9858.000000;1.242604
9857.000000;1.240954
9856.000000;1.239894
9855.000000;1.239072
9854.000000;1.238336
9853.000000;1.238050
9852.000000;1.238541
9851.000000;1.239496
9850.000000;1.240072
9849.000000;1.239578
9848.000000;1.238036
9847.000000;1.236091
9846.000000;1.234383
9845.000000;1.233126
9844.000000;1.232286
9843.000000;1.231949
9842.000000;1.232192
9841.000000;1.232652
9840.000000;1.232550
9839.000000;1.231362
9838.000000;1.229400
9837.000000;1.227663
9836.000000;1.227086
9835.000000;1.227759
9834.000000;1.228717
9833.000000;1.228702
9832.000000;1.227404
9831.000000;1.225768
9830.000000;1.224773
9829.000000;1.224228
9828.000000;1.223242
9827.000000;1.221658
9826.000000;1.220343
9825.000000;1.220066
9824.000000;1.220718
9823.000000;1.221659
9822.000000;1.222199
9821.000000;1.221636
9820.000000;1.219584
9819.000000;1.216642
9818.000000;1.214135
9817.000000;1.212794
9816.000000;1.212181
9815.000000;1.211733
9814.000000;1.211721
9813.000000;1.212550
9812.000000;1.213652
9811.000000;1.213926
9810.000000;1.213089
9809.000000;1.211817
9808.000000;1.210619
9807.000000;1.209363
9806.000000;1.208034
9805.000000;1.207237
9804.000000;1.207475
9803.000000;1.208259
9802.000000;1.208329
9801.000000;1.206821
9800.000000;1.204072
9799.000000;1.201260
9798.000000;1.199333
9797.000000;1.198359
9796.000000;1.197863
9795.000000;1.197634
9794.000000;1.197823
9793.000000;1.198235
9792.000000;1.198065
9791.000000;1.196734
9790.000000;1.194709
9789.000000;1.193058
9788.000000;1.192288
9787.000000;1.192030
9786.000000;1.191836
9785.000000;1.191794
9784.000000;1.192140
9783.000000;1.192626
9782.000000;1.192664
9781.000000;1.192006
9780.000000;1.190978
9779.000000;1.190017
9778.000000;1.189240
9777.000000;1.188549
9776.000000;1.187928
9775.000000;1.187390
9774.000000;1.186722
9773.000000;1.185650
9772.000000;1.184350
9771.000000;1.183490
9770.000000;1.183489
9769.000000;1.183919
9768.000000;1.183963
9767.000000;1.183315
9766.000000;1.182222
9765.000000;1.180791
9764.000000;1.178808
9763.000000;1.176376
9762.000000;1.174202
9761.000000;1.172925
9760.000000;1.172453
9759.000000;1.172230
9758.000000;1.171912
9757.000000;1.171518
9756.000000;1.171130
9755.000000;1.170760
9754.000000;1.170464
9753.000000;1.170338
9752.000000;1.170409
9751.000000;1.170610
9750.000000;1.170798
9749.000000;1.170710
9748.000000;1.170055
9747.000000;1.168818
9746.000000;1.167388
9745.000000;1.166264
9744.000000;1.165712
9743.000000;1.165645
9742.000000;1.165687
9741.000000;1.165369
9740.000000;1.164505
9739.000000;1.163385
9738.000000;1.162374
9737.000000;1.161356
9736.000000;1.159925
9735.000000;1.158195
9734.000000;1.156950
9733.000000;1.156725
9732.000000;1.157078
9731.000000;1.157127
9730.000000;1.156562
9729.000000;1.155779
9728.000000;1.155214
9727.000000;1.154885
9726.000000;1.154490
9725.000000;1.153672
9724.000000;1.152265
9723.000000;1.150486
9722.000000;1.148791
9721.000000;1.147434
9720.000000;1.146354
9719.000000;1.145571
9718.000000;1.145292
9717.000000;1.145402
9716.000000;1.145222
9715.000000;1.144226
9714.000000;1.142797
9713.000000;1.141840
9712.000000;1.141714
9711.000000;1.141926
9710.000000;1.141789
9709.000000;1.141048
9708.000000;1.139873
9707.000000;1.138630
9706.000000;1.137693
9705.000000;1.137215
9704.000000;1.136969
9703.000000;1.136578
9702.000000;1.135935
9701.000000;1.135252
9700.000000;1.134729
9699.000000;1.134397
9698.000000;1.134257
9697.000000;1.134306
9696.000000;1.134337
9695.000000;1.133910
9694.000000;1.132717
9693.000000;1.131023
9692.000000;1.129678
9691.000000;1.129508
9690.000000;1.130470
9689.000000;1.131369
9688.000000;1.130731
9687.000000;1.128231
9686.000000;1.125076
9685.000000;1.122789
9684.000000;1.121873
9683.000000;1.121834
9682.000000;1.122136
9681.000000;1.122631
9680.000000;1.123172
9679.000000;1.123357
9678.000000;1.122860
9677.000000;1.121763
9676.000000;1.120423
9675.000000;1.119185
9674.000000;1.118266
9673.000000;1.117669
9672.000000;1.117096
9671.000000;1.116126
9670.000000;1.114589
9669.000000;1.112754
9668.000000;1.111137
9667.000000;1.110149
9666.000000;1.109826
9665.000000;1.109785
9664.000000;1.109524
9663.000000;1.108900
9662.000000;1.108222
9661.000000;1.107756
9660.000000;1.107333
9659.000000;1.106685
9658.000000;1.105957
9657.000000;1.105503
9656.000000;1.105270
9655.000000;1.104834
9654.000000;1.104047
9653.000000;1.103244
9652.000000;1.102684
9651.000000;1.102191
9650.000000;1.101548
9649.000000;1.100899
9648.000000;1.100496
9647.000000;1.100280
9646.000000;1.099959
9645.000000;1.099399
9644.000000;1.098666
9643.000000;1.097803
9642.000000;1.096840
9641.000000;1.096016
9640.000000;1.095723
9639.000000;1.096112
9638.000000;1.096780
9637.000000;1.096905
9636.000000;1.095786
9635.000000;1.093455
9634.000000;1.090831
9633.000000;1.089065
9632.000000;1.088518
9631.000000;1.088457
9630.000000;1.087921
9629.000000;1.086800
9628.000000;1.085825
9627.000000;1.085577
9626.000000;1.085815
9625.000000;1.085869
9624.000000;1.085439
9623.000000;1.084797
9622.000000;1.084339
9621.000000;1.084136
9620.000000;1.083892
9619.000000;1.083240
9618.000000;1.082094
9617.000000;1.080744
9616.000000;1.079555
9615.000000;1.078530
9614.000000;1.077284
9613.000000;1.075612
9612.000000;1.073944
9611.000000;1.073016
9610.000000;1.073135
9609.000000;1.073951
9608.000000;1.074879
9607.000000;1.075442
9606.000000;1.075204
9605.000000;1.073833
9604.000000;1.071565
9603.000000;1.069314
9602.000000;1.067963
9601.000000;1.067586
9600.000000;1.067595
9599.000000;1.067499
9598.000000;1.067243
9597.000000;1.066861
9596.000000;1.066230
9595.000000;1.065261
9594.000000;1.064078
9593.000000;1.062860
9592.000000;1.061709
9591.000000;1.060756
9590.000000;1.060253
9589.000000;1.060354
9588.000000;1.060876
9587.000000;1.061321
9586.000000;1.061210
9585.000000;1.060438
9584.000000;1.059379
9583.000000;1.058540
9582.000000;1.058033
9581.000000;1.057520
9580.000000;1.056806
9579.000000;1.056220
9578.000000;1.056089
9577.000000;1.056014
9576.000000;1.055173
9575.000000;1.053381
9574.000000;1.051402
9573.000000;1.050080
9572.000000;1.049534
9571.000000;1.049373
9570.000000;1.049247
9569.000000;1.048922
9568.000000;1.048175
9567.000000;1.047050
9566.000000;1.046069
9565.000000;1.045776
9564.000000;1.046117
9563.000000;1.046493
9562.000000;1.046364
9561.000000;1.045608
9560.000000;1.044384
9559.000000;1.042976
9558.000000;1.041784
9557.000000;1.041194
9556.000000;1.041277
9555.000000;1.041696
9554.000000;1.041929
9553.000000;1.041588
9552.000000;1.040630
9551.000000;1.039399
9550.000000;1.038383
9549.000000;1.037752
9548.000000;1.037172
9547.000000;1.036218
9546.000000;1.034926
9545.000000;1.033719
9544.000000;1.032801
9543.000000;1.031908
9542.000000;1.030768
9541.000000;1.029622
9540.000000;1.029049
9539.000000;1.029267
9538.000000;1.029797
9537.000000;1.029920
9536.000000;1.029400
9535.000000;1.028635
9534.000000;1.028097
9533.000000;1.027831
9532.000000;1.027576
9531.000000;1.027160
9530.000000;1.026539
9529.000000;1.025583
9528.000000;1.024193
9527.000000;1.022701
9526.000000;1.021821
9525.000000;1.021954
9524.000000;1.022615
9523.000000;1.022765
9522.000000;1.021746
9521.000000;1.019874
9520.000000;1.018121
9519.000000;1.017256
9518.000000;1.017225
9517.000000;1.017345
9516.000000;1.017074
9515.000000;1.016495
9514.000000;1.015974
9513.000000;1.015585
9512.000000;1.015144
9511.000000;1.014663
9510.000000;1.014317
9509.000000;1.013958
9508.000000;1.013116
9507.000000;1.011691
9506.000000;1.010272
9505.000000;1.009427
9504.000000;1.008975
9503.000000;1.008299
9502.000000;1.007242
9501.000000;1.006292
9500.000000;1.005911
9499.000000;1.006022
9498.000000;1.006241
9497.000000;1.006333
9496.000000;1.006313
9495.000000;1.006256
9494.000000;1.006147
9493.000000;1.005879
9492.000000;1.005331
9491.000000;1.004474
9490.000000;1.003406
9489.000000;1.002263
9488.000000;1.001151
9487.000000;1.000161
9486.000000;0.999387
9485.000000;0.998810
9484.000000;0.998246
9483.000000;0.997506
9482.000000;0.996612
9481.000000;0.995803
9480.000000;0.995315
9479.000000;0.995182
9478.000000;0.995205
9477.000000;0.995110
9476.000000;0.994742
9475.000000;0.994125
9474.000000;0.993347
9473.000000;0.992493
9472.000000;0.991765
9471.000000;0.991480
9470.000000;0.991681
9469.000000;0.991818
9468.000000;0.991143
9467.000000;0.989588
9466.000000;0.987994
9465.000000;0.987274
9464.000000;0.987491
9463.000000;0.987924
9462.000000;0.987882
9461.000000;0.987236
9460.000000;0.986247
9459.000000;0.985186
9458.000000;0.984228
9457.000000;0.983548
9456.000000;0.983299
9455.000000;0.983413
9454.000000;0.983482
9453.000000;0.982964
9452.000000;0.981704
9451.000000;0.980212
9450.000000;0.979258
9449.000000;0.979140
9448.000000;0.979502
9447.000000;0.979874
9446.000000;0.980092
9445.000000;0.980060
9444.000000;0.979433
9443.000000;0.977951
9442.000000;0.976039
9441.000000;0.974673
9440.000000;0.974474
9439.000000;0.975060
9438.000000;0.975421
9437.000000;0.974901
9436.000000;0.973724
9435.000000;0.972589
9434.000000;0.971888
9433.000000;0.971434
9432.000000;0.970844
9431.000000;0.969960
9430.000000;0.968817
9429.000000;0.967449
9428.000000;0.966011
9427.000000;0.964983
9426.000000;0.964867
9425.000000;0.965530
9424.000000;0.966116
9423.000000;0.965817
9422.000000;0.964642
9421.000000;0.963309
9420.000000;0.962478
9419.000000;0.962224
9418.000000;0.962197
9417.000000;0.962107
9416.000000;0.961963
9415.000000;0.961861
9414.000000;0.961624
9413.000000;0.960872
9412.000000;0.959541
9411.000000;0.958140
9410.000000;0.957245
9409.000000;0.956870
9408.000000;0.956641
9407.000000;0.956490
9406.000000;0.956685
9405.000000;0.957116
9404.000000;0.957105
9403.000000;0.956237
9402.000000;0.955014
9401.000000;0.954277
9400.000000;0.954204
9399.000000;0.954223
9398.000000;0.953794
9397.000000;0.952870
9396.000000;0.951686
9395.000000;0.950445
9394.000000;0.949310
9393.000000;0.948416
9392.000000;0.947753
9391.000000;0.947172
9390.000000;0.946572
9389.000000;0.946007
9388.000000;0.945595
9387.000000;0.945399
9386.000000;0.945372
9385.000000;0.945359
9384.000000;0.945212
9383.000000;0.944981
9382.000000;0.944900
9381.000000;0.945097
9380.000000;0.945367
9379.000000;0.945339
9378.000000;0.944812
9377.000000;0.943853
9376.000000;0.942672
9375.000000;0.941485
9374.000000;0.940429
9373.000000;0.939506
9372.000000;0.938688
9371.000000;0.938127
9370.000000;0.938073
9369.000000;0.938446
9368.000000;0.938678
9367.000000;0.938226
9366.000000;0.937150
9365.000000;0.935998
9364.000000;0.935181
9363.000000;0.934654
9362.000000;0.934147
9361.000000;0.933494
9360.000000;0.932767
9359.000000;0.932273
9358.000000;0.932423
9357.000000;0.933354
9356.000000;0.934577
9355.000000;0.935149
9354.000000;0.934411
9353.000000;0.932608
9352.000000;0.930743
9351.000000;0.929726
9350.000000;0.929571
9349.000000;0.929400
9348.000000;0.928319
9347.000000;0.926319
9346.000000;0.924223
9345.000000;0.922784
9344.000000;0.922078
9343.000000;0.921805
9342.000000;0.921845
9341.000000;0.922215
9340.000000;0.922692
9339.000000;0.922872
9338.000000;0.922625
9337.000000;0.922241
9336.000000;0.922033
9335.000000;0.921962
9334.000000;0.921746
9333.000000;0.921213
9332.000000;0.920468
9331.000000;0.919763
9330.000000;0.919280
9329.000000;0.918996
9328.000000;0.918761
9327.000000;0.918485
9326.000000;0.918160
9325.000000;0.917695
9324.000000;0.916888
9323.000000;0.915734
9322.000000;0.914630
9321.000000;0.914055
9320.000000;0.914031
9319.000000;0.914075
9318.000000;0.913752
9317.000000;0.913142
9316.000000;0.912668
9315.000000;0.912538
9314.000000;0.912459
9313.000000;0.911929
9312.000000;0.910807
9311.000000;0.909517
9310.000000;0.908630
9309.000000;0.908246
9308.000000;0.907903
9307.000000;0.907131
9306.000000;0.905993
9305.000000;0.905002
9304.000000;0.904634
9303.000000;0.904950
9302.000000;0.905594
9301.000000;0.906055
9300.000000;0.906047
9299.000000;0.905714
9298.000000;0.905389
9297.000000;0.905109
9296.000000;0.904553
9295.000000;0.903571
9294.000000;0.902541
9293.000000;0.901977
9292.000000;0.901904
9291.000000;0.901893
9290.000000;0.901636
9289.000000;0.901220
9288.000000;0.900874
9287.000000;0.900715
9286.000000;0.900772
9285.000000;0.900963
9284.000000;0.900965
9283.000000;0.900362
9282.000000;0.899072
9281.000000;0.897534
9280.000000;0.896365
9279.000000;0.895896
9278.000000;0.896057
9277.000000;0.896516
9276.000000;0.896825
9275.000000;0.896578
9274.000000;0.895661
9273.000000;0.894373
9272.000000;0.893198
9271.000000;0.892428
9270.000000;0.892039
9269.000000;0.891900
9268.000000;0.891953
9267.000000;0.892137
9266.000000;0.892224
9265.000000;0.891922
9264.000000;0.891193
9263.000000;0.890371
9262.000000;0.889830
9261.000000;0.889596
9260.000000;0.889442
9259.000000;0.889278
9258.000000;0.889195
9257.000000;0.889078
9256.000000;0.888514
9255.000000;0.887313
9254.000000;0.885943
9253.000000;0.885144
9252.000000;0.885155
9251.000000;0.885567
9250.000000;0.885872
9249.000000;0.885902
9248.000000;0.885707
9247.000000;0.885281
9246.000000;0.884583
9245.000000;0.883702
9244.000000;0.882884
9243.000000;0.882408
9242.000000;0.882396
9241.000000;0.882645
9240.000000;0.882680
9239.000000;0.882163
9238.000000;0.881298
9237.000000;0.880640
9236.000000;0.880446
9235.000000;0.880366
9234.000000;0.879905
9233.000000;0.878973
9232.000000;0.877836
9231.000000;0.876678
9230.000000;0.875472
9229.000000;0.874281
9228.000000;0.873438
9227.000000;0.873273
9226.000000;0.873771
9225.000000;0.874555
9224.000000;0.875166
9223.000000;0.875335
9222.000000;0.875103
9221.000000;0.874777
9220.000000;0.874706
9219.000000;0.874962
9218.000000;0.875201
9217.000000;0.874942
9216.000000;0.874067
9215.000000;0.873000
9214.000000;0.872300
9213.000000;0.872095
9212.000000;0.871982
9211.000000;0.871505
9210.000000;0.870678
9209.000000;0.869963
9208.000000;0.869770
9207.000000;0.870033
9206.000000;0.870276
9205.000000;0.870080
9204.000000;0.869465
9203.000000;0.868824
9202.000000;0.868486
9201.000000;0.868389
9200.000000;0.868190
9199.000000;0.867656
9198.000000;0.866865
9197.000000;0.866047
9196.000000;0.865334
9195.000000;0.864720
9194.000000;0.864199
9193.000000;0.863834
9192.000000;0.863678
9191.000000;0.863652
9190.000000;0.863574
9189.000000;0.863325
9188.000000;0.862980
9187.000000;0.862691
9186.000000;0.862445
9185.000000;0.862015
9184.000000;0.861240
9183.000000;0.860324
9182.000000;0.859732
9181.000000;0.859780
9180.000000;0.860371
9179.000000;0.861099
9178.000000;0.861529
9177.000000;0.861420
9176.000000;0.860832
9175.000000;0.860050
9174.000000;0.859330
9173.000000;0.858706
9172.000000;0.858105
9171.000000;0.857580
9170.000000;0.857255
9169.000000;0.857039
9168.000000;0.856668
9167.000000;0.856120
9166.000000;0.855749
9165.000000;0.855793
9164.000000;0.855932
9163.000000;0.855613
9162.000000;0.854757
9161.000000;0.853885
9160.000000;0.853478
9159.000000;0.853432
9158.000000;0.853228
9157.000000;0.852529
9156.000000;0.851485
9155.000000;0.850502
9154.000000;0.849818
9153.000000;0.849333
9152.000000;0.848828
9151.000000;0.848288
9150.000000;0.847933
9149.000000;0.847936
9148.000000;0.848211
9147.000000;0.848522
9146.000000;0.848718
9145.000000;0.848751
9144.000000;0.848567
9143.000000;0.848151
9142.000000;0.847632
9141.000000;0.847201
9140.000000;0.846920
9139.000000;0.846720
9138.000000;0.846581
9137.000000;0.846571
9136.000000;0.846682
9135.000000;0.846738
9134.000000;0.846542
9133.000000;0.846044
9132.000000;0.845334
9131.000000;0.844571
9130.000000;0.843939
9129.000000;0.843561
9128.000000;0.843363
9127.000000;0.843094
9126.000000;0.842606
9125.000000;0.842074
9124.000000;0.841841
9123.000000;0.842034
9122.000000;0.842389
9121.000000;0.842515
9120.000000;0.842289
9119.000000;0.841966
9118.000000;0.841884
9117.000000;0.842079
9116.000000;0.842225
9115.000000;0.841956
9114.000000;0.841230
9113.000000;0.840339
9112.000000;0.839622
9111.000000;0.839246
9110.000000;0.839239
9109.000000;0.839563
9108.000000;0.840033
9107.000000;0.840274
9106.000000;0.839973
9105.000000;0.839203
9104.000000;0.838362
9103.000000;0.837756
9102.000000;0.837340
9101.000000;0.836904
9100.000000;0.836362
9099.000000;0.835754
9098.000000;0.835103
9097.000000;0.834487
9096.000000;0.834168
9095.000000;0.834390
9094.000000;0.834981
9093.000000;0.835363
9092.000000;0.835093
9091.000000;0.834272
9090.000000;0.833310
9089.000000;0.832464
9088.000000;0.831776
9087.000000;0.831319
9086.000000;0.831173
9085.000000;0.831133
9084.000000;0.830759
9083.000000;0.829898
9082.000000;0.829031
9081.000000;0.828875
9080.000000;0.829605
9079.000000;0.830644
9078.000000;0.831258
9077.000000;0.831251
9076.000000;0.830950
9075.000000;0.830588
9074.000000;0.829976
9073.000000;0.828918
9072.000000;0.827773
9071.000000;0.827270
9070.000000;0.827699
9069.000000;0.828512
9068.000000;0.828903
9067.000000;0.828641
9066.000000;0.828144
9065.000000;0.827827
9064.000000;0.827634
9063.000000;0.827232
9062.000000;0.826469
9061.000000;0.825549
9060.000000;0.824859
9059.000000;0.824666
9058.000000;0.824895
9057.000000;0.825161
9056.000000;0.825061
9055.000000;0.824474
9054.000000;0.823574
9053.000000;0.822630
