Criado como novo conjunto de dados;"1909daniel.spp","-4213240.7 Secs"
cm-1;Abs
10000.000000;1.143273
9999.000000;1.142216
9998.000000;1.140863
9997.000000;1.138953
9996.000000;1.136783
9995.000000;1.135359
9994.000000;1.135461
9993.000000;1.136631
9992.000000;1.137624
9991.000000;1.137634
9990.000000;1.136823
9989.000000;1.135721
9988.000000;1.134631
9987.000000;1.133599
9986.000000;1.132575
9985.000000;1.131498
9984.000000;1.130400
9983.000000;1.129436
9982.000000;1.128713
9981.000000;1.128155
9980.000000;1.127645
9979.000000;1.127108
9978.000000;1.126374
9977.000000;1.125200
9976.000000;1.123611
9975.000000;1.122032
9974.000000;1.120887
9973.000000;1.120211
9972.000000;1.119796
9971.000000;1.119475
9970.000000;1.119165
9969.000000;1.118857
9968.000000;1.118692
9967.000000;1.118779
9966.000000;1.118864
9965.000000;1.118494
9964.000000;1.117594
9963.000000;1.116488
9962.000000;1.115288
9961.000000;1.113790
9960.000000;1.112157
9959.000000;1.111037
9958.000000;1.110650
9957.000000;1.110297
9956.000000;1.109308
9955.000000;1.108040
9954.000000;1.107391
9953.000000;1.107637
9952.000000;1.108255
9951.000000;1.108568
9950.000000;1.108117
9949.000000;1.106693
9948.000000;1.104554
9947.000000;1.102458
9946.000000;1.101020
9945.000000;1.100193
9944.000000;1.099640
9943.000000;1.099301
9942.000000;1.099158
9941.000000;1.098756
9940.000000;1.097607
9939.000000;1.095965
9938.000000;1.094692
9937.000000;1.094364
9936.000000;1.094834
9935.000000;1.095536
9934.000000;1.095841
9933.000000;1.095283
9932.000000;1.093907
9931.000000;1.092381
9930.000000;1.091428
9929.000000;1.091124
9928.000000;1.090884
9927.000000;1.090081
9926.000000;1.088496
9925.000000;1.086371
9924.000000;1.084332
9923.000000;1.083084
9922.000000;1.082848
9921.000000;1.083170
9920.000000;1.083452
9919.000000;1.083458
9918.000000;1.083189
9917.000000;1.082598
9916.000000;1.081738
9915.000000;1.080890
9914.000000;1.080199
9913.000000;1.079420
9912.000000;1.078353
9911.000000;1.077252
9910.000000;1.076498
9909.000000;1.076115
9908.000000;1.075879
9907.000000;1.075582
9906.000000;1.074947
9905.000000;1.073667
9904.000000;1.071890
9903.000000;1.070315
9902.000000;1.069410
9901.000000;1.068875
9900.000000;1.068219
9899.000000;1.067487
9898.000000;1.067023
9897.000000;1.066895
9896.000000;1.067020
9895.000000;1.067442
9894.000000;1.067927
9893.000000;1.067690
9892.000000;1.066234
9891.000000;1.064196
9890.000000;1.062669
9889.000000;1.061901
9888.000000;1.061273
9887.000000;1.060390
9886.000000;1.059477
9885.000000;1.058792
9884.000000;1.058314
9883.000000;1.058017
9882.000000;1.057847
9881.000000;1.057412
9880.000000;1.056255
9879.000000;1.054552
9878.000000;1.053085
9877.000000;1.052427
9876.000000;1.052527
9875.000000;1.053013
9874.000000;1.053437
9873.000000;1.053241
9872.000000;1.052043
9871.000000;1.050112
9870.000000;1.048237
9869.000000;1.046991
9868.000000;1.046327
9867.000000;1.045840
9866.000000;1.045150
9865.000000;1.044136
9864.000000;1.043100
9863.000000;1.042579
9862.000000;1.042699
9861.000000;1.042866
9860.000000;1.042442
9859.000000;1.041565
9858.000000;1.040829
9857.000000;1.040334
9856.000000;1.039562
9855.000000;1.038174
9854.000000;1.036441
9853.000000;1.034893
9852.000000;1.033959
9851.000000;1.033924
9850.000000;1.034691
9849.000000;1.035539
9848.000000;1.035563
9847.000000;1.034522
9846.000000;1.032961
9845.000000;1.031503
9844.000000;1.030380
9843.000000;1.029589
9842.000000;1.029039
9841.000000;1.028481
9840.000000;1.027707
9839.000000;1.026914
9838.000000;1.026521
9837.000000;1.026557
9836.000000;1.026565
9835.000000;1.026141
9834.000000;1.025226
9833.000000;1.023853
9832.000000;1.022054
9831.000000;1.020164
9830.000000;1.018806
9829.000000;1.018325
9828.000000;1.018446
9827.000000;1.018598
9826.000000;1.018376
9825.000000;1.017657
9824.000000;1.016579
9823.000000;1.015539
9822.000000;1.014939
9821.000000;1.014736
9820.000000;1.014448
9819.000000;1.013696
9818.000000;1.012579
9817.000000;1.011392
9816.000000;1.010217
9815.000000;1.008982
9814.000000;1.007818
9813.000000;1.007086
9812.000000;1.007001
9811.000000;1.007270
9810.000000;1.007212
9809.000000;1.006320
9808.000000;1.004743
9807.000000;1.003111
9806.000000;1.001862
9805.000000;1.000892
9804.000000;0.999917
9803.000000;0.998971
9802.000000;0.998376
9801.000000;0.998352
9800.000000;0.998821
9799.000000;0.999472
9798.000000;0.999829
9797.000000;0.999414
9796.000000;0.998099
9795.000000;0.996283
9794.000000;0.994568
9793.000000;0.993317
9792.000000;0.992591
9791.000000;0.992309
9790.000000;0.992250
9789.000000;0.992031
9788.000000;0.991351
9787.000000;0.990269
9786.000000;0.989091
9785.000000;0.988050
9784.000000;0.987245
9783.000000;0.986728
9782.000000;0.986460
9781.000000;0.986272
9780.000000;0.986021
9779.000000;0.985716
9778.000000;0.985335
9777.000000;0.984691
9776.000000;0.983665
9775.000000;0.982441
9774.000000;0.981289
9773.000000;0.980235
9772.000000;0.979159
9771.000000;0.978117
9770.000000;0.977337
9769.000000;0.976896
9768.000000;0.976594
9767.000000;0.976136
9766.000000;0.975388
9765.000000;0.974529
9764.000000;0.973983
9763.000000;0.974022
9762.000000;0.974328
9761.000000;0.974145
9760.000000;0.973015
9759.000000;0.971210
9758.000000;0.969329
9757.000000;0.967729
9756.000000;0.966532
9755.000000;0.965919
9754.000000;0.966019
9753.000000;0.966588
9752.000000;0.967072
9751.000000;0.967025
9750.000000;0.966331
9749.000000;0.965106
9748.000000;0.963568
9747.000000;0.961990
9746.000000;0.960601
9745.000000;0.959517
9744.000000;0.958784
9743.000000;0.958389
9742.000000;0.958191
9741.000000;0.957961
9740.000000;0.957565
9739.000000;0.956987
9738.000000;0.956186
9737.000000;0.955154
9736.000000;0.954125
9735.000000;0.953484
9734.000000;0.953329
9733.000000;0.953314
9732.000000;0.953012
9731.000000;0.952242
9730.000000;0.951058
9729.000000;0.949733
9728.000000;0.948773
9727.000000;0.948545
9726.000000;0.948705
9725.000000;0.948376
9724.000000;0.947093
9723.000000;0.945305
9722.000000;0.943791
9721.000000;0.942916
9720.000000;0.942626
9719.000000;0.942723
9718.000000;0.942840
9717.000000;0.942512
9716.000000;0.941629
9715.000000;0.940605
9714.000000;0.939818
9713.000000;0.939150
9712.000000;0.938366
9711.000000;0.937640
9710.000000;0.937360
9709.000000;0.937559
9708.000000;0.937850
9707.000000;0.937780
9706.000000;0.937053
9705.000000;0.935629
9704.000000;0.933890
9703.000000;0.932478
9702.000000;0.931707
9701.000000;0.931266
9700.000000;0.930697
9699.000000;0.929966
9698.000000;0.929365
9697.000000;0.929083
9696.000000;0.929044
9695.000000;0.928936
9694.000000;0.928267
9693.000000;0.926773
9692.000000;0.924973
9691.000000;0.923861
9690.000000;0.923700
9689.000000;0.923534
9688.000000;0.922318
9687.000000;0.920216
9686.000000;0.918310
9685.000000;0.917333
9684.000000;0.917147
9683.000000;0.917238
9682.000000;0.917158
9681.000000;0.916604
9680.000000;0.915544
9679.000000;0.914329
9678.000000;0.913359
9677.000000;0.912672
9676.000000;0.912081
9675.000000;0.911540
9674.000000;0.911131
9673.000000;0.910842
9672.000000;0.910672
9671.000000;0.910749
9670.000000;0.911025
9669.000000;0.911096
9668.000000;0.910667
9667.000000;0.909981
9666.000000;0.909338
9665.000000;0.908456
9664.000000;0.906843
9663.000000;0.904701
9662.000000;0.902877
9661.000000;0.901907
9660.000000;0.901548
9659.000000;0.901315
9658.000000;0.901053
9657.000000;0.900816
9656.000000;0.900569
9655.000000;0.900203
9654.000000;0.899697
9653.000000;0.899102
9652.000000;0.898468
9651.000000;0.897824
9650.000000;0.897134
9649.000000;0.896326
9648.000000;0.895446
9647.000000;0.894688
9646.000000;0.894138
9645.000000;0.893591
9644.000000;0.892777
9643.000000;0.891659
9642.000000;0.890401
9641.000000;0.889183
9640.000000;0.888186
9639.000000;0.887609
9638.000000;0.887476
9637.000000;0.887536
9636.000000;0.887499
9635.000000;0.887252
9634.000000;0.886746
9633.000000;0.885890
9632.000000;0.884724
9631.000000;0.883507
9630.000000;0.882486
9629.000000;0.881711
9628.000000;0.881162
9627.000000;0.880792
9626.000000;0.880347
9625.000000;0.879490
9624.000000;0.878301
9623.000000;0.877309
9622.000000;0.876753
9621.000000;0.876221
9620.000000;0.875343
9619.000000;0.874481
9618.000000;0.874230
9617.000000;0.874538
9616.000000;0.874779
9615.000000;0.874536
9614.000000;0.873845
9613.000000;0.872832
9612.000000;0.871612
9611.000000;0.870490
9610.000000;0.869785
9609.000000;0.869428
9608.000000;0.869071
9607.000000;0.868588
9606.000000;0.868131
9605.000000;0.867708
9604.000000;0.867097
9603.000000;0.866235
9602.000000;0.865401
9601.000000;0.864880
9600.000000;0.864653
9599.000000;0.864464
9598.000000;0.864008
9597.000000;0.863094
9596.000000;0.861783
9595.000000;0.860394
9594.000000;0.859223
9593.000000;0.858323
9592.000000;0.857643
9591.000000;0.857227
9590.000000;0.857052
9589.000000;0.856837
9588.000000;0.856285
9587.000000;0.855458
9586.000000;0.854668
9585.000000;0.854052
9584.000000;0.853457
9583.000000;0.852738
9582.000000;0.851944
9581.000000;0.851260
9580.000000;0.850862
9579.000000;0.850791
9578.000000;0.850830
9577.000000;0.850578
9576.000000;0.849799
9575.000000;0.848611
9574.000000;0.847320
9573.000000;0.846182
9572.000000;0.845395
9571.000000;0.845041
9570.000000;0.844875
9569.000000;0.844406
9568.000000;0.843443
9567.000000;0.842387
9566.000000;0.841750
9565.000000;0.841556
9564.000000;0.841413
9563.000000;0.841016
9562.000000;0.840344
9561.000000;0.839496
9560.000000;0.838582
9559.000000;0.837721
9558.000000;0.837002
9557.000000;0.836494
9556.000000;0.836314
9555.000000;0.836490
9554.000000;0.836680
9553.000000;0.836335
9552.000000;0.835287
9551.000000;0.833932
9550.000000;0.832696
9549.000000;0.831648
9548.000000;0.830788
9547.000000;0.830331
9546.000000;0.830323
9545.000000;0.830300
9544.000000;0.829729
9543.000000;0.828616
9542.000000;0.827342
9541.000000;0.826101
9540.000000;0.824865
9539.000000;0.823735
9538.000000;0.822916
9537.000000;0.822399
9536.000000;0.821999
9535.000000;0.821658
9534.000000;0.821460
9533.000000;0.821376
9532.000000;0.821239
9531.000000;0.820933
9530.000000;0.820410
9529.000000;0.819602
9528.000000;0.818507
9527.000000;0.817299
9526.000000;0.816211
9525.000000;0.815397
9524.000000;0.814943
9523.000000;0.814795
9522.000000;0.814589
9521.000000;0.813857
9520.000000;0.812603
9519.000000;0.811422
9518.000000;0.810815
9517.000000;0.810666
9516.000000;0.810635
9515.000000;0.810730
9514.000000;0.811106
9513.000000;0.811509
9512.000000;0.811381
9511.000000;0.810490
9510.000000;0.809148
9509.000000;0.807876
9508.000000;0.807041
9507.000000;0.806688
9506.000000;0.806493
9505.000000;0.805976
9504.000000;0.804987
9503.000000;0.803871
9502.000000;0.803002
9501.000000;0.802354
9500.000000;0.801736
9499.000000;0.801205
9498.000000;0.800952
9497.000000;0.800939
9496.000000;0.800907
9495.000000;0.800637
9494.000000;0.800029
9493.000000;0.799069
9492.000000;0.797892
9491.000000;0.796737
9490.000000;0.795710
9489.000000;0.794808
9488.000000;0.794241
9487.000000;0.794324
9486.000000;0.794834
9485.000000;0.794910
9484.000000;0.793967
9483.000000;0.792417
9482.000000;0.791098
9481.000000;0.790310
9480.000000;0.789783
9479.000000;0.789260
9478.000000;0.788644
9477.000000;0.787801
9476.000000;0.786724
9475.000000;0.785773
9474.000000;0.785343
9473.000000;0.785379
9472.000000;0.785545
9471.000000;0.785693
9470.000000;0.785792
9469.000000;0.785553
9468.000000;0.784629
9467.000000;0.783106
9466.000000;0.781455
9465.000000;0.780073
9464.000000;0.779165
9463.000000;0.778887
9462.000000;0.779151
9461.000000;0.779414
9460.000000;0.779106
9459.000000;0.778279
9458.000000;0.777465
9457.000000;0.776980
9456.000000;0.776702
9455.000000;0.776425
9454.000000;0.776010
9453.000000;0.775253
9452.000000;0.774101
9451.000000;0.772948
9450.000000;0.772302
9449.000000;0.772121
9448.000000;0.771894
9447.000000;0.771387
9446.000000;0.770860
9445.000000;0.770458
9444.000000;0.769893
9443.000000;0.768946
9442.000000;0.767925
9441.000000;0.767346
9440.000000;0.767363
9439.000000;0.767705
9438.000000;0.768004
9437.000000;0.768031
9436.000000;0.767739
9435.000000;0.767247
9434.000000;0.766734
9433.000000;0.766296
9432.000000;0.765894
9431.000000;0.765421
9430.000000;0.764762
9429.000000;0.763857
9428.000000;0.762800
9427.000000;0.761813
9426.000000;0.761034
9425.000000;0.760391
9424.000000;0.759751
9423.000000;0.759049
9422.000000;0.758214
9421.000000;0.757185
9420.000000;0.756130
9419.000000;0.755392
9418.000000;0.755042
9417.000000;0.754720
9416.000000;0.754164
9415.000000;0.753598
9414.000000;0.753297
9413.000000;0.753028
9412.000000;0.752358
9411.000000;0.751395
9410.000000;0.750757
9409.000000;0.750786
9408.000000;0.751164
9407.000000;0.751347
9406.000000;0.751060
9405.000000;0.750350
9404.000000;0.749452
9403.000000;0.748717
9402.000000;0.748383
9401.000000;0.748285
9400.000000;0.747925
9399.000000;0.746956
9398.000000;0.745538
9397.000000;0.744198
9396.000000;0.743414
9395.000000;0.743238
9394.000000;0.743219
9393.000000;0.742747
9392.000000;0.741649
9391.000000;0.740389
9390.000000;0.739565
9389.000000;0.739315
9388.000000;0.739308
9387.000000;0.739207
9386.000000;0.738951
9385.000000;0.738641
9384.000000;0.738351
9383.000000;0.738042
9382.000000;0.737597
9381.000000;0.737008
9380.000000;0.736539
9379.000000;0.736480
9378.000000;0.736625
9377.000000;0.736259
9376.000000;0.734933
9375.000000;0.733086
9374.000000;0.731660
9373.000000;0.731192
9372.000000;0.731468
9371.000000;0.731895
9370.000000;0.731990
9369.000000;0.731633
9368.000000;0.731082
9367.000000;0.730671
9366.000000;0.730366
9365.000000;0.729784
9364.000000;0.728820
9363.000000;0.727953
9362.000000;0.727635
9361.000000;0.727559
9360.000000;0.726964
9359.000000;0.725630
9358.000000;0.724202
9357.000000;0.723473
9356.000000;0.723583
9355.000000;0.724001
9354.000000;0.724105
9353.000000;0.723687
9352.000000;0.722960
9351.000000;0.722171
9350.000000;0.721285
9349.000000;0.720204
9348.000000;0.719192
9347.000000;0.718738
9346.000000;0.718916
9345.000000;0.719202
9344.000000;0.719087
9343.000000;0.718618
9342.000000;0.718112
9341.000000;0.717687
9340.000000;0.717341
9339.000000;0.717182
9338.000000;0.717220
9337.000000;0.717139
9336.000000;0.716632
9335.000000;0.715774
9334.000000;0.714752
9333.000000;0.713502
9332.000000;0.712039
9331.000000;0.710873
9330.000000;0.710566
9329.000000;0.710935
9328.000000;0.711209
9327.000000;0.710961
9326.000000;0.710432
9325.000000;0.709949
9324.000000;0.709511
9323.000000;0.709061
9322.000000;0.708732
9321.000000;0.708583
9320.000000;0.708408
9319.000000;0.708013
9318.000000;0.707480
9317.000000;0.707014
9316.000000;0.706698
9315.000000;0.706471
9314.000000;0.706175
9313.000000;0.705569
9312.000000;0.704514
9311.000000;0.703271
9310.000000;0.702434
9309.000000;0.702408
9308.000000;0.702995
9307.000000;0.703538
9306.000000;0.703446
9305.000000;0.702593
9304.000000;0.701348
9303.000000;0.700262
9302.000000;0.699660
9301.000000;0.699475
9300.000000;0.699445
9299.000000;0.699365
9298.000000;0.699148
9297.000000;0.698761
9296.000000;0.698212
9295.000000;0.697555
9294.000000;0.696834
9293.000000;0.696110
9292.000000;0.695543
9291.000000;0.695287
9290.000000;0.695222
9289.000000;0.694966
9288.000000;0.694274
9287.000000;0.693316
9286.000000;0.692469
9285.000000;0.691991
9284.000000;0.691960
9283.000000;0.692279
9282.000000;0.692593
9281.000000;0.692417
9280.000000;0.691601
9279.000000;0.690533
9278.000000;0.689700
9277.000000;0.689177
9276.000000;0.688728
9275.000000;0.688207
9274.000000;0.687644
9273.000000;0.687089
9272.000000;0.686601
9271.000000;0.686304
9270.000000;0.686266
9269.000000;0.686399
9268.000000;0.686540
9267.000000;0.686505
9266.000000;0.686015
9265.000000;0.684880
9264.000000;0.683413
9263.000000;0.682338
9262.000000;0.682028
9261.000000;0.682096
9260.000000;0.681961
9259.000000;0.681531
9258.000000;0.681013
9257.000000;0.680380
9256.000000;0.679500
9255.000000;0.678598
9254.000000;0.678095
9253.000000;0.678025
9252.000000;0.678023
9251.000000;0.677871
9250.000000;0.677709
9249.000000;0.677663
9248.000000;0.677623
9247.000000;0.677420
9246.000000;0.676985
9245.000000;0.676320
9244.000000;0.675569
9243.000000;0.675060
9242.000000;0.674987
9241.000000;0.675039
9240.000000;0.674658
9239.000000;0.673725
9238.000000;0.672738
9237.000000;0.672226
9236.000000;0.672202
9235.000000;0.672303
9234.000000;0.672260
9233.000000;0.672066
9232.000000;0.671757
9231.000000;0.671212
9230.000000;0.670279
9229.000000;0.669103
9228.000000;0.668142
9227.000000;0.667705
9226.000000;0.667560
9225.000000;0.667258
9224.000000;0.666788
9223.000000;0.666574
9222.000000;0.666775
9221.000000;0.667022
9220.000000;0.667004
9219.000000;0.666884
9218.000000;0.666821
9217.000000;0.666512
9216.000000;0.665648
9215.000000;0.664566
9214.000000;0.663944
9213.000000;0.663972
9212.000000;0.664243
9211.000000;0.664377
9210.000000;0.664335
9209.000000;0.664169
9208.000000;0.663862
9207.000000;0.663451
9206.000000;0.663006
9205.000000;0.662472
9204.000000;0.661754
9203.000000;0.660931
9202.000000;0.660156
9201.000000;0.659444
9200.000000;0.658805
9199.000000;0.658450
9198.000000;0.658530
9197.000000;0.658750
9196.000000;0.658607
9195.000000;0.657989
9194.000000;0.657219
9193.000000;0.656548
9192.000000;0.655929
9191.000000;0.655318
9190.000000;0.654854
9189.000000;0.654666
9188.000000;0.654743
9187.000000;0.655011
9186.000000;0.655297
9185.000000;0.655227
9184.000000;0.654493
9183.000000;0.653306
9182.000000;0.652333
9181.000000;0.652070
9180.000000;0.652439
9179.000000;0.652968
9178.000000;0.653180
9177.000000;0.652820
9176.000000;0.651968
9175.000000;0.651017
9174.000000;0.650362
9173.000000;0.650046
9172.000000;0.649843
9171.000000;0.649629
9170.000000;0.649470
9169.000000;0.649344
9168.000000;0.649076
9167.000000;0.648629
9166.000000;0.648209
9165.000000;0.647967
9164.000000;0.647735
9163.000000;0.647207
9162.000000;0.646319
9161.000000;0.645385
9160.000000;0.644895
9159.000000;0.645110
9158.000000;0.645749
9157.000000;0.646127
9156.000000;0.645739
9155.000000;0.644746
9154.000000;0.643786
9153.000000;0.643321
9152.000000;0.643275
9151.000000;0.643256
9150.000000;0.643002
9149.000000;0.642556
9148.000000;0.642103
9147.000000;0.641708
9146.000000;0.641263
9145.000000;0.640735
9144.000000;0.640367
9143.000000;0.640420
9142.000000;0.640726
9141.000000;0.640763
9140.000000;0.640278
9139.000000;0.639576
9138.000000;0.639042
9137.000000;0.638678
9136.000000;0.638338
9135.000000;0.638105
9134.000000;0.638085
9133.000000;0.638026
9132.000000;0.637576
9131.000000;0.636870
9130.000000;0.636449
9129.000000;0.636538
9128.000000;0.636720
9127.000000;0.636450
9126.000000;0.635662
9125.000000;0.634789
9124.000000;0.634336
9123.000000;0.634485
9122.000000;0.634990
9121.000000;0.635375
9120.000000;0.635318
9119.000000;0.634880
9118.000000;0.634340
9117.000000;0.633888
9116.000000;0.633537
9115.000000;0.633231
9114.000000;0.632890
9113.000000;0.632420
9112.000000;0.631810
9111.000000;0.631185
9110.000000;0.630681
9109.000000;0.630332
9108.000000;0.630146
9107.000000;0.630179
9106.000000;0.630427
9105.000000;0.630721
9104.000000;0.630829
9103.000000;0.630602
9102.000000;0.630013
9101.000000;0.629237
9100.000000;0.628685
9099.000000;0.628691
9098.000000;0.629020
9097.000000;0.628987
9096.000000;0.628258
9095.000000;0.627289
9094.000000;0.626735
9093.000000;0.626634
9092.000000;0.626467
9091.000000;0.625859
9090.000000;0.624929
9089.000000;0.624033
9088.000000;0.623449
9087.000000;0.623219
9086.000000;0.623108
9085.000000;0.622763
9084.000000;0.622116
9083.000000;0.621545
9082.000000;0.621460
9081.000000;0.621844
9080.000000;0.622352
9079.000000;0.622663
9078.000000;0.622580
9077.000000;0.622011
9076.000000;0.621144
9075.000000;0.620495
9074.000000;0.620443
9073.000000;0.620807
9072.000000;0.621118
9071.000000;0.621182
9070.000000;0.621137
9069.000000;0.621071
9068.000000;0.620905
9067.000000;0.620577
9066.000000;0.620062
9065.000000;0.619301
9064.000000;0.618344
9063.000000;0.617480
9062.000000;0.616957
9061.000000;0.616657
9060.000000;0.616309
9059.000000;0.615938
9058.000000;0.615800
9057.000000;0.615959
9056.000000;0.616216
9055.000000;0.616407
9054.000000;0.616504
9053.000000;0.616475
