Criado como novo conjunto de dados;"1909daniel.spp","-4227462.0 Secs"
cm-1;Abs
10000.000000;1.550961
9999.000000;1.548817
9998.000000;1.547883
9997.000000;1.548591
9996.000000;1.550458
9995.000000;1.552385
9994.000000;1.553278
9993.000000;1.552719
9992.000000;1.551271
9991.000000;1.550049
9990.000000;1.549751
9989.000000;1.550044
9988.000000;1.549971
9987.000000;1.548907
9986.000000;1.547048
9985.000000;1.545140
9984.000000;1.544019
9983.000000;1.544201
9982.000000;1.545258
9981.000000;1.545600
9980.000000;1.543678
9979.000000;1.539870
9978.000000;1.536520
9977.000000;1.535537
9976.000000;1.536498
9975.000000;1.537486
9974.000000;1.537301
9973.000000;1.536238
9972.000000;1.535114
9971.000000;1.534371
9970.000000;1.534119
9969.000000;1.534291
9968.000000;1.534538
9967.000000;1.534439
9966.000000;1.533934
9965.000000;1.533128
9964.000000;1.531719
9963.000000;1.529333
9962.000000;1.526522
9961.000000;1.524643
9960.000000;1.524331
9959.000000;1.524663
9958.000000;1.524330
9957.000000;1.523248
9956.000000;1.522379
9955.000000;1.522256
9954.000000;1.522426
9953.000000;1.522350
9952.000000;1.522192
9951.000000;1.522393
9950.000000;1.522825
9949.000000;1.522780
9948.000000;1.521751
9947.000000;1.519938
9946.000000;1.517936
9945.000000;1.516189
9944.000000;1.514902
9943.000000;1.514250
9942.000000;1.514336
9941.000000;1.514888
9940.000000;1.515347
9939.000000;1.515415
9938.000000;1.515317
9937.000000;1.515280
9936.000000;1.514966
9935.000000;1.513821
9934.000000;1.511904
9933.000000;1.509935
9932.000000;1.508488
9931.000000;1.507517
9930.000000;1.506770
9929.000000;1.506238
9928.000000;1.505846
9927.000000;1.505041
9926.000000;1.503317
9925.000000;1.501192
9924.000000;1.500228
9923.000000;1.501668
9922.000000;1.505115
9921.000000;1.508652
9920.000000;1.510244
9919.000000;1.509134
9918.000000;1.506166
9917.000000;1.502992
9916.000000;1.500882
9915.000000;1.499956
9914.000000;1.499329
9913.000000;1.498071
9912.000000;1.496078
9911.000000;1.493945
9910.000000;1.492117
9909.000000;1.490577
9908.000000;1.489405
9907.000000;1.489055
9906.000000;1.489638
9905.000000;1.490310
9904.000000;1.490015
9903.000000;1.488773
9902.000000;1.487661
9901.000000;1.487485
9900.000000;1.488072
9899.000000;1.488868
9898.000000;1.489534
9897.000000;1.489701
9896.000000;1.488825
9895.000000;1.486839
9894.000000;1.484582
9893.000000;1.483044
9892.000000;1.482415
9891.000000;1.482239
9890.000000;1.482176
9889.000000;1.482108
9888.000000;1.481690
9887.000000;1.480451
9886.000000;1.478448
9885.000000;1.476391
9884.000000;1.474997
9883.000000;1.474475
9882.000000;1.474637
9881.000000;1.475131
9880.000000;1.475539
9879.000000;1.475501
9878.000000;1.474902
9877.000000;1.473859
9876.000000;1.472569
9875.000000;1.471258
9874.000000;1.470225
9873.000000;1.469765
9872.000000;1.469926
9871.000000;1.470364
9870.000000;1.470410
9869.000000;1.469441
9868.000000;1.467501
9867.000000;1.465550
9866.000000;1.464698
9865.000000;1.465018
9864.000000;1.465475
9863.000000;1.465273
9862.000000;1.464821
9861.000000;1.464898
9860.000000;1.465362
9859.000000;1.465413
9858.000000;1.464835
9857.000000;1.464107
9856.000000;1.463329
9855.000000;1.461992
9854.000000;1.460072
9853.000000;1.458510
9852.000000;1.458057
9851.000000;1.458185
9850.000000;1.457779
9849.000000;1.456586
9848.000000;1.455352
9847.000000;1.454669
9846.000000;1.454292
9845.000000;1.453589
9844.000000;1.452223
9843.000000;1.450319
9842.000000;1.448309
9841.000000;1.446750
9840.000000;1.446102
9839.000000;1.446425
9838.000000;1.447259
9837.000000;1.447786
9836.000000;1.447294
9835.000000;1.445753
9834.000000;1.443932
9833.000000;1.442757
9832.000000;1.442458
9831.000000;1.442477
9830.000000;1.442285
9829.000000;1.441981
9828.000000;1.441886
9827.000000;1.441846
9826.000000;1.441340
9825.000000;1.440266
9824.000000;1.439299
9823.000000;1.439315
9822.000000;1.440460
9821.000000;1.441804
9820.000000;1.442009
9819.000000;1.440491
9818.000000;1.437913
9817.000000;1.435498
9816.000000;1.433890
9815.000000;1.432767
9814.000000;1.431468
9813.000000;1.429718
9812.000000;1.427785
9811.000000;1.426193
9810.000000;1.425350
9809.000000;1.425221
9808.000000;1.425246
9807.000000;1.424826
9806.000000;1.424004
9805.000000;1.423389
9804.000000;1.423296
9803.000000;1.423285
9802.000000;1.422764
9801.000000;1.421808
9800.000000;1.421063
9799.000000;1.421006
9798.000000;1.421527
9797.000000;1.422103
9796.000000;1.422041
9795.000000;1.420721
9794.000000;1.418114
9793.000000;1.415095
9792.000000;1.412983
9791.000000;1.412664
9790.000000;1.414071
9789.000000;1.416231
9788.000000;1.417694
9787.000000;1.417402
9786.000000;1.415639
9785.000000;1.413906
9784.000000;1.413394
9783.000000;1.413705
9782.000000;1.413494
9781.000000;1.412232
9780.000000;1.410654
9779.000000;1.409477
9778.000000;1.408538
9777.000000;1.407477
9776.000000;1.406494
9775.000000;1.405826
9774.000000;1.404983
9773.000000;1.403299
9772.000000;1.401126
9771.000000;1.399744
9770.000000;1.399940
9769.000000;1.401065
9768.000000;1.401659
9767.000000;1.400852
9766.000000;1.399088
9765.000000;1.397585
9764.000000;1.397179
9763.000000;1.397616
9762.000000;1.397910
9761.000000;1.397421
9760.000000;1.396452
9759.000000;1.395795
9758.000000;1.395924
9757.000000;1.396727
9756.000000;1.397701
9755.000000;1.398148
9754.000000;1.397515
9753.000000;1.395992
9752.000000;1.394615
9751.000000;1.394300
9750.000000;1.394753
9749.000000;1.394714
9748.000000;1.393347
9747.000000;1.391059
9746.000000;1.388881
9745.000000;1.387502
9744.000000;1.386972
9743.000000;1.386876
9742.000000;1.386637
9741.000000;1.385952
9740.000000;1.385048
9739.000000;1.384349
9738.000000;1.383870
9737.000000;1.383237
9736.000000;1.382348
9735.000000;1.381433
9734.000000;1.380383
9733.000000;1.378745
9732.000000;1.376685
9731.000000;1.375283
9730.000000;1.375275
9729.000000;1.375894
9728.000000;1.375635
9727.000000;1.374068
9726.000000;1.372247
9725.000000;1.371391
9724.000000;1.371725
9723.000000;1.372583
9722.000000;1.373113
9721.000000;1.372867
9720.000000;1.372152
9719.000000;1.371918
9718.000000;1.372875
9717.000000;1.374526
9716.000000;1.375416
9715.000000;1.374573
9714.000000;1.372410
9713.000000;1.370053
9712.000000;1.368171
9711.000000;1.366718
9710.000000;1.365465
9709.000000;1.364418
9708.000000;1.363689
9707.000000;1.363197
9706.000000;1.362656
9705.000000;1.361985
9704.000000;1.361655
9703.000000;1.362358
9702.000000;1.364112
9701.000000;1.365938
9700.000000;1.366799
9699.000000;1.366716
9698.000000;1.366395
9697.000000;1.365879
9696.000000;1.364295
9695.000000;1.361148
9694.000000;1.357235
9693.000000;1.353891
9692.000000;1.351817
9691.000000;1.350957
9690.000000;1.350987
9689.000000;1.351406
9688.000000;1.351448
9687.000000;1.350547
9686.000000;1.348929
9685.000000;1.347393
9684.000000;1.346488
9683.000000;1.346162
9682.000000;1.346172
9681.000000;1.346451
9680.000000;1.347051
9679.000000;1.347995
9678.000000;1.349150
9677.000000;1.350045
9676.000000;1.349908
9675.000000;1.348204
9674.000000;1.345236
9673.000000;1.342027
9672.000000;1.339614
9671.000000;1.338538
9670.000000;1.338766
9669.000000;1.339768
9668.000000;1.340693
9667.000000;1.340901
9666.000000;1.340451
9665.000000;1.339880
9664.000000;1.339443
9663.000000;1.338850
9662.000000;1.337796
9661.000000;1.336462
9660.000000;1.335307
9659.000000;1.334562
9658.000000;1.334087
9657.000000;1.333623
9656.000000;1.333054
9655.000000;1.332506
9654.000000;1.332254
9653.000000;1.332377
9652.000000;1.332455
9651.000000;1.331839
9650.000000;1.330408
9649.000000;1.328885
9648.000000;1.328148
9647.000000;1.328248
9646.000000;1.328361
9645.000000;1.327750
9644.000000;1.326610
9643.000000;1.325799
9642.000000;1.325875
9641.000000;1.326589
9640.000000;1.327206
9639.000000;1.327187
9638.000000;1.326557
9637.000000;1.325757
9636.000000;1.325170
9635.000000;1.324713
9634.000000;1.323940
9633.000000;1.322672
9632.000000;1.321452
9631.000000;1.321035
9630.000000;1.321371
9629.000000;1.321427
9628.000000;1.320263
9627.000000;1.318149
9626.000000;1.316260
9625.000000;1.315343
9624.000000;1.315029
9623.000000;1.314466
9622.000000;1.313318
9621.000000;1.311997
9620.000000;1.311138
9619.000000;1.310986
9618.000000;1.311220
9617.000000;1.311272
9616.000000;1.310867
9615.000000;1.310282
9614.000000;1.309985
9613.000000;1.310062
9612.000000;1.310146
9611.000000;1.309890
9610.000000;1.309248
9609.000000;1.308278
9608.000000;1.306946
9607.000000;1.305326
9606.000000;1.303820
9605.000000;1.302926
9604.000000;1.302695
9603.000000;1.302528
9602.000000;1.301613
9601.000000;1.299676
9600.000000;1.297305
9599.000000;1.295536
9598.000000;1.295090
9597.000000;1.295970
9596.000000;1.297624
9595.000000;1.299308
9594.000000;1.300273
9593.000000;1.299985
9592.000000;1.298517
9591.000000;1.296562
9590.000000;1.294775
9589.000000;1.293233
9588.000000;1.291845
9587.000000;1.291032
9586.000000;1.291389
9585.000000;1.292676
9584.000000;1.293765
9583.000000;1.293793
9582.000000;1.292907
9581.000000;1.291615
9580.000000;1.290046
9579.000000;1.288271
9578.000000;1.286766
9577.000000;1.285911
9576.000000;1.285352
9575.000000;1.284434
9574.000000;1.283086
9573.000000;1.281760
9572.000000;1.280638
9571.000000;1.279528
9570.000000;1.278514
9569.000000;1.278074
9568.000000;1.278391
9567.000000;1.279016
9566.000000;1.279422
9565.000000;1.279527
9564.000000;1.279463
9563.000000;1.279161
9562.000000;1.278422
9561.000000;1.277217
9560.000000;1.275745
9559.000000;1.274280
9558.000000;1.273113
9557.000000;1.272550
9556.000000;1.272838
9555.000000;1.273983
9554.000000;1.275597
9553.000000;1.276874
9552.000000;1.276933
9551.000000;1.275513
9550.000000;1.273365
9549.000000;1.271708
9548.000000;1.271193
9547.000000;1.271489
9546.000000;1.271842
9545.000000;1.271849
9544.000000;1.271647
9543.000000;1.271480
9542.000000;1.271249
9541.000000;1.270541
9540.000000;1.269092
9539.000000;1.267172
9538.000000;1.265366
9537.000000;1.263892
9536.000000;1.262353
9535.000000;1.260401
9534.000000;1.258512
9533.000000;1.257719
9532.000000;1.258459
9531.000000;1.259870
9530.000000;1.260403
9529.000000;1.259216
9528.000000;1.256942
9527.000000;1.255088
9526.000000;1.254711
9525.000000;1.255641
9524.000000;1.256883
9523.000000;1.257623
9522.000000;1.257663
9521.000000;1.257059
9520.000000;1.255870
9519.000000;1.254446
9518.000000;1.253448
9517.000000;1.253146
9516.000000;1.253071
9515.000000;1.252832
9514.000000;1.252917
9513.000000;1.253914
9512.000000;1.255153
9511.000000;1.255108
9510.000000;1.253400
9509.000000;1.251515
9508.000000;1.250969
9507.000000;1.251473
9506.000000;1.251527
9505.000000;1.250407
9504.000000;1.248768
9503.000000;1.247490
9502.000000;1.246786
9501.000000;1.246473
9500.000000;1.246399
9499.000000;1.246303
9498.000000;1.245762
9497.000000;1.244696
9496.000000;1.243610
9495.000000;1.243022
9494.000000;1.242768
9493.000000;1.242170
9492.000000;1.240843
9491.000000;1.239188
9490.000000;1.238045
9489.000000;1.237953
9488.000000;1.238720
9487.000000;1.239536
9486.000000;1.239522
9485.000000;1.238352
9484.000000;1.236521
9483.000000;1.234988
9482.000000;1.234437
9481.000000;1.234723
9480.000000;1.234999
9479.000000;1.234547
9478.000000;1.233504
9477.000000;1.232630
9476.000000;1.232374
9475.000000;1.232418
9474.000000;1.232228
9473.000000;1.231757
9472.000000;1.231332
9471.000000;1.231012
9470.000000;1.230430
9469.000000;1.229299
9468.000000;1.227788
9467.000000;1.226349
9466.000000;1.225391
9465.000000;1.225159
9464.000000;1.225583
9463.000000;1.226112
9462.000000;1.225992
9461.000000;1.225002
9460.000000;1.223725
9459.000000;1.222808
9458.000000;1.222148
9457.000000;1.221185
9456.000000;1.219845
9455.000000;1.218669
9454.000000;1.217957
9453.000000;1.217370
9452.000000;1.216684
9451.000000;1.216468
9450.000000;1.217469
9449.000000;1.219450
9448.000000;1.221175
9447.000000;1.221633
9446.000000;1.220914
9445.000000;1.219735
9444.000000;1.218522
9443.000000;1.217270
9442.000000;1.215995
9441.000000;1.214863
9440.000000;1.213902
9439.000000;1.212945
9438.000000;1.211967
9437.000000;1.211248
9436.000000;1.210966
9435.000000;1.210740
9434.000000;1.209885
9433.000000;1.208232
9432.000000;1.206476
9431.000000;1.205461
9430.000000;1.205197
9429.000000;1.204927
9428.000000;1.204227
9427.000000;1.203681
9426.000000;1.204136
9425.000000;1.205542
9424.000000;1.206945
9423.000000;1.207503
9422.000000;1.207127
9421.000000;1.206161
9420.000000;1.204963
9419.000000;1.203938
9418.000000;1.203502
9417.000000;1.203690
9416.000000;1.204048
9415.000000;1.204175
9414.000000;1.204093
9413.000000;1.203887
9412.000000;1.203294
9411.000000;1.202036
9410.000000;1.200340
9409.000000;1.198759
9408.000000;1.197560
9407.000000;1.196661
9406.000000;1.196036
9405.000000;1.195776
9404.000000;1.195764
9403.000000;1.195664
9402.000000;1.195319
9401.000000;1.194895
9400.000000;1.194576
9399.000000;1.194353
9398.000000;1.194221
9397.000000;1.194249
9396.000000;1.194286
9395.000000;1.193889
9394.000000;1.192818
9393.000000;1.191465
9392.000000;1.190498
9391.000000;1.190146
9390.000000;1.190076
9389.000000;1.189974
9388.000000;1.189962
9387.000000;1.190250
9386.000000;1.190584
9385.000000;1.190360
9384.000000;1.189366
9383.000000;1.188152
9382.000000;1.187394
9381.000000;1.187093
9380.000000;1.186701
9379.000000;1.185940
9378.000000;1.185062
9377.000000;1.184261
9376.000000;1.183363
9375.000000;1.182364
9374.000000;1.181868
9373.000000;1.182484
9372.000000;1.183939
9371.000000;1.185175
9370.000000;1.185291
9369.000000;1.184140
9368.000000;1.182149
9367.000000;1.179967
9366.000000;1.178263
9365.000000;1.177401
9364.000000;1.177136
9363.000000;1.176855
9362.000000;1.176219
9361.000000;1.175401
9360.000000;1.174715
9359.000000;1.174344
9358.000000;1.174447
9357.000000;1.175123
9356.000000;1.176053
9355.000000;1.176486
9354.000000;1.175877
9353.000000;1.174453
9352.000000;1.173019
9351.000000;1.172255
9350.000000;1.172228
9349.000000;1.172417
9348.000000;1.172173
9347.000000;1.171328
9346.000000;1.170393
9345.000000;1.169971
9344.000000;1.169951
9343.000000;1.169559
9342.000000;1.168343
9341.000000;1.166854
9340.000000;1.166107
9339.000000;1.166525
9338.000000;1.167588
9337.000000;1.168403
9336.000000;1.168405
9335.000000;1.167571
9334.000000;1.166182
9333.000000;1.164560
9332.000000;1.162964
9331.000000;1.161599
9330.000000;1.160595
9329.000000;1.160017
9328.000000;1.159999
9327.000000;1.160812
9326.000000;1.162537
9325.000000;1.164549
9324.000000;1.165652
9323.000000;1.165127
9322.000000;1.163494
9321.000000;1.161930
9320.000000;1.161054
9319.000000;1.160660
9318.000000;1.160410
9317.000000;1.160218
9316.000000;1.159921
9315.000000;1.159195
9314.000000;1.158100
9313.000000;1.157204
9312.000000;1.156793
9311.000000;1.156330
9310.000000;1.155141
9309.000000;1.153377
9308.000000;1.151829
9307.000000;1.150955
9306.000000;1.150558
9305.000000;1.150373
9304.000000;1.150520
9303.000000;1.151227
9302.000000;1.152357
9301.000000;1.153389
9300.000000;1.153791
9299.000000;1.153382
9298.000000;1.152438
9297.000000;1.151471
9296.000000;1.150872
9295.000000;1.150743
9294.000000;1.150997
9293.000000;1.151434
9292.000000;1.151678
9291.000000;1.151276
9290.000000;1.150078
9289.000000;1.148480
9288.000000;1.147180
9287.000000;1.146738
9286.000000;1.147323
9285.000000;1.148623
9284.000000;1.149810
9283.000000;1.149866
9282.000000;1.148382
9281.000000;1.146049
9280.000000;1.144133
9279.000000;1.143385
9278.000000;1.143504
9277.000000;1.143618
9276.000000;1.143186
9275.000000;1.142460
9274.000000;1.142136
9273.000000;1.142520
9272.000000;1.143012
9271.000000;1.142595
9270.000000;1.140997
9269.000000;1.139152
9268.000000;1.138289
9267.000000;1.138663
9266.000000;1.139373
9265.000000;1.139351
9264.000000;1.138326
9263.000000;1.136898
9262.000000;1.135890
9261.000000;1.135673
9260.000000;1.135943
9259.000000;1.136033
9258.000000;1.135542
9257.000000;1.134703
9256.000000;1.134107
9255.000000;1.134143
9254.000000;1.134766
9253.000000;1.135631
9252.000000;1.136224
9251.000000;1.136034
9250.000000;1.135003
9249.000000;1.133852
9248.000000;1.133581
9247.000000;1.134390
9246.000000;1.135248
9245.000000;1.134815
9244.000000;1.132843
9243.000000;1.130472
9242.000000;1.129091
9241.000000;1.129079
9240.000000;1.129791
9239.000000;1.130526
9238.000000;1.131142
9237.000000;1.131640
9236.000000;1.131599
9235.000000;1.130546
9234.000000;1.128830
9233.000000;1.127589
9232.000000;1.127618
9231.000000;1.128554
9230.000000;1.129370
9229.000000;1.129435
9228.000000;1.128808
9227.000000;1.127738
9226.000000;1.126342
9225.000000;1.124817
9224.000000;1.123632
9223.000000;1.123302
9222.000000;1.123973
9221.000000;1.125192
9220.000000;1.126066
9219.000000;1.125840
9218.000000;1.124524
9217.000000;1.122905
9216.000000;1.121839
9215.000000;1.121598
9214.000000;1.121888
9213.000000;1.122247
9212.000000;1.122283
9211.000000;1.121825
9210.000000;1.121138
9209.000000;1.120838
9208.000000;1.121261
9207.000000;1.122029
9206.000000;1.122466
9205.000000;1.122320
9204.000000;1.121812
9203.000000;1.121188
9202.000000;1.120607
9201.000000;1.120324
9200.000000;1.120501
9199.000000;1.120824
9198.000000;1.120726
9197.000000;1.120018
9196.000000;1.118933
9195.000000;1.117583
9194.000000;1.115909
9193.000000;1.114243
9192.000000;1.113367
9191.000000;1.113710
9190.000000;1.114768
9189.000000;1.115565
9188.000000;1.115500
9187.000000;1.114639
9186.000000;1.113527
9185.000000;1.112919
9184.000000;1.113343
9183.000000;1.114530
9182.000000;1.115459
9181.000000;1.115294
9180.000000;1.114182
9179.000000;1.112941
9178.000000;1.112145
9177.000000;1.111742
9176.000000;1.111354
9175.000000;1.110673
9174.000000;1.109684
9173.000000;1.108759
9172.000000;1.108459
9171.000000;1.108991
9170.000000;1.109927
9169.000000;1.110599
9168.000000;1.110710
9167.000000;1.110438
9166.000000;1.110116
9165.000000;1.109978
9164.000000;1.110016
9163.000000;1.109881
9162.000000;1.109090
9161.000000;1.107611
9160.000000;1.106043
9159.000000;1.104942
9158.000000;1.104183
9157.000000;1.103321
9156.000000;1.102381
9155.000000;1.101810
9154.000000;1.101706
9153.000000;1.101645
9152.000000;1.101409
9151.000000;1.101377
9150.000000;1.101889
9149.000000;1.102564
9148.000000;1.102636
9147.000000;1.101864
9146.000000;1.100772
9145.000000;1.100043
9144.000000;1.099926
9143.000000;1.100248
9142.000000;1.100716
9141.000000;1.101105
9140.000000;1.101253
9139.000000;1.101085
9138.000000;1.100710
9137.000000;1.100453
9136.000000;1.100638
9135.000000;1.101231
9134.000000;1.101761
9133.000000;1.101669
9132.000000;1.100798
9131.000000;1.099495
9130.000000;1.098257
9129.000000;1.097352
9128.000000;1.096731
9127.000000;1.096188
9126.000000;1.095569
9125.000000;1.094933
9124.000000;1.094518
9123.000000;1.094511
9122.000000;1.094815
9121.000000;1.095120
9120.000000;1.095157
9119.000000;1.094814
9118.000000;1.094105
9117.000000;1.093196
9116.000000;1.092442
9115.000000;1.092216
9114.000000;1.092602
9113.000000;1.093284
9112.000000;1.093805
9111.000000;1.093893
9110.000000;1.093558
9109.000000;1.092984
9108.000000;1.092374
9107.000000;1.091852
9106.000000;1.091446
9105.000000;1.091162
9104.000000;1.091008
9103.000000;1.090927
9102.000000;1.090822
9101.000000;1.090722
9100.000000;1.090811
9099.000000;1.091153
9098.000000;1.091506
9097.000000;1.091575
9096.000000;1.091367
9095.000000;1.091094
9094.000000;1.090783
9093.000000;1.090233
9092.000000;1.089380
9091.000000;1.088454
9090.000000;1.087682
9089.000000;1.087109
9088.000000;1.086759
9087.000000;1.086673
9086.000000;1.086659
9085.000000;1.086279
9084.000000;1.085321
9083.000000;1.084142
9082.000000;1.083340
9081.000000;1.083241
9080.000000;1.083810
9079.000000;1.084813
9078.000000;1.085823
9077.000000;1.086269
9076.000000;1.085868
9075.000000;1.084976
9074.000000;1.084238
9073.000000;1.083970
9072.000000;1.084081
9071.000000;1.084425
9070.000000;1.084833
9069.000000;1.084905
9068.000000;1.084275
9067.000000;1.083218
9066.000000;1.082532
9065.000000;1.082588
9064.000000;1.082822
9063.000000;1.082433
9062.000000;1.081358
9061.000000;1.080226
9060.000000;1.079577
9059.000000;1.079501
9058.000000;1.079888
9057.000000;1.080585
9056.000000;1.081271
9055.000000;1.081535
9054.000000;1.081242
9053.000000;1.080649
