Criado como novo conjunto de dados;"1909daniel.spp","-4215941.1 Secs"
cm-1;Abs
10000.000000;1.237818
9999.000000;1.236505
9998.000000;1.235272
9997.000000;1.234799
9996.000000;1.235046
9995.000000;1.235189
9994.000000;1.234578
9993.000000;1.233210
9992.000000;1.231579
9991.000000;1.230027
9990.000000;1.228629
9989.000000;1.227515
9988.000000;1.227053
9987.000000;1.227493
9986.000000;1.228520
9985.000000;1.229377
9984.000000;1.229502
9983.000000;1.228932
9982.000000;1.228059
9981.000000;1.227184
9980.000000;1.226394
9979.000000;1.225694
9978.000000;1.225052
9977.000000;1.224343
9976.000000;1.223439
9975.000000;1.222439
9974.000000;1.221708
9973.000000;1.221605
9972.000000;1.222082
9971.000000;1.222560
9970.000000;1.222321
9969.000000;1.221226
9968.000000;1.219991
9967.000000;1.219500
9966.000000;1.219761
9965.000000;1.219794
9964.000000;1.218786
9963.000000;1.217115
9962.000000;1.215873
9961.000000;1.215506
9960.000000;1.215415
9959.000000;1.214882
9958.000000;1.213896
9957.000000;1.212869
9956.000000;1.211958
9955.000000;1.211067
9954.000000;1.210265
9953.000000;1.209769
9952.000000;1.209551
9951.000000;1.209289
9950.000000;1.208737
9949.000000;1.207937
9948.000000;1.207118
9947.000000;1.206554
9946.000000;1.206451
9945.000000;1.206682
9944.000000;1.206686
9943.000000;1.205912
9942.000000;1.204404
9941.000000;1.202713
9940.000000;1.201291
9939.000000;1.200257
9938.000000;1.199690
9937.000000;1.199690
9936.000000;1.200020
9935.000000;1.200067
9934.000000;1.199418
9933.000000;1.198273
9932.000000;1.197127
9931.000000;1.196367
9930.000000;1.196243
9929.000000;1.196783
9928.000000;1.197429
9927.000000;1.197205
9926.000000;1.195793
9925.000000;1.194126
9924.000000;1.193354
9923.000000;1.193398
9922.000000;1.193147
9921.000000;1.191984
9920.000000;1.190417
9919.000000;1.189145
9918.000000;1.188263
9917.000000;1.187683
9916.000000;1.187649
9915.000000;1.188255
9914.000000;1.188869
9913.000000;1.188629
9912.000000;1.187384
9911.000000;1.185752
9910.000000;1.184384
9909.000000;1.183562
9908.000000;1.183324
9907.000000;1.183472
9906.000000;1.183511
9905.000000;1.183043
9904.000000;1.182290
9903.000000;1.181826
9902.000000;1.181731
9901.000000;1.181400
9900.000000;1.180262
9899.000000;1.178353
9898.000000;1.176102
9897.000000;1.173945
9896.000000;1.172340
9895.000000;1.171708
9894.000000;1.171947
9893.000000;1.172201
9892.000000;1.171565
9891.000000;1.170087
9890.000000;1.168741
9889.000000;1.168334
9888.000000;1.168721
9887.000000;1.169171
9886.000000;1.169159
9885.000000;1.168636
9884.000000;1.167757
9883.000000;1.166734
9882.000000;1.165930
9881.000000;1.165716
9880.000000;1.166057
9879.000000;1.166370
9878.000000;1.165985
9877.000000;1.164763
9876.000000;1.163206
9875.000000;1.161960
9874.000000;1.161243
9873.000000;1.160678
9872.000000;1.159702
9871.000000;1.158235
9870.000000;1.156951
9869.000000;1.156678
9868.000000;1.157478
9867.000000;1.158524
9866.000000;1.159002
9865.000000;1.158926
9864.000000;1.158811
9863.000000;1.158785
9862.000000;1.158456
9861.000000;1.157588
9860.000000;1.156397
9859.000000;1.155081
9858.000000;1.153526
9857.000000;1.151739
9856.000000;1.150226
9855.000000;1.149595
9854.000000;1.149882
9853.000000;1.150479
9852.000000;1.150650
9851.000000;1.150049
9850.000000;1.148934
9849.000000;1.148039
9848.000000;1.147978
9847.000000;1.148512
9846.000000;1.148592
9845.000000;1.147423
9844.000000;1.145363
9843.000000;1.143502
9842.000000;1.142561
9841.000000;1.142485
9840.000000;1.142873
9839.000000;1.143278
9838.000000;1.143179
9837.000000;1.142191
9836.000000;1.140503
9835.000000;1.138767
9834.000000;1.137483
9833.000000;1.136724
9832.000000;1.136465
9831.000000;1.136732
9830.000000;1.137229
9829.000000;1.137266
9828.000000;1.136481
9827.000000;1.135386
9826.000000;1.134781
9825.000000;1.134794
9824.000000;1.134819
9823.000000;1.134293
9822.000000;1.133169
9821.000000;1.131679
9820.000000;1.130082
9819.000000;1.128763
9818.000000;1.128164
9817.000000;1.128300
9816.000000;1.128561
9815.000000;1.128301
9814.000000;1.127566
9813.000000;1.126997
9812.000000;1.127021
9811.000000;1.127407
9810.000000;1.127622
9809.000000;1.127376
9808.000000;1.126681
9807.000000;1.125593
9806.000000;1.124139
9805.000000;1.122421
9804.000000;1.120588
9803.000000;1.118731
9802.000000;1.117012
9801.000000;1.115869
9800.000000;1.115786
9799.000000;1.116671
9798.000000;1.117674
9797.000000;1.117864
9796.000000;1.117104
9795.000000;1.116091
9794.000000;1.115587
9793.000000;1.115832
9792.000000;1.116616
9791.000000;1.117579
9790.000000;1.118265
9789.000000;1.118138
9788.000000;1.116925
9787.000000;1.115041
9786.000000;1.113438
9785.000000;1.112811
9784.000000;1.112925
9783.000000;1.112796
9782.000000;1.111571
9781.000000;1.109269
9780.000000;1.106681
9779.000000;1.104689
9778.000000;1.103716
9777.000000;1.103647
9776.000000;1.104021
9775.000000;1.104306
9774.000000;1.104169
9773.000000;1.103584
9772.000000;1.102690
9771.000000;1.101663
9770.000000;1.100773
9769.000000;1.100326
9768.000000;1.100288
9767.000000;1.100076
9766.000000;1.099139
9765.000000;1.097759
9764.000000;1.096819
9763.000000;1.096664
9762.000000;1.096689
9761.000000;1.096307
9760.000000;1.095789
9759.000000;1.095634
9758.000000;1.095524
9757.000000;1.094651
9756.000000;1.092965
9755.000000;1.091343
9754.000000;1.090394
9753.000000;1.089796
9752.000000;1.089057
9751.000000;1.088342
9750.000000;1.088127
9749.000000;1.088407
9748.000000;1.088695
9747.000000;1.088626
9746.000000;1.088183
9745.000000;1.087480
9744.000000;1.086690
9743.000000;1.086114
9742.000000;1.085987
9741.000000;1.086171
9740.000000;1.086283
9739.000000;1.086133
9738.000000;1.085764
9737.000000;1.085130
9736.000000;1.084076
9735.000000;1.082775
9734.000000;1.081845
9733.000000;1.081720
9732.000000;1.082008
9731.000000;1.081800
9730.000000;1.080723
9729.000000;1.079426
9728.000000;1.078768
9727.000000;1.078713
9726.000000;1.078409
9725.000000;1.077439
9724.000000;1.076467
9723.000000;1.076233
9722.000000;1.076233
9721.000000;1.075118
9720.000000;1.072508
9719.000000;1.069764
9718.000000;1.068563
9717.000000;1.069174
9716.000000;1.070496
9715.000000;1.071417
9714.000000;1.071601
9713.000000;1.071151
9712.000000;1.070196
9711.000000;1.069065
9710.000000;1.068310
9709.000000;1.068161
9708.000000;1.068132
9707.000000;1.067510
9706.000000;1.066151
9705.000000;1.064558
9704.000000;1.063261
9703.000000;1.062370
9702.000000;1.061723
9701.000000;1.061237
9700.000000;1.061016
9699.000000;1.061217
9698.000000;1.061889
9697.000000;1.062845
9696.000000;1.063649
9695.000000;1.063827
9694.000000;1.063188
9693.000000;1.061981
9692.000000;1.060711
9691.000000;1.059725
9690.000000;1.058948
9689.000000;1.057970
9688.000000;1.056465
9687.000000;1.054602
9686.000000;1.053031
9685.000000;1.052385
9684.000000;1.052687
9683.000000;1.053312
9682.000000;1.053544
9681.000000;1.053113
9680.000000;1.052235
9679.000000;1.051298
9678.000000;1.050609
9677.000000;1.050266
9676.000000;1.050054
9675.000000;1.049529
9674.000000;1.048488
9673.000000;1.047349
9672.000000;1.046777
9671.000000;1.046829
9670.000000;1.046745
9669.000000;1.045757
9668.000000;1.043988
9667.000000;1.042329
9666.000000;1.041503
9665.000000;1.041499
9664.000000;1.041860
9663.000000;1.042247
9662.000000;1.042626
9661.000000;1.043099
9660.000000;1.043659
9659.000000;1.044030
9658.000000;1.043710
9657.000000;1.042342
9656.000000;1.040142
9655.000000;1.037894
9654.000000;1.036356
9653.000000;1.035657
9652.000000;1.035287
9651.000000;1.034696
9650.000000;1.033856
9649.000000;1.033186
9648.000000;1.032970
9647.000000;1.033018
9646.000000;1.032947
9645.000000;1.032625
9644.000000;1.032128
9643.000000;1.031361
9642.000000;1.030085
9641.000000;1.028408
9640.000000;1.026918
9639.000000;1.026131
9638.000000;1.026025
9637.000000;1.026267
9636.000000;1.026608
9635.000000;1.026776
9634.000000;1.026298
9633.000000;1.024969
9632.000000;1.023316
9631.000000;1.022050
9630.000000;1.021180
9629.000000;1.020253
9628.000000;1.019433
9627.000000;1.019572
9626.000000;1.020857
9625.000000;1.022075
9624.000000;1.021839
9623.000000;1.020206
9622.000000;1.018471
9621.000000;1.017590
9620.000000;1.017456
9619.000000;1.017536
9618.000000;1.017495
9617.000000;1.017071
9616.000000;1.016048
9615.000000;1.014711
9614.000000;1.013872
9613.000000;1.013983
9612.000000;1.014449
9611.000000;1.014237
9610.000000;1.013067
9609.000000;1.011643
9608.000000;1.010741
9607.000000;1.010460
9606.000000;1.010431
9605.000000;1.010420
9604.000000;1.010448
9603.000000;1.010474
9602.000000;1.010283
9601.000000;1.009732
9600.000000;1.008927
9599.000000;1.008060
9598.000000;1.007185
9597.000000;1.006226
9596.000000;1.005126
9595.000000;1.003906
9594.000000;1.002677
9593.000000;1.001705
9592.000000;1.001361
9591.000000;1.001801
9590.000000;1.002634
9589.000000;1.003090
9588.000000;1.002655
9587.000000;1.001495
9586.000000;1.000233
9585.000000;0.999380
9584.000000;0.999015
9583.000000;0.998879
9582.000000;0.998695
9581.000000;0.998431
9580.000000;0.998273
9579.000000;0.998252
9578.000000;0.997943
9577.000000;0.996790
9576.000000;0.994837
9575.000000;0.992922
9574.000000;0.991904
9573.000000;0.991799
9572.000000;0.991862
9571.000000;0.991461
9570.000000;0.990643
9569.000000;0.989813
9568.000000;0.989141
9567.000000;0.988491
9566.000000;0.987818
9565.000000;0.987388
9564.000000;0.987534
9563.000000;0.988216
9562.000000;0.988918
9561.000000;0.989041
9560.000000;0.988417
9559.000000;0.987403
9558.000000;0.986463
9557.000000;0.985796
9556.000000;0.985401
9555.000000;0.985328
9554.000000;0.985634
9553.000000;0.986140
9552.000000;0.986415
9551.000000;0.986065
9550.000000;0.984951
9549.000000;0.983198
9548.000000;0.981180
9547.000000;0.979511
9546.000000;0.978736
9545.000000;0.978855
9544.000000;0.979254
9543.000000;0.979260
9542.000000;0.978697
9541.000000;0.977811
9540.000000;0.976813
9539.000000;0.975748
9538.000000;0.974786
9537.000000;0.974269
9536.000000;0.974315
9535.000000;0.974528
9534.000000;0.974324
9533.000000;0.973497
9532.000000;0.972313
9531.000000;0.971090
9530.000000;0.969900
9529.000000;0.968769
9528.000000;0.967900
9527.000000;0.967456
9526.000000;0.967251
9525.000000;0.966916
9524.000000;0.966388
9523.000000;0.965938
9522.000000;0.965643
9521.000000;0.965167
9520.000000;0.964308
9519.000000;0.963475
9518.000000;0.963240
9517.000000;0.963518
9516.000000;0.963669
9515.000000;0.963440
9514.000000;0.963304
9513.000000;0.963643
9512.000000;0.964018
9511.000000;0.963696
9510.000000;0.962654
9509.000000;0.961555
9508.000000;0.960792
9507.000000;0.960057
9506.000000;0.958974
9505.000000;0.957740
9504.000000;0.956840
9503.000000;0.956418
9502.000000;0.956212
9501.000000;0.955968
9500.000000;0.955663
9499.000000;0.955412
9498.000000;0.955399
9497.000000;0.955792
9496.000000;0.956454
9495.000000;0.956799
9494.000000;0.956260
9493.000000;0.954993
9492.000000;0.953837
9491.000000;0.953464
9490.000000;0.953732
9489.000000;0.953970
9488.000000;0.953720
9487.000000;0.953048
9486.000000;0.952253
9485.000000;0.951444
9484.000000;0.950478
9483.000000;0.949223
9482.000000;0.947856
9481.000000;0.946876
9480.000000;0.946716
9479.000000;0.947309
9478.000000;0.948131
9477.000000;0.948644
9476.000000;0.948615
9475.000000;0.948031
9474.000000;0.946943
9473.000000;0.945536
9472.000000;0.944175
9471.000000;0.943127
9470.000000;0.942307
9469.000000;0.941479
9468.000000;0.940657
9467.000000;0.940159
9466.000000;0.940245
9465.000000;0.940795
9464.000000;0.941324
9463.000000;0.941299
9462.000000;0.940549
9461.000000;0.939427
9460.000000;0.938486
9459.000000;0.937905
9458.000000;0.937404
9457.000000;0.936815
9456.000000;0.936454
9455.000000;0.936628
9454.000000;0.936978
9453.000000;0.936773
9452.000000;0.935853
9451.000000;0.934865
9450.000000;0.934420
9449.000000;0.934395
9448.000000;0.934244
9447.000000;0.933701
9446.000000;0.932893
9445.000000;0.931958
9444.000000;0.930904
9443.000000;0.929817
9442.000000;0.928980
9441.000000;0.928686
9440.000000;0.928956
9439.000000;0.929411
9438.000000;0.929449
9437.000000;0.928713
9436.000000;0.927451
9435.000000;0.926297
9434.000000;0.925689
9433.000000;0.925635
9432.000000;0.925942
9431.000000;0.926355
9430.000000;0.926378
9429.000000;0.925416
9428.000000;0.923467
9427.000000;0.921458
9426.000000;0.920500
9425.000000;0.920844
9424.000000;0.921835
9423.000000;0.922710
9422.000000;0.923101
9421.000000;0.922843
9420.000000;0.921828
9419.000000;0.920257
9418.000000;0.918737
9417.000000;0.917871
9416.000000;0.917834
9415.000000;0.918365
9414.000000;0.918958
9413.000000;0.919013
9412.000000;0.918087
9411.000000;0.916273
9410.000000;0.914248
9409.000000;0.912782
9408.000000;0.912189
9407.000000;0.912264
9406.000000;0.912627
9405.000000;0.912971
9404.000000;0.913072
9403.000000;0.912784
9402.000000;0.912095
9401.000000;0.911154
9400.000000;0.910206
9399.000000;0.909507
9398.000000;0.909214
9397.000000;0.909256
9396.000000;0.909322
9395.000000;0.909013
9394.000000;0.908071
9393.000000;0.906549
9392.000000;0.904855
9391.000000;0.903595
9390.000000;0.903183
9389.000000;0.903505
9388.000000;0.904040
9387.000000;0.904384
9386.000000;0.904583
9385.000000;0.904877
9384.000000;0.905245
9383.000000;0.905388
9382.000000;0.905105
9381.000000;0.904522
9380.000000;0.903915
9379.000000;0.903461
9378.000000;0.903206
9377.000000;0.903137
9376.000000;0.903158
9375.000000;0.903075
9374.000000;0.902761
9373.000000;0.902335
9372.000000;0.902040
9371.000000;0.901899
9370.000000;0.901578
9369.000000;0.900713
9368.000000;0.899344
9367.000000;0.897904
9366.000000;0.896783
9365.000000;0.895994
9364.000000;0.895286
9363.000000;0.894498
9362.000000;0.893732
9361.000000;0.893217
9360.000000;0.893085
9359.000000;0.893295
9358.000000;0.893708
9357.000000;0.894182
9356.000000;0.894521
9355.000000;0.894399
9354.000000;0.893516
9353.000000;0.891999
9352.000000;0.890513
9351.000000;0.889709
9350.000000;0.889517
9349.000000;0.889228
9348.000000;0.888413
9347.000000;0.887457
9346.000000;0.886986
9345.000000;0.887008
9344.000000;0.886986
9343.000000;0.886631
9342.000000;0.886208
9341.000000;0.886035
9340.000000;0.886074
9339.000000;0.886177
9338.000000;0.886367
9337.000000;0.886657
9336.000000;0.886819
9335.000000;0.886604
9334.000000;0.886064
9333.000000;0.885405
9332.000000;0.884623
9331.000000;0.883595
9330.000000;0.882522
9329.000000;0.881989
9328.000000;0.882416
9327.000000;0.883564
9326.000000;0.884694
9325.000000;0.885162
9324.000000;0.884818
9323.000000;0.883878
9322.000000;0.882593
9321.000000;0.881142
9320.000000;0.879748
9319.000000;0.878661
9318.000000;0.877892
9317.000000;0.877161
9316.000000;0.876326
9315.000000;0.875746
9314.000000;0.875901
9313.000000;0.876628
9312.000000;0.877083
9311.000000;0.876649
9310.000000;0.875628
9309.000000;0.874761
9308.000000;0.874264
9307.000000;0.873712
9306.000000;0.872733
9305.000000;0.871466
9304.000000;0.870329
9303.000000;0.869624
9302.000000;0.869456
9301.000000;0.869758
9300.000000;0.870255
9299.000000;0.870608
9298.000000;0.870727
9297.000000;0.870792
9296.000000;0.870879
9295.000000;0.870755
9294.000000;0.870213
9293.000000;0.869467
9292.000000;0.868986
9291.000000;0.868958
9290.000000;0.869063
9289.000000;0.868845
9288.000000;0.868200
9287.000000;0.867470
9286.000000;0.867094
9285.000000;0.867190
9284.000000;0.867465
9283.000000;0.867505
9282.000000;0.867152
9281.000000;0.866575
9280.000000;0.866058
9279.000000;0.865758
9278.000000;0.865615
9277.000000;0.865360
9276.000000;0.864657
9275.000000;0.863429
9274.000000;0.862084
9273.000000;0.861281
9272.000000;0.861336
9271.000000;0.861949
9270.000000;0.862566
9269.000000;0.862862
9268.000000;0.862782
9267.000000;0.862285
9266.000000;0.861374
9265.000000;0.860373
9264.000000;0.859894
9263.000000;0.860303
9262.000000;0.861275
9261.000000;0.861989
9260.000000;0.861830
9259.000000;0.860880
9258.000000;0.859719
9257.000000;0.858784
9256.000000;0.857980
9255.000000;0.856949
9254.000000;0.855664
9253.000000;0.854586
9252.000000;0.854200
9251.000000;0.854525
9250.000000;0.855217
9249.000000;0.855995
9248.000000;0.856745
9247.000000;0.857236
9246.000000;0.857042
9245.000000;0.855962
9244.000000;0.854435
9243.000000;0.853331
9242.000000;0.853256
9241.000000;0.854026
9240.000000;0.854788
9239.000000;0.854694
9238.000000;0.853606
9237.000000;0.852204
9236.000000;0.851354
9235.000000;0.851356
9234.000000;0.851844
9233.000000;0.852285
9232.000000;0.852375
9231.000000;0.851957
9230.000000;0.850906
9229.000000;0.849362
9228.000000;0.847913
9227.000000;0.847193
9226.000000;0.847268
9225.000000;0.847614
9224.000000;0.847726
9223.000000;0.847526
9222.000000;0.847163
9221.000000;0.846683
9220.000000;0.846076
9219.000000;0.845438
9218.000000;0.844889
9217.000000;0.844401
9216.000000;0.843886
9215.000000;0.843401
9214.000000;0.843144
9213.000000;0.843233
9212.000000;0.843618
9211.000000;0.844156
9210.000000;0.844631
9209.000000;0.844723
9208.000000;0.844131
9207.000000;0.842872
9206.000000;0.841401
9205.000000;0.840361
9204.000000;0.840164
9203.000000;0.840710
9202.000000;0.841463
9201.000000;0.841861
9200.000000;0.841741
9199.000000;0.841406
9198.000000;0.841241
9197.000000;0.841306
9196.000000;0.841341
9195.000000;0.841077
9194.000000;0.840432
9193.000000;0.839467
9192.000000;0.838327
9191.000000;0.837242
9190.000000;0.836467
9189.000000;0.836127
9188.000000;0.836120
9187.000000;0.836179
9186.000000;0.836055
9185.000000;0.835729
9184.000000;0.835482
9183.000000;0.835658
9182.000000;0.836245
9181.000000;0.836815
9180.000000;0.836998
9179.000000;0.836903
9178.000000;0.836843
9177.000000;0.836791
9176.000000;0.836412
9175.000000;0.835640
9174.000000;0.834880
9173.000000;0.834510
9172.000000;0.834476
9171.000000;0.834472
9170.000000;0.834277
9169.000000;0.833774
9168.000000;0.832938
9167.000000;0.832030
9166.000000;0.831537
9165.000000;0.831659
9164.000000;0.832023
9163.000000;0.832172
9162.000000;0.832149
9161.000000;0.832262
9160.000000;0.832483
9159.000000;0.832483
9158.000000;0.832213
9157.000000;0.831971
9156.000000;0.831812
9155.000000;0.831348
9154.000000;0.830364
9153.000000;0.829278
9152.000000;0.828694
9151.000000;0.828720
9150.000000;0.828953
9149.000000;0.828992
9148.000000;0.828711
9147.000000;0.828160
9146.000000;0.827464
9145.000000;0.826807
9144.000000;0.826329
9143.000000;0.826007
9142.000000;0.825737
9141.000000;0.825527
9140.000000;0.825478
9139.000000;0.825586
9138.000000;0.825699
9137.000000;0.825685
9136.000000;0.825524
9135.000000;0.825192
9134.000000;0.824550
9133.000000;0.823476
9132.000000;0.822124
9131.000000;0.820988
9130.000000;0.820610
9129.000000;0.821120
9128.000000;0.822060
9127.000000;0.822765
9126.000000;0.822965
9125.000000;0.822932
9124.000000;0.822995
9123.000000;0.823053
9122.000000;0.822728
9121.000000;0.821934
9120.000000;0.821053
9119.000000;0.820513
9118.000000;0.820373
9117.000000;0.820416
9116.000000;0.820467
9115.000000;0.820439
9114.000000;0.820203
9113.000000;0.819674
9112.000000;0.819051
9111.000000;0.818737
9110.000000;0.818889
9109.000000;0.819197
9108.000000;0.819265
9107.000000;0.819097
9106.000000;0.819033
9105.000000;0.819214
9104.000000;0.819346
9103.000000;0.819024
9102.000000;0.818180
9101.000000;0.817148
9100.000000;0.816399
9099.000000;0.816246
9098.000000;0.816618
9097.000000;0.817058
9096.000000;0.817063
9095.000000;0.816611
9094.000000;0.816218
9093.000000;0.816336
9092.000000;0.816783
9091.000000;0.816946
9090.000000;0.816466
9089.000000;0.815520
9088.000000;0.814491
9087.000000;0.813608
9086.000000;0.812967
9085.000000;0.812609
9084.000000;0.812441
9083.000000;0.812242
9082.000000;0.811934
9081.000000;0.811711
9080.000000;0.811765
9079.000000;0.811990
9078.000000;0.812130
9077.000000;0.812144
9076.000000;0.812187
9075.000000;0.812246
9074.000000;0.812051
9073.000000;0.811476
9072.000000;0.810872
9071.000000;0.810782
9070.000000;0.811338
9069.000000;0.812097
9068.000000;0.812539
9067.000000;0.812578
9066.000000;0.812472
9065.000000;0.812312
9064.000000;0.811855
9063.000000;0.810938
9062.000000;0.809876
9061.000000;0.809242
9060.000000;0.809282
9059.000000;0.809703
9058.000000;0.810019
9057.000000;0.809974
9056.000000;0.809584
9055.000000;0.808932
9054.000000;0.808054
9053.000000;0.807002
