Criado como novo conjunto de dados;"1909daniel.spp","-4293705.5 Secs"
cm-1;Abs
10000.000000;0.811461
9999.000000;0.811245
9998.000000;0.811033
9997.000000;0.810813
9996.000000;0.810599
9995.000000;0.810224
9994.000000;0.809702
9993.000000;0.809192
9992.000000;0.808584
9991.000000;0.807748
9990.000000;0.806827
9989.000000;0.806091
9988.000000;0.805523
9987.000000;0.804837
9986.000000;0.803879
9985.000000;0.802842
9984.000000;0.802055
9983.000000;0.801681
9982.000000;0.801620
9981.000000;0.801579
9980.000000;0.801239
9979.000000;0.800473
9978.000000;0.799440
9977.000000;0.798447
9976.000000;0.797728
9975.000000;0.797315
9974.000000;0.797032
9973.000000;0.796575
9972.000000;0.795706
9971.000000;0.794470
9970.000000;0.793192
9969.000000;0.792218
9968.000000;0.791703
9967.000000;0.791584
9966.000000;0.791648
9965.000000;0.791624
9964.000000;0.791345
9963.000000;0.790854
9962.000000;0.790256
9961.000000;0.789494
9960.000000;0.788460
9959.000000;0.787307
9958.000000;0.786375
9957.000000;0.785749
9956.000000;0.785136
9955.000000;0.784321
9954.000000;0.783491
9953.000000;0.782942
9952.000000;0.782688
9951.000000;0.782533
9950.000000;0.782330
9949.000000;0.781926
9948.000000;0.781059
9947.000000;0.779638
9946.000000;0.778071
9945.000000;0.777014
9944.000000;0.776756
9943.000000;0.776999
9942.000000;0.777167
9941.000000;0.776799
9940.000000;0.775736
9939.000000;0.774221
9938.000000;0.772842
9937.000000;0.772153
9936.000000;0.772217
9935.000000;0.772569
9934.000000;0.772637
9933.000000;0.772137
9932.000000;0.771146
9931.000000;0.769966
9930.000000;0.768951
9929.000000;0.768263
9928.000000;0.767746
9927.000000;0.767116
9926.000000;0.766338
9925.000000;0.765692
9924.000000;0.765389
9923.000000;0.765220
9922.000000;0.764746
9921.000000;0.763795
9920.000000;0.762656
9919.000000;0.761705
9918.000000;0.760987
9917.000000;0.760318
9916.000000;0.759704
9915.000000;0.759395
9914.000000;0.759416
9913.000000;0.759313
9912.000000;0.758612
9911.000000;0.757432
9910.000000;0.756342
9909.000000;0.755629
9908.000000;0.754993
9907.000000;0.754037
9906.000000;0.752780
9905.000000;0.751531
9904.000000;0.750477
9903.000000;0.749590
9902.000000;0.748837
9901.000000;0.748281
9900.000000;0.747968
9899.000000;0.747835
9898.000000;0.747705
9897.000000;0.747400
9896.000000;0.746895
9895.000000;0.746387
9894.000000;0.746102
9893.000000;0.745985
9892.000000;0.745701
9891.000000;0.745008
9890.000000;0.744016
9889.000000;0.742994
9888.000000;0.742051
9887.000000;0.741136
9886.000000;0.740302
9885.000000;0.739806
9884.000000;0.739875
9883.000000;0.740384
9882.000000;0.740789
9881.000000;0.740473
9880.000000;0.739257
9879.000000;0.737547
9878.000000;0.735939
9877.000000;0.734732
9876.000000;0.733910
9875.000000;0.733430
9874.000000;0.733255
9873.000000;0.733142
9872.000000;0.732715
9871.000000;0.731867
9870.000000;0.730904
9869.000000;0.730151
9868.000000;0.729598
9867.000000;0.729047
9866.000000;0.728422
9865.000000;0.727795
9864.000000;0.727241
9863.000000;0.726791
9862.000000;0.726428
9861.000000;0.725976
9860.000000;0.725139
9859.000000;0.723788
9858.000000;0.722202
9857.000000;0.720875
9856.000000;0.720125
9855.000000;0.719897
9854.000000;0.719875
9853.000000;0.719714
9852.000000;0.719263
9851.000000;0.718690
9850.000000;0.718330
9849.000000;0.718316
9848.000000;0.718376
9847.000000;0.718062
9846.000000;0.717151
9845.000000;0.715807
9844.000000;0.714418
9843.000000;0.713317
9842.000000;0.712586
9841.000000;0.712052
9840.000000;0.711459
9839.000000;0.710656
9838.000000;0.709620
9837.000000;0.708405
9836.000000;0.707188
9835.000000;0.706311
9834.000000;0.706034
9833.000000;0.706193
9832.000000;0.706265
9831.000000;0.705864
9830.000000;0.705084
9829.000000;0.704305
9828.000000;0.703780
9827.000000;0.703475
9826.000000;0.703209
9825.000000;0.702838
9824.000000;0.702340
9823.000000;0.701776
9822.000000;0.701159
9821.000000;0.700416
9820.000000;0.699539
9819.000000;0.698676
9818.000000;0.697937
9817.000000;0.697191
9816.000000;0.696283
9815.000000;0.695407
9814.000000;0.694999
9813.000000;0.695196
9812.000000;0.695610
9811.000000;0.695722
9810.000000;0.695326
9809.000000;0.694514
9808.000000;0.693458
9807.000000;0.692338
9806.000000;0.691293
9805.000000;0.690300
9804.000000;0.689207
9803.000000;0.687989
9802.000000;0.686838
9801.000000;0.685931
9800.000000;0.685270
9799.000000;0.684805
9798.000000;0.684513
9797.000000;0.684267
9796.000000;0.683817
9795.000000;0.683079
9794.000000;0.682293
9793.000000;0.681745
9792.000000;0.681455
9791.000000;0.681247
9790.000000;0.680985
9789.000000;0.680566
9788.000000;0.679830
9787.000000;0.678721
9786.000000;0.677451
9785.000000;0.676353
9784.000000;0.675584
9783.000000;0.675116
9782.000000;0.674925
9781.000000;0.674992
9780.000000;0.675127
9779.000000;0.674963
9778.000000;0.674238
9777.000000;0.673061
9776.000000;0.671874
9775.000000;0.671136
9774.000000;0.670953
9773.000000;0.670970
9772.000000;0.670684
9771.000000;0.669912
9770.000000;0.668871
9769.000000;0.667803
9768.000000;0.666696
9767.000000;0.665487
9766.000000;0.664368
9765.000000;0.663656
9764.000000;0.663400
9763.000000;0.663300
9762.000000;0.663032
9761.000000;0.662524
9760.000000;0.661884
9759.000000;0.661202
9758.000000;0.660512
9757.000000;0.659866
9756.000000;0.659348
9755.000000;0.658980
9754.000000;0.658666
9753.000000;0.658268
9752.000000;0.657730
9751.000000;0.657085
9750.000000;0.656351
9749.000000;0.655485
9748.000000;0.654480
9747.000000;0.653455
9746.000000;0.652552
9745.000000;0.651823
9744.000000;0.651270
9743.000000;0.650918
9742.000000;0.650735
9741.000000;0.650541
9740.000000;0.650152
9739.000000;0.649600
9738.000000;0.649070
9737.000000;0.648630
9736.000000;0.648158
9735.000000;0.647555
9734.000000;0.646882
9733.000000;0.646233
9732.000000;0.645589
9731.000000;0.644867
9730.000000;0.644042
9729.000000;0.643181
9728.000000;0.642400
9727.000000;0.641778
9726.000000;0.641272
9725.000000;0.640739
9724.000000;0.640103
9723.000000;0.639456
9722.000000;0.638880
9721.000000;0.638277
9720.000000;0.637503
9719.000000;0.636642
9718.000000;0.635956
9717.000000;0.635566
9716.000000;0.635347
9715.000000;0.635121
9714.000000;0.634785
9713.000000;0.634234
9712.000000;0.633352
9711.000000;0.632172
9710.000000;0.630927
9709.000000;0.629879
9708.000000;0.629129
9707.000000;0.628599
9706.000000;0.628090
9705.000000;0.627424
9704.000000;0.626632
9703.000000;0.625954
9702.000000;0.625521
9701.000000;0.625144
9700.000000;0.624612
9699.000000;0.624082
9698.000000;0.623878
9697.000000;0.623935
9696.000000;0.623767
9695.000000;0.623050
9694.000000;0.621932
9693.000000;0.620710
9692.000000;0.619532
9691.000000;0.618569
9690.000000;0.618130
9689.000000;0.618299
9688.000000;0.618649
9687.000000;0.618595
9686.000000;0.617947
9685.000000;0.616978
9684.000000;0.616046
9683.000000;0.615319
9682.000000;0.614777
9681.000000;0.614273
9680.000000;0.613629
9679.000000;0.612820
9678.000000;0.612009
9677.000000;0.611306
9676.000000;0.610586
9675.000000;0.609688
9674.000000;0.608741
9673.000000;0.608086
9672.000000;0.607868
9671.000000;0.607807
9670.000000;0.607455
9669.000000;0.606659
9668.000000;0.605720
9667.000000;0.605088
9666.000000;0.604891
9665.000000;0.604809
9664.000000;0.604448
9663.000000;0.603760
9662.000000;0.603002
9661.000000;0.602376
9660.000000;0.601874
9659.000000;0.601458
9658.000000;0.601143
9657.000000;0.600853
9656.000000;0.600378
9655.000000;0.599581
9654.000000;0.598517
9653.000000;0.597294
9652.000000;0.595969
9651.000000;0.594677
9650.000000;0.593674
9649.000000;0.593126
9648.000000;0.592935
9647.000000;0.592874
9646.000000;0.592777
9645.000000;0.592522
9644.000000;0.591964
9643.000000;0.591064
9642.000000;0.590020
9641.000000;0.589174
9640.000000;0.588769
9639.000000;0.588812
9638.000000;0.589025
9637.000000;0.588911
9636.000000;0.588048
9635.000000;0.586543
9634.000000;0.585082
9633.000000;0.584358
9632.000000;0.584408
9631.000000;0.584645
9630.000000;0.584525
9629.000000;0.584045
9628.000000;0.583562
9627.000000;0.583263
9626.000000;0.582965
9625.000000;0.582390
9624.000000;0.581492
9623.000000;0.580457
9622.000000;0.579467
9621.000000;0.578617
9620.000000;0.577995
9619.000000;0.577676
9618.000000;0.577523
9617.000000;0.577186
9616.000000;0.576444
9615.000000;0.575476
9614.000000;0.574652
9613.000000;0.574115
9612.000000;0.573706
9611.000000;0.573237
9610.000000;0.572667
9609.000000;0.572042
9608.000000;0.571443
9607.000000;0.570965
9606.000000;0.570589
9605.000000;0.570099
9604.000000;0.569328
9603.000000;0.568453
9602.000000;0.567856
9601.000000;0.567638
9600.000000;0.567477
9599.000000;0.567017
9598.000000;0.566221
9597.000000;0.565275
9596.000000;0.564339
9595.000000;0.563507
9594.000000;0.562861
9593.000000;0.562399
9592.000000;0.561994
9591.000000;0.561509
9590.000000;0.560919
9589.000000;0.560254
9588.000000;0.559513
9587.000000;0.558697
9586.000000;0.557862
9585.000000;0.557087
9584.000000;0.556417
9583.000000;0.555831
9582.000000;0.555243
9581.000000;0.554582
9580.000000;0.553969
9579.000000;0.553706
9578.000000;0.553911
9577.000000;0.554206
9576.000000;0.553990
9575.000000;0.553078
9574.000000;0.551902
9573.000000;0.551003
9572.000000;0.550504
9571.000000;0.550144
9570.000000;0.549658
9569.000000;0.548997
9568.000000;0.548278
9567.000000;0.547655
9566.000000;0.547195
9565.000000;0.546814
9564.000000;0.546337
9563.000000;0.545668
9562.000000;0.544889
9561.000000;0.544198
9560.000000;0.543800
9559.000000;0.543767
9558.000000;0.543904
9557.000000;0.543800
9556.000000;0.543190
9555.000000;0.542272
9554.000000;0.541491
9553.000000;0.541029
9552.000000;0.540661
9551.000000;0.540112
9550.000000;0.539362
9549.000000;0.538562
9548.000000;0.537850
9547.000000;0.537341
9546.000000;0.537117
9545.000000;0.537084
9544.000000;0.536941
9543.000000;0.536424
9542.000000;0.535537
9541.000000;0.534497
9540.000000;0.533544
9539.000000;0.532826
9538.000000;0.532388
9537.000000;0.532166
9536.000000;0.532002
9535.000000;0.531708
9534.000000;0.531122
9533.000000;0.530196
9532.000000;0.529111
9531.000000;0.528229
9530.000000;0.527778
9529.000000;0.527589
9528.000000;0.527282
9527.000000;0.526697
9526.000000;0.525986
9525.000000;0.525300
9524.000000;0.524589
9523.000000;0.523778
9522.000000;0.522949
9521.000000;0.522237
9520.000000;0.521640
9519.000000;0.521057
9518.000000;0.520457
9517.000000;0.519961
9516.000000;0.519786
9515.000000;0.520069
9514.000000;0.520664
9513.000000;0.521128
9512.000000;0.521032
9511.000000;0.520306
9510.000000;0.519227
9509.000000;0.518131
9508.000000;0.517240
9507.000000;0.516680
9506.000000;0.516438
9505.000000;0.516286
9504.000000;0.515943
9503.000000;0.515368
9502.000000;0.514756
9501.000000;0.514237
9500.000000;0.513719
9499.000000;0.513082
9498.000000;0.512392
9497.000000;0.511829
9496.000000;0.511514
9495.000000;0.511414
9494.000000;0.511338
9493.000000;0.511038
9492.000000;0.510388
9491.000000;0.509480
9490.000000;0.508454
9489.000000;0.507346
9488.000000;0.506227
9487.000000;0.505346
9486.000000;0.504913
9485.000000;0.504763
9484.000000;0.504532
9483.000000;0.504111
9482.000000;0.503677
9481.000000;0.503264
9480.000000;0.502636
9479.000000;0.501710
9478.000000;0.500801
9477.000000;0.500245
9476.000000;0.499986
9475.000000;0.499723
9474.000000;0.499323
9473.000000;0.498891
9472.000000;0.498525
9471.000000;0.498165
9470.000000;0.497671
9469.000000;0.496959
9468.000000;0.496093
9467.000000;0.495293
9466.000000;0.494791
9465.000000;0.494629
9464.000000;0.494634
9463.000000;0.494580
9462.000000;0.494318
9461.000000;0.493797
9460.000000;0.493096
9459.000000;0.492408
9458.000000;0.491888
9457.000000;0.491503
9456.000000;0.491167
9455.000000;0.490938
9454.000000;0.490887
9453.000000;0.490816
9452.000000;0.490379
9451.000000;0.489541
9450.000000;0.488658
9449.000000;0.488027
9448.000000;0.487564
9447.000000;0.487049
9446.000000;0.486466
9445.000000;0.485961
9444.000000;0.485597
9443.000000;0.485306
9442.000000;0.485010
9441.000000;0.484637
9440.000000;0.484122
9439.000000;0.483474
9438.000000;0.482824
9437.000000;0.482337
9436.000000;0.482118
9435.000000;0.482188
9434.000000;0.482442
9433.000000;0.482608
9432.000000;0.482358
9431.000000;0.481520
9430.000000;0.480168
9429.000000;0.478580
9428.000000;0.477182
9427.000000;0.476397
9426.000000;0.476296
9425.000000;0.476444
9424.000000;0.476302
9423.000000;0.475777
9422.000000;0.475177
9421.000000;0.474693
9420.000000;0.474209
9419.000000;0.473645
9418.000000;0.473183
9417.000000;0.473008
9416.000000;0.473060
9415.000000;0.473143
9414.000000;0.473068
9413.000000;0.472638
9412.000000;0.471719
9411.000000;0.470475
9410.000000;0.469337
9409.000000;0.468609
9408.000000;0.468265
9407.000000;0.468183
9406.000000;0.468355
9405.000000;0.468705
9404.000000;0.468952
9403.000000;0.468818
9402.000000;0.468271
9401.000000;0.467423
9400.000000;0.466386
9399.000000;0.465359
9398.000000;0.464634
9397.000000;0.464309
9396.000000;0.464110
9395.000000;0.463699
9394.000000;0.463062
9393.000000;0.462407
9392.000000;0.461814
9391.000000;0.461166
9390.000000;0.460397
9389.000000;0.459615
9388.000000;0.459007
9387.000000;0.458713
9386.000000;0.458748
9385.000000;0.458946
9384.000000;0.459033
9383.000000;0.458843
9382.000000;0.458436
9381.000000;0.457965
9380.000000;0.457521
9379.000000;0.457129
9378.000000;0.456769
9377.000000;0.456348
9376.000000;0.455777
9375.000000;0.455147
9374.000000;0.454680
9373.000000;0.454428
9372.000000;0.454168
9371.000000;0.453708
9370.000000;0.453146
9369.000000;0.452700
9368.000000;0.452390
9367.000000;0.452049
9366.000000;0.451536
9365.000000;0.450828
9364.000000;0.449972
9363.000000;0.449096
9362.000000;0.448377
9361.000000;0.447875
9360.000000;0.447457
9359.000000;0.446992
9358.000000;0.446565
9357.000000;0.446375
9356.000000;0.446455
9355.000000;0.446593
9354.000000;0.446526
9353.000000;0.446144
9352.000000;0.445517
9351.000000;0.444793
9350.000000;0.444064
9349.000000;0.443337
9348.000000;0.442638
9347.000000;0.442079
9346.000000;0.441730
9345.000000;0.441469
9344.000000;0.441099
9343.000000;0.440611
9342.000000;0.440192
9341.000000;0.439970
9340.000000;0.439875
9339.000000;0.439772
9338.000000;0.439580
9337.000000;0.439247
9336.000000;0.438788
9335.000000;0.438369
9334.000000;0.438159
9333.000000;0.438074
9332.000000;0.437846
9331.000000;0.437404
9330.000000;0.436971
9329.000000;0.436700
9328.000000;0.436449
9327.000000;0.436017
9326.000000;0.435389
9325.000000;0.434625
9324.000000;0.433739
9323.000000;0.432858
9322.000000;0.432291
9321.000000;0.432200
9320.000000;0.432333
9319.000000;0.432281
9318.000000;0.431918
9317.000000;0.431427
9316.000000;0.430999
9315.000000;0.430700
9314.000000;0.430510
9313.000000;0.430330
9312.000000;0.429995
9311.000000;0.429430
9310.000000;0.428731
9309.000000;0.427986
9308.000000;0.427144
9307.000000;0.426222
9306.000000;0.425509
9305.000000;0.425327
9304.000000;0.425644
9303.000000;0.426082
9302.000000;0.426277
9301.000000;0.426108
9300.000000;0.425623
9299.000000;0.424933
9298.000000;0.424163
9297.000000;0.423382
9296.000000;0.422581
9295.000000;0.421829
9294.000000;0.421367
9293.000000;0.421384
9292.000000;0.421744
9291.000000;0.422074
9290.000000;0.422110
9289.000000;0.421828
9288.000000;0.421298
9287.000000;0.420603
9286.000000;0.419933
9285.000000;0.419549
9284.000000;0.419539
9283.000000;0.419667
9282.000000;0.419536
9281.000000;0.418914
9280.000000;0.417928
9279.000000;0.416998
9278.000000;0.416503
9277.000000;0.416463
9276.000000;0.416543
9275.000000;0.416421
9274.000000;0.416104
9273.000000;0.415827
9272.000000;0.415697
9271.000000;0.415555
9270.000000;0.415193
9269.000000;0.414623
9268.000000;0.414079
9267.000000;0.413748
9266.000000;0.413568
9265.000000;0.413301
9264.000000;0.412834
9263.000000;0.412320
9262.000000;0.411941
9261.000000;0.411626
9260.000000;0.411140
9259.000000;0.410435
9258.000000;0.409732
9257.000000;0.409201
9256.000000;0.408777
9255.000000;0.408367
9254.000000;0.408061
9253.000000;0.407994
9252.000000;0.408111
9251.000000;0.408240
9250.000000;0.408302
9249.000000;0.408304
9248.000000;0.408191
9247.000000;0.407861
9246.000000;0.407280
9245.000000;0.406521
9244.000000;0.405734
9243.000000;0.405160
9242.000000;0.405015
9241.000000;0.405222
9240.000000;0.405362
9239.000000;0.405094
9238.000000;0.404564
9237.000000;0.404192
9236.000000;0.404095
9235.000000;0.403951
9234.000000;0.403478
9233.000000;0.402802
9232.000000;0.402220
9231.000000;0.401813
9230.000000;0.401454
9229.000000;0.401119
9228.000000;0.400934
9227.000000;0.400898
9226.000000;0.400768
9225.000000;0.400336
9224.000000;0.399738
9223.000000;0.399335
9222.000000;0.399304
9221.000000;0.399481
9220.000000;0.399630
9219.000000;0.399705
9218.000000;0.399733
9217.000000;0.399561
9216.000000;0.398953
9215.000000;0.397935
9214.000000;0.396872
9213.000000;0.396130
9212.000000;0.395774
9211.000000;0.395656
9210.000000;0.395648
9209.000000;0.395696
9208.000000;0.395708
9207.000000;0.395551
9206.000000;0.395163
9205.000000;0.394628
9204.000000;0.394135
9203.000000;0.393860
9202.000000;0.393836
9201.000000;0.393915
9200.000000;0.393931
9199.000000;0.393879
9198.000000;0.393868
9197.000000;0.393859
9196.000000;0.393580
9195.000000;0.392783
9194.000000;0.391545
9193.000000;0.390254
9192.000000;0.389309
9191.000000;0.388879
9190.000000;0.388872
9189.000000;0.389074
9188.000000;0.389314
9187.000000;0.389533
9186.000000;0.389719
9185.000000;0.389804
9184.000000;0.389698
9183.000000;0.389402
9182.000000;0.389027
9181.000000;0.388695
9180.000000;0.388463
9179.000000;0.388339
9178.000000;0.388254
9177.000000;0.388063
9176.000000;0.387677
9175.000000;0.387216
9174.000000;0.386895
9173.000000;0.386755
9172.000000;0.386641
9171.000000;0.386458
9170.000000;0.386272
9169.000000;0.386085
9168.000000;0.385711
9167.000000;0.385052
9166.000000;0.384352
9165.000000;0.383959
9164.000000;0.383876
9163.000000;0.383725
9162.000000;0.383218
9161.000000;0.382508
9160.000000;0.382008
9159.000000;0.381921
9158.000000;0.382059
9157.000000;0.382110
9156.000000;0.381988
9155.000000;0.381845
9154.000000;0.381771
9153.000000;0.381618
9152.000000;0.381204
9151.000000;0.380606
9150.000000;0.380099
9149.000000;0.379836
9148.000000;0.379699
9147.000000;0.379488
9146.000000;0.379137
9145.000000;0.378716
9144.000000;0.378319
9143.000000;0.378027
9142.000000;0.377890
9141.000000;0.377889
9140.000000;0.377938
9139.000000;0.377948
9138.000000;0.377855
9137.000000;0.377603
9136.000000;0.377182
9135.000000;0.376682
9134.000000;0.376217
9133.000000;0.375806
9132.000000;0.375441
9131.000000;0.375247
9130.000000;0.375408
9129.000000;0.375867
9128.000000;0.376218
9127.000000;0.376051
9126.000000;0.375353
9125.000000;0.374531
9124.000000;0.374044
9123.000000;0.374035
9122.000000;0.374248
9121.000000;0.374278
9120.000000;0.373937
9119.000000;0.373410
9118.000000;0.373009
9117.000000;0.372833
9116.000000;0.372738
9115.000000;0.372602
9114.000000;0.372451
9113.000000;0.372329
9112.000000;0.372189
9111.000000;0.371999
9110.000000;0.371804
9109.000000;0.371648
9108.000000;0.371517
9107.000000;0.371434
9106.000000;0.371466
9105.000000;0.371541
9104.000000;0.371401
9103.000000;0.370843
9102.000000;0.369983
9101.000000;0.369183
9100.000000;0.368745
9099.000000;0.368703
9098.000000;0.368843
9097.000000;0.368891
9096.000000;0.368752
9095.000000;0.368600
9094.000000;0.368653
9093.000000;0.368839
9092.000000;0.368808
9091.000000;0.368326
9090.000000;0.367529
9089.000000;0.366737
9088.000000;0.366155
9087.000000;0.365838
9086.000000;0.365793
9085.000000;0.365924
9084.000000;0.365978
9083.000000;0.365742
9082.000000;0.365303
9081.000000;0.364964
9080.000000;0.364885
9079.000000;0.364916
9078.000000;0.364817
9077.000000;0.364540
9076.000000;0.364240
9075.000000;0.364046
9074.000000;0.363903
9073.000000;0.363699
9072.000000;0.363501
9071.000000;0.363554
9070.000000;0.363970
9069.000000;0.364481
9068.000000;0.364638
9067.000000;0.364255
9066.000000;0.363551
9065.000000;0.362851
9064.000000;0.362291
9063.000000;0.361849
9062.000000;0.361494
9061.000000;0.361202
9060.000000;0.360930
9059.000000;0.360681
9058.000000;0.360537
9057.000000;0.360524
9056.000000;0.360507
9055.000000;0.360307
9054.000000;0.359915
9053.000000;0.359516
