Criado como novo conjunto de dados;"1909daniel.spp","-4216480.9 Secs"
cm-1;Abs
10000.000000;1.365916
9999.000000;1.365642
9998.000000;1.365367
9997.000000;1.365093
9996.000000;1.364820
9995.000000;1.364544
9994.000000;1.364273
9993.000000;1.363995
9992.000000;1.363730
9991.000000;1.363441
9990.000000;1.363204
9989.000000;1.362704
9988.000000;1.361672
9987.000000;1.360459
9986.000000;1.359329
9985.000000;1.358143
9984.000000;1.356732
9983.000000;1.355455
9982.000000;1.354974
9981.000000;1.355552
9980.000000;1.356660
9979.000000;1.357231
9978.000000;1.356344
9977.000000;1.353891
9976.000000;1.350739
9975.000000;1.348202
9974.000000;1.347203
9973.000000;1.347789
9972.000000;1.349201
9971.000000;1.350319
9970.000000;1.350338
9969.000000;1.349286
9968.000000;1.347830
9967.000000;1.346473
9966.000000;1.345107
9965.000000;1.343495
9964.000000;1.341899
9963.000000;1.340906
9962.000000;1.340794
9961.000000;1.341448
9960.000000;1.342691
9959.000000;1.344214
9958.000000;1.345275
9957.000000;1.345042
9956.000000;1.343440
9955.000000;1.341293
9954.000000;1.339589
9953.000000;1.338899
9952.000000;1.339321
9951.000000;1.340412
9950.000000;1.341110
9949.000000;1.340351
9948.000000;1.338116
9947.000000;1.335494
9946.000000;1.333534
9945.000000;1.332417
9944.000000;1.331826
9943.000000;1.331576
9942.000000;1.331470
9941.000000;1.330985
9940.000000;1.329658
9939.000000;1.327747
9938.000000;1.326133
9937.000000;1.325453
9936.000000;1.325464
9935.000000;1.325284
9934.000000;1.324299
9933.000000;1.322864
9932.000000;1.321969
9931.000000;1.322022
9930.000000;1.322231
9929.000000;1.321511
9928.000000;1.319840
9927.000000;1.318251
9926.000000;1.317591
9925.000000;1.317850
9924.000000;1.318687
9923.000000;1.319882
9922.000000;1.321004
9921.000000;1.321314
9920.000000;1.320486
9919.000000;1.319064
9918.000000;1.317797
9917.000000;1.316819
9916.000000;1.315821
9915.000000;1.314624
9914.000000;1.313199
9913.000000;1.311469
9912.000000;1.309546
9911.000000;1.307971
9910.000000;1.307282
9909.000000;1.307375
9908.000000;1.307533
9907.000000;1.307070
9906.000000;1.305867
9905.000000;1.304469
9904.000000;1.303694
9903.000000;1.303844
9902.000000;1.304210
9901.000000;1.303756
9900.000000;1.302447
9899.000000;1.301387
9898.000000;1.301392
9897.000000;1.302005
9896.000000;1.302337
9895.000000;1.302328
9894.000000;1.302502
9893.000000;1.302818
9892.000000;1.302478
9891.000000;1.300809
9890.000000;1.297919
9889.000000;1.294620
9888.000000;1.292086
9887.000000;1.291327
9886.000000;1.292373
9885.000000;1.293947
9884.000000;1.294441
9883.000000;1.293425
9882.000000;1.291883
9881.000000;1.291041
9880.000000;1.291326
9879.000000;1.292291
9878.000000;1.293048
9877.000000;1.292813
9876.000000;1.291497
9875.000000;1.289835
9874.000000;1.288627
9873.000000;1.287913
9872.000000;1.287231
9871.000000;1.286501
9870.000000;1.286171
9869.000000;1.286427
9868.000000;1.286718
9867.000000;1.286292
9866.000000;1.284980
9865.000000;1.283297
9864.000000;1.281936
9863.000000;1.281227
9862.000000;1.280938
9861.000000;1.280535
9860.000000;1.279726
9859.000000;1.278689
9858.000000;1.277694
9857.000000;1.276637
9856.000000;1.275142
9855.000000;1.273002
9854.000000;1.270407
9853.000000;1.267908
9852.000000;1.266319
9851.000000;1.266312
9850.000000;1.267756
9849.000000;1.269600
9848.000000;1.270759
9847.000000;1.270995
9846.000000;1.270656
9845.000000;1.269906
9844.000000;1.268776
9843.000000;1.267757
9842.000000;1.267601
9841.000000;1.268427
9840.000000;1.269509
9839.000000;1.270025
9838.000000;1.269632
9837.000000;1.268304
9836.000000;1.266143
9835.000000;1.263590
9834.000000;1.261396
9833.000000;1.260042
9832.000000;1.259302
9831.000000;1.258500
9830.000000;1.257174
9829.000000;1.255529
9828.000000;1.254325
9827.000000;1.254162
9826.000000;1.254716
9825.000000;1.254874
9824.000000;1.253950
9823.000000;1.252577
9822.000000;1.251928
9821.000000;1.252203
9820.000000;1.252437
9819.000000;1.251736
9818.000000;1.250141
9817.000000;1.248233
9816.000000;1.246540
9815.000000;1.245526
9814.000000;1.245518
9813.000000;1.246249
9812.000000;1.246854
9811.000000;1.246700
9810.000000;1.245911
9809.000000;1.244829
9808.000000;1.243390
9807.000000;1.241530
9806.000000;1.239832
9805.000000;1.239174
9804.000000;1.239741
9803.000000;1.240770
9802.000000;1.241346
9801.000000;1.241203
9800.000000;1.240632
9799.000000;1.239895
9798.000000;1.238947
9797.000000;1.237684
9796.000000;1.236308
9795.000000;1.235334
9794.000000;1.235154
9793.000000;1.235653
9792.000000;1.236305
9791.000000;1.236638
9790.000000;1.236459
9789.000000;1.235698
9788.000000;1.234316
9787.000000;1.232484
9786.000000;1.230665
9785.000000;1.229322
9784.000000;1.228593
9783.000000;1.228308
9782.000000;1.228242
9781.000000;1.228247
9780.000000;1.228211
9779.000000;1.228001
9778.000000;1.227459
9777.000000;1.226475
9776.000000;1.225083
9775.000000;1.223528
9774.000000;1.222134
9773.000000;1.221063
9772.000000;1.220244
9771.000000;1.219576
9770.000000;1.219129
9769.000000;1.219070
9768.000000;1.219338
9767.000000;1.219519
9766.000000;1.219200
9765.000000;1.218574
9764.000000;1.218449
9763.000000;1.219362
9762.000000;1.220701
9761.000000;1.221088
9760.000000;1.219774
9759.000000;1.217398
9758.000000;1.215187
9757.000000;1.213756
9756.000000;1.212941
9755.000000;1.212433
9754.000000;1.212078
9753.000000;1.211729
9752.000000;1.211257
9751.000000;1.210734
9750.000000;1.210257
9749.000000;1.209617
9748.000000;1.208486
9747.000000;1.206985
9746.000000;1.205728
9745.000000;1.205197
9744.000000;1.205269
9743.000000;1.205360
9742.000000;1.204875
9741.000000;1.203565
9740.000000;1.201705
9739.000000;1.199934
9738.000000;1.198704
9737.000000;1.197902
9736.000000;1.197191
9735.000000;1.196567
9734.000000;1.196307
9733.000000;1.196534
9732.000000;1.197114
9731.000000;1.197926
9730.000000;1.198854
9729.000000;1.199511
9728.000000;1.199399
9727.000000;1.198449
9726.000000;1.197074
9725.000000;1.195637
9724.000000;1.194202
9723.000000;1.192815
9722.000000;1.191598
9721.000000;1.190522
9720.000000;1.189505
9719.000000;1.188778
9718.000000;1.188676
9717.000000;1.188934
9716.000000;1.188750
9715.000000;1.187871
9714.000000;1.187113
9713.000000;1.187311
9712.000000;1.188026
9711.000000;1.187888
9710.000000;1.186213
9709.000000;1.183844
9708.000000;1.182231
9707.000000;1.181967
9706.000000;1.182421
9705.000000;1.182568
9704.000000;1.181926
9703.000000;1.180690
9702.000000;1.179223
9701.000000;1.177732
9700.000000;1.176466
9699.000000;1.175798
9698.000000;1.175790
9697.000000;1.175910
9696.000000;1.175584
9695.000000;1.174912
9694.000000;1.174456
9693.000000;1.174469
9692.000000;1.174752
9691.000000;1.175141
9690.000000;1.175551
9689.000000;1.175543
9688.000000;1.174539
9687.000000;1.172755
9686.000000;1.171334
9685.000000;1.171130
9684.000000;1.171666
9683.000000;1.171635
9682.000000;1.170204
9681.000000;1.167592
9680.000000;1.164710
9679.000000;1.162568
9678.000000;1.161774
9677.000000;1.162161
9676.000000;1.162890
9675.000000;1.163154
9674.000000;1.162721
9673.000000;1.161768
9672.000000;1.160507
9671.000000;1.159192
9670.000000;1.158151
9669.000000;1.157463
9668.000000;1.156816
9667.000000;1.155997
9666.000000;1.155304
9665.000000;1.155147
9664.000000;1.155437
9663.000000;1.155727
9662.000000;1.155853
9661.000000;1.156043
9660.000000;1.156430
9659.000000;1.156760
9658.000000;1.156603
9657.000000;1.155643
9656.000000;1.153861
9655.000000;1.151669
9654.000000;1.149757
9653.000000;1.148558
9652.000000;1.147969
9651.000000;1.147786
9650.000000;1.148136
9649.000000;1.149070
9648.000000;1.149950
9647.000000;1.149831
9646.000000;1.148536
9645.000000;1.146834
9644.000000;1.145480
9643.000000;1.144558
9642.000000;1.143890
9641.000000;1.143507
9640.000000;1.143368
9639.000000;1.142963
9638.000000;1.141732
9637.000000;1.139764
9636.000000;1.137740
9635.000000;1.136270
9634.000000;1.135550
9633.000000;1.135551
9632.000000;1.136095
9631.000000;1.136674
9630.000000;1.136611
9629.000000;1.135716
9628.000000;1.134634
9627.000000;1.134207
9626.000000;1.134471
9625.000000;1.134550
9624.000000;1.133602
9623.000000;1.131688
9622.000000;1.129623
9621.000000;1.128185
9620.000000;1.127707
9619.000000;1.128162
9618.000000;1.129190
9617.000000;1.129971
9616.000000;1.129585
9615.000000;1.127883
9614.000000;1.125794
9613.000000;1.124446
9612.000000;1.124069
9611.000000;1.124052
9610.000000;1.123903
9609.000000;1.123755
9608.000000;1.123865
9607.000000;1.124039
9606.000000;1.123840
9605.000000;1.123166
9604.000000;1.122359
9603.000000;1.121797
9602.000000;1.121597
9601.000000;1.121692
9600.000000;1.121941
9599.000000;1.122023
9598.000000;1.121431
9597.000000;1.119877
9596.000000;1.117720
9595.000000;1.115813
9594.000000;1.114796
9593.000000;1.114579
9592.000000;1.114555
9591.000000;1.114170
9590.000000;1.113218
9589.000000;1.111811
9588.000000;1.110325
9587.000000;1.109294
9586.000000;1.109012
9585.000000;1.109141
9584.000000;1.108949
9583.000000;1.108086
9582.000000;1.106962
9581.000000;1.106229
9580.000000;1.106022
9579.000000;1.105913
9578.000000;1.105473
9577.000000;1.104636
9576.000000;1.103531
9575.000000;1.102205
9574.000000;1.100682
9573.000000;1.099222
9572.000000;1.098316
9571.000000;1.098269
9570.000000;1.098764
9569.000000;1.098994
9568.000000;1.098416
9567.000000;1.097351
9566.000000;1.096615
9565.000000;1.096544
9564.000000;1.096631
9563.000000;1.096224
9562.000000;1.095314
9561.000000;1.094380
9560.000000;1.093654
9559.000000;1.092924
9558.000000;1.092050
9557.000000;1.091282
9556.000000;1.090887
9555.000000;1.090687
9554.000000;1.090239
9553.000000;1.089404
9552.000000;1.088536
9551.000000;1.088058
9550.000000;1.088047
9549.000000;1.088267
9548.000000;1.088483
9547.000000;1.088602
9546.000000;1.088586
9545.000000;1.088438
9544.000000;1.088269
9543.000000;1.088167
9542.000000;1.087878
9541.000000;1.086863
9540.000000;1.084992
9539.000000;1.083058
9538.000000;1.082220
9537.000000;1.082792
9536.000000;1.083842
9535.000000;1.084120
9534.000000;1.083247
9533.000000;1.081786
9532.000000;1.080380
9531.000000;1.079177
9530.000000;1.078086
9529.000000;1.077158
9528.000000;1.076496
9527.000000;1.075960
9526.000000;1.075259
9525.000000;1.074351
9524.000000;1.073601
9523.000000;1.073401
9522.000000;1.073699
9521.000000;1.073984
9520.000000;1.073732
9519.000000;1.072843
9518.000000;1.071674
9517.000000;1.070717
9516.000000;1.070280
9515.000000;1.070367
9514.000000;1.070683
9513.000000;1.070764
9512.000000;1.070296
9511.000000;1.069430
9510.000000;1.068687
9509.000000;1.068422
9508.000000;1.068401
9507.000000;1.068034
9506.000000;1.067036
9505.000000;1.065733
9504.000000;1.064650
9503.000000;1.063938
9502.000000;1.063350
9501.000000;1.062734
9500.000000;1.062322
9499.000000;1.062376
9498.000000;1.062661
9497.000000;1.062553
9496.000000;1.061727
9495.000000;1.060503
9494.000000;1.059404
9493.000000;1.058588
9492.000000;1.057922
9491.000000;1.057445
9490.000000;1.057442
9489.000000;1.058011
9488.000000;1.058766
9487.000000;1.059125
9486.000000;1.058771
9485.000000;1.057829
9484.000000;1.056709
9483.000000;1.055827
9482.000000;1.055280
9481.000000;1.054714
9480.000000;1.053677
9479.000000;1.052220
9478.000000;1.050979
9477.000000;1.050485
9476.000000;1.050538
9475.000000;1.050461
9474.000000;1.049915
9473.000000;1.049196
9472.000000;1.048726
9471.000000;1.048479
9470.000000;1.048097
9469.000000;1.047396
9468.000000;1.046537
9467.000000;1.045710
9466.000000;1.044868
9465.000000;1.043888
9464.000000;1.042890
9463.000000;1.042220
9462.000000;1.042087
9461.000000;1.042322
9460.000000;1.042496
9459.000000;1.042249
9458.000000;1.041538
9457.000000;1.040692
9456.000000;1.040191
9455.000000;1.040225
9454.000000;1.040396
9453.000000;1.039986
9452.000000;1.038686
9451.000000;1.036979
9450.000000;1.035678
9449.000000;1.035203
9448.000000;1.035391
9447.000000;1.035831
9446.000000;1.036149
9445.000000;1.036021
9444.000000;1.035259
9443.000000;1.034060
9442.000000;1.033019
9441.000000;1.032682
9440.000000;1.033028
9439.000000;1.033430
9438.000000;1.033226
9437.000000;1.032413
9436.000000;1.031736
9435.000000;1.031941
9434.000000;1.032909
9433.000000;1.033675
9432.000000;1.033376
9431.000000;1.031969
9430.000000;1.029910
9429.000000;1.027487
9428.000000;1.024900
9427.000000;1.022769
9426.000000;1.021900
9425.000000;1.022376
9424.000000;1.023280
9423.000000;1.023560
9422.000000;1.022926
9421.000000;1.021781
9420.000000;1.020554
9419.000000;1.019397
9418.000000;1.018372
9417.000000;1.017652
9416.000000;1.017512
9415.000000;1.018112
9414.000000;1.019171
9413.000000;1.019876
9412.000000;1.019469
9411.000000;1.018089
9410.000000;1.016777
9409.000000;1.016451
9408.000000;1.017058
9407.000000;1.017837
9406.000000;1.018144
9405.000000;1.017801
9404.000000;1.016924
9403.000000;1.015791
9402.000000;1.014762
9401.000000;1.014023
9400.000000;1.013423
9399.000000;1.012751
9398.000000;1.012071
9397.000000;1.011551
9396.000000;1.011115
9395.000000;1.010585
9394.000000;1.010048
9393.000000;1.009687
9392.000000;1.009287
9391.000000;1.008336
9390.000000;1.006750
9389.000000;1.005163
9388.000000;1.004313
9387.000000;1.004398
9386.000000;1.005136
9385.000000;1.006198
9384.000000;1.007323
9383.000000;1.008186
9382.000000;1.008479
9381.000000;1.008141
9380.000000;1.007346
9379.000000;1.006217
9378.000000;1.004739
9377.000000;1.002991
9376.000000;1.001316
9375.000000;1.000121
9374.000000;0.999552
9373.000000;0.999482
9372.000000;0.999757
9371.000000;1.000271
9370.000000;1.000693
9369.000000;1.000389
9368.000000;0.998970
9367.000000;0.996905
9366.000000;0.995237
9365.000000;0.994556
9364.000000;0.994536
9363.000000;0.994599
9362.000000;0.994665
9361.000000;0.994914
9360.000000;0.995113
9359.000000;0.994770
9358.000000;0.993932
9357.000000;0.993253
9356.000000;0.993086
9355.000000;0.992970
9354.000000;0.992362
9353.000000;0.991486
9352.000000;0.991017
9351.000000;0.991040
9350.000000;0.990838
9349.000000;0.989800
9348.000000;0.988229
9347.000000;0.987041
9346.000000;0.986835
9345.000000;0.987412
9344.000000;0.988056
9343.000000;0.988147
9342.000000;0.987579
9341.000000;0.986780
9340.000000;0.986334
9339.000000;0.986478
9338.000000;0.986913
9337.000000;0.987130
9336.000000;0.986887
9335.000000;0.986262
9334.000000;0.985310
9333.000000;0.983961
9332.000000;0.982366
9331.000000;0.981080
9330.000000;0.980624
9329.000000;0.980924
9328.000000;0.981429
9327.000000;0.981700
9326.000000;0.981605
9325.000000;0.981029
9324.000000;0.979875
9323.000000;0.978476
9322.000000;0.977555
9321.000000;0.977433
9320.000000;0.977540
9319.000000;0.977090
9318.000000;0.976084
9317.000000;0.975274
9316.000000;0.975236
9315.000000;0.975827
9314.000000;0.976487
9313.000000;0.976669
9312.000000;0.975992
9311.000000;0.974428
9310.000000;0.972571
9309.000000;0.971372
9308.000000;0.971307
9307.000000;0.971916
9306.000000;0.972269
9305.000000;0.971793
9304.000000;0.970594
9303.000000;0.969183
9302.000000;0.968092
9301.000000;0.967608
9300.000000;0.967609
9299.000000;0.967674
9298.000000;0.967502
9297.000000;0.967213
9296.000000;0.967176
9295.000000;0.967553
9294.000000;0.968105
9293.000000;0.968396
9292.000000;0.968146
9291.000000;0.967460
9290.000000;0.966756
9289.000000;0.966382
9288.000000;0.966275
9287.000000;0.966071
9286.000000;0.965591
9285.000000;0.965037
9284.000000;0.964629
9283.000000;0.964235
9282.000000;0.963553
9281.000000;0.962567
9280.000000;0.961596
9279.000000;0.960917
9278.000000;0.960485
9277.000000;0.960056
9276.000000;0.959458
9275.000000;0.958739
9274.000000;0.958160
9273.000000;0.958022
9272.000000;0.958396
9271.000000;0.958988
9270.000000;0.959368
9269.000000;0.959350
9268.000000;0.959071
9267.000000;0.958715
9266.000000;0.958301
9265.000000;0.957788
9264.000000;0.957237
9263.000000;0.956778
9262.000000;0.956459
9261.000000;0.956196
9260.000000;0.955840
9259.000000;0.955278
9258.000000;0.954527
9257.000000;0.953769
9256.000000;0.953234
9255.000000;0.952974
9254.000000;0.952783
9253.000000;0.952417
9252.000000;0.951924
9251.000000;0.951658
9250.000000;0.951915
9249.000000;0.952581
9248.000000;0.953201
9247.000000;0.953367
9246.000000;0.952964
9245.000000;0.952094
9244.000000;0.950934
9243.000000;0.949749
9242.000000;0.948844
9241.000000;0.948330
9240.000000;0.948015
9239.000000;0.947694
9238.000000;0.947472
9237.000000;0.947535
9236.000000;0.947649
9235.000000;0.947226
9234.000000;0.946036
9233.000000;0.944623
9232.000000;0.943774
9231.000000;0.943705
9230.000000;0.943946
9229.000000;0.943954
9228.000000;0.943614
9227.000000;0.943196
9226.000000;0.942998
9225.000000;0.943067
9224.000000;0.943115
9223.000000;0.942718
9222.000000;0.941752
9221.000000;0.940654
9220.000000;0.940098
9219.000000;0.940343
9218.000000;0.940967
9217.000000;0.941274
9216.000000;0.940920
9215.000000;0.940129
9214.000000;0.939377
9213.000000;0.938947
9212.000000;0.938810
9211.000000;0.938834
9210.000000;0.938992
9209.000000;0.939276
9208.000000;0.939464
9207.000000;0.939195
9206.000000;0.938340
9205.000000;0.937187
9204.000000;0.936148
9203.000000;0.935404
9202.000000;0.934911
9201.000000;0.934602
9200.000000;0.934420
9199.000000;0.934283
9198.000000;0.934163
9197.000000;0.934120
9196.000000;0.934110
9195.000000;0.933848
9194.000000;0.933085
9193.000000;0.931964
9192.000000;0.930887
9191.000000;0.930053
9190.000000;0.929359
9189.000000;0.928754
9188.000000;0.928380
9187.000000;0.928298
9186.000000;0.928351
9185.000000;0.928411
9184.000000;0.928571
9183.000000;0.928938
9182.000000;0.929423
9181.000000;0.929916
9180.000000;0.930466
9179.000000;0.931071
9178.000000;0.931394
9177.000000;0.930979
9176.000000;0.929789
9175.000000;0.928357
9174.000000;0.927328
9173.000000;0.926908
9172.000000;0.926822
9171.000000;0.926742
9170.000000;0.926630
9169.000000;0.926580
9168.000000;0.926410
9167.000000;0.925693
9166.000000;0.924340
9165.000000;0.922946
9164.000000;0.922260
9163.000000;0.922376
9162.000000;0.922766
9161.000000;0.923038
9160.000000;0.923275
9159.000000;0.923524
9158.000000;0.923421
9157.000000;0.922658
9156.000000;0.921558
9155.000000;0.920806
9154.000000;0.920731
9153.000000;0.921127
9152.000000;0.921621
9151.000000;0.921892
9150.000000;0.921627
9149.000000;0.920653
9148.000000;0.919228
9147.000000;0.917961
9146.000000;0.917319
9145.000000;0.917311
9144.000000;0.917622
9143.000000;0.917876
9142.000000;0.917796
9141.000000;0.917314
9140.000000;0.916605
9139.000000;0.915933
9138.000000;0.915466
9137.000000;0.915285
9136.000000;0.915455
9135.000000;0.915902
9134.000000;0.916284
9133.000000;0.916245
9132.000000;0.915812
9131.000000;0.915365
9130.000000;0.915161
9129.000000;0.915058
9128.000000;0.914727
9127.000000;0.914011
9126.000000;0.913054
9125.000000;0.912195
9124.000000;0.911743
9123.000000;0.911707
9122.000000;0.911760
9121.000000;0.911600
9120.000000;0.911303
9119.000000;0.911189
9118.000000;0.911400
9117.000000;0.911785
9116.000000;0.912121
9115.000000;0.912213
9114.000000;0.911830
9113.000000;0.910901
9112.000000;0.909841
9111.000000;0.909314
9110.000000;0.909490
9109.000000;0.909771
9108.000000;0.909475
9107.000000;0.908635
9106.000000;0.907892
9105.000000;0.907714
9104.000000;0.907943
9103.000000;0.908087
9102.000000;0.907893
9101.000000;0.907632
9100.000000;0.907820
9099.000000;0.908598
9098.000000;0.909427
9097.000000;0.909556
9096.000000;0.908845
9095.000000;0.907911
9094.000000;0.907345
9093.000000;0.907035
9092.000000;0.906450
9091.000000;0.905439
9090.000000;0.904466
9089.000000;0.904073
9088.000000;0.904329
9087.000000;0.904831
9086.000000;0.905133
9085.000000;0.905085
9084.000000;0.904825
9083.000000;0.904520
9082.000000;0.904191
9081.000000;0.903806
9080.000000;0.903431
9079.000000;0.903147
9078.000000;0.902845
9077.000000;0.902336
9076.000000;0.901665
9075.000000;0.901102
9074.000000;0.900781
9073.000000;0.900610
9072.000000;0.900557
9071.000000;0.900731
9070.000000;0.901023
9069.000000;0.901007
9068.000000;0.900507
9067.000000;0.900002
9066.000000;0.900082
9065.000000;0.900640
9064.000000;0.900964
9063.000000;0.900570
9062.000000;0.899613
9061.000000;0.898541
9060.000000;0.897688
9059.000000;0.897250
9058.000000;0.897285
9057.000000;0.897604
9056.000000;0.897885
9055.000000;0.898013
9054.000000;0.898094
9053.000000;0.898131
