Criado como novo conjunto de dados;"1909daniel.spp","-4221341.7 Secs"
cm-1;Abs
10000.000000;1.494356
9999.000000;1.491668
9998.000000;1.489002
9997.000000;1.486343
9996.000000;1.483719
9995.000000;1.481070
9994.000000;1.478575
9993.000000;1.476921
9992.000000;1.476463
9991.000000;1.477125
9990.000000;1.478422
9989.000000;1.479801
9988.000000;1.480813
9987.000000;1.481209
9986.000000;1.480967
9985.000000;1.480230
9984.000000;1.479247
9983.000000;1.478420
9982.000000;1.478135
9981.000000;1.478238
9980.000000;1.477855
9979.000000;1.476349
9978.000000;1.474465
9977.000000;1.473740
9976.000000;1.474535
9975.000000;1.475351
9974.000000;1.474641
9973.000000;1.472782
9972.000000;1.471461
9971.000000;1.471467
9970.000000;1.472049
9969.000000;1.472305
9968.000000;1.472141
9967.000000;1.471608
9966.000000;1.470356
9965.000000;1.468366
9964.000000;1.466474
9963.000000;1.465389
9962.000000;1.464665
9961.000000;1.463361
9960.000000;1.461417
9959.000000;1.459678
9958.000000;1.458743
9957.000000;1.458518
9956.000000;1.458859
9955.000000;1.459940
9954.000000;1.461682
9953.000000;1.463294
9952.000000;1.463663
9951.000000;1.461990
9950.000000;1.458137
9949.000000;1.452919
9948.000000;1.448176
9947.000000;1.445790
9946.000000;1.446123
9945.000000;1.447632
9944.000000;1.448487
9943.000000;1.448437
9942.000000;1.448643
9941.000000;1.449965
9940.000000;1.451992
9939.000000;1.453580
9938.000000;1.453809
9937.000000;1.452421
9936.000000;1.449889
9935.000000;1.447272
9934.000000;1.445584
9933.000000;1.445086
9932.000000;1.445317
9931.000000;1.445699
9930.000000;1.445778
9929.000000;1.445089
9928.000000;1.443471
9927.000000;1.441747
9926.000000;1.441433
9925.000000;1.443184
9924.000000;1.445709
9923.000000;1.446707
9922.000000;1.444903
9921.000000;1.440970
9920.000000;1.436761
9919.000000;1.433960
9918.000000;1.433120
9917.000000;1.433424
9916.000000;1.433393
9915.000000;1.432304
9914.000000;1.430902
9913.000000;1.430411
9912.000000;1.431018
9911.000000;1.431685
9910.000000;1.431335
9909.000000;1.429850
9908.000000;1.427967
9907.000000;1.426663
9906.000000;1.426607
9905.000000;1.427716
9904.000000;1.429077
9903.000000;1.429609
9902.000000;1.428906
9901.000000;1.427338
9900.000000;1.425521
9899.000000;1.424083
9898.000000;1.423593
9897.000000;1.424046
9896.000000;1.424483
9895.000000;1.423792
9894.000000;1.421980
9893.000000;1.420033
9892.000000;1.418473
9891.000000;1.416817
9890.000000;1.414707
9889.000000;1.412842
9888.000000;1.412266
9887.000000;1.413164
9886.000000;1.414782
9885.000000;1.416159
9884.000000;1.416613
9883.000000;1.415921
9882.000000;1.414507
9881.000000;1.413256
9880.000000;1.412714
9879.000000;1.412562
9878.000000;1.412080
9877.000000;1.410978
9876.000000;1.409589
9875.000000;1.408497
9874.000000;1.408152
9873.000000;1.408589
9872.000000;1.409243
9871.000000;1.409261
9870.000000;1.408276
9869.000000;1.406698
9868.000000;1.405088
9867.000000;1.403704
9866.000000;1.402854
9865.000000;1.403072
9864.000000;1.404309
9863.000000;1.405286
9862.000000;1.404433
9861.000000;1.401595
9860.000000;1.398288
9859.000000;1.396180
9858.000000;1.395719
9857.000000;1.396124
9856.000000;1.396302
9855.000000;1.395760
9854.000000;1.394889
9853.000000;1.394469
9852.000000;1.394839
9851.000000;1.395581
9850.000000;1.396062
9849.000000;1.396054
9848.000000;1.395665
9847.000000;1.394968
9846.000000;1.394039
9845.000000;1.393122
9844.000000;1.392407
9843.000000;1.391751
9842.000000;1.390959
9841.000000;1.390237
9840.000000;1.390073
9839.000000;1.390601
9838.000000;1.391282
9837.000000;1.391290
9836.000000;1.390158
9835.000000;1.388154
9834.000000;1.386057
9833.000000;1.384355
9832.000000;1.382731
9831.000000;1.380630
9830.000000;1.378302
9829.000000;1.376686
9828.000000;1.376053
9827.000000;1.375508
9826.000000;1.374333
9825.000000;1.373168
9824.000000;1.373082
9823.000000;1.373888
9822.000000;1.374281
9821.000000;1.373557
9820.000000;1.372314
9819.000000;1.371411
9818.000000;1.371152
9817.000000;1.371610
9816.000000;1.372837
9815.000000;1.374292
9814.000000;1.374804
9813.000000;1.373769
9812.000000;1.371959
9811.000000;1.370574
9810.000000;1.369844
9809.000000;1.369057
9808.000000;1.367747
9807.000000;1.366290
9806.000000;1.365317
9805.000000;1.364946
9804.000000;1.364681
9803.000000;1.363880
9802.000000;1.362294
9801.000000;1.360251
9800.000000;1.358340
9799.000000;1.356917
9798.000000;1.355966
9797.000000;1.355345
9796.000000;1.354983
9795.000000;1.354872
9794.000000;1.355056
9793.000000;1.355687
9792.000000;1.356904
9791.000000;1.358463
9790.000000;1.359680
9789.000000;1.359973
9788.000000;1.359383
9787.000000;1.358368
9786.000000;1.357258
9785.000000;1.356022
9784.000000;1.354448
9783.000000;1.352466
9782.000000;1.350382
9781.000000;1.348816
9780.000000;1.348202
9779.000000;1.348294
9778.000000;1.348383
9777.000000;1.348128
9776.000000;1.347855
9775.000000;1.347817
9774.000000;1.347502
9773.000000;1.346179
9772.000000;1.344004
9771.000000;1.342022
9770.000000;1.340990
9769.000000;1.340667
9768.000000;1.340461
9767.000000;1.340307
9766.000000;1.340441
9765.000000;1.340615
9764.000000;1.340163
9763.000000;1.338924
9762.000000;1.337566
9761.000000;1.336735
9760.000000;1.336267
9759.000000;1.335570
9758.000000;1.334518
9757.000000;1.333489
9756.000000;1.332616
9755.000000;1.331543
9754.000000;1.330096
9753.000000;1.328810
9752.000000;1.328445
9751.000000;1.329132
9750.000000;1.330214
9749.000000;1.330889
9748.000000;1.330856
9747.000000;1.330363
9746.000000;1.329796
9745.000000;1.329292
9744.000000;1.328745
9743.000000;1.328104
9742.000000;1.327533
9741.000000;1.327141
9740.000000;1.326681
9739.000000;1.325734
9738.000000;1.324209
9737.000000;1.322518
9736.000000;1.321251
9735.000000;1.320809
9734.000000;1.321258
9733.000000;1.322222
9732.000000;1.322909
9731.000000;1.322629
9730.000000;1.321443
9729.000000;1.320050
9728.000000;1.318936
9727.000000;1.317995
9726.000000;1.317085
9725.000000;1.316418
9724.000000;1.316020
9723.000000;1.315273
9722.000000;1.313619
9721.000000;1.311571
9720.000000;1.310363
9719.000000;1.310568
9718.000000;1.311555
9717.000000;1.312407
9716.000000;1.312909
9715.000000;1.313334
9714.000000;1.313607
9713.000000;1.313231
9712.000000;1.311963
9711.000000;1.310203
9710.000000;1.308559
9709.000000;1.307202
9708.000000;1.305842
9707.000000;1.304340
9706.000000;1.303120
9705.000000;1.302728
9704.000000;1.303069
9703.000000;1.303334
9702.000000;1.302830
9701.000000;1.301695
9700.000000;1.300644
9699.000000;1.300165
9698.000000;1.300124
9697.000000;1.300059
9696.000000;1.299667
9695.000000;1.299025
9694.000000;1.298478
9693.000000;1.298308
9692.000000;1.298465
9691.000000;1.298656
9690.000000;1.298657
9689.000000;1.298369
9688.000000;1.297544
9687.000000;1.295842
9686.000000;1.293436
9685.000000;1.291305
9684.000000;1.290527
9683.000000;1.291246
9682.000000;1.292505
9681.000000;1.293054
9680.000000;1.292314
9679.000000;1.290713
9678.000000;1.289266
9677.000000;1.288776
9676.000000;1.289182
9675.000000;1.289656
9674.000000;1.289376
9673.000000;1.288126
9672.000000;1.286174
9671.000000;1.283903
9670.000000;1.281777
9669.000000;1.280347
9668.000000;1.279966
9667.000000;1.280516
9666.000000;1.281560
9665.000000;1.282582
9664.000000;1.282987
9663.000000;1.282229
9662.000000;1.280365
9661.000000;1.278263
9660.000000;1.276843
9659.000000;1.276242
9658.000000;1.276044
9657.000000;1.276037
9656.000000;1.276201
9655.000000;1.276109
9654.000000;1.275030
9653.000000;1.272856
9652.000000;1.270455
9651.000000;1.268812
9650.000000;1.268163
9649.000000;1.268114
9648.000000;1.268248
9647.000000;1.268335
9646.000000;1.268210
9645.000000;1.267759
9644.000000;1.267017
9643.000000;1.266157
9642.000000;1.265482
9641.000000;1.265397
9640.000000;1.266142
9639.000000;1.267435
9638.000000;1.268559
9637.000000;1.268929
9636.000000;1.268394
9635.000000;1.267022
9634.000000;1.264938
9633.000000;1.262566
9632.000000;1.260697
9631.000000;1.259945
9630.000000;1.260217
9629.000000;1.260853
9628.000000;1.261203
9627.000000;1.260964
9626.000000;1.260163
9625.000000;1.259073
9624.000000;1.258094
9623.000000;1.257470
9622.000000;1.257080
9621.000000;1.256660
9620.000000;1.256238
9619.000000;1.256160
9618.000000;1.256544
9617.000000;1.256876
9616.000000;1.256369
9615.000000;1.254757
9614.000000;1.252593
9613.000000;1.250676
9612.000000;1.249320
9611.000000;1.248340
9610.000000;1.247584
9609.000000;1.247144
9608.000000;1.247003
9607.000000;1.246837
9606.000000;1.246425
9605.000000;1.246009
9604.000000;1.245927
9603.000000;1.246067
9602.000000;1.245998
9601.000000;1.245563
9600.000000;1.244997
9599.000000;1.244522
9598.000000;1.244196
9597.000000;1.244095
9596.000000;1.244170
9595.000000;1.243847
9594.000000;1.242363
9593.000000;1.239860
9592.000000;1.237707
9591.000000;1.237199
9590.000000;1.238165
9589.000000;1.239202
9588.000000;1.239184
9587.000000;1.238139
9586.000000;1.236724
9585.000000;1.235388
9584.000000;1.234294
9583.000000;1.233612
9582.000000;1.233508
9581.000000;1.233925
9580.000000;1.234605
9579.000000;1.235186
9578.000000;1.235134
9577.000000;1.233851
9576.000000;1.231253
9575.000000;1.228255
9574.000000;1.226303
9573.000000;1.226224
9572.000000;1.227621
9571.000000;1.229343
9570.000000;1.230367
9569.000000;1.230230
9568.000000;1.228956
9567.000000;1.226879
9566.000000;1.224465
9565.000000;1.222131
9564.000000;1.220199
9563.000000;1.219018
9562.000000;1.218903
9561.000000;1.219672
9560.000000;1.220469
9559.000000;1.220453
9558.000000;1.219687
9557.000000;1.218959
9556.000000;1.218723
9555.000000;1.218621
9554.000000;1.218136
9553.000000;1.217307
9552.000000;1.216532
9551.000000;1.216033
9550.000000;1.215826
9549.000000;1.215966
9548.000000;1.216428
9547.000000;1.216831
9546.000000;1.216647
9545.000000;1.215722
9544.000000;1.214379
9543.000000;1.213019
9542.000000;1.211832
9541.000000;1.210859
9540.000000;1.210113
9539.000000;1.209535
9538.000000;1.208942
9537.000000;1.208103
9536.000000;1.206938
9535.000000;1.205656
9534.000000;1.204635
9533.000000;1.204053
9532.000000;1.203761
9531.000000;1.203612
9530.000000;1.203787
9529.000000;1.204457
9528.000000;1.205161
9527.000000;1.204995
9526.000000;1.203740
9525.000000;1.202316
9524.000000;1.201667
9523.000000;1.201555
9522.000000;1.201009
9521.000000;1.199769
9520.000000;1.198653
9519.000000;1.198440
9518.000000;1.198990
9517.000000;1.199635
9516.000000;1.199935
9515.000000;1.199723
9514.000000;1.198860
9513.000000;1.197457
9512.000000;1.196197
9511.000000;1.195942
9510.000000;1.196871
9509.000000;1.198156
9508.000000;1.198619
9507.000000;1.197725
9506.000000;1.195929
9505.000000;1.194139
9504.000000;1.192903
9503.000000;1.192050
9502.000000;1.190999
9501.000000;1.189364
9500.000000;1.187346
9499.000000;1.185585
9498.000000;1.184629
9497.000000;1.184533
9496.000000;1.184984
9495.000000;1.185760
9494.000000;1.186838
9493.000000;1.187949
9492.000000;1.188333
9491.000000;1.187340
9490.000000;1.185236
9489.000000;1.183029
9488.000000;1.181468
9487.000000;1.180539
9486.000000;1.179951
9485.000000;1.179682
9484.000000;1.179816
9483.000000;1.180178
9482.000000;1.180390
9481.000000;1.180147
9480.000000;1.179357
9479.000000;1.178303
9478.000000;1.177760
9477.000000;1.178384
9476.000000;1.179681
9475.000000;1.180177
9474.000000;1.179121
9473.000000;1.177464
9472.000000;1.176516
9471.000000;1.176229
9470.000000;1.175602
9469.000000;1.174402
9468.000000;1.173390
9467.000000;1.172904
9466.000000;1.172329
9465.000000;1.171244
9464.000000;1.170190
9463.000000;1.169812
9462.000000;1.169984
9461.000000;1.170225
9460.000000;1.170430
9459.000000;1.170675
9458.000000;1.170759
9457.000000;1.170497
9456.000000;1.170142
9455.000000;1.169999
9454.000000;1.169847
9453.000000;1.169216
9452.000000;1.168058
9451.000000;1.166699
9450.000000;1.165309
9449.000000;1.163866
9448.000000;1.162576
9447.000000;1.161874
9446.000000;1.161930
9445.000000;1.162409
9444.000000;1.162819
9443.000000;1.162929
9442.000000;1.162826
9441.000000;1.162646
9440.000000;1.162263
9439.000000;1.161298
9438.000000;1.159609
9437.000000;1.157792
9436.000000;1.156822
9435.000000;1.157038
9434.000000;1.157745
9433.000000;1.158050
9432.000000;1.157806
9431.000000;1.157398
9430.000000;1.156854
9429.000000;1.155710
9428.000000;1.153775
9427.000000;1.151653
9426.000000;1.150348
9425.000000;1.150460
9424.000000;1.151734
9423.000000;1.153249
9422.000000;1.154099
9421.000000;1.154067
9420.000000;1.153563
9419.000000;1.152851
9418.000000;1.151652
9417.000000;1.149736
9416.000000;1.147564
9415.000000;1.145890
9414.000000;1.144939
9413.000000;1.144397
9412.000000;1.144068
9411.000000;1.144028
9410.000000;1.144121
9409.000000;1.143916
9408.000000;1.143345
9407.000000;1.142911
9406.000000;1.142969
9405.000000;1.143184
9404.000000;1.143032
9403.000000;1.142539
9402.000000;1.142143
9401.000000;1.141964
9400.000000;1.141607
9399.000000;1.140709
9398.000000;1.139472
9397.000000;1.138573
9396.000000;1.138574
9395.000000;1.139352
9394.000000;1.140056
9393.000000;1.139833
9392.000000;1.138698
9391.000000;1.137480
9390.000000;1.136798
9389.000000;1.136386
9388.000000;1.135694
9387.000000;1.134865
9386.000000;1.134622
9385.000000;1.135247
9384.000000;1.136146
9383.000000;1.136555
9382.000000;1.136314
9381.000000;1.135699
9380.000000;1.134854
9379.000000;1.133752
9378.000000;1.132556
9377.000000;1.131585
9376.000000;1.130880
9375.000000;1.130101
9374.000000;1.129050
9373.000000;1.128086
9372.000000;1.127811
9371.000000;1.128395
9370.000000;1.129323
9369.000000;1.129822
9368.000000;1.129488
9367.000000;1.128474
9366.000000;1.127191
9365.000000;1.125963
9364.000000;1.124993
9363.000000;1.124482
9362.000000;1.124566
9361.000000;1.125043
9360.000000;1.125299
9359.000000;1.124728
9358.000000;1.123319
9357.000000;1.121742
9356.000000;1.120725
9355.000000;1.120347
9354.000000;1.120027
9353.000000;1.119195
9352.000000;1.117891
9351.000000;1.116672
9350.000000;1.115992
9349.000000;1.115802
9348.000000;1.115714
9347.000000;1.115415
9346.000000;1.114859
9345.000000;1.114180
9344.000000;1.113549
9343.000000;1.113146
9342.000000;1.113126
9341.000000;1.113493
9340.000000;1.114010
9339.000000;1.114265
9338.000000;1.113995
9337.000000;1.113374
9336.000000;1.112913
9335.000000;1.112967
9334.000000;1.113310
9333.000000;1.113297
9332.000000;1.112480
9331.000000;1.111024
9330.000000;1.109504
9329.000000;1.108406
9328.000000;1.107877
9327.000000;1.107780
9326.000000;1.107795
9325.000000;1.107557
9324.000000;1.106938
9323.000000;1.106224
9322.000000;1.105847
9321.000000;1.105912
9320.000000;1.106110
9319.000000;1.106082
9318.000000;1.105697
9317.000000;1.105022
9316.000000;1.104266
9315.000000;1.103780
9314.000000;1.103828
9313.000000;1.104230
9312.000000;1.104445
9311.000000;1.104171
9310.000000;1.103657
9309.000000;1.103234
9308.000000;1.102810
9307.000000;1.102146
9306.000000;1.101460
9305.000000;1.101346
9304.000000;1.102064
9303.000000;1.103196
9302.000000;1.104035
9301.000000;1.104063
9300.000000;1.103104
9299.000000;1.101419
9298.000000;1.099747
9297.000000;1.098915
9296.000000;1.099077
9295.000000;1.099508
9294.000000;1.099371
9293.000000;1.098616
9292.000000;1.097903
9291.000000;1.097756
9290.000000;1.098004
9289.000000;1.098085
9288.000000;1.097684
9287.000000;1.096989
9286.000000;1.096446
9285.000000;1.096347
9284.000000;1.096603
9283.000000;1.096738
9282.000000;1.096140
9281.000000;1.094505
9280.000000;1.092260
9279.000000;1.090481
9278.000000;1.090072
9277.000000;1.090843
9276.000000;1.091576
9275.000000;1.091250
9274.000000;1.090135
9273.000000;1.089364
9272.000000;1.089493
9271.000000;1.089900
9270.000000;1.089718
9269.000000;1.088985
9268.000000;1.088441
9267.000000;1.088384
9266.000000;1.088208
9265.000000;1.087251
9264.000000;1.085787
9263.000000;1.084839
9262.000000;1.085037
9261.000000;1.085940
9260.000000;1.086566
9259.000000;1.086411
9258.000000;1.085775
9257.000000;1.085149
9256.000000;1.084645
9255.000000;1.084119
9254.000000;1.083599
9253.000000;1.083307
9252.000000;1.083324
9251.000000;1.083482
9250.000000;1.083612
9249.000000;1.083745
9248.000000;1.083986
9247.000000;1.084310
9246.000000;1.084452
9245.000000;1.083997
9244.000000;1.082667
9243.000000;1.080708
9242.000000;1.078911
9241.000000;1.078075
9240.000000;1.078415
9239.000000;1.079495
9238.000000;1.080586
9237.000000;1.080952
9236.000000;1.080124
9235.000000;1.078293
9234.000000;1.076416
9233.000000;1.075510
9232.000000;1.075710
9231.000000;1.076196
9230.000000;1.076122
9229.000000;1.075342
9228.000000;1.074215
9227.000000;1.073100
9226.000000;1.072277
9225.000000;1.072012
9224.000000;1.072300
9223.000000;1.072669
9222.000000;1.072572
9221.000000;1.071948
9220.000000;1.071222
9219.000000;1.070825
9218.000000;1.070870
9217.000000;1.071182
9216.000000;1.071386
9215.000000;1.071029
9214.000000;1.069911
9213.000000;1.068358
9212.000000;1.067029
9211.000000;1.066422
9210.000000;1.066565
9209.000000;1.067089
9208.000000;1.067486
9207.000000;1.067418
9206.000000;1.066960
9205.000000;1.066574
9204.000000;1.066726
9203.000000;1.067461
9202.000000;1.068353
9201.000000;1.068857
9200.000000;1.068685
9199.000000;1.067962
9198.000000;1.067132
9197.000000;1.066600
9196.000000;1.066312
9195.000000;1.065769
9194.000000;1.064605
9193.000000;1.063096
9192.000000;1.061929
9191.000000;1.061504
9190.000000;1.061633
9189.000000;1.061897
9188.000000;1.062090
9187.000000;1.062240
9186.000000;1.062388
9185.000000;1.062502
9184.000000;1.062540
9183.000000;1.062463
9182.000000;1.062189
9181.000000;1.061671
9180.000000;1.061066
9179.000000;1.060690
9178.000000;1.060691
9177.000000;1.060834
9176.000000;1.060751
9175.000000;1.060378
9174.000000;1.059956
9173.000000;1.059585
9172.000000;1.059042
9171.000000;1.058178
9170.000000;1.057259
9169.000000;1.056699
9168.000000;1.056588
9167.000000;1.056736
9166.000000;1.057051
9165.000000;1.057506
9164.000000;1.057780
9163.000000;1.057378
9162.000000;1.056291
9161.000000;1.055195
9160.000000;1.054709
9159.000000;1.054665
9158.000000;1.054367
9157.000000;1.053460
9156.000000;1.052302
9155.000000;1.051518
9154.000000;1.051419
9153.000000;1.051876
9152.000000;1.052549
9151.000000;1.053088
9150.000000;1.053167
9149.000000;1.052516
9148.000000;1.051149
9147.000000;1.049573
9146.000000;1.048509
9145.000000;1.048190
9144.000000;1.048082
9143.000000;1.047534
9142.000000;1.046647
9141.000000;1.046160
9140.000000;1.046512
9139.000000;1.047357
9138.000000;1.048066
9137.000000;1.048415
9136.000000;1.048619
9135.000000;1.048940
9134.000000;1.049426
9133.000000;1.049851
9132.000000;1.049792
9131.000000;1.048962
9130.000000;1.047626
9129.000000;1.046495
9128.000000;1.046054
9127.000000;1.046143
9126.000000;1.046336
9125.000000;1.046510
9124.000000;1.046824
9123.000000;1.047285
9122.000000;1.047605
9121.000000;1.047518
9120.000000;1.047130
9119.000000;1.046885
9118.000000;1.047120
9117.000000;1.047595
9116.000000;1.047638
9115.000000;1.046899
9114.000000;1.045798
9113.000000;1.044957
9112.000000;1.044379
9111.000000;1.043619
9110.000000;1.042624
9109.000000;1.041878
9108.000000;1.041677
9107.000000;1.041831
9106.000000;1.042193
9105.000000;1.042832
9104.000000;1.043408
9103.000000;1.043063
9102.000000;1.041505
9101.000000;1.039726
9100.000000;1.039010
9099.000000;1.039481
9098.000000;1.040201
9097.000000;1.040457
9096.000000;1.040329
9095.000000;1.040064
9094.000000;1.039603
9093.000000;1.038907
9092.000000;1.038235
9091.000000;1.037831
9090.000000;1.037591
9089.000000;1.037231
9088.000000;1.036617
9087.000000;1.035880
9086.000000;1.035310
9085.000000;1.035118
9084.000000;1.035196
9083.000000;1.035224
9082.000000;1.035149
9081.000000;1.035359
9080.000000;1.036120
9079.000000;1.037004
9078.000000;1.037204
9077.000000;1.036415
9076.000000;1.035127
9075.000000;1.034109
9074.000000;1.033842
9073.000000;1.034335
9072.000000;1.035169
9071.000000;1.035725
9070.000000;1.035630
9069.000000;1.034983
9068.000000;1.034027
9067.000000;1.032825
9066.000000;1.031539
9065.000000;1.030689
9064.000000;1.030675
9063.000000;1.031164
9062.000000;1.031501
9061.000000;1.031652
9060.000000;1.032190
9059.000000;1.033241
9058.000000;1.034050
9057.000000;1.033829
9056.000000;1.032667
9055.000000;1.031327
9054.000000;1.030501
9053.000000;1.030483
