Criado como novo conjunto de dados;"1909daniel.spp","-4237002.2 Secs"
cm-1;Abs
10000.000000;1.703033
9999.000000;1.703002
9998.000000;1.702992
9997.000000;1.702938
9996.000000;1.703095
9995.000000;1.703482
9994.000000;1.703916
9993.000000;1.704026
9992.000000;1.703051
9991.000000;1.701103
9990.000000;1.699461
9989.000000;1.698941
9988.000000;1.698515
9987.000000;1.696660
9986.000000;1.693702
9985.000000;1.691579
9984.000000;1.691330
9983.000000;1.691955
9982.000000;1.692001
9981.000000;1.691404
9980.000000;1.691168
9979.000000;1.691817
9978.000000;1.692774
9977.000000;1.692996
9976.000000;1.692009
9975.000000;1.690445
9974.000000;1.689616
9973.000000;1.690397
9972.000000;1.692430
9971.000000;1.694465
9970.000000;1.695481
9969.000000;1.695303
9968.000000;1.694192
9967.000000;1.692301
9966.000000;1.689789
9965.000000;1.687164
9964.000000;1.685134
9963.000000;1.684051
9962.000000;1.683560
9961.000000;1.682923
9960.000000;1.681798
9959.000000;1.680626
9958.000000;1.680042
9957.000000;1.679898
9956.000000;1.679332
9955.000000;1.678012
9954.000000;1.676897
9953.000000;1.677188
9952.000000;1.678730
9951.000000;1.679974
9950.000000;1.679520
9949.000000;1.677226
9948.000000;1.673897
9947.000000;1.670539
9946.000000;1.667963
9945.000000;1.666364
9944.000000;1.665015
9943.000000;1.662935
9942.000000;1.660289
9941.000000;1.658669
9940.000000;1.659430
9939.000000;1.661986
9938.000000;1.664194
9937.000000;1.664497
9936.000000;1.663253
9935.000000;1.661843
9934.000000;1.660957
9933.000000;1.660113
9932.000000;1.658597
9931.000000;1.656427
9930.000000;1.654250
9929.000000;1.652543
9928.000000;1.651347
9927.000000;1.650771
9926.000000;1.651266
9925.000000;1.652992
9924.000000;1.655050
9923.000000;1.655912
9922.000000;1.655030
9921.000000;1.653585
9920.000000;1.653158
9919.000000;1.654050
9918.000000;1.655250
9917.000000;1.655620
9916.000000;1.654635
9915.000000;1.652410
9914.000000;1.649732
9913.000000;1.647850
9912.000000;1.647529
9911.000000;1.648084
9910.000000;1.647848
9909.000000;1.646027
9908.000000;1.643611
9907.000000;1.641986
9906.000000;1.641123
9905.000000;1.639763
9904.000000;1.637161
9903.000000;1.634022
9902.000000;1.631715
9901.000000;1.631065
9900.000000;1.631963
9899.000000;1.633696
9898.000000;1.635418
9897.000000;1.636528
9896.000000;1.636810
9895.000000;1.636198
9894.000000;1.634662
9893.000000;1.632576
9892.000000;1.630881
9891.000000;1.630315
9890.000000;1.630570
9889.000000;1.630770
9888.000000;1.630801
9887.000000;1.631399
9886.000000;1.632683
9885.000000;1.633406
9884.000000;1.632345
9883.000000;1.630044
9882.000000;1.628352
9881.000000;1.628362
9880.000000;1.629395
9879.000000;1.629889
9878.000000;1.628856
9877.000000;1.626590
9876.000000;1.624364
9875.000000;1.623470
9874.000000;1.624142
9873.000000;1.625225
9872.000000;1.625132
9871.000000;1.623304
9870.000000;1.620571
9869.000000;1.618189
9868.000000;1.616844
9867.000000;1.616479
9866.000000;1.616564
9865.000000;1.616493
9864.000000;1.616007
9863.000000;1.615264
9862.000000;1.614323
9861.000000;1.612783
9860.000000;1.610381
9859.000000;1.607898
9858.000000;1.606832
9857.000000;1.607790
9856.000000;1.609575
9855.000000;1.610265
9854.000000;1.609123
9853.000000;1.607138
9852.000000;1.605852
9851.000000;1.606002
9850.000000;1.607160
9849.000000;1.608207
9848.000000;1.608046
9847.000000;1.606192
9846.000000;1.603015
9845.000000;1.599584
9844.000000;1.597208
9843.000000;1.596751
9842.000000;1.598025
9841.000000;1.599744
9840.000000;1.600293
9839.000000;1.598877
9838.000000;1.596144
9837.000000;1.593761
9836.000000;1.593252
9835.000000;1.594841
9834.000000;1.597062
9833.000000;1.597729
9832.000000;1.595824
9831.000000;1.592520
9830.000000;1.590030
9829.000000;1.589445
9828.000000;1.589853
9827.000000;1.589587
9826.000000;1.588073
9825.000000;1.586300
9824.000000;1.585666
9823.000000;1.586639
9822.000000;1.588414
9821.000000;1.589587
9820.000000;1.589133
9819.000000;1.587024
9818.000000;1.584246
9817.000000;1.582280
9816.000000;1.582274
9815.000000;1.584213
9814.000000;1.586696
9813.000000;1.587849
9812.000000;1.586812
9811.000000;1.584232
9810.000000;1.581242
9809.000000;1.578359
9808.000000;1.575677
9807.000000;1.573693
9806.000000;1.573194
9805.000000;1.574177
9804.000000;1.575396
9803.000000;1.575364
9802.000000;1.573740
9801.000000;1.571546
9800.000000;1.570092
9799.000000;1.569860
9798.000000;1.570282
9797.000000;1.570380
9796.000000;1.569646
9795.000000;1.568385
9794.000000;1.567234
9793.000000;1.566489
9792.000000;1.565996
9791.000000;1.565535
9790.000000;1.565096
9789.000000;1.564731
9788.000000;1.564356
9787.000000;1.563817
9786.000000;1.563065
9785.000000;1.562136
9784.000000;1.561031
9783.000000;1.559701
9782.000000;1.558137
9781.000000;1.556468
9780.000000;1.555063
9779.000000;1.554527
9778.000000;1.555321
9777.000000;1.557187
9776.000000;1.559030
9775.000000;1.559679
9774.000000;1.558879
9773.000000;1.557401
9772.000000;1.556130
9771.000000;1.555260
9770.000000;1.554408
9769.000000;1.553290
9768.000000;1.552081
9767.000000;1.551176
9766.000000;1.550800
9765.000000;1.550908
9764.000000;1.551297
9763.000000;1.551593
9762.000000;1.551301
9761.000000;1.550087
9760.000000;1.548046
9759.000000;1.545746
9758.000000;1.543946
9757.000000;1.543161
9756.000000;1.543410
9755.000000;1.544167
9754.000000;1.544603
9753.000000;1.544227
9752.000000;1.543285
9751.000000;1.542233
9750.000000;1.540933
9749.000000;1.538777
9748.000000;1.535721
9747.000000;1.532788
9746.000000;1.531247
9745.000000;1.531421
9744.000000;1.532475
9743.000000;1.533243
9742.000000;1.533215
9741.000000;1.532887
9740.000000;1.533214
9739.000000;1.534574
9738.000000;1.536216
9737.000000;1.536923
9736.000000;1.536266
9735.000000;1.534861
9734.000000;1.533378
9733.000000;1.531807
9732.000000;1.529980
9731.000000;1.528401
9730.000000;1.527916
9729.000000;1.528592
9728.000000;1.529314
9727.000000;1.528700
9726.000000;1.526415
9725.000000;1.523530
9724.000000;1.521536
9723.000000;1.520992
9722.000000;1.521204
9721.000000;1.521201
9720.000000;1.520742
9719.000000;1.520059
9718.000000;1.518994
9717.000000;1.517196
9716.000000;1.515196
9715.000000;1.514367
9714.000000;1.515323
9713.000000;1.516917
9712.000000;1.517369
9711.000000;1.516047
9710.000000;1.513683
9709.000000;1.511275
9708.000000;1.509501
9707.000000;1.508801
9706.000000;1.509150
9705.000000;1.509728
9704.000000;1.509487
9703.000000;1.508264
9702.000000;1.506880
9701.000000;1.506100
9700.000000;1.505948
9699.000000;1.505993
9698.000000;1.505802
9697.000000;1.505009
9696.000000;1.503450
9695.000000;1.501504
9694.000000;1.500020
9693.000000;1.499691
9692.000000;1.500441
9691.000000;1.501366
9690.000000;1.501316
9689.000000;1.499817
9688.000000;1.497555
9687.000000;1.495693
9686.000000;1.494571
9685.000000;1.493514
9684.000000;1.492178
9683.000000;1.491507
9682.000000;1.492678
9681.000000;1.495448
9680.000000;1.498195
9679.000000;1.499484
9678.000000;1.498938
9677.000000;1.496820
9676.000000;1.493811
9675.000000;1.491228
9674.000000;1.490327
9673.000000;1.490986
9672.000000;1.491717
9671.000000;1.491387
9670.000000;1.490364
9669.000000;1.489629
9668.000000;1.489504
9667.000000;1.489756
9666.000000;1.490258
9665.000000;1.490818
9664.000000;1.490775
9663.000000;1.489565
9662.000000;1.487566
9661.000000;1.485802
9660.000000;1.484788
9659.000000;1.484053
9658.000000;1.482789
9657.000000;1.480715
9656.000000;1.478348
9655.000000;1.476578
9654.000000;1.475939
9653.000000;1.476178
9652.000000;1.476593
9651.000000;1.476791
9650.000000;1.476867
9649.000000;1.476835
9648.000000;1.476372
9647.000000;1.475360
9646.000000;1.474349
9645.000000;1.473964
9644.000000;1.473999
9643.000000;1.473572
9642.000000;1.472190
9641.000000;1.470393
9640.000000;1.469303
9639.000000;1.469640
9638.000000;1.471166
9637.000000;1.472962
9636.000000;1.474149
9635.000000;1.474329
9634.000000;1.473484
9633.000000;1.471833
9632.000000;1.469999
9631.000000;1.468915
9630.000000;1.468934
9629.000000;1.469071
9628.000000;1.467760
9627.000000;1.464704
9626.000000;1.461470
9625.000000;1.459803
9624.000000;1.459748
9623.000000;1.459887
9622.000000;1.459183
9621.000000;1.458075
9620.000000;1.457635
9619.000000;1.458077
9618.000000;1.458442
9617.000000;1.457672
9616.000000;1.455714
9615.000000;1.453504
9614.000000;1.452001
9613.000000;1.451384
9612.000000;1.451202
9611.000000;1.451055
9610.000000;1.450857
9609.000000;1.450587
9608.000000;1.450331
9607.000000;1.450561
9606.000000;1.451824
9605.000000;1.453825
9604.000000;1.455190
9603.000000;1.454695
9602.000000;1.452544
9601.000000;1.449919
9600.000000;1.447490
9599.000000;1.445040
9598.000000;1.442511
9597.000000;1.440651
9596.000000;1.440223
9595.000000;1.440980
9594.000000;1.441935
9593.000000;1.442526
9592.000000;1.442993
9591.000000;1.443514
9590.000000;1.443503
9589.000000;1.442270
9588.000000;1.440173
9587.000000;1.438536
9586.000000;1.438234
9585.000000;1.438735
9584.000000;1.438812
9583.000000;1.437975
9582.000000;1.436845
9581.000000;1.436157
9580.000000;1.435824
9579.000000;1.435166
9578.000000;1.433784
9577.000000;1.431915
9576.000000;1.430107
9575.000000;1.428780
9574.000000;1.428094
9573.000000;1.427991
9572.000000;1.428292
9571.000000;1.428806
9570.000000;1.429375
9569.000000;1.429814
9568.000000;1.429903
9567.000000;1.429555
9566.000000;1.428995
9565.000000;1.428638
9564.000000;1.428666
9563.000000;1.428732
9562.000000;1.428159
9561.000000;1.426472
9560.000000;1.423818
9559.000000;1.420986
9558.000000;1.419057
9557.000000;1.418824
9556.000000;1.420214
9555.000000;1.422155
9554.000000;1.423268
9553.000000;1.422952
9552.000000;1.421715
9551.000000;1.420394
9550.000000;1.419338
9549.000000;1.418545
9548.000000;1.418285
9547.000000;1.419017
9546.000000;1.420578
9545.000000;1.421841
9544.000000;1.421479
9543.000000;1.419056
9542.000000;1.415300
9541.000000;1.411497
9540.000000;1.408708
9539.000000;1.407313
9538.000000;1.406981
9537.000000;1.407095
9536.000000;1.407227
9535.000000;1.407166
9534.000000;1.406650
9533.000000;1.405525
9532.000000;1.404222
9531.000000;1.403659
9530.000000;1.404339
9529.000000;1.405727
9528.000000;1.406715
9527.000000;1.406560
9526.000000;1.405240
9525.000000;1.403212
9524.000000;1.401210
9523.000000;1.400109
9522.000000;1.400419
9521.000000;1.401742
9520.000000;1.402901
9519.000000;1.402761
9518.000000;1.401035
9517.000000;1.398479
9516.000000;1.396369
9515.000000;1.395648
9514.000000;1.396302
9513.000000;1.397484
9512.000000;1.398278
9511.000000;1.398328
9510.000000;1.397745
9509.000000;1.396735
9508.000000;1.395470
9507.000000;1.394169
9506.000000;1.393072
9505.000000;1.392380
9504.000000;1.392273
9503.000000;1.392843
9502.000000;1.393929
9501.000000;1.395102
9500.000000;1.395899
9499.000000;1.395998
9498.000000;1.395283
9497.000000;1.394046
9496.000000;1.393014
9495.000000;1.392666
9494.000000;1.392432
9493.000000;1.391071
9492.000000;1.388112
9491.000000;1.384535
9490.000000;1.381783
9489.000000;1.380561
9488.000000;1.380707
9487.000000;1.381607
9486.000000;1.382350
9485.000000;1.382068
9484.000000;1.380693
9483.000000;1.379082
9482.000000;1.378011
9481.000000;1.377430
9480.000000;1.377052
9479.000000;1.377052
9478.000000;1.377548
9477.000000;1.377950
9476.000000;1.377686
9475.000000;1.377153
9474.000000;1.377017
9473.000000;1.376878
9472.000000;1.375642
9471.000000;1.373230
9470.000000;1.370949
9469.000000;1.369890
9468.000000;1.369961
9467.000000;1.370646
9466.000000;1.371672
9465.000000;1.372540
9464.000000;1.372321
9463.000000;1.370591
9462.000000;1.368031
9461.000000;1.365600
9460.000000;1.363616
9459.000000;1.362047
9458.000000;1.361114
9457.000000;1.360982
9456.000000;1.361205
9455.000000;1.361119
9454.000000;1.360663
9453.000000;1.360316
9452.000000;1.360320
9451.000000;1.360418
9450.000000;1.360332
9449.000000;1.360190
9448.000000;1.360334
9447.000000;1.360808
9446.000000;1.361183
9445.000000;1.360947
9444.000000;1.360110
9443.000000;1.359309
9442.000000;1.359159
9441.000000;1.359526
9440.000000;1.359575
9439.000000;1.358522
9438.000000;1.356258
9437.000000;1.353438
9436.000000;1.351191
9435.000000;1.350520
9434.000000;1.351558
9433.000000;1.353382
9432.000000;1.354840
9431.000000;1.355422
9430.000000;1.355076
9429.000000;1.353673
9428.000000;1.351393
9427.000000;1.349306
9426.000000;1.348547
9425.000000;1.348827
9424.000000;1.348590
9423.000000;1.346926
9422.000000;1.344679
9421.000000;1.343314
9420.000000;1.343392
9419.000000;1.344522
9418.000000;1.346095
9417.000000;1.347417
9416.000000;1.347718
9415.000000;1.346794
9414.000000;1.345435
9413.000000;1.344555
9412.000000;1.344100
9411.000000;1.343323
9410.000000;1.341934
9409.000000;1.340426
9408.000000;1.339346
9407.000000;1.338884
9406.000000;1.339137
9405.000000;1.340084
9404.000000;1.341117
9403.000000;1.341203
9402.000000;1.339929
9401.000000;1.338098
9400.000000;1.336960
9399.000000;1.337045
9398.000000;1.338006
9397.000000;1.339340
9396.000000;1.340791
9395.000000;1.341948
9394.000000;1.341924
9393.000000;1.340013
9392.000000;1.336703
9391.000000;1.333487
9390.000000;1.331450
9389.000000;1.330416
9388.000000;1.329693
9387.000000;1.329231
9386.000000;1.329530
9385.000000;1.330606
9384.000000;1.331663
9383.000000;1.331914
9382.000000;1.331336
9381.000000;1.330521
9380.000000;1.330102
9379.000000;1.330321
9378.000000;1.330784
9377.000000;1.330685
9376.000000;1.329708
9375.000000;1.328614
9374.000000;1.328260
9373.000000;1.328169
9372.000000;1.326950
9371.000000;1.324430
9370.000000;1.322376
9369.000000;1.322462
9368.000000;1.324224
9367.000000;1.325690
9366.000000;1.325592
9365.000000;1.324243
9364.000000;1.322559
9363.000000;1.321178
9362.000000;1.320522
9361.000000;1.320805
9360.000000;1.321640
9359.000000;1.322129
9358.000000;1.321647
9357.000000;1.320347
9356.000000;1.318820
9355.000000;1.317527
9354.000000;1.316614
9353.000000;1.315922
9352.000000;1.315016
9351.000000;1.313551
9350.000000;1.311756
9349.000000;1.310326
9348.000000;1.309737
9347.000000;1.309825
9346.000000;1.310136
9345.000000;1.310480
9344.000000;1.311014
9343.000000;1.311846
9342.000000;1.312690
9341.000000;1.312978
9340.000000;1.312404
9339.000000;1.311394
9338.000000;1.310825
9337.000000;1.311092
9336.000000;1.311557
9335.000000;1.311125
9334.000000;1.309387
9333.000000;1.307052
9332.000000;1.305248
9331.000000;1.304546
9330.000000;1.304658
9329.000000;1.304877
9328.000000;1.304750
9327.000000;1.304365
9326.000000;1.304063
9325.000000;1.303941
9324.000000;1.303813
9323.000000;1.303656
9322.000000;1.303799
9321.000000;1.304440
9320.000000;1.305168
9319.000000;1.305297
9318.000000;1.304653
9317.000000;1.303744
9316.000000;1.303092
9315.000000;1.302618
9314.000000;1.301815
9313.000000;1.300410
9312.000000;1.298747
9311.000000;1.297476
9310.000000;1.296876
9309.000000;1.296568
9308.000000;1.296037
9307.000000;1.295352
9306.000000;1.295056
9305.000000;1.295313
9304.000000;1.295515
9303.000000;1.295011
9302.000000;1.293971
9301.000000;1.293109
9300.000000;1.292706
9299.000000;1.292319
9298.000000;1.291495
9297.000000;1.290418
9296.000000;1.289670
9295.000000;1.289545
9294.000000;1.289753
9293.000000;1.289709
9292.000000;1.289035
9291.000000;1.287917
9290.000000;1.287024
9289.000000;1.287005
9288.000000;1.287961
9287.000000;1.289417
9286.000000;1.290766
9285.000000;1.291644
9284.000000;1.291919
9283.000000;1.291559
9282.000000;1.290733
9281.000000;1.289923
9280.000000;1.289639
9279.000000;1.289871
9278.000000;1.289971
9277.000000;1.289287
9276.000000;1.287851
9275.000000;1.286250
9274.000000;1.284916
9273.000000;1.283865
9272.000000;1.283123
9271.000000;1.282928
9270.000000;1.283243
9269.000000;1.283461
9268.000000;1.283069
9267.000000;1.282341
9266.000000;1.281840
9265.000000;1.281410
9264.000000;1.280406
9263.000000;1.278927
9262.000000;1.278009
9261.000000;1.278272
9260.000000;1.279000
9259.000000;1.278987
9258.000000;1.277884
9257.000000;1.276270
9256.000000;1.274794
9255.000000;1.273890
9254.000000;1.274003
9253.000000;1.275319
9252.000000;1.277153
9251.000000;1.278179
9250.000000;1.277611
9249.000000;1.275950
9248.000000;1.274419
9247.000000;1.273878
9246.000000;1.274281
9245.000000;1.274830
9244.000000;1.274572
9243.000000;1.273256
9242.000000;1.271666
9241.000000;1.270854
9240.000000;1.270986
9239.000000;1.271256
9238.000000;1.270994
9237.000000;1.270460
9236.000000;1.270310
9235.000000;1.270615
9234.000000;1.270854
9233.000000;1.270684
9232.000000;1.270261
9231.000000;1.269759
9230.000000;1.269017
9229.000000;1.267888
9228.000000;1.266678
9227.000000;1.265866
9226.000000;1.265509
9225.000000;1.265273
9224.000000;1.265099
9223.000000;1.265467
9222.000000;1.266698
9221.000000;1.268210
9220.000000;1.268889
9219.000000;1.268265
9218.000000;1.267004
9217.000000;1.266065
9216.000000;1.265663
9215.000000;1.265316
9214.000000;1.264684
9213.000000;1.263979
9212.000000;1.263484
9211.000000;1.263042
9210.000000;1.262305
9209.000000;1.261321
9208.000000;1.260546
9207.000000;1.260191
9206.000000;1.259827
9205.000000;1.258849
9204.000000;1.257300
9203.000000;1.255926
9202.000000;1.255345
9201.000000;1.255424
9200.000000;1.255680
9199.000000;1.256072
9198.000000;1.257001
9197.000000;1.258508
9196.000000;1.259825
9195.000000;1.259953
9194.000000;1.258616
9193.000000;1.256552
9192.000000;1.254897
9191.000000;1.254334
9190.000000;1.254683
9189.000000;1.255147
9188.000000;1.255026
9187.000000;1.254321
9186.000000;1.253601
9185.000000;1.253275
9184.000000;1.253149
9183.000000;1.252775
9182.000000;1.252029
9181.000000;1.251173
9180.000000;1.250475
9179.000000;1.250035
9178.000000;1.249889
9177.000000;1.250027
9176.000000;1.250266
9175.000000;1.250315
9174.000000;1.250079
9173.000000;1.249744
9172.000000;1.249406
9171.000000;1.248777
9170.000000;1.247515
9169.000000;1.245858
9168.000000;1.244699
9167.000000;1.244783
9166.000000;1.245878
9165.000000;1.246905
9164.000000;1.246972
9163.000000;1.246154
9162.000000;1.245193
9161.000000;1.244641
9160.000000;1.244447
9159.000000;1.244230
9158.000000;1.243775
9157.000000;1.243302
9156.000000;1.243370
9155.000000;1.244399
9154.000000;1.246086
9153.000000;1.247396
9152.000000;1.247411
9151.000000;1.246241
9150.000000;1.244912
9149.000000;1.244411
9148.000000;1.244988
9147.000000;1.246239
9146.000000;1.247491
9145.000000;1.248078
9144.000000;1.247560
9143.000000;1.245898
9142.000000;1.243474
9141.000000;1.240968
9140.000000;1.239198
9139.000000;1.238789
9138.000000;1.239647
9137.000000;1.240817
9136.000000;1.241193
9135.000000;1.240420
9134.000000;1.238936
9133.000000;1.237286
9132.000000;1.235823
9131.000000;1.234957
9130.000000;1.235120
9129.000000;1.236231
9128.000000;1.237547
9127.000000;1.238298
9126.000000;1.238288
9125.000000;1.237797
9124.000000;1.237198
9123.000000;1.236788
9122.000000;1.236664
9121.000000;1.236568
9120.000000;1.236109
9119.000000;1.235237
9118.000000;1.234252
9117.000000;1.233318
9116.000000;1.232410
9115.000000;1.231862
9114.000000;1.232360
9113.000000;1.233975
9112.000000;1.235665
9111.000000;1.236281
9110.000000;1.235856
9109.000000;1.235359
9108.000000;1.235387
9107.000000;1.235704
9106.000000;1.235938
9105.000000;1.236041
9104.000000;1.235934
9103.000000;1.235271
9102.000000;1.233897
9101.000000;1.232294
9100.000000;1.231259
9099.000000;1.231166
9098.000000;1.231686
9097.000000;1.232185
9096.000000;1.232317
9095.000000;1.232229
9094.000000;1.232184
9093.000000;1.232052
9092.000000;1.231385
9091.000000;1.230037
9090.000000;1.228462
9089.000000;1.227307
9088.000000;1.226865
9087.000000;1.227038
9086.000000;1.227555
9085.000000;1.227989
9084.000000;1.227868
9083.000000;1.227137
9082.000000;1.226354
9081.000000;1.226100
9080.000000;1.226290
9079.000000;1.226305
9078.000000;1.225723
9077.000000;1.224633
9076.000000;1.223338
9075.000000;1.222125
9074.000000;1.221264
9073.000000;1.220860
9072.000000;1.220702
9071.000000;1.220551
9070.000000;1.220557
9069.000000;1.221079
9068.000000;1.222105
9067.000000;1.223207
9066.000000;1.224068
9065.000000;1.224656
9064.000000;1.224826
9063.000000;1.224211
9062.000000;1.222760
9061.000000;1.221095
9060.000000;1.220006
9059.000000;1.219807
9058.000000;1.220320
9057.000000;1.221226
9056.000000;1.222133
9055.000000;1.222483
9054.000000;1.221799
9053.000000;1.220208
