Criado como novo conjunto de dados;"1909daniel.spp","-4220441.7 Secs"
cm-1;Abs
10000.000000;1.427530
9999.000000;1.428167
9998.000000;1.428805
9997.000000;1.429444
9996.000000;1.430084
9995.000000;1.430724
9994.000000;1.431368
9993.000000;1.432007
9992.000000;1.432664
9991.000000;1.432750
9990.000000;1.432125
9989.000000;1.431294
9988.000000;1.430818
9987.000000;1.430669
9986.000000;1.430373
9985.000000;1.429654
9984.000000;1.428616
9983.000000;1.427394
9982.000000;1.426053
9981.000000;1.424833
9980.000000;1.424071
9979.000000;1.423768
9978.000000;1.423586
9977.000000;1.423364
9976.000000;1.423242
9975.000000;1.423127
9974.000000;1.422542
9973.000000;1.421391
9972.000000;1.420394
9971.000000;1.420197
9970.000000;1.420308
9969.000000;1.419528
9968.000000;1.417439
9967.000000;1.414931
9966.000000;1.413173
9965.000000;1.412543
9964.000000;1.412629
9963.000000;1.412797
9962.000000;1.412556
9961.000000;1.411722
9960.000000;1.410522
9959.000000;1.409465
9958.000000;1.408970
9957.000000;1.409095
9956.000000;1.409507
9955.000000;1.409618
9954.000000;1.408882
9953.000000;1.407223
9952.000000;1.405134
9951.000000;1.403181
9950.000000;1.401514
9949.000000;1.400119
9948.000000;1.399345
9947.000000;1.399605
9946.000000;1.400559
9945.000000;1.401196
9944.000000;1.400986
9943.000000;1.400490
9942.000000;1.400453
9941.000000;1.400697
9940.000000;1.400264
9939.000000;1.398441
9938.000000;1.395371
9937.000000;1.391935
9936.000000;1.389316
9935.000000;1.388430
9934.000000;1.389374
9933.000000;1.391354
9932.000000;1.393259
9931.000000;1.394254
9930.000000;1.393923
9929.000000;1.392281
9928.000000;1.389916
9927.000000;1.387765
9926.000000;1.386328
9925.000000;1.385328
9924.000000;1.384410
9923.000000;1.383904
9922.000000;1.384468
9921.000000;1.386079
9920.000000;1.387808
9919.000000;1.388602
9918.000000;1.388038
9917.000000;1.386437
9916.000000;1.384582
9915.000000;1.383254
9914.000000;1.382641
9913.000000;1.382108
9912.000000;1.380909
9911.000000;1.379147
9910.000000;1.377660
9909.000000;1.376992
9908.000000;1.376867
9907.000000;1.376691
9906.000000;1.376203
9905.000000;1.375517
9904.000000;1.374857
9903.000000;1.374410
9902.000000;1.374224
9901.000000;1.374085
9900.000000;1.373643
9899.000000;1.372756
9898.000000;1.371593
9897.000000;1.370433
9896.000000;1.369512
9895.000000;1.369032
9894.000000;1.369093
9893.000000;1.369600
9892.000000;1.370334
9891.000000;1.371037
9890.000000;1.371323
9889.000000;1.370701
9888.000000;1.369063
9887.000000;1.367083
9886.000000;1.365665
9885.000000;1.364935
9884.000000;1.364183
9883.000000;1.362947
9882.000000;1.361718
9881.000000;1.361279
9880.000000;1.361647
9879.000000;1.362045
9878.000000;1.361810
9877.000000;1.361076
9876.000000;1.360524
9875.000000;1.360590
9874.000000;1.360952
9873.000000;1.360729
9872.000000;1.359242
9871.000000;1.356653
9870.000000;1.353830
9869.000000;1.351638
9868.000000;1.350435
9867.000000;1.349998
9866.000000;1.349692
9865.000000;1.348918
9864.000000;1.347776
9863.000000;1.347163
9862.000000;1.347778
9861.000000;1.349052
9860.000000;1.349616
9859.000000;1.348920
9858.000000;1.347811
9857.000000;1.347249
9856.000000;1.347074
9855.000000;1.346505
9854.000000;1.345410
9853.000000;1.344438
9852.000000;1.344048
9851.000000;1.343987
9850.000000;1.343751
9849.000000;1.343175
9848.000000;1.342451
9847.000000;1.341809
9846.000000;1.341308
9845.000000;1.340790
9844.000000;1.340055
9843.000000;1.339171
9842.000000;1.338506
9841.000000;1.338317
9840.000000;1.338409
9839.000000;1.338326
9838.000000;1.337786
9837.000000;1.336798
9836.000000;1.335481
9835.000000;1.333955
9834.000000;1.332326
9833.000000;1.330648
9832.000000;1.328947
9831.000000;1.327304
9830.000000;1.325752
9829.000000;1.324085
9828.000000;1.322111
9827.000000;1.320212
9826.000000;1.319289
9825.000000;1.319851
9824.000000;1.321391
9823.000000;1.322882
9822.000000;1.323647
9821.000000;1.323507
9820.000000;1.322534
9819.000000;1.321183
9818.000000;1.320324
9817.000000;1.320432
9816.000000;1.320800
9815.000000;1.320214
9814.000000;1.318494
9813.000000;1.316789
9812.000000;1.316270
9811.000000;1.317030
9810.000000;1.318347
9809.000000;1.319462
9808.000000;1.319848
9807.000000;1.319174
9806.000000;1.317464
9805.000000;1.315198
9804.000000;1.313004
9803.000000;1.311371
9802.000000;1.310625
9801.000000;1.310830
9800.000000;1.311498
9799.000000;1.311730
9798.000000;1.310949
9797.000000;1.309407
9796.000000;1.307845
9795.000000;1.306845
9794.000000;1.306550
9793.000000;1.306645
9792.000000;1.306485
9791.000000;1.305576
9790.000000;1.304124
9789.000000;1.302874
9788.000000;1.302277
9787.000000;1.302076
9786.000000;1.301813
9785.000000;1.301375
9784.000000;1.300788
9783.000000;1.299854
9782.000000;1.298427
9781.000000;1.296850
9780.000000;1.295701
9779.000000;1.295215
9778.000000;1.295192
9777.000000;1.295349
9776.000000;1.295460
9775.000000;1.295329
9774.000000;1.294964
9773.000000;1.294670
9772.000000;1.294672
9771.000000;1.294742
9770.000000;1.294538
9769.000000;1.294131
9768.000000;1.293764
9767.000000;1.293161
9766.000000;1.291711
9765.000000;1.289499
9764.000000;1.287627
9763.000000;1.287158
9762.000000;1.288002
9761.000000;1.289086
9760.000000;1.289349
9759.000000;1.288318
9758.000000;1.286015
9757.000000;1.282861
9756.000000;1.279681
9755.000000;1.277334
9754.000000;1.276080
9753.000000;1.275492
9752.000000;1.275154
9751.000000;1.275250
9750.000000;1.276237
9749.000000;1.277985
9748.000000;1.279521
9747.000000;1.279783
9746.000000;1.278604
9745.000000;1.276818
9744.000000;1.275416
9743.000000;1.274756
9742.000000;1.274508
9741.000000;1.274167
9740.000000;1.273569
9739.000000;1.272915
9738.000000;1.272409
9737.000000;1.271967
9736.000000;1.271349
9735.000000;1.270536
9734.000000;1.269834
9733.000000;1.269494
9732.000000;1.269335
9731.000000;1.268914
9730.000000;1.268045
9729.000000;1.266982
9728.000000;1.266075
9727.000000;1.265417
9726.000000;1.264867
9725.000000;1.264263
9724.000000;1.263501
9723.000000;1.262605
9722.000000;1.261861
9721.000000;1.261731
9720.000000;1.262400
9719.000000;1.263375
9718.000000;1.263720
9717.000000;1.262905
9716.000000;1.261370
9715.000000;1.260011
9714.000000;1.259127
9713.000000;1.258103
9712.000000;1.256287
9711.000000;1.253999
9710.000000;1.252279
9709.000000;1.251637
9708.000000;1.251454
9707.000000;1.250948
9706.000000;1.250384
9705.000000;1.250739
9704.000000;1.252153
9703.000000;1.253356
9702.000000;1.253023
9701.000000;1.251396
9700.000000;1.250049
9699.000000;1.250175
9698.000000;1.251497
9697.000000;1.252770
9696.000000;1.252957
9695.000000;1.251851
9694.000000;1.249886
9693.000000;1.247739
9692.000000;1.246058
9691.000000;1.245207
9690.000000;1.244950
9689.000000;1.244454
9688.000000;1.242930
9687.000000;1.240536
9686.000000;1.238518
9685.000000;1.238116
9684.000000;1.239268
9683.000000;1.240551
9682.000000;1.240513
9681.000000;1.238953
9680.000000;1.236821
9679.000000;1.235193
9678.000000;1.234570
9677.000000;1.234842
9676.000000;1.235427
9675.000000;1.235490
9674.000000;1.234499
9673.000000;1.232767
9672.000000;1.231261
9671.000000;1.230722
9670.000000;1.231091
9669.000000;1.231787
9668.000000;1.232332
9667.000000;1.232586
9666.000000;1.232525
9665.000000;1.232042
9664.000000;1.231016
9663.000000;1.229496
9662.000000;1.227780
9661.000000;1.226314
9660.000000;1.225465
9659.000000;1.225320
9658.000000;1.225612
9657.000000;1.225825
9656.000000;1.225474
9655.000000;1.224429
9654.000000;1.223007
9653.000000;1.221639
9652.000000;1.220418
9651.000000;1.219123
9650.000000;1.217743
9649.000000;1.216755
9648.000000;1.216670
9647.000000;1.217325
9646.000000;1.217869
9645.000000;1.217572
9644.000000;1.216550
9643.000000;1.215548
9642.000000;1.215104
9641.000000;1.215065
9640.000000;1.214912
9639.000000;1.214365
9638.000000;1.213495
9637.000000;1.212342
9636.000000;1.210744
9635.000000;1.208758
9634.000000;1.207034
9633.000000;1.206390
9632.000000;1.206936
9631.000000;1.207845
9630.000000;1.208120
9629.000000;1.207470
9628.000000;1.206381
9627.000000;1.205566
9626.000000;1.205475
9625.000000;1.206025
9624.000000;1.206565
9623.000000;1.206304
9622.000000;1.205125
9621.000000;1.203857
9620.000000;1.203439
9619.000000;1.203884
9618.000000;1.204311
9617.000000;1.203953
9616.000000;1.202819
9615.000000;1.201376
9614.000000;1.199983
9613.000000;1.198763
9612.000000;1.197793
9611.000000;1.197171
9610.000000;1.196947
9609.000000;1.197087
9608.000000;1.197445
9607.000000;1.197804
9606.000000;1.198028
9605.000000;1.198107
9604.000000;1.197908
9603.000000;1.197077
9602.000000;1.195528
9601.000000;1.193912
9600.000000;1.193092
9599.000000;1.193088
9598.000000;1.193012
9597.000000;1.192281
9596.000000;1.191400
9595.000000;1.191114
9594.000000;1.191166
9593.000000;1.190551
9592.000000;1.188905
9591.000000;1.187011
9590.000000;1.185736
9589.000000;1.184979
9588.000000;1.184005
9587.000000;1.182539
9586.000000;1.181177
9585.000000;1.180733
9584.000000;1.181400
9583.000000;1.182531
9582.000000;1.183122
9581.000000;1.182533
9580.000000;1.180925
9579.000000;1.179059
9578.000000;1.177708
9577.000000;1.177200
9576.000000;1.177375
9575.000000;1.177805
9574.000000;1.178051
9573.000000;1.177903
9572.000000;1.177472
9571.000000;1.177016
9570.000000;1.176564
9569.000000;1.175794
9568.000000;1.174399
9567.000000;1.172545
9566.000000;1.170811
9565.000000;1.169710
9564.000000;1.169369
9563.000000;1.169647
9562.000000;1.170350
9561.000000;1.171191
9560.000000;1.171631
9559.000000;1.171028
9558.000000;1.169151
9557.000000;1.166581
9556.000000;1.164448
9555.000000;1.163621
9554.000000;1.164049
9553.000000;1.164925
9552.000000;1.165522
9551.000000;1.165814
9550.000000;1.166176
9549.000000;1.166629
9548.000000;1.166715
9547.000000;1.166184
9546.000000;1.165448
9545.000000;1.165062
9544.000000;1.164940
9543.000000;1.164427
9542.000000;1.163148
9541.000000;1.161492
9540.000000;1.160160
9539.000000;1.159449
9538.000000;1.159065
9537.000000;1.158496
9536.000000;1.157480
9535.000000;1.156207
9534.000000;1.155101
9533.000000;1.154315
9532.000000;1.153499
9531.000000;1.152285
9530.000000;1.150955
9529.000000;1.150258
9528.000000;1.150475
9527.000000;1.151077
9526.000000;1.151491
9525.000000;1.151746
9524.000000;1.151955
9523.000000;1.151618
9522.000000;1.150197
9521.000000;1.148242
9520.000000;1.147118
9519.000000;1.147341
9518.000000;1.147792
9517.000000;1.147047
9516.000000;1.145144
9515.000000;1.143481
9514.000000;1.143152
9513.000000;1.143899
9512.000000;1.144681
9511.000000;1.144808
9510.000000;1.144276
9509.000000;1.143313
9508.000000;1.142020
9507.000000;1.140531
9506.000000;1.139201
9505.000000;1.138398
9504.000000;1.138119
9503.000000;1.138027
9502.000000;1.137873
9501.000000;1.137708
9500.000000;1.137571
9499.000000;1.137225
9498.000000;1.136509
9497.000000;1.135780
9496.000000;1.135598
9495.000000;1.135928
9494.000000;1.136031
9493.000000;1.135317
9492.000000;1.134014
9491.000000;1.132765
9490.000000;1.131831
9489.000000;1.131044
9488.000000;1.130377
9487.000000;1.130153
9486.000000;1.130583
9485.000000;1.131341
9484.000000;1.131759
9483.000000;1.131403
9482.000000;1.130377
9481.000000;1.129085
9480.000000;1.127820
9479.000000;1.126605
9478.000000;1.125432
9477.000000;1.124538
9476.000000;1.124240
9475.000000;1.124505
9474.000000;1.124855
9473.000000;1.124776
9472.000000;1.124095
9471.000000;1.122898
9470.000000;1.121350
9469.000000;1.119748
9468.000000;1.118564
9467.000000;1.118149
9466.000000;1.118395
9465.000000;1.118880
9464.000000;1.119275
9463.000000;1.119450
9462.000000;1.119334
9461.000000;1.118953
9460.000000;1.118522
9459.000000;1.118163
9458.000000;1.117572
9457.000000;1.116377
9456.000000;1.114906
9455.000000;1.114130
9454.000000;1.114495
9453.000000;1.115183
9452.000000;1.115000
9451.000000;1.113847
9450.000000;1.112777
9449.000000;1.112561
9448.000000;1.112753
9447.000000;1.112457
9446.000000;1.111533
9445.000000;1.110578
9444.000000;1.109946
9443.000000;1.109414
9442.000000;1.108854
9441.000000;1.108638
9440.000000;1.109034
9439.000000;1.109576
9438.000000;1.109498
9437.000000;1.108648
9436.000000;1.107548
9435.000000;1.106590
9434.000000;1.105665
9433.000000;1.104671
9432.000000;1.103923
9431.000000;1.103717
9430.000000;1.103765
9429.000000;1.103492
9428.000000;1.102847
9427.000000;1.102437
9426.000000;1.102729
9425.000000;1.103365
9424.000000;1.103499
9423.000000;1.102710
9422.000000;1.101406
9421.000000;1.100313
9420.000000;1.099731
9419.000000;1.099364
9418.000000;1.098845
9417.000000;1.098225
9416.000000;1.097815
9415.000000;1.097573
9414.000000;1.096913
9413.000000;1.095315
9412.000000;1.093050
9411.000000;1.091113
9410.000000;1.090414
9409.000000;1.091074
9408.000000;1.092438
9407.000000;1.093603
9406.000000;1.093972
9405.000000;1.093501
9404.000000;1.092593
9403.000000;1.091743
9402.000000;1.091131
9401.000000;1.090503
9400.000000;1.089465
9399.000000;1.087937
9398.000000;1.086295
9397.000000;1.085049
9396.000000;1.084405
9395.000000;1.084171
9394.000000;1.084086
9393.000000;1.084135
9392.000000;1.084428
9391.000000;1.084809
9390.000000;1.084836
9389.000000;1.084264
9388.000000;1.083405
9387.000000;1.082822
9386.000000;1.082704
9385.000000;1.082753
9384.000000;1.082672
9383.000000;1.082515
9382.000000;1.082433
9381.000000;1.082304
9380.000000;1.081902
9379.000000;1.081348
9378.000000;1.081084
9377.000000;1.081300
9376.000000;1.081620
9375.000000;1.081516
9374.000000;1.080890
9373.000000;1.080000
9372.000000;1.078961
9371.000000;1.077667
9370.000000;1.076223
9369.000000;1.075076
9368.000000;1.074515
9367.000000;1.074293
9366.000000;1.073993
9365.000000;1.073597
9364.000000;1.073413
9363.000000;1.073499
9362.000000;1.073507
9361.000000;1.073095
9360.000000;1.072233
9359.000000;1.071109
9358.000000;1.070056
9357.000000;1.069568
9356.000000;1.069949
9355.000000;1.070763
9354.000000;1.071036
9353.000000;1.070267
9352.000000;1.068952
9351.000000;1.067815
9350.000000;1.066880
9349.000000;1.065772
9348.000000;1.064677
9347.000000;1.064358
9346.000000;1.065156
9345.000000;1.066445
9344.000000;1.067253
9343.000000;1.067126
9342.000000;1.066284
9341.000000;1.065277
9340.000000;1.064647
9339.000000;1.064617
9338.000000;1.064868
9337.000000;1.064825
9336.000000;1.064303
9335.000000;1.063638
9334.000000;1.063073
9333.000000;1.062341
9332.000000;1.061130
9331.000000;1.059696
9330.000000;1.058624
9329.000000;1.058130
9328.000000;1.057998
9327.000000;1.058085
9326.000000;1.058465
9325.000000;1.058970
9324.000000;1.058958
9323.000000;1.057856
9322.000000;1.055851
9321.000000;1.053881
9320.000000;1.052882
9319.000000;1.052999
9318.000000;1.053522
9317.000000;1.053649
9316.000000;1.053337
9315.000000;1.053226
9314.000000;1.053652
9313.000000;1.054076
9312.000000;1.053779
9311.000000;1.052858
9310.000000;1.052041
9309.000000;1.051613
9308.000000;1.051057
9307.000000;1.049876
9306.000000;1.048318
9305.000000;1.047045
9304.000000;1.046414
9303.000000;1.046371
9302.000000;1.046758
9301.000000;1.047370
9300.000000;1.047876
9299.000000;1.048008
9298.000000;1.047807
9297.000000;1.047429
9296.000000;1.046853
9295.000000;1.046057
9294.000000;1.045344
9293.000000;1.045109
9292.000000;1.045223
9291.000000;1.045018
9290.000000;1.044027
9289.000000;1.042527
9288.000000;1.041243
9287.000000;1.040686
9286.000000;1.040911
9285.000000;1.041704
9284.000000;1.042718
9283.000000;1.043486
9282.000000;1.043595
9281.000000;1.042962
9280.000000;1.041863
9279.000000;1.040660
9278.000000;1.039587
9277.000000;1.038807
9276.000000;1.038500
9275.000000;1.038741
9274.000000;1.039331
9273.000000;1.039846
9272.000000;1.039905
9271.000000;1.039341
9270.000000;1.038168
9269.000000;1.036499
9268.000000;1.034596
9267.000000;1.032918
9266.000000;1.031942
9265.000000;1.031851
9264.000000;1.032412
9263.000000;1.033165
9262.000000;1.033694
9261.000000;1.033791
9260.000000;1.033493
9259.000000;1.033023
9258.000000;1.032593
9257.000000;1.032232
9256.000000;1.031829
9255.000000;1.031361
9254.000000;1.031013
9253.000000;1.031047
9252.000000;1.031592
9251.000000;1.032509
9250.000000;1.033342
9249.000000;1.033456
9248.000000;1.032500
9247.000000;1.030785
9246.000000;1.029003
9245.000000;1.027544
9244.000000;1.026334
9243.000000;1.025378
9242.000000;1.025037
9241.000000;1.025470
9240.000000;1.026156
9239.000000;1.026420
9238.000000;1.026258
9237.000000;1.026193
9236.000000;1.026409
9235.000000;1.026575
9234.000000;1.026477
9233.000000;1.026254
9232.000000;1.025853
9231.000000;1.024841
9230.000000;1.023167
9229.000000;1.021653
9228.000000;1.021240
9227.000000;1.021931
9226.000000;1.022849
9225.000000;1.023230
9224.000000;1.023006
9223.000000;1.022492
9222.000000;1.021935
9221.000000;1.021460
9220.000000;1.021136
9219.000000;1.020929
9218.000000;1.020697
9217.000000;1.020317
9216.000000;1.019750
9215.000000;1.019039
9214.000000;1.018346
9213.000000;1.017908
9212.000000;1.017786
9211.000000;1.017737
9210.000000;1.017538
9209.000000;1.017357
9208.000000;1.017519
9207.000000;1.017890
9206.000000;1.017820
9205.000000;1.016829
9204.000000;1.015168
9203.000000;1.013529
9202.000000;1.012413
9201.000000;1.011969
9200.000000;1.012229
9199.000000;1.013112
9198.000000;1.014134
9197.000000;1.014436
9196.000000;1.013463
9195.000000;1.011613
9194.000000;1.010035
9193.000000;1.009645
9192.000000;1.010336
9191.000000;1.011157
9190.000000;1.011281
9189.000000;1.010736
9188.000000;1.010212
9187.000000;1.010294
9186.000000;1.010967
9185.000000;1.011712
9184.000000;1.011986
9183.000000;1.011633
9182.000000;1.010939
9181.000000;1.010282
9180.000000;1.009729
9179.000000;1.009041
9178.000000;1.008120
9177.000000;1.007290
9176.000000;1.006944
9175.000000;1.006979
9174.000000;1.006816
9173.000000;1.006048
9172.000000;1.004909
9171.000000;1.004048
9170.000000;1.003973
9169.000000;1.004748
9168.000000;1.006022
9167.000000;1.007177
9166.000000;1.007588
9165.000000;1.007031
9164.000000;1.005885
9163.000000;1.004818
9162.000000;1.004224
9161.000000;1.004006
9160.000000;1.003846
9159.000000;1.003562
9158.000000;1.003169
9157.000000;1.002722
9156.000000;1.002232
9155.000000;1.001730
9154.000000;1.001315
9153.000000;1.001084
9152.000000;1.001021
9151.000000;1.000975
9150.000000;1.000754
9149.000000;1.000258
9148.000000;0.999563
9147.000000;0.998865
9146.000000;0.998306
9145.000000;0.997847
9144.000000;0.997374
9143.000000;0.996937
9142.000000;0.996796
9141.000000;0.997105
9140.000000;0.997611
9139.000000;0.997813
9138.000000;0.997508
9137.000000;0.997063
9136.000000;0.997033
9135.000000;0.997549
9134.000000;0.998151
9133.000000;0.998185
9132.000000;0.997388
9131.000000;0.996142
9130.000000;0.995205
9129.000000;0.995091
9128.000000;0.995592
9127.000000;0.995926
9126.000000;0.995486
9125.000000;0.994438
9124.000000;0.993512
9123.000000;0.993199
9122.000000;0.993279
9121.000000;0.993170
9120.000000;0.992600
9119.000000;0.991864
9118.000000;0.991427
9117.000000;0.991423
9116.000000;0.991601
9115.000000;0.991723
9114.000000;0.991831
9113.000000;0.992047
9112.000000;0.992218
9111.000000;0.992030
9110.000000;0.991494
9109.000000;0.991082
9108.000000;0.991200
9107.000000;0.991641
9106.000000;0.991774
9105.000000;0.991238
9104.000000;0.990258
9103.000000;0.989273
9102.000000;0.988501
9101.000000;0.987920
9100.000000;0.987533
9099.000000;0.987437
9098.000000;0.987655
9097.000000;0.988006
9096.000000;0.988210
9095.000000;0.988113
9094.000000;0.987795
9093.000000;0.987407
9092.000000;0.986959
9091.000000;0.986319
9090.000000;0.985455
9089.000000;0.984587
9088.000000;0.984024
9087.000000;0.983880
9086.000000;0.984013
9085.000000;0.984217
9084.000000;0.984386
9083.000000;0.984546
9082.000000;0.984808
9081.000000;0.985234
9080.000000;0.985647
9079.000000;0.985636
9078.000000;0.984943
9077.000000;0.983857
9076.000000;0.983028
9075.000000;0.982796
9074.000000;0.982863
9073.000000;0.982733
9072.000000;0.982345
9071.000000;0.982060
9070.000000;0.982101
9069.000000;0.982214
9068.000000;0.981987
9067.000000;0.981370
9066.000000;0.980741
9065.000000;0.980485
9064.000000;0.980548
9063.000000;0.980491
9062.000000;0.980000
9061.000000;0.979313
9060.000000;0.978990
9059.000000;0.979252
9058.000000;0.979686
9057.000000;0.979714
9056.000000;0.979243
9055.000000;0.978649
9054.000000;0.978207
9053.000000;0.977811
