Criado como novo conjunto de dados;"1909daniel.spp","-4219541.4 Secs"
cm-1;Abs
10000.000000;1.430032
9999.000000;1.428911
9998.000000;1.427396
9997.000000;1.425547
9996.000000;1.423680
9995.000000;1.422067
9994.000000;1.420781
9993.000000;1.419928
9992.000000;1.419756
9991.000000;1.420299
9990.000000;1.421052
9989.000000;1.421185
9988.000000;1.420157
9987.000000;1.418247
9986.000000;1.416498
9985.000000;1.415981
9984.000000;1.416898
9983.000000;1.418281
9982.000000;1.418670
9981.000000;1.417382
9980.000000;1.415126
9979.000000;1.413172
9978.000000;1.412000
9977.000000;1.411082
9976.000000;1.409827
9975.000000;1.408241
9974.000000;1.406609
9973.000000;1.405063
9972.000000;1.403771
9971.000000;1.403154
9970.000000;1.403487
9969.000000;1.404524
9968.000000;1.405857
9967.000000;1.407399
9966.000000;1.409046
9965.000000;1.410074
9964.000000;1.409532
9963.000000;1.407386
9962.000000;1.404808
9961.000000;1.403101
9960.000000;1.402569
9959.000000;1.402450
9958.000000;1.401716
9957.000000;1.399944
9956.000000;1.397608
9955.000000;1.395588
9954.000000;1.394405
9953.000000;1.394023
9952.000000;1.394299
9951.000000;1.395170
9950.000000;1.396188
9949.000000;1.396424
9948.000000;1.395425
9947.000000;1.393888
9946.000000;1.392737
9945.000000;1.391853
9944.000000;1.390504
9943.000000;1.388808
9942.000000;1.387760
9941.000000;1.387695
9940.000000;1.387751
9939.000000;1.387217
9938.000000;1.386518
9937.000000;1.386376
9936.000000;1.386741
9935.000000;1.387193
9934.000000;1.387826
9933.000000;1.388843
9932.000000;1.389564
9931.000000;1.388782
9930.000000;1.386237
9929.000000;1.383047
9928.000000;1.380468
9927.000000;1.378870
9926.000000;1.378055
9925.000000;1.377889
9924.000000;1.378193
9923.000000;1.378349
9922.000000;1.377622
9921.000000;1.376047
9920.000000;1.374626
9919.000000;1.374329
9918.000000;1.374988
9917.000000;1.375469
9916.000000;1.374966
9915.000000;1.373759
9914.000000;1.372592
9913.000000;1.371729
9912.000000;1.371046
9911.000000;1.370640
9910.000000;1.370749
9909.000000;1.371126
9908.000000;1.371098
9907.000000;1.370328
9906.000000;1.369084
9905.000000;1.367644
9904.000000;1.366006
9903.000000;1.364361
9902.000000;1.363272
9901.000000;1.362954
9900.000000;1.362769
9899.000000;1.361964
9898.000000;1.360724
9897.000000;1.360042
9896.000000;1.360517
9895.000000;1.361613
9894.000000;1.362209
9893.000000;1.361716
9892.000000;1.360534
9891.000000;1.359480
9890.000000;1.358915
9889.000000;1.358508
9888.000000;1.357766
9887.000000;1.356516
9886.000000;1.354880
9885.000000;1.353086
9884.000000;1.351533
9883.000000;1.350760
9882.000000;1.350935
9881.000000;1.351418
9880.000000;1.351264
9879.000000;1.350254
9878.000000;1.349070
9877.000000;1.348447
9876.000000;1.348572
9875.000000;1.349260
9874.000000;1.350107
9873.000000;1.350295
9872.000000;1.348877
9871.000000;1.345762
9870.000000;1.342187
9869.000000;1.339826
9868.000000;1.339511
9867.000000;1.340858
9866.000000;1.342749
9865.000000;1.343986
9864.000000;1.343902
9863.000000;1.342775
9862.000000;1.341503
9861.000000;1.340610
9860.000000;1.339768
9859.000000;1.338472
9858.000000;1.336864
9857.000000;1.335517
9856.000000;1.334652
9855.000000;1.334029
9854.000000;1.333538
9853.000000;1.333458
9852.000000;1.334000
9851.000000;1.334878
9850.000000;1.335476
9849.000000;1.335358
9848.000000;1.334611
9847.000000;1.333721
9846.000000;1.333100
9845.000000;1.332700
9844.000000;1.332109
9843.000000;1.331031
9842.000000;1.329507
9841.000000;1.327681
9840.000000;1.325682
9839.000000;1.323837
9838.000000;1.322618
9837.000000;1.322154
9836.000000;1.322048
9835.000000;1.321908
9834.000000;1.321806
9833.000000;1.321898
9832.000000;1.321898
9831.000000;1.321375
9830.000000;1.320457
9829.000000;1.319774
9828.000000;1.319634
9827.000000;1.319593
9826.000000;1.318943
9825.000000;1.317424
9824.000000;1.315400
9823.000000;1.313483
9822.000000;1.312059
9821.000000;1.311057
9820.000000;1.310200
9819.000000;1.309561
9818.000000;1.309625
9817.000000;1.310544
9816.000000;1.311610
9815.000000;1.311917
9814.000000;1.311435
9813.000000;1.310940
9812.000000;1.310879
9811.000000;1.310814
9810.000000;1.310094
9809.000000;1.308663
9808.000000;1.306981
9807.000000;1.305389
9806.000000;1.303889
9805.000000;1.302525
9804.000000;1.301659
9803.000000;1.301668
9802.000000;1.302355
9801.000000;1.302863
9800.000000;1.302431
9799.000000;1.301336
9798.000000;1.300734
9797.000000;1.301314
9796.000000;1.302318
9795.000000;1.302296
9794.000000;1.300763
9793.000000;1.298642
9792.000000;1.297057
9791.000000;1.296281
9790.000000;1.296022
9789.000000;1.296108
9788.000000;1.296417
9787.000000;1.296478
9786.000000;1.295800
9785.000000;1.294607
9784.000000;1.293773
9783.000000;1.293825
9782.000000;1.294258
9781.000000;1.294047
9780.000000;1.292743
9779.000000;1.290893
9778.000000;1.289435
9777.000000;1.288789
9776.000000;1.288596
9775.000000;1.288252
9774.000000;1.287555
9773.000000;1.286709
9772.000000;1.285842
9771.000000;1.284813
9770.000000;1.283532
9769.000000;1.282219
9768.000000;1.281203
9767.000000;1.280576
9766.000000;1.280153
9765.000000;1.279662
9764.000000;1.278895
9763.000000;1.277879
9762.000000;1.277028
9761.000000;1.276862
9760.000000;1.277399
9759.000000;1.278023
9758.000000;1.278218
9757.000000;1.278230
9756.000000;1.278590
9755.000000;1.279119
9754.000000;1.278945
9753.000000;1.277555
9752.000000;1.275299
9751.000000;1.272777
9750.000000;1.270315
9749.000000;1.268239
9748.000000;1.267099
9747.000000;1.267089
9746.000000;1.267553
9745.000000;1.267635
9744.000000;1.267275
9743.000000;1.267063
9742.000000;1.267218
9741.000000;1.267270
9740.000000;1.266779
9739.000000;1.265885
9738.000000;1.264884
9737.000000;1.263628
9736.000000;1.261768
9735.000000;1.259404
9734.000000;1.257181
9733.000000;1.255777
9732.000000;1.255386
9731.000000;1.255664
9730.000000;1.256106
9729.000000;1.256437
9728.000000;1.256604
9727.000000;1.256453
9726.000000;1.255673
9725.000000;1.254229
9724.000000;1.252613
9723.000000;1.251363
9722.000000;1.250506
9721.000000;1.249828
9720.000000;1.249520
9719.000000;1.250042
9718.000000;1.251256
9717.000000;1.252274
9716.000000;1.252422
9715.000000;1.251916
9714.000000;1.251241
9713.000000;1.250322
9712.000000;1.248782
9711.000000;1.246773
9710.000000;1.244977
9709.000000;1.243739
9708.000000;1.242736
9707.000000;1.241638
9706.000000;1.240683
9705.000000;1.240443
9704.000000;1.241168
9703.000000;1.242486
9702.000000;1.243623
9701.000000;1.243922
9700.000000;1.243328
9699.000000;1.242383
9698.000000;1.241633
9697.000000;1.241058
9696.000000;1.240176
9695.000000;1.238681
9694.000000;1.236824
9693.000000;1.235130
9692.000000;1.233889
9691.000000;1.232975
9690.000000;1.232140
9689.000000;1.231435
9688.000000;1.231244
9687.000000;1.231755
9686.000000;1.232455
9685.000000;1.232456
9684.000000;1.231477
9683.000000;1.230189
9682.000000;1.229328
9681.000000;1.228787
9680.000000;1.228006
9679.000000;1.227026
9678.000000;1.226533
9677.000000;1.226799
9676.000000;1.227121
9675.000000;1.226636
9674.000000;1.225354
9673.000000;1.224055
9672.000000;1.223296
9671.000000;1.222870
9670.000000;1.222207
9669.000000;1.221132
9668.000000;1.220137
9667.000000;1.219895
9666.000000;1.220486
9665.000000;1.221156
9664.000000;1.220992
9663.000000;1.219860
9662.000000;1.218573
9661.000000;1.218114
9660.000000;1.218796
9659.000000;1.220090
9658.000000;1.221025
9657.000000;1.220777
9656.000000;1.219179
9655.000000;1.216821
9654.000000;1.214562
9653.000000;1.212873
9652.000000;1.211756
9651.000000;1.211174
9650.000000;1.211183
9649.000000;1.211517
9648.000000;1.211467
9647.000000;1.210544
9646.000000;1.209030
9645.000000;1.207501
9644.000000;1.206036
9643.000000;1.204338
9642.000000;1.202593
9641.000000;1.201624
9640.000000;1.201952
9639.000000;1.203105
9638.000000;1.204145
9637.000000;1.204622
9636.000000;1.204722
9635.000000;1.204641
9634.000000;1.204284
9633.000000;1.203560
9632.000000;1.202586
9631.000000;1.201439
9630.000000;1.199993
9629.000000;1.198165
9628.000000;1.196150
9627.000000;1.194269
9626.000000;1.192785
9625.000000;1.191985
9624.000000;1.192094
9623.000000;1.192800
9622.000000;1.193134
9621.000000;1.192331
9620.000000;1.190780
9619.000000;1.189612
9618.000000;1.189337
9617.000000;1.189369
9616.000000;1.189054
9615.000000;1.188613
9614.000000;1.188633
9613.000000;1.189046
9612.000000;1.189177
9611.000000;1.188636
9610.000000;1.187700
9609.000000;1.186834
9608.000000;1.186255
9607.000000;1.185987
9606.000000;1.185972
9605.000000;1.186020
9604.000000;1.185891
9603.000000;1.185491
9602.000000;1.184834
9601.000000;1.183840
9600.000000;1.182477
9599.000000;1.181110
9598.000000;1.180332
9597.000000;1.180261
9596.000000;1.180260
9595.000000;1.179552
9594.000000;1.178006
9593.000000;1.176180
9592.000000;1.174748
9591.000000;1.174041
9590.000000;1.173967
9589.000000;1.174149
9588.000000;1.174227
9587.000000;1.174205
9586.000000;1.174404
9585.000000;1.174943
9584.000000;1.175340
9583.000000;1.174891
9582.000000;1.173468
9581.000000;1.171727
9580.000000;1.170446
9579.000000;1.169819
9578.000000;1.169469
9577.000000;1.169027
9576.000000;1.168491
9575.000000;1.168011
9574.000000;1.167522
9573.000000;1.166775
9572.000000;1.165675
9571.000000;1.164388
9570.000000;1.163119
9569.000000;1.162028
9568.000000;1.161405
9567.000000;1.161630
9566.000000;1.162654
9565.000000;1.163621
9564.000000;1.163391
9563.000000;1.161647
9562.000000;1.159327
9561.000000;1.157797
9560.000000;1.157641
9559.000000;1.158317
9558.000000;1.158840
9557.000000;1.158695
9556.000000;1.158086
9555.000000;1.157451
9554.000000;1.156898
9553.000000;1.156207
9552.000000;1.155230
9551.000000;1.154101
9550.000000;1.153031
9549.000000;1.152111
9548.000000;1.151472
9547.000000;1.151412
9546.000000;1.152043
9545.000000;1.152837
9544.000000;1.152872
9543.000000;1.151748
9542.000000;1.150087
9541.000000;1.148908
9540.000000;1.148582
9539.000000;1.148584
9538.000000;1.148224
9537.000000;1.147412
9536.000000;1.146625
9535.000000;1.146302
9534.000000;1.146445
9533.000000;1.146745
9532.000000;1.146890
9531.000000;1.146670
9530.000000;1.145984
9529.000000;1.144917
9528.000000;1.143737
9527.000000;1.142690
9526.000000;1.141797
9525.000000;1.140956
9524.000000;1.140151
9523.000000;1.139454
9522.000000;1.138848
9521.000000;1.138216
9520.000000;1.137497
9519.000000;1.136663
9518.000000;1.135598
9517.000000;1.134275
9516.000000;1.133099
9515.000000;1.132783
9514.000000;1.133692
9513.000000;1.135394
9512.000000;1.136925
9511.000000;1.137438
9510.000000;1.136655
9509.000000;1.134973
9508.000000;1.133257
9507.000000;1.132251
9506.000000;1.131991
9505.000000;1.131881
9504.000000;1.131430
9503.000000;1.130702
9502.000000;1.129897
9501.000000;1.128871
9500.000000;1.127447
9499.000000;1.125987
9498.000000;1.125173
9497.000000;1.125227
9496.000000;1.125677
9495.000000;1.125930
9494.000000;1.125811
9493.000000;1.125508
9492.000000;1.125226
9491.000000;1.124992
9490.000000;1.124618
9489.000000;1.123845
9488.000000;1.122682
9487.000000;1.121546
9486.000000;1.120853
9485.000000;1.120524
9484.000000;1.120120
9483.000000;1.119453
9482.000000;1.118751
9481.000000;1.118205
9480.000000;1.117679
9479.000000;1.117000
9478.000000;1.116266
9477.000000;1.115676
9476.000000;1.115242
9475.000000;1.114858
9474.000000;1.114514
9473.000000;1.114287
9472.000000;1.114200
9471.000000;1.114221
9470.000000;1.114269
9469.000000;1.114148
9468.000000;1.113601
9467.000000;1.112609
9466.000000;1.111592
9465.000000;1.111132
9464.000000;1.111425
9463.000000;1.112018
9462.000000;1.112101
9461.000000;1.111096
9460.000000;1.109112
9459.000000;1.106906
9458.000000;1.105367
9457.000000;1.104950
9456.000000;1.105462
9455.000000;1.106249
9454.000000;1.106568
9453.000000;1.105987
9452.000000;1.104687
9451.000000;1.103387
9450.000000;1.102752
9449.000000;1.102812
9448.000000;1.103016
9447.000000;1.102840
9446.000000;1.102144
9445.000000;1.101004
9444.000000;1.099511
9443.000000;1.097954
9442.000000;1.096933
9441.000000;1.096906
9440.000000;1.097585
9439.000000;1.098025
9438.000000;1.097519
9437.000000;1.096346
9436.000000;1.095477
9435.000000;1.095539
9434.000000;1.096177
9433.000000;1.096506
9432.000000;1.096044
9431.000000;1.095072
9430.000000;1.094149
9429.000000;1.093524
9428.000000;1.093131
9427.000000;1.092863
9426.000000;1.092612
9425.000000;1.092194
9424.000000;1.091520
9423.000000;1.090781
9422.000000;1.090209
9421.000000;1.089707
9420.000000;1.089004
9419.000000;1.088155
9418.000000;1.087569
9417.000000;1.087415
9416.000000;1.087296
9415.000000;1.086698
9414.000000;1.085580
9413.000000;1.084349
9412.000000;1.083422
9411.000000;1.083014
9410.000000;1.083178
9409.000000;1.083799
9408.000000;1.084550
9407.000000;1.085066
9406.000000;1.085169
9405.000000;1.084865
9404.000000;1.084223
9403.000000;1.083394
9402.000000;1.082678
9401.000000;1.082290
9400.000000;1.081996
9399.000000;1.081239
9398.000000;1.079811
9397.000000;1.078280
9396.000000;1.077474
9395.000000;1.077539
9394.000000;1.077717
9393.000000;1.077169
9392.000000;1.075850
9391.000000;1.074408
9390.000000;1.073382
9389.000000;1.072778
9388.000000;1.072352
9387.000000;1.071978
9386.000000;1.071604
9385.000000;1.071117
9384.000000;1.070479
9383.000000;1.069882
9382.000000;1.069563
9381.000000;1.069528
9380.000000;1.069600
9379.000000;1.069671
9378.000000;1.069733
9377.000000;1.069731
9376.000000;1.069531
9375.000000;1.069074
9374.000000;1.068452
9373.000000;1.067848
9372.000000;1.067424
9371.000000;1.067189
9370.000000;1.066913
9369.000000;1.066302
9368.000000;1.065356
9367.000000;1.064438
9366.000000;1.063885
9365.000000;1.063677
9364.000000;1.063617
9363.000000;1.063645
9362.000000;1.063753
9361.000000;1.063718
9360.000000;1.063246
9359.000000;1.062349
9358.000000;1.061358
9357.000000;1.060599
9356.000000;1.060246
9355.000000;1.060374
9354.000000;1.060860
9353.000000;1.061288
9352.000000;1.061237
9351.000000;1.060656
9350.000000;1.059732
9349.000000;1.058520
9348.000000;1.057043
9347.000000;1.055692
9346.000000;1.055024
9345.000000;1.055037
9344.000000;1.055043
9343.000000;1.054431
9342.000000;1.053278
9341.000000;1.052094
9340.000000;1.051282
9339.000000;1.051012
9338.000000;1.051272
9337.000000;1.051727
9336.000000;1.051773
9335.000000;1.051068
9334.000000;1.049929
9333.000000;1.049029
9332.000000;1.048830
9331.000000;1.049418
9330.000000;1.050582
9329.000000;1.051803
9328.000000;1.052371
9327.000000;1.051870
9326.000000;1.050533
9325.000000;1.048948
9324.000000;1.047525
9323.000000;1.046363
9322.000000;1.045460
9321.000000;1.044785
9320.000000;1.044251
9319.000000;1.043852
9318.000000;1.043837
9317.000000;1.044486
9316.000000;1.045662
9315.000000;1.046688
9314.000000;1.046743
9313.000000;1.045454
9312.000000;1.043269
9311.000000;1.041291
9310.000000;1.040475
9309.000000;1.040740
9308.000000;1.040997
9307.000000;1.040308
9306.000000;1.038881
9305.000000;1.037702
9304.000000;1.037398
9303.000000;1.037766
9302.000000;1.038203
9301.000000;1.038231
9300.000000;1.037680
9299.000000;1.036767
9298.000000;1.036024
9297.000000;1.035805
9296.000000;1.035880
9295.000000;1.035790
9294.000000;1.035530
9293.000000;1.035436
9292.000000;1.035399
9291.000000;1.034805
9290.000000;1.033495
9289.000000;1.032262
9288.000000;1.031996
9287.000000;1.032705
9286.000000;1.033717
9285.000000;1.034464
9284.000000;1.034632
9283.000000;1.033861
9282.000000;1.032047
9281.000000;1.029930
9280.000000;1.028731
9279.000000;1.028948
9278.000000;1.029870
9277.000000;1.030450
9276.000000;1.030352
9275.000000;1.029921
9274.000000;1.029495
9273.000000;1.029103
9272.000000;1.028627
9271.000000;1.027915
9270.000000;1.026882
9269.000000;1.025770
9268.000000;1.025161
9267.000000;1.025433
9266.000000;1.026241
9265.000000;1.026840
9264.000000;1.026879
9263.000000;1.026595
9262.000000;1.026218
9261.000000;1.025607
9260.000000;1.024623
9259.000000;1.023502
9258.000000;1.022562
9257.000000;1.021766
9256.000000;1.020875
9255.000000;1.019928
9254.000000;1.019253
9253.000000;1.019006
9252.000000;1.018968
9251.000000;1.018924
9250.000000;1.019034
9249.000000;1.019616
9248.000000;1.020549
9247.000000;1.021086
9246.000000;1.020418
9245.000000;1.018538
9244.000000;1.016443
9243.000000;1.015303
9242.000000;1.015388
9241.000000;1.015878
9240.000000;1.015786
9239.000000;1.014960
9238.000000;1.014060
9237.000000;1.013708
9236.000000;1.013869
9235.000000;1.014071
9234.000000;1.014003
9233.000000;1.013750
9232.000000;1.013493
9231.000000;1.013160
9230.000000;1.012536
9229.000000;1.011706
9228.000000;1.011176
9227.000000;1.011309
9226.000000;1.011728
9225.000000;1.011637
9224.000000;1.010811
9223.000000;1.009978
9222.000000;1.009964
9221.000000;1.010756
9220.000000;1.011659
9219.000000;1.012136
9218.000000;1.012101
9217.000000;1.011560
9216.000000;1.010490
9215.000000;1.009186
9214.000000;1.008274
9213.000000;1.008137
9212.000000;1.008506
9211.000000;1.008780
9210.000000;1.008604
9209.000000;1.008059
9208.000000;1.007470
9207.000000;1.007106
9206.000000;1.006884
9205.000000;1.006351
9204.000000;1.005199
9203.000000;1.003824
9202.000000;1.003026
9201.000000;1.003065
9200.000000;1.003399
9199.000000;1.003515
9198.000000;1.003597
9197.000000;1.003967
9196.000000;1.004276
9195.000000;1.003845
9194.000000;1.002672
9193.000000;1.001507
9192.000000;1.000897
9191.000000;1.000681
9190.000000;1.000557
9189.000000;1.000641
9188.000000;1.001129
9187.000000;1.001755
9186.000000;1.001994
9185.000000;1.001678
9184.000000;1.001115
9183.000000;1.000656
9182.000000;1.000391
9181.000000;1.000213
9180.000000;0.999978
9179.000000;0.999571
9178.000000;0.998962
9177.000000;0.998243
9176.000000;0.997529
9175.000000;0.996813
9174.000000;0.996031
9173.000000;0.995265
9172.000000;0.994789
9171.000000;0.994856
9170.000000;0.995429
9169.000000;0.996104
9168.000000;0.996353
9167.000000;0.995973
9166.000000;0.995333
9165.000000;0.995013
9164.000000;0.995116
9163.000000;0.995082
9162.000000;0.994381
9161.000000;0.993236
9160.000000;0.992380
9159.000000;0.992152
9158.000000;0.992162
9157.000000;0.991933
9156.000000;0.991533
9155.000000;0.991347
9154.000000;0.991438
9153.000000;0.991485
9152.000000;0.991267
9151.000000;0.990901
9150.000000;0.990584
9149.000000;0.990351
9148.000000;0.990172
9147.000000;0.990057
9146.000000;0.989944
9145.000000;0.989656
9144.000000;0.989114
9143.000000;0.988486
9142.000000;0.987960
9141.000000;0.987553
9140.000000;0.987300
9139.000000;0.987416
9138.000000;0.987966
9137.000000;0.988495
9136.000000;0.988386
9135.000000;0.987613
9134.000000;0.986801
9133.000000;0.986437
9132.000000;0.986399
9131.000000;0.986458
9130.000000;0.986812
9129.000000;0.987633
9128.000000;0.988294
9127.000000;0.987744
9126.000000;0.985797
9125.000000;0.983536
9124.000000;0.982158
9123.000000;0.981770
9122.000000;0.981657
9121.000000;0.981394
9120.000000;0.981205
9119.000000;0.981315
9118.000000;0.981511
9117.000000;0.981496
9116.000000;0.981312
9115.000000;0.981176
9114.000000;0.981154
9113.000000;0.981199
9112.000000;0.981320
9111.000000;0.981462
9110.000000;0.981389
9109.000000;0.980966
9108.000000;0.980494
9107.000000;0.980449
9106.000000;0.980854
9105.000000;0.981111
9104.000000;0.980560
9103.000000;0.979113
9102.000000;0.977329
9101.000000;0.976007
9100.000000;0.975730
9099.000000;0.976563
9098.000000;0.977997
9097.000000;0.979218
9096.000000;0.979566
9095.000000;0.978882
9094.000000;0.977540
9093.000000;0.976215
9092.000000;0.975509
9091.000000;0.975572
9090.000000;0.976008
9089.000000;0.976262
9088.000000;0.976140
9087.000000;0.975860
9086.000000;0.975595
9085.000000;0.975178
9084.000000;0.974366
9083.000000;0.973261
9082.000000;0.972302
9081.000000;0.971864
9080.000000;0.971941
9079.000000;0.972175
9078.000000;0.972180
9077.000000;0.971898
9076.000000;0.971658
9075.000000;0.971774
9074.000000;0.972107
9073.000000;0.972184
9072.000000;0.971831
9071.000000;0.971442
9070.000000;0.971468
9069.000000;0.971831
9068.000000;0.972088
9067.000000;0.972040
9066.000000;0.971882
9065.000000;0.971792
9064.000000;0.971651
9063.000000;0.971268
9062.000000;0.970657
9061.000000;0.969980
9060.000000;0.969355
9059.000000;0.968836
9058.000000;0.968482
9057.000000;0.968331
9056.000000;0.968321
9055.000000;0.968302
9054.000000;0.968133
9053.000000;0.967777
