Criado como novo conjunto de dados;"1909daniel.spp","-4290825.4 Secs"
cm-1;Abs
10000.000000;1.141760
9999.000000;1.140959
9998.000000;1.140159
9997.000000;1.139360
9996.000000;1.138565
9995.000000;1.137766
9994.000000;1.136985
9993.000000;1.136258
9992.000000;1.135661
9991.000000;1.135424
9990.000000;1.135559
9989.000000;1.135743
9988.000000;1.135592
9987.000000;1.135046
9986.000000;1.134325
9985.000000;1.133571
9984.000000;1.132700
9983.000000;1.131626
9982.000000;1.130467
9981.000000;1.129446
9980.000000;1.128645
9979.000000;1.128004
9978.000000;1.127498
9977.000000;1.127210
9976.000000;1.127158
9975.000000;1.127155
9974.000000;1.126978
9973.000000;1.126654
9972.000000;1.126405
9971.000000;1.126274
9970.000000;1.125938
9969.000000;1.125050
9968.000000;1.123661
9967.000000;1.122121
9966.000000;1.120690
9965.000000;1.119459
9964.000000;1.118579
9963.000000;1.118211
9962.000000;1.118128
9961.000000;1.117720
9960.000000;1.116664
9959.000000;1.115410
9958.000000;1.114728
9957.000000;1.114811
9956.000000;1.115030
9955.000000;1.114597
9954.000000;1.113386
9953.000000;1.112026
9952.000000;1.111167
9951.000000;1.110710
9950.000000;1.109914
9949.000000;1.108380
9948.000000;1.106697
9947.000000;1.105810
9946.000000;1.105884
9945.000000;1.106162
9944.000000;1.105926
9943.000000;1.105207
9942.000000;1.104442
9941.000000;1.103865
9940.000000;1.103395
9939.000000;1.102791
9938.000000;1.101732
9937.000000;1.100119
9936.000000;1.098453
9935.000000;1.097547
9934.000000;1.097598
9933.000000;1.097860
9932.000000;1.097492
9931.000000;1.096427
9930.000000;1.095164
9929.000000;1.094035
9928.000000;1.093096
9927.000000;1.092445
9926.000000;1.092219
9925.000000;1.092334
9924.000000;1.092503
9923.000000;1.092410
9922.000000;1.091763
9921.000000;1.090458
9920.000000;1.088894
9919.000000;1.087773
9918.000000;1.087333
9917.000000;1.087097
9916.000000;1.086608
9915.000000;1.085998
9914.000000;1.085479
9913.000000;1.084749
9912.000000;1.083471
9911.000000;1.082025
9910.000000;1.081169
9909.000000;1.081148
9908.000000;1.081628
9907.000000;1.082284
9906.000000;1.082864
9905.000000;1.082857
9904.000000;1.081796
9903.000000;1.079884
9902.000000;1.077795
9901.000000;1.075888
9900.000000;1.074138
9899.000000;1.072747
9898.000000;1.072142
9897.000000;1.072301
9896.000000;1.072634
9895.000000;1.072693
9894.000000;1.072489
9893.000000;1.072034
9892.000000;1.071121
9891.000000;1.069777
9890.000000;1.068452
9889.000000;1.067450
9888.000000;1.066556
9887.000000;1.065487
9886.000000;1.064422
9885.000000;1.063762
9884.000000;1.063533
9883.000000;1.063284
9882.000000;1.062580
9881.000000;1.061511
9880.000000;1.060703
9879.000000;1.060731
9878.000000;1.061412
9877.000000;1.061838
9876.000000;1.061345
9875.000000;1.060271
9874.000000;1.059409
9873.000000;1.058923
9872.000000;1.058302
9871.000000;1.057281
9870.000000;1.056217
9869.000000;1.055438
9868.000000;1.054758
9867.000000;1.053882
9866.000000;1.052894
9865.000000;1.052077
9864.000000;1.051512
9863.000000;1.051079
9862.000000;1.050652
9861.000000;1.050094
9860.000000;1.049228
9859.000000;1.047976
9858.000000;1.046439
9857.000000;1.044817
9856.000000;1.043396
9855.000000;1.042536
9854.000000;1.042379
9853.000000;1.042513
9852.000000;1.042241
9851.000000;1.041279
9850.000000;1.040002
9849.000000;1.038892
9848.000000;1.038027
9847.000000;1.037202
9846.000000;1.036313
9845.000000;1.035455
9844.000000;1.034786
9843.000000;1.034390
9842.000000;1.034173
9841.000000;1.033901
9840.000000;1.033470
9839.000000;1.033065
9838.000000;1.032868
9837.000000;1.032699
9836.000000;1.032242
9835.000000;1.031561
9834.000000;1.031018
9833.000000;1.030640
9832.000000;1.029994
9831.000000;1.028805
9830.000000;1.027398
9829.000000;1.026350
9828.000000;1.025933
9827.000000;1.026009
9826.000000;1.026192
9825.000000;1.026032
9824.000000;1.025292
9823.000000;1.024232
9822.000000;1.023382
9821.000000;1.022907
9820.000000;1.022414
9819.000000;1.021532
9818.000000;1.020413
9817.000000;1.019444
9816.000000;1.018662
9815.000000;1.017774
9814.000000;1.016660
9813.000000;1.015595
9812.000000;1.014953
9811.000000;1.014846
9810.000000;1.015021
9809.000000;1.015006
9808.000000;1.014409
9807.000000;1.013180
9806.000000;1.011613
9805.000000;1.010061
9804.000000;1.008742
9803.000000;1.007821
9802.000000;1.007481
9801.000000;1.007737
9800.000000;1.008191
9799.000000;1.008199
9798.000000;1.007422
9797.000000;1.006143
9796.000000;1.004947
9795.000000;1.004083
9794.000000;1.003270
9793.000000;1.002192
9792.000000;1.001034
9791.000000;1.000330
9790.000000;1.000305
9789.000000;1.000585
9788.000000;1.000550
9787.000000;0.999796
9786.000000;0.998278
9785.000000;0.996334
9784.000000;0.994673
9783.000000;0.993984
9782.000000;0.994276
9781.000000;0.994787
9780.000000;0.994774
9779.000000;0.994201
9778.000000;0.993467
9777.000000;0.992729
9776.000000;0.991868
9775.000000;0.990889
9774.000000;0.989901
9773.000000;0.988810
9772.000000;0.987481
9771.000000;0.986164
9770.000000;0.985319
9769.000000;0.984968
9768.000000;0.984625
9767.000000;0.983986
9766.000000;0.983329
9765.000000;0.983064
9764.000000;0.983153
9763.000000;0.983179
9762.000000;0.982785
9761.000000;0.981906
9760.000000;0.980720
9759.000000;0.979578
9758.000000;0.978844
9757.000000;0.978600
9756.000000;0.978531
9755.000000;0.978216
9754.000000;0.977538
9753.000000;0.976755
9752.000000;0.976164
9751.000000;0.975714
9750.000000;0.975028
9749.000000;0.973874
9748.000000;0.972573
9747.000000;0.971745
9746.000000;0.971569
9745.000000;0.971491
9744.000000;0.970898
9743.000000;0.969841
9742.000000;0.968838
9741.000000;0.968096
9740.000000;0.967273
9739.000000;0.966026
9738.000000;0.964511
9737.000000;0.963235
9736.000000;0.962536
9735.000000;0.962310
9734.000000;0.962171
9733.000000;0.961864
9732.000000;0.961556
9731.000000;0.961646
9730.000000;0.962222
9729.000000;0.962794
9728.000000;0.962749
9727.000000;0.961995
9726.000000;0.961023
9725.000000;0.960337
9724.000000;0.959970
9723.000000;0.959512
9722.000000;0.958515
9721.000000;0.956934
9720.000000;0.955266
9719.000000;0.954192
9718.000000;0.953982
9717.000000;0.954273
9716.000000;0.954432
9715.000000;0.954013
9714.000000;0.952916
9713.000000;0.951373
9712.000000;0.949854
9711.000000;0.948750
9710.000000;0.947974
9709.000000;0.947069
9708.000000;0.945819
9707.000000;0.944511
9706.000000;0.943480
9705.000000;0.942737
9704.000000;0.942222
9703.000000;0.942062
9702.000000;0.942253
9701.000000;0.942405
9700.000000;0.942153
9699.000000;0.941601
9698.000000;0.941030
9697.000000;0.940435
9696.000000;0.939716
9695.000000;0.939008
9694.000000;0.938362
9693.000000;0.937425
9692.000000;0.935994
9691.000000;0.934672
9690.000000;0.934259
9689.000000;0.934583
9688.000000;0.934616
9687.000000;0.933832
9686.000000;0.932803
9685.000000;0.932249
9684.000000;0.932129
9683.000000;0.931972
9682.000000;0.931593
9681.000000;0.931087
9680.000000;0.930478
9679.000000;0.929769
9678.000000;0.929117
9677.000000;0.928577
9676.000000;0.927859
9675.000000;0.926682
9674.000000;0.925294
9673.000000;0.924327
9672.000000;0.924093
9671.000000;0.924217
9670.000000;0.923998
9669.000000;0.923067
9668.000000;0.921689
9667.000000;0.920483
9666.000000;0.919861
9665.000000;0.919726
9664.000000;0.919666
9663.000000;0.919358
9662.000000;0.918767
9661.000000;0.918095
9660.000000;0.917636
9659.000000;0.917567
9658.000000;0.917685
9657.000000;0.917430
9656.000000;0.916365
9655.000000;0.914624
9654.000000;0.912775
9653.000000;0.911329
9652.000000;0.910516
9651.000000;0.910361
9650.000000;0.910639
9649.000000;0.910781
9648.000000;0.910176
9647.000000;0.908726
9646.000000;0.906959
9645.000000;0.905519
9644.000000;0.904688
9643.000000;0.904361
9642.000000;0.904264
9641.000000;0.904131
9640.000000;0.903816
9639.000000;0.903352
9638.000000;0.902853
9637.000000;0.902322
9636.000000;0.901656
9635.000000;0.900846
9634.000000;0.900088
9633.000000;0.899630
9632.000000;0.899504
9631.000000;0.899428
9630.000000;0.899014
9629.000000;0.898147
9628.000000;0.897133
9627.000000;0.896338
9626.000000;0.895715
9625.000000;0.894879
9624.000000;0.893691
9623.000000;0.892489
9622.000000;0.891666
9621.000000;0.891254
9620.000000;0.891065
9619.000000;0.890944
9618.000000;0.890699
9617.000000;0.890061
9616.000000;0.889029
9615.000000;0.888045
9614.000000;0.887507
9613.000000;0.887232
9612.000000;0.886720
9611.000000;0.885843
9610.000000;0.884969
9609.000000;0.884483
9608.000000;0.884453
9607.000000;0.884678
9606.000000;0.884782
9605.000000;0.884344
9604.000000;0.883265
9603.000000;0.881995
9602.000000;0.881149
9601.000000;0.880878
9600.000000;0.880795
9599.000000;0.880447
9598.000000;0.879642
9597.000000;0.878445
9596.000000;0.877132
9595.000000;0.876133
9594.000000;0.875713
9593.000000;0.875685
9592.000000;0.875608
9591.000000;0.875238
9590.000000;0.874619
9589.000000;0.873840
9588.000000;0.872974
9587.000000;0.872182
9586.000000;0.871619
9585.000000;0.871234
9584.000000;0.870879
9583.000000;0.870528
9582.000000;0.870168
9581.000000;0.869553
9580.000000;0.868371
9579.000000;0.866677
9578.000000;0.864925
9577.000000;0.863601
9576.000000;0.862963
9575.000000;0.863002
9574.000000;0.863376
9573.000000;0.863454
9572.000000;0.862771
9571.000000;0.861456
9570.000000;0.860032
9569.000000;0.858846
9568.000000;0.857937
9567.000000;0.857313
9566.000000;0.856989
9565.000000;0.856762
9564.000000;0.856342
9563.000000;0.855795
9562.000000;0.855528
9561.000000;0.855700
9560.000000;0.855925
9559.000000;0.855721
9558.000000;0.855091
9557.000000;0.854476
9556.000000;0.854235
9555.000000;0.854286
9554.000000;0.854212
9553.000000;0.853660
9552.000000;0.852627
9551.000000;0.851342
9550.000000;0.849942
9549.000000;0.848403
9548.000000;0.846869
9547.000000;0.845792
9546.000000;0.845541
9545.000000;0.845945
9544.000000;0.846400
9543.000000;0.846382
9542.000000;0.845788
9541.000000;0.844918
9540.000000;0.844261
9539.000000;0.844108
9538.000000;0.844201
9537.000000;0.843903
9536.000000;0.842928
9535.000000;0.841711
9534.000000;0.840825
9533.000000;0.840241
9532.000000;0.839493
9531.000000;0.838415
9530.000000;0.837349
9529.000000;0.836636
9528.000000;0.836240
9527.000000;0.835874
9526.000000;0.835289
9525.000000;0.834424
9524.000000;0.833442
9523.000000;0.832588
9522.000000;0.831865
9521.000000;0.830971
9520.000000;0.829749
9519.000000;0.828551
9518.000000;0.827906
9517.000000;0.827936
9516.000000;0.828350
9515.000000;0.828853
9514.000000;0.829276
9513.000000;0.829412
9512.000000;0.829076
9511.000000;0.828364
9510.000000;0.827570
9509.000000;0.826827
9508.000000;0.826025
9507.000000;0.825070
9506.000000;0.824050
9505.000000;0.823157
9504.000000;0.822583
9503.000000;0.822405
9502.000000;0.822414
9501.000000;0.822223
9500.000000;0.821687
9499.000000;0.821072
9498.000000;0.820608
9497.000000;0.820146
9496.000000;0.819507
9495.000000;0.818923
9494.000000;0.818739
9493.000000;0.818833
9492.000000;0.818716
9491.000000;0.818114
9490.000000;0.817147
9489.000000;0.816050
9488.000000;0.815055
9487.000000;0.814423
9486.000000;0.814179
9485.000000;0.813934
9484.000000;0.813321
9483.000000;0.812480
9482.000000;0.811747
9481.000000;0.811029
9480.000000;0.809978
9479.000000;0.808685
9478.000000;0.807695
9477.000000;0.807283
9476.000000;0.807167
9475.000000;0.806982
9474.000000;0.806613
9473.000000;0.806038
9472.000000;0.805295
9471.000000;0.804676
9470.000000;0.804480
9469.000000;0.804472
9468.000000;0.804004
9467.000000;0.802893
9466.000000;0.801766
9465.000000;0.801310
9464.000000;0.801484
9463.000000;0.801694
9462.000000;0.801482
9461.000000;0.800802
9460.000000;0.799852
9459.000000;0.798854
9458.000000;0.797966
9457.000000;0.797277
9456.000000;0.796889
9455.000000;0.796894
9454.000000;0.797111
9453.000000;0.796992
9452.000000;0.796103
9451.000000;0.794695
9450.000000;0.793497
9449.000000;0.792933
9448.000000;0.792802
9447.000000;0.792725
9446.000000;0.792567
9445.000000;0.792350
9444.000000;0.792064
9443.000000;0.791736
9442.000000;0.791437
9441.000000;0.791068
9440.000000;0.790353
9439.000000;0.789172
9438.000000;0.787817
9437.000000;0.786784
9436.000000;0.786390
9435.000000;0.786567
9434.000000;0.786949
9433.000000;0.787157
9432.000000;0.787040
9431.000000;0.786585
9430.000000;0.785634
9429.000000;0.784027
9428.000000;0.782156
9427.000000;0.780959
9426.000000;0.780995
9425.000000;0.781741
9424.000000;0.782225
9423.000000;0.782117
9422.000000;0.781753
9421.000000;0.781302
9420.000000;0.780557
9419.000000;0.779523
9418.000000;0.778572
9417.000000;0.777878
9416.000000;0.777203
9415.000000;0.776406
9414.000000;0.775723
9413.000000;0.775370
9412.000000;0.775229
9411.000000;0.775101
9410.000000;0.774932
9409.000000;0.774633
9408.000000;0.774034
9407.000000;0.773190
9406.000000;0.772425
9405.000000;0.771902
9404.000000;0.771437
9403.000000;0.770866
9402.000000;0.770290
9401.000000;0.769788
9400.000000;0.769194
9399.000000;0.768376
9398.000000;0.767528
9397.000000;0.766973
9396.000000;0.766820
9395.000000;0.766920
9394.000000;0.767007
9393.000000;0.766791
9392.000000;0.766097
9391.000000;0.765039
9390.000000;0.763940
9389.000000;0.763027
9388.000000;0.762373
9387.000000;0.762075
9386.000000;0.762238
9385.000000;0.762734
9384.000000;0.763199
9383.000000;0.763335
9382.000000;0.763059
9381.000000;0.762412
9380.000000;0.761529
9379.000000;0.760674
9378.000000;0.760026
9377.000000;0.759458
9376.000000;0.758770
9375.000000;0.758042
9374.000000;0.757442
9373.000000;0.756811
9372.000000;0.755866
9371.000000;0.754766
9370.000000;0.753990
9369.000000;0.753629
9368.000000;0.753300
9367.000000;0.752837
9366.000000;0.752519
9365.000000;0.752436
9364.000000;0.752190
9363.000000;0.751516
9362.000000;0.750719
9361.000000;0.750146
9360.000000;0.749624
9359.000000;0.748845
9358.000000;0.747992
9357.000000;0.747530
9356.000000;0.747557
9355.000000;0.747728
9354.000000;0.747721
9353.000000;0.747456
9352.000000;0.746938
9351.000000;0.746186
9350.000000;0.745314
9349.000000;0.744513
9348.000000;0.743950
9347.000000;0.743726
9346.000000;0.743776
9345.000000;0.743756
9344.000000;0.743267
9343.000000;0.742366
9342.000000;0.741637
9341.000000;0.741537
9340.000000;0.741834
9339.000000;0.741897
9338.000000;0.741408
9337.000000;0.740608
9336.000000;0.739934
9335.000000;0.739579
9334.000000;0.739341
9333.000000;0.738813
9332.000000;0.737821
9331.000000;0.736731
9330.000000;0.736168
9329.000000;0.736350
9328.000000;0.736899
9327.000000;0.737354
9326.000000;0.737605
9325.000000;0.737691
9324.000000;0.737486
9323.000000;0.736845
9322.000000;0.735908
9321.000000;0.734976
9320.000000;0.734150
9319.000000;0.733312
9318.000000;0.732420
9317.000000;0.731663
9316.000000;0.731304
9315.000000;0.731401
9314.000000;0.731615
9313.000000;0.731363
9312.000000;0.730341
9311.000000;0.728962
9310.000000;0.728014
9309.000000;0.727832
9308.000000;0.727988
9307.000000;0.727892
9306.000000;0.727430
9305.000000;0.726865
9304.000000;0.726386
9303.000000;0.726012
9302.000000;0.725706
9301.000000;0.725326
9300.000000;0.724617
9299.000000;0.723538
9298.000000;0.722524
9297.000000;0.722141
9296.000000;0.722474
9295.000000;0.723065
9294.000000;0.723417
9293.000000;0.723409
9292.000000;0.723172
9291.000000;0.722767
9290.000000;0.722083
9289.000000;0.721049
9288.000000;0.719895
9287.000000;0.719135
9286.000000;0.719156
9285.000000;0.719786
9284.000000;0.720369
9283.000000;0.720355
9282.000000;0.719719
9281.000000;0.718804
9280.000000;0.717964
9279.000000;0.717421
9278.000000;0.717273
9277.000000;0.717415
9276.000000;0.717516
9275.000000;0.717252
9274.000000;0.716582
9273.000000;0.715730
9272.000000;0.714955
9271.000000;0.714359
9270.000000;0.713860
9269.000000;0.713306
9268.000000;0.712628
9267.000000;0.711883
9266.000000;0.711111
9265.000000;0.710277
9264.000000;0.709467
9263.000000;0.709014
9262.000000;0.709186
9261.000000;0.709743
9260.000000;0.710104
9259.000000;0.709968
9258.000000;0.709523
9257.000000;0.708989
9256.000000;0.708289
9255.000000;0.707361
9254.000000;0.706477
9253.000000;0.705959
9252.000000;0.705787
9251.000000;0.705732
9250.000000;0.705745
9249.000000;0.705902
9248.000000;0.706056
9247.000000;0.705825
9246.000000;0.705000
9245.000000;0.703809
9244.000000;0.702799
9243.000000;0.702493
9242.000000;0.703026
9241.000000;0.703941
9240.000000;0.704427
9239.000000;0.704002
9238.000000;0.702966
9237.000000;0.702030
9236.000000;0.701527
9235.000000;0.701183
9234.000000;0.700661
9233.000000;0.700042
9232.000000;0.699652
9231.000000;0.699572
9230.000000;0.699526
9229.000000;0.699236
9228.000000;0.698721
9227.000000;0.698213
9226.000000;0.697873
9225.000000;0.697620
9224.000000;0.697211
9223.000000;0.696460
9222.000000;0.695438
9221.000000;0.694510
9220.000000;0.694105
9219.000000;0.694308
9218.000000;0.694696
9217.000000;0.694700
9216.000000;0.694178
9215.000000;0.693534
9214.000000;0.693212
9213.000000;0.693236
9212.000000;0.693317
9211.000000;0.693260
9210.000000;0.693062
9209.000000;0.692708
9208.000000;0.692120
9207.000000;0.691329
9206.000000;0.690533
9205.000000;0.689920
9204.000000;0.689549
9203.000000;0.689382
9202.000000;0.689319
9201.000000;0.689191
9200.000000;0.688856
9199.000000;0.688365
9198.000000;0.687921
9197.000000;0.687648
9196.000000;0.687440
9195.000000;0.687081
9194.000000;0.686482
9193.000000;0.685815
9192.000000;0.685442
9191.000000;0.685629
9190.000000;0.686257
9189.000000;0.686843
9188.000000;0.686942
9187.000000;0.686456
9186.000000;0.685543
9185.000000;0.684387
9184.000000;0.683194
9183.000000;0.682258
9182.000000;0.681793
9181.000000;0.681735
9180.000000;0.681863
9179.000000;0.682042
9178.000000;0.682166
9177.000000;0.682004
9176.000000;0.681378
9175.000000;0.680473
9174.000000;0.679702
9173.000000;0.679271
9172.000000;0.679091
9171.000000;0.679081
9170.000000;0.679271
9169.000000;0.679553
9168.000000;0.679638
9167.000000;0.679381
9166.000000;0.678929
9165.000000;0.678436
9164.000000;0.677825
9163.000000;0.676971
9162.000000;0.675972
9161.000000;0.675127
9160.000000;0.674730
9159.000000;0.674895
9158.000000;0.675407
9157.000000;0.675746
9156.000000;0.675497
9155.000000;0.674828
9154.000000;0.674339
9153.000000;0.674320
9152.000000;0.674397
9151.000000;0.674072
9150.000000;0.673397
9149.000000;0.672840
9148.000000;0.672635
9147.000000;0.672550
9146.000000;0.672268
9145.000000;0.671737
9144.000000;0.671101
9143.000000;0.670483
9142.000000;0.669965
9141.000000;0.669642
9140.000000;0.669560
9139.000000;0.669615
9138.000000;0.669625
9137.000000;0.669561
9136.000000;0.669587
9135.000000;0.669799
9134.000000;0.669968
9133.000000;0.669744
9132.000000;0.669143
9131.000000;0.668672
9130.000000;0.668799
9129.000000;0.669394
9128.000000;0.669804
9127.000000;0.669473
9126.000000;0.668416
9125.000000;0.667169
9124.000000;0.666385
9123.000000;0.666359
9122.000000;0.666790
9121.000000;0.667017
9120.000000;0.666612
9119.000000;0.665756
9118.000000;0.664954
9117.000000;0.664507
9116.000000;0.664354
9115.000000;0.664312
9114.000000;0.664253
9113.000000;0.664088
9112.000000;0.663802
9111.000000;0.663496
9110.000000;0.663255
9109.000000;0.663023
9108.000000;0.662742
9107.000000;0.662539
9106.000000;0.662566
9105.000000;0.662700
9104.000000;0.662604
9103.000000;0.662123
9102.000000;0.661452
9101.000000;0.660911
9100.000000;0.660668
9099.000000;0.660628
9098.000000;0.660468
9097.000000;0.659869
9096.000000;0.658929
9095.000000;0.658242
9094.000000;0.658329
9093.000000;0.658981
9092.000000;0.659428
9091.000000;0.659147
9090.000000;0.658292
9089.000000;0.657350
9088.000000;0.656667
9087.000000;0.656347
9086.000000;0.656314
9085.000000;0.656336
9084.000000;0.656183
9083.000000;0.655867
9082.000000;0.655602
9081.000000;0.655498
9080.000000;0.655451
9079.000000;0.655351
9078.000000;0.655167
9077.000000;0.654819
9076.000000;0.654201
9075.000000;0.653410
9074.000000;0.652729
9073.000000;0.652337
9072.000000;0.652235
9071.000000;0.652468
9070.000000;0.653137
9069.000000;0.654048
9068.000000;0.654659
9067.000000;0.654580
9066.000000;0.653971
9065.000000;0.653249
9064.000000;0.652553
9063.000000;0.651715
9062.000000;0.650681
9061.000000;0.649737
9060.000000;0.649282
9059.000000;0.649461
9058.000000;0.650001
9057.000000;0.650400
9056.000000;0.650330
9055.000000;0.649888
9054.000000;0.649421
9053.000000;0.649149
