Criado como novo conjunto de dados;"1909daniel.spp","-4255543.5 Secs"
cm-1;Abs
10000.000000;1.865271
9999.000000;1.865789
9998.000000;1.866307
9997.000000;1.866826
9996.000000;1.867340
9995.000000;1.867874
9994.000000;1.868368
9993.000000;1.868942
9992.000000;1.869373
9991.000000;1.870063
9990.000000;1.870225
9989.000000;1.872665
9988.000000;1.877753
9987.000000;1.881690
9986.000000;1.883111
9985.000000;1.882153
9984.000000;1.880058
9983.000000;1.877339
9982.000000;1.874577
9981.000000;1.872953
9980.000000;1.873307
9979.000000;1.874775
9978.000000;1.875246
9977.000000;1.873369
9976.000000;1.869310
9975.000000;1.863726
9974.000000;1.857372
9973.000000;1.851622
9972.000000;1.848152
9971.000000;1.847507
9970.000000;1.848654
9969.000000;1.850562
9968.000000;1.853379
9967.000000;1.857100
9966.000000;1.860043
9965.000000;1.860269
9964.000000;1.858333
9963.000000;1.856990
9962.000000;1.857718
9961.000000;1.858818
9960.000000;1.857759
9959.000000;1.854661
9958.000000;1.852176
9957.000000;1.852143
9956.000000;1.853564
9955.000000;1.854036
9954.000000;1.852495
9953.000000;1.849976
9952.000000;1.848012
9951.000000;1.847126
9950.000000;1.846864
9949.000000;1.846543
9948.000000;1.845721
9947.000000;1.844501
9946.000000;1.843664
9945.000000;1.844036
9944.000000;1.845464
9943.000000;1.846682
9942.000000;1.846457
9941.000000;1.844691
9940.000000;1.842182
9939.000000;1.839660
9938.000000;1.837416
9937.000000;1.835453
9936.000000;1.833447
9935.000000;1.830935
9934.000000;1.828131
9933.000000;1.826217
9932.000000;1.826286
9931.000000;1.828223
9930.000000;1.831103
9929.000000;1.834434
9928.000000;1.838229
9927.000000;1.841860
9926.000000;1.843942
9925.000000;1.843753
9924.000000;1.841769
9923.000000;1.838521
9922.000000;1.834125
9921.000000;1.829421
9920.000000;1.826266
9919.000000;1.825664
9918.000000;1.826389
9917.000000;1.826504
9916.000000;1.825745
9915.000000;1.825265
9914.000000;1.825388
9913.000000;1.825001
9912.000000;1.823373
9911.000000;1.821376
9910.000000;1.820225
9909.000000;1.819805
9908.000000;1.818970
9907.000000;1.817113
9906.000000;1.814879
9905.000000;1.813475
9904.000000;1.813623
9903.000000;1.815107
9902.000000;1.817063
9901.000000;1.818639
9900.000000;1.819570
9899.000000;1.820114
9898.000000;1.820392
9897.000000;1.820092
9896.000000;1.818907
9895.000000;1.816802
9894.000000;1.813707
9893.000000;1.809517
9892.000000;1.804892
9891.000000;1.801588
9890.000000;1.801048
9889.000000;1.802605
9888.000000;1.803792
9887.000000;1.802855
9886.000000;1.800512
9885.000000;1.798847
9884.000000;1.799102
9883.000000;1.801066
9882.000000;1.803860
9881.000000;1.806441
9880.000000;1.807528
9879.000000;1.806099
9878.000000;1.802463
9877.000000;1.798263
9876.000000;1.795027
9875.000000;1.793001
9874.000000;1.791545
9873.000000;1.790209
9872.000000;1.789111
9871.000000;1.788645
9870.000000;1.789152
9869.000000;1.790568
9868.000000;1.792238
9867.000000;1.793445
9866.000000;1.794064
9865.000000;1.794208
9864.000000;1.793403
9863.000000;1.791044
9862.000000;1.787937
9861.000000;1.786345
9860.000000;1.787593
9859.000000;1.790146
9858.000000;1.790983
9857.000000;1.788896
9856.000000;1.785533
9855.000000;1.783071
9854.000000;1.781908
9853.000000;1.780928
9852.000000;1.779207
9851.000000;1.777030
9850.000000;1.775587
9849.000000;1.775883
9848.000000;1.777565
9847.000000;1.778654
9846.000000;1.777054
9845.000000;1.772881
9844.000000;1.768758
9843.000000;1.767192
9842.000000;1.767973
9841.000000;1.768660
9840.000000;1.767599
9839.000000;1.765733
9838.000000;1.764849
9837.000000;1.765009
9836.000000;1.764854
9835.000000;1.764109
9834.000000;1.764301
9833.000000;1.766367
9832.000000;1.768861
9831.000000;1.769665
9830.000000;1.768781
9829.000000;1.768086
9828.000000;1.768556
9827.000000;1.769206
9826.000000;1.768885
9825.000000;1.767653
9824.000000;1.765878
9823.000000;1.763457
9822.000000;1.760728
9821.000000;1.758989
9820.000000;1.759114
9819.000000;1.760392
9818.000000;1.761429
9817.000000;1.761545
9816.000000;1.760750
9815.000000;1.759361
9814.000000;1.758418
9813.000000;1.759269
9812.000000;1.761513
9811.000000;1.762259
9810.000000;1.759067
9809.000000;1.753222
9808.000000;1.748411
9807.000000;1.746693
9806.000000;1.747338
9805.000000;1.748989
9804.000000;1.751102
9803.000000;1.753042
9802.000000;1.753526
9801.000000;1.751943
9800.000000;1.749147
9799.000000;1.746187
9798.000000;1.743200
9797.000000;1.740240
9796.000000;1.738340
9795.000000;1.738857
9794.000000;1.741890
9793.000000;1.745568
9792.000000;1.746907
9791.000000;1.743971
9790.000000;1.737868
9789.000000;1.732207
9788.000000;1.729885
9787.000000;1.730561
9786.000000;1.731636
9785.000000;1.731432
9784.000000;1.730474
9783.000000;1.729631
9782.000000;1.728634
9781.000000;1.727066
9780.000000;1.725550
9779.000000;1.725071
9778.000000;1.725747
9777.000000;1.727026
9776.000000;1.728400
9775.000000;1.729086
9774.000000;1.727900
9773.000000;1.724582
9772.000000;1.720675
9771.000000;1.718126
9770.000000;1.717330
9769.000000;1.717266
9768.000000;1.717223
9767.000000;1.717607
9766.000000;1.719004
9765.000000;1.721058
9764.000000;1.722491
9763.000000;1.722212
9762.000000;1.720525
9761.000000;1.719098
9760.000000;1.719274
9759.000000;1.720375
9758.000000;1.720325
9757.000000;1.718170
9756.000000;1.715168
9755.000000;1.712968
9754.000000;1.711643
9753.000000;1.710398
9752.000000;1.709388
9751.000000;1.709636
9750.000000;1.711387
9749.000000;1.713416
9748.000000;1.714208
9747.000000;1.713243
9746.000000;1.710962
9745.000000;1.708234
9744.000000;1.706017
9743.000000;1.704877
9742.000000;1.704492
9741.000000;1.703948
9740.000000;1.702925
9739.000000;1.702323
9738.000000;1.703207
9737.000000;1.705211
9736.000000;1.706454
9735.000000;1.705358
9734.000000;1.702396
9733.000000;1.699615
9732.000000;1.698379
9731.000000;1.697927
9730.000000;1.696361
9729.000000;1.692805
9728.000000;1.688215
9727.000000;1.684304
9726.000000;1.682278
9725.000000;1.682517
9724.000000;1.684660
9723.000000;1.687658
9722.000000;1.690167
9721.000000;1.691394
9720.000000;1.691409
9719.000000;1.690541
9718.000000;1.688883
9717.000000;1.686581
9716.000000;1.684142
9715.000000;1.682243
9714.000000;1.681466
9713.000000;1.682229
9712.000000;1.684413
9711.000000;1.686821
9710.000000;1.687619
9709.000000;1.685978
9708.000000;1.683071
9707.000000;1.680943
9706.000000;1.680553
9705.000000;1.681156
9704.000000;1.681303
9703.000000;1.680182
9702.000000;1.678219
9701.000000;1.676785
9700.000000;1.677153
9699.000000;1.679387
9698.000000;1.682161
9697.000000;1.683735
9696.000000;1.683114
9695.000000;1.680420
9694.000000;1.676642
9693.000000;1.673268
9692.000000;1.671769
9691.000000;1.672783
9690.000000;1.675503
9689.000000;1.677915
9688.000000;1.677952
9687.000000;1.674818
9686.000000;1.669525
9685.000000;1.664154
9684.000000;1.660396
9683.000000;1.658657
9682.000000;1.658394
9681.000000;1.658975
9680.000000;1.659971
9679.000000;1.660984
9678.000000;1.661663
9677.000000;1.661844
9676.000000;1.661341
9675.000000;1.659814
9674.000000;1.657411
9673.000000;1.655335
9672.000000;1.654895
9671.000000;1.655911
9670.000000;1.656832
9669.000000;1.656680
9668.000000;1.656059
9667.000000;1.655752
9666.000000;1.655286
9665.000000;1.653807
9664.000000;1.651797
9663.000000;1.650767
9662.000000;1.651281
9661.000000;1.652121
9660.000000;1.651689
9659.000000;1.649752
9658.000000;1.647490
9657.000000;1.646259
9656.000000;1.646652
9655.000000;1.648338
9654.000000;1.650234
9653.000000;1.650948
9652.000000;1.649748
9651.000000;1.647411
9650.000000;1.645692
9649.000000;1.645520
9648.000000;1.645803
9647.000000;1.644534
9646.000000;1.641235
9645.000000;1.637642
9644.000000;1.635671
9643.000000;1.635404
9642.000000;1.635616
9641.000000;1.635647
9640.000000;1.635881
9639.000000;1.636541
9638.000000;1.637033
9637.000000;1.636780
9636.000000;1.635941
9635.000000;1.634944
9634.000000;1.633943
9633.000000;1.633077
9632.000000;1.632691
9631.000000;1.632843
9630.000000;1.633019
9629.000000;1.632778
9628.000000;1.632372
9627.000000;1.632365
9626.000000;1.632833
9625.000000;1.633210
9624.000000;1.632768
9623.000000;1.631182
9622.000000;1.628834
9621.000000;1.626608
9620.000000;1.625133
9619.000000;1.624186
9618.000000;1.623129
9617.000000;1.621812
9616.000000;1.620665
9615.000000;1.620018
9614.000000;1.619793
9613.000000;1.619734
9612.000000;1.619446
9611.000000;1.618324
9610.000000;1.616054
9609.000000;1.613317
9608.000000;1.611450
9607.000000;1.611196
9606.000000;1.612209
9605.000000;1.613729
9604.000000;1.615010
9603.000000;1.615083
9602.000000;1.613188
9601.000000;1.609934
9600.000000;1.607234
9599.000000;1.606513
9598.000000;1.607423
9597.000000;1.608556
9596.000000;1.608862
9595.000000;1.608097
9594.000000;1.606665
9593.000000;1.605614
9592.000000;1.606012
9591.000000;1.607547
9590.000000;1.608328
9589.000000;1.606988
9588.000000;1.604595
9587.000000;1.603481
9586.000000;1.604474
9585.000000;1.606132
9584.000000;1.606625
9583.000000;1.605634
9582.000000;1.604079
9581.000000;1.602763
9580.000000;1.601912
9579.000000;1.601589
9578.000000;1.601806
9577.000000;1.602063
9576.000000;1.601271
9575.000000;1.598732
9574.000000;1.595255
9573.000000;1.592782
9572.000000;1.592535
9571.000000;1.593718
9570.000000;1.594385
9569.000000;1.593520
9568.000000;1.591889
9567.000000;1.590835
9566.000000;1.590831
9565.000000;1.591366
9564.000000;1.591663
9563.000000;1.591214
9562.000000;1.590078
9561.000000;1.588913
9560.000000;1.588389
9559.000000;1.588438
9558.000000;1.588315
9557.000000;1.587500
9556.000000;1.586303
9555.000000;1.585386
9554.000000;1.584992
9553.000000;1.584687
9552.000000;1.583465
9551.000000;1.580509
9550.000000;1.576494
9549.000000;1.573680
9548.000000;1.573739
9547.000000;1.575572
9546.000000;1.576312
9545.000000;1.574792
9544.000000;1.572796
9543.000000;1.572438
9542.000000;1.573545
9541.000000;1.574252
9540.000000;1.573417
9539.000000;1.571566
9538.000000;1.569860
9537.000000;1.568971
9536.000000;1.568734
9535.000000;1.568353
9534.000000;1.567249
9533.000000;1.566072
9532.000000;1.566382
9531.000000;1.568800
9530.000000;1.571945
9529.000000;1.573850
9528.000000;1.574082
9527.000000;1.573754
9526.000000;1.573758
9525.000000;1.573725
9524.000000;1.572560
9523.000000;1.569549
9522.000000;1.565184
9521.000000;1.561170
9520.000000;1.559208
9519.000000;1.559424
9518.000000;1.560378
9517.000000;1.560965
9516.000000;1.561617
9515.000000;1.562956
9514.000000;1.564110
9513.000000;1.563547
9512.000000;1.561213
9511.000000;1.558634
9510.000000;1.557007
9509.000000;1.556292
9508.000000;1.556115
9507.000000;1.556414
9506.000000;1.556817
9505.000000;1.556243
9504.000000;1.553760
9503.000000;1.549669
9502.000000;1.545475
9501.000000;1.542893
9500.000000;1.542677
9499.000000;1.544032
9498.000000;1.545266
9497.000000;1.545338
9496.000000;1.544745
9495.000000;1.544625
9494.000000;1.545279
9493.000000;1.546023
9492.000000;1.546205
9491.000000;1.545727
9490.000000;1.544755
9489.000000;1.543613
9488.000000;1.542916
9487.000000;1.543044
9486.000000;1.543388
9485.000000;1.542792
9484.000000;1.540939
9483.000000;1.538742
9482.000000;1.537172
9481.000000;1.536266
9480.000000;1.535558
9479.000000;1.535007
9478.000000;1.535107
9477.000000;1.536230
9476.000000;1.537976
9475.000000;1.539103
9474.000000;1.538286
9473.000000;1.535419
9472.000000;1.532109
9471.000000;1.530348
9470.000000;1.530661
9469.000000;1.531808
9468.000000;1.532231
9467.000000;1.531449
9466.000000;1.530060
9465.000000;1.528929
9464.000000;1.528598
9463.000000;1.528993
9462.000000;1.529401
9461.000000;1.529046
9460.000000;1.527948
9459.000000;1.526940
9458.000000;1.526742
9457.000000;1.527293
9456.000000;1.528089
9455.000000;1.528719
9454.000000;1.528675
9453.000000;1.527199
9452.000000;1.524104
9451.000000;1.520601
9450.000000;1.518602
9449.000000;1.518892
9448.000000;1.520297
9447.000000;1.520892
9446.000000;1.519908
9445.000000;1.518128
9444.000000;1.516630
9443.000000;1.515799
9442.000000;1.515651
9441.000000;1.516417
9440.000000;1.518166
9439.000000;1.519990
9438.000000;1.520313
9437.000000;1.518474
9436.000000;1.515660
9435.000000;1.513777
9434.000000;1.513525
9433.000000;1.513898
9432.000000;1.513534
9431.000000;1.512294
9430.000000;1.511206
9429.000000;1.510913
9428.000000;1.510682
9427.000000;1.509370
9426.000000;1.507244
9425.000000;1.506065
9424.000000;1.507005
9423.000000;1.509102
9422.000000;1.510262
9421.000000;1.509539
9420.000000;1.507871
9419.000000;1.506591
9418.000000;1.505973
9417.000000;1.505420
9416.000000;1.504427
9415.000000;1.502965
9414.000000;1.501307
9413.000000;1.499820
9412.000000;1.498685
9411.000000;1.497671
9410.000000;1.496466
9409.000000;1.495414
9408.000000;1.495458
9407.000000;1.496952
9406.000000;1.498764
9405.000000;1.499011
9404.000000;1.496878
9403.000000;1.493552
9402.000000;1.491283
9401.000000;1.491482
9400.000000;1.493513
9399.000000;1.495240
9398.000000;1.495007
9397.000000;1.493088
9396.000000;1.490969
9395.000000;1.489635
9394.000000;1.489172
9393.000000;1.489596
9392.000000;1.490940
9391.000000;1.492374
9390.000000;1.492375
9389.000000;1.490533
9388.000000;1.488389
9387.000000;1.487707
9386.000000;1.488439
9385.000000;1.489048
9384.000000;1.488414
9383.000000;1.486788
9382.000000;1.485091
9381.000000;1.484032
9380.000000;1.483874
9379.000000;1.484464
9378.000000;1.485363
9377.000000;1.486152
9376.000000;1.486504
9375.000000;1.485931
9374.000000;1.483986
9373.000000;1.481014
9372.000000;1.478387
9371.000000;1.477463
9370.000000;1.478458
9369.000000;1.480627
9368.000000;1.483120
9367.000000;1.485150
9366.000000;1.485783
9365.000000;1.484498
9364.000000;1.481949
9363.000000;1.479449
9362.000000;1.477662
9361.000000;1.476387
9360.000000;1.475492
9359.000000;1.475298
9358.000000;1.475822
9357.000000;1.476277
9356.000000;1.475789
9355.000000;1.474371
9354.000000;1.472844
9353.000000;1.471904
9352.000000;1.471458
9351.000000;1.470848
9350.000000;1.469713
9349.000000;1.468525
9348.000000;1.468043
9347.000000;1.468194
9346.000000;1.467987
9345.000000;1.466827
9344.000000;1.465442
9343.000000;1.464987
9342.000000;1.465573
9341.000000;1.466357
9340.000000;1.466872
9339.000000;1.467515
9338.000000;1.468616
9337.000000;1.469696
9336.000000;1.469911
9335.000000;1.468832
9334.000000;1.466677
9333.000000;1.464130
9332.000000;1.462001
9331.000000;1.460687
9330.000000;1.459822
9329.000000;1.458789
9328.000000;1.457629
9327.000000;1.457106
9326.000000;1.457804
9325.000000;1.459428
9324.000000;1.461038
9323.000000;1.461638
9322.000000;1.460664
9321.000000;1.458552
9320.000000;1.456774
9319.000000;1.456634
9318.000000;1.457812
9317.000000;1.458577
9316.000000;1.457746
9315.000000;1.456061
9314.000000;1.455100
9313.000000;1.455259
9312.000000;1.455480
9311.000000;1.454790
9310.000000;1.453428
9309.000000;1.452257
9308.000000;1.451609
9307.000000;1.451085
9306.000000;1.450206
9305.000000;1.448979
9304.000000;1.447928
9303.000000;1.447756
9302.000000;1.448817
9301.000000;1.450630
9300.000000;1.451968
9299.000000;1.451794
9298.000000;1.450257
9297.000000;1.448497
9296.000000;1.447258
9295.000000;1.446117
9294.000000;1.444456
9293.000000;1.442729
9292.000000;1.442062
9291.000000;1.442758
9290.000000;1.443918
9289.000000;1.444651
9288.000000;1.444964
9287.000000;1.445087
9286.000000;1.444629
9285.000000;1.443177
9284.000000;1.441293
9283.000000;1.440077
9282.000000;1.439861
9281.000000;1.439924
9280.000000;1.439527
9279.000000;1.438773
9278.000000;1.438300
9277.000000;1.438408
9276.000000;1.438611
9275.000000;1.438034
9274.000000;1.436410
9273.000000;1.434693
9272.000000;1.434283
9271.000000;1.435392
9270.000000;1.436623
9269.000000;1.436636
9268.000000;1.435850
9267.000000;1.435773
9266.000000;1.436847
9265.000000;1.437810
9264.000000;1.437233
9263.000000;1.435069
9262.000000;1.432453
9261.000000;1.430614
9260.000000;1.430238
9259.000000;1.431256
9258.000000;1.432753
9257.000000;1.433396
9256.000000;1.432417
9255.000000;1.430198
9254.000000;1.427862
9253.000000;1.426465
9252.000000;1.426503
9251.000000;1.427672
9250.000000;1.428916
9249.000000;1.429121
9248.000000;1.428140
9247.000000;1.426909
9246.000000;1.426396
9245.000000;1.426703
9244.000000;1.427333
9243.000000;1.427955
9242.000000;1.428606
9241.000000;1.429347
9240.000000;1.430008
9239.000000;1.430225
9238.000000;1.429604
9237.000000;1.428095
9236.000000;1.426317
9235.000000;1.425181
9234.000000;1.424983
9233.000000;1.425005
9232.000000;1.424215
9231.000000;1.422342
9230.000000;1.420258
9229.000000;1.419418
9228.000000;1.420810
9227.000000;1.423943
9226.000000;1.426649
9225.000000;1.426559
9224.000000;1.423381
9223.000000;1.419336
9222.000000;1.416893
9221.000000;1.416511
9220.000000;1.416954
9219.000000;1.417245
9218.000000;1.417492
9217.000000;1.417947
9216.000000;1.418241
9215.000000;1.417867
9214.000000;1.416805
9213.000000;1.415322
9212.000000;1.413719
9211.000000;1.412621
9210.000000;1.412922
9209.000000;1.414755
9208.000000;1.416823
9207.000000;1.417371
9206.000000;1.415770
9205.000000;1.412798
9204.000000;1.409621
9203.000000;1.407065
9202.000000;1.405765
9201.000000;1.406294
9200.000000;1.408662
9199.000000;1.411854
9198.000000;1.414258
9197.000000;1.414721
9196.000000;1.413262
9195.000000;1.410905
9194.000000;1.408834
9193.000000;1.407606
9192.000000;1.407096
9191.000000;1.407113
9190.000000;1.407721
9189.000000;1.408719
9188.000000;1.409210
9187.000000;1.408335
9186.000000;1.406360
9185.000000;1.404476
9184.000000;1.403477
9183.000000;1.403168
9182.000000;1.403110
9181.000000;1.403279
9180.000000;1.403712
9179.000000;1.404118
9178.000000;1.404254
9177.000000;1.404259
9176.000000;1.404126
9175.000000;1.403304
9174.000000;1.401572
9173.000000;1.399937
9172.000000;1.399770
9171.000000;1.401094
9170.000000;1.402345
9169.000000;1.401997
9168.000000;1.399969
9167.000000;1.397363
9166.000000;1.395366
9165.000000;1.394602
9164.000000;1.395053
9163.000000;1.396275
9162.000000;1.397736
9161.000000;1.399004
9160.000000;1.399632
9159.000000;1.399175
9158.000000;1.397722
9157.000000;1.396184
9156.000000;1.395498
9155.000000;1.395573
9154.000000;1.395545
9153.000000;1.395099
9152.000000;1.394912
9151.000000;1.395568
9150.000000;1.396532
9149.000000;1.396629
9148.000000;1.395346
9147.000000;1.393321
9146.000000;1.391621
9145.000000;1.390811
9144.000000;1.390614
9143.000000;1.390301
9142.000000;1.389463
9141.000000;1.388377
9140.000000;1.387543
9139.000000;1.387118
9138.000000;1.387103
9137.000000;1.387768
9136.000000;1.389236
9135.000000;1.390724
9134.000000;1.391059
9133.000000;1.390183
9132.000000;1.389335
9131.000000;1.389359
9130.000000;1.389593
9129.000000;1.389042
9128.000000;1.387924
9127.000000;1.387204
9126.000000;1.387093
9125.000000;1.386941
9124.000000;1.386420
9123.000000;1.385915
9122.000000;1.385665
9121.000000;1.385320
9120.000000;1.384610
9119.000000;1.383842
9118.000000;1.383383
9117.000000;1.383069
9116.000000;1.382592
9115.000000;1.382227
9114.000000;1.382697
9113.000000;1.384271
9112.000000;1.386188
9111.000000;1.387064
9110.000000;1.385904
9109.000000;1.382943
9108.000000;1.379621
9107.000000;1.377675
9106.000000;1.377936
9105.000000;1.379691
9104.000000;1.381170
9103.000000;1.381006
9102.000000;1.379515
9101.000000;1.378388
9100.000000;1.378924
9099.000000;1.380662
9098.000000;1.382000
9097.000000;1.382008
9096.000000;1.381163
9095.000000;1.380279
9094.000000;1.379458
9093.000000;1.378473
9092.000000;1.377534
9091.000000;1.377007
9090.000000;1.376699
9089.000000;1.376101
9088.000000;1.375307
9087.000000;1.375021
9086.000000;1.375543
9085.000000;1.376293
9084.000000;1.376509
9083.000000;1.376020
9082.000000;1.375112
9081.000000;1.373970
9080.000000;1.372579
9079.000000;1.370992
9078.000000;1.369443
9077.000000;1.368213
9076.000000;1.367495
9075.000000;1.367321
9074.000000;1.367530
9073.000000;1.367888
9072.000000;1.368350
9071.000000;1.369067
9070.000000;1.369966
9069.000000;1.370517
9068.000000;1.370284
9067.000000;1.369690
9066.000000;1.369829
9065.000000;1.371158
9064.000000;1.372582
9063.000000;1.372292
9062.000000;1.369782
9061.000000;1.366728
9060.000000;1.365493
9059.000000;1.366875
9058.000000;1.369477
9057.000000;1.371170
9056.000000;1.371017
9055.000000;1.369797
9054.000000;1.368945
9053.000000;1.369176
