Criado como novo conjunto de dados;"1909daniel.spp","-4242402.8 Secs"
cm-1;Abs
10000.000000;1.847619
9999.000000;1.842562
9998.000000;1.835379
9997.000000;1.828466
9996.000000;1.825599
9995.000000;1.827695
9994.000000;1.832515
9993.000000;1.836390
9992.000000;1.837561
9991.000000;1.835894
9990.000000;1.831847
9989.000000;1.826622
9988.000000;1.822652
9987.000000;1.822148
9986.000000;1.825276
9985.000000;1.830128
9984.000000;1.834400
9983.000000;1.836897
9982.000000;1.837604
9981.000000;1.836930
9980.000000;1.835217
9979.000000;1.832565
9978.000000;1.829084
9977.000000;1.825547
9976.000000;1.823141
9975.000000;1.822180
9974.000000;1.821615
9973.000000;1.820367
9972.000000;1.818887
9971.000000;1.818690
9970.000000;1.820526
9969.000000;1.823636
9968.000000;1.826467
9967.000000;1.827472
9966.000000;1.825648
9965.000000;1.821381
9964.000000;1.816785
9963.000000;1.814189
9962.000000;1.814057
9961.000000;1.814925
9960.000000;1.815306
9959.000000;1.814897
9958.000000;1.813821
9957.000000;1.811815
9956.000000;1.808980
9955.000000;1.806751
9954.000000;1.807158
9953.000000;1.810941
9952.000000;1.816478
9951.000000;1.820546
9950.000000;1.820563
9949.000000;1.816690
9948.000000;1.811733
9947.000000;1.808580
9946.000000;1.807701
9945.000000;1.807236
9944.000000;1.805446
9943.000000;1.802587
9942.000000;1.800072
9941.000000;1.798518
9940.000000;1.797308
9939.000000;1.795798
9938.000000;1.794363
9937.000000;1.794062
9936.000000;1.795566
9935.000000;1.798647
9934.000000;1.802477
9933.000000;1.806163
9932.000000;1.808983
9931.000000;1.810426
9930.000000;1.810256
9929.000000;1.808420
9928.000000;1.804840
9927.000000;1.799664
9926.000000;1.794019
9925.000000;1.790049
9924.000000;1.789298
9923.000000;1.790910
9922.000000;1.792215
9921.000000;1.791585
9920.000000;1.790057
9919.000000;1.789611
9918.000000;1.790535
9917.000000;1.791255
9916.000000;1.790522
9915.000000;1.788671
9914.000000;1.786435
9913.000000;1.783922
9912.000000;1.781435
9911.000000;1.780269
9910.000000;1.781663
9909.000000;1.784935
9908.000000;1.787351
9907.000000;1.786652
9906.000000;1.783536
9905.000000;1.780680
9904.000000;1.779306
9903.000000;1.777801
9902.000000;1.774370
9901.000000;1.770287
9900.000000;1.768926
9899.000000;1.771552
9898.000000;1.775517
9897.000000;1.777425
9896.000000;1.777124
9895.000000;1.776874
9894.000000;1.777410
9893.000000;1.777089
9892.000000;1.774715
9891.000000;1.771245
9890.000000;1.768266
9889.000000;1.766359
9888.000000;1.765552
9887.000000;1.765951
9886.000000;1.766915
9885.000000;1.766761
9884.000000;1.764611
9883.000000;1.761792
9882.000000;1.760189
9881.000000;1.759863
9880.000000;1.759502
9879.000000;1.758661
9878.000000;1.758136
9877.000000;1.758248
9876.000000;1.758075
9875.000000;1.756768
9874.000000;1.754792
9873.000000;1.753384
9872.000000;1.753316
9871.000000;1.754457
9870.000000;1.755907
9869.000000;1.756271
9868.000000;1.754570
9867.000000;1.751339
9866.000000;1.748301
9865.000000;1.746670
9864.000000;1.746293
9863.000000;1.746576
9862.000000;1.747513
9861.000000;1.749142
9860.000000;1.750502
9859.000000;1.750136
9858.000000;1.747738
9857.000000;1.744590
9856.000000;1.742039
9855.000000;1.740156
9854.000000;1.738377
9853.000000;1.737013
9852.000000;1.737226
9851.000000;1.739415
9850.000000;1.742217
9849.000000;1.743544
9848.000000;1.742517
9847.000000;1.740045
9846.000000;1.737675
9845.000000;1.736356
9844.000000;1.736125
9843.000000;1.736356
9842.000000;1.736184
9841.000000;1.735227
9840.000000;1.734146
9839.000000;1.734058
9838.000000;1.735125
9837.000000;1.736094
9836.000000;1.735487
9835.000000;1.733100
9834.000000;1.730315
9833.000000;1.729107
9832.000000;1.730596
9831.000000;1.733954
9830.000000;1.736448
9829.000000;1.735309
9828.000000;1.730393
9827.000000;1.724592
9826.000000;1.721093
9825.000000;1.720703
9824.000000;1.722040
9823.000000;1.723570
9822.000000;1.724648
9821.000000;1.724809
9820.000000;1.723315
9819.000000;1.720006
9818.000000;1.716002
9817.000000;1.713007
9816.000000;1.712179
9815.000000;1.713767
9814.000000;1.717269
9813.000000;1.721455
9812.000000;1.724576
9811.000000;1.725159
9810.000000;1.722764
9809.000000;1.717929
9808.000000;1.711668
9807.000000;1.705390
9806.000000;1.700889
9805.000000;1.699608
9804.000000;1.701689
9803.000000;1.705947
9802.000000;1.710794
9801.000000;1.715092
9800.000000;1.718108
9799.000000;1.718972
9798.000000;1.716836
9797.000000;1.711889
9796.000000;1.705994
9795.000000;1.701661
9794.000000;1.700050
9793.000000;1.700128
9792.000000;1.700053
9791.000000;1.699255
9790.000000;1.698636
9789.000000;1.698814
9788.000000;1.698988
9787.000000;1.697945
9786.000000;1.695735
9785.000000;1.693736
9784.000000;1.693231
9783.000000;1.694312
9782.000000;1.695905
9781.000000;1.696584
9780.000000;1.695442
9779.000000;1.692613
9778.000000;1.689191
9777.000000;1.686440
9776.000000;1.684975
9775.000000;1.684687
9774.000000;1.685206
9773.000000;1.686166
9772.000000;1.687097
9771.000000;1.687496
9770.000000;1.687229
9769.000000;1.686532
9768.000000;1.685329
9767.000000;1.682999
9766.000000;1.679343
9765.000000;1.675617
9764.000000;1.673978
9763.000000;1.675597
9762.000000;1.679399
9761.000000;1.682850
9760.000000;1.684094
9759.000000;1.683298
9758.000000;1.681938
9757.000000;1.681038
9756.000000;1.680265
9755.000000;1.678557
9754.000000;1.675495
9753.000000;1.672145
9752.000000;1.670528
9751.000000;1.671941
9750.000000;1.675471
9749.000000;1.678292
9748.000000;1.677990
9747.000000;1.674766
9746.000000;1.670891
9745.000000;1.668119
9744.000000;1.666294
9743.000000;1.664425
9742.000000;1.662337
9741.000000;1.660796
9740.000000;1.660414
9739.000000;1.660995
9738.000000;1.661737
9737.000000;1.661610
9736.000000;1.659817
9735.000000;1.656639
9734.000000;1.653817
9733.000000;1.653337
9732.000000;1.655477
9731.000000;1.658443
9730.000000;1.660304
9729.000000;1.660903
9728.000000;1.661377
9727.000000;1.662088
9726.000000;1.661728
9725.000000;1.658971
9724.000000;1.654600
9723.000000;1.651031
9722.000000;1.649820
9721.000000;1.650272
9720.000000;1.650709
9719.000000;1.650678
9718.000000;1.651201
9717.000000;1.652952
9716.000000;1.654941
9715.000000;1.655362
9714.000000;1.653419
9713.000000;1.649884
9712.000000;1.646214
9711.000000;1.643700
9710.000000;1.643065
9709.000000;1.644199
9708.000000;1.646112
9707.000000;1.647492
9706.000000;1.647574
9705.000000;1.646356
9704.000000;1.644209
9703.000000;1.641681
9702.000000;1.639463
9701.000000;1.637981
9700.000000;1.637001
9699.000000;1.635933
9698.000000;1.634576
9697.000000;1.633309
9696.000000;1.632588
9695.000000;1.632484
9694.000000;1.632597
9693.000000;1.632162
9692.000000;1.630492
9691.000000;1.627782
9690.000000;1.625325
9689.000000;1.624481
9688.000000;1.625418
9687.000000;1.627098
9686.000000;1.628337
9685.000000;1.628404
9684.000000;1.626869
9683.000000;1.623875
9682.000000;1.620700
9681.000000;1.619175
9680.000000;1.620125
9679.000000;1.622807
9678.000000;1.626094
9677.000000;1.629461
9676.000000;1.632322
9675.000000;1.633236
9674.000000;1.630965
9673.000000;1.626281
9672.000000;1.621703
9671.000000;1.619352
9670.000000;1.619574
9669.000000;1.621269
9668.000000;1.622912
9667.000000;1.623433
9666.000000;1.622711
9665.000000;1.621317
9664.000000;1.619605
9663.000000;1.617267
9662.000000;1.614067
9661.000000;1.610669
9660.000000;1.608246
9659.000000;1.607432
9658.000000;1.608050
9657.000000;1.609562
9656.000000;1.611225
9655.000000;1.611947
9654.000000;1.610748
9653.000000;1.607675
9652.000000;1.603991
9651.000000;1.601319
9650.000000;1.600630
9649.000000;1.601750
9648.000000;1.603446
9647.000000;1.604323
9646.000000;1.604182
9645.000000;1.604324
9644.000000;1.605942
9643.000000;1.608398
9642.000000;1.609647
9641.000000;1.608360
9640.000000;1.605103
9639.000000;1.601449
9638.000000;1.598605
9637.000000;1.597060
9636.000000;1.596741
9635.000000;1.597015
9634.000000;1.596919
9633.000000;1.595854
9632.000000;1.594018
9631.000000;1.592034
9630.000000;1.590400
9629.000000;1.589378
9628.000000;1.589049
9627.000000;1.589275
9626.000000;1.589780
9625.000000;1.590304
9624.000000;1.590498
9623.000000;1.589795
9622.000000;1.587947
9621.000000;1.585795
9620.000000;1.584938
9619.000000;1.586211
9618.000000;1.588670
9617.000000;1.590345
9616.000000;1.589945
9615.000000;1.587743
9614.000000;1.584955
9613.000000;1.582506
9612.000000;1.580457
9611.000000;1.578513
9610.000000;1.576900
9609.000000;1.576359
9608.000000;1.577105
9607.000000;1.578179
9606.000000;1.578355
9605.000000;1.577478
9604.000000;1.576316
9603.000000;1.575228
9602.000000;1.573795
9601.000000;1.571866
9600.000000;1.570073
9599.000000;1.568874
9598.000000;1.567827
9597.000000;1.566337
9596.000000;1.564698
9595.000000;1.563833
9594.000000;1.564209
9593.000000;1.565370
9592.000000;1.566352
9591.000000;1.566321
9590.000000;1.565106
9589.000000;1.563469
9588.000000;1.562561
9587.000000;1.562719
9586.000000;1.562961
9585.000000;1.562041
9584.000000;1.559873
9583.000000;1.557524
9582.000000;1.555964
9581.000000;1.555226
9580.000000;1.554754
9579.000000;1.554209
9578.000000;1.553755
9577.000000;1.553690
9576.000000;1.554017
9575.000000;1.554451
9574.000000;1.554809
9573.000000;1.555233
9572.000000;1.555792
9571.000000;1.556045
9570.000000;1.555463
9569.000000;1.554232
9568.000000;1.553118
9567.000000;1.552435
9566.000000;1.551724
9565.000000;1.550679
9564.000000;1.549726
9563.000000;1.549258
9562.000000;1.548858
9561.000000;1.547759
9560.000000;1.545787
9559.000000;1.543499
9558.000000;1.541718
9557.000000;1.541170
9556.000000;1.542065
9555.000000;1.543628
9554.000000;1.544489
9553.000000;1.544000
9552.000000;1.542778
9551.000000;1.541630
9550.000000;1.540514
9549.000000;1.539158
9548.000000;1.538065
9547.000000;1.537939
9546.000000;1.538422
9545.000000;1.538283
9544.000000;1.536767
9543.000000;1.534136
9542.000000;1.531177
9541.000000;1.528928
9540.000000;1.528510
9539.000000;1.530188
9538.000000;1.532683
9537.000000;1.534359
9536.000000;1.535151
9535.000000;1.536336
9534.000000;1.538373
9533.000000;1.540084
9532.000000;1.540199
9531.000000;1.538709
9530.000000;1.536321
9529.000000;1.533628
9528.000000;1.531332
9527.000000;1.530220
9526.000000;1.530085
9525.000000;1.529358
9524.000000;1.526722
9523.000000;1.522779
9522.000000;1.519439
9521.000000;1.518079
9520.000000;1.518819
9519.000000;1.521050
9518.000000;1.523801
9517.000000;1.525805
9516.000000;1.526015
9515.000000;1.524396
9514.000000;1.522016
9513.000000;1.520305
9512.000000;1.520198
9511.000000;1.521691
9510.000000;1.523868
9509.000000;1.525487
9508.000000;1.525839
9507.000000;1.524978
9506.000000;1.523034
9505.000000;1.519871
9504.000000;1.515805
9503.000000;1.512022
9502.000000;1.509670
9501.000000;1.508830
9500.000000;1.508829
9499.000000;1.509236
9498.000000;1.510003
9497.000000;1.510942
9496.000000;1.511837
9495.000000;1.512993
9494.000000;1.514881
9493.000000;1.516997
9492.000000;1.517739
9491.000000;1.515909
9490.000000;1.512023
9489.000000;1.507727
9488.000000;1.504200
9487.000000;1.501500
9486.000000;1.499416
9485.000000;1.498374
9484.000000;1.499072
9483.000000;1.501429
9482.000000;1.504116
9481.000000;1.505388
9480.000000;1.504494
9479.000000;1.502065
9478.000000;1.499304
9477.000000;1.497141
9476.000000;1.496005
9475.000000;1.495909
9474.000000;1.496427
9473.000000;1.496830
9472.000000;1.496514
9471.000000;1.495346
9470.000000;1.493616
9469.000000;1.491877
9468.000000;1.490809
9467.000000;1.490765
9466.000000;1.491216
9465.000000;1.491012
9464.000000;1.489645
9463.000000;1.487962
9462.000000;1.487163
9461.000000;1.487408
9460.000000;1.487856
9459.000000;1.487815
9458.000000;1.487371
9457.000000;1.486957
9456.000000;1.486817
9455.000000;1.486927
9454.000000;1.487014
9453.000000;1.486586
9452.000000;1.485281
9451.000000;1.483328
9450.000000;1.481400
9449.000000;1.479930
9448.000000;1.478791
9447.000000;1.477772
9446.000000;1.477013
9445.000000;1.476772
9444.000000;1.476998
9443.000000;1.477426
9442.000000;1.478057
9441.000000;1.479206
9440.000000;1.480901
9439.000000;1.482332
9438.000000;1.482265
9437.000000;1.480344
9436.000000;1.477736
9435.000000;1.475990
9434.000000;1.475453
9433.000000;1.475177
9432.000000;1.474227
9431.000000;1.472638
9430.000000;1.471037
9429.000000;1.469893
9428.000000;1.469381
9427.000000;1.469468
9426.000000;1.469722
9425.000000;1.469441
9424.000000;1.468390
9423.000000;1.467131
9422.000000;1.466317
9421.000000;1.466035
9420.000000;1.466196
9419.000000;1.467072
9418.000000;1.468812
9417.000000;1.470734
9416.000000;1.471768
9415.000000;1.471550
9414.000000;1.470552
9413.000000;1.469264
9412.000000;1.467824
9411.000000;1.466354
9410.000000;1.464969
9409.000000;1.463428
9408.000000;1.461469
9407.000000;1.459579
9406.000000;1.458728
9405.000000;1.459190
9404.000000;1.460193
9403.000000;1.460950
9402.000000;1.461365
9401.000000;1.461427
9400.000000;1.460620
9399.000000;1.458643
9398.000000;1.456317
9397.000000;1.455011
9396.000000;1.455255
9395.000000;1.456356
9394.000000;1.457358
9393.000000;1.458021
9392.000000;1.458727
9391.000000;1.459612
9390.000000;1.460120
9389.000000;1.459547
9388.000000;1.457921
9387.000000;1.456083
9386.000000;1.454753
9385.000000;1.453812
9384.000000;1.452687
9383.000000;1.451202
9382.000000;1.449655
9381.000000;1.448205
9380.000000;1.446766
9379.000000;1.445485
9378.000000;1.444674
9377.000000;1.444248
9376.000000;1.443814
9375.000000;1.443407
9374.000000;1.443531
9373.000000;1.444235
9372.000000;1.444761
9371.000000;1.444490
9370.000000;1.443719
9369.000000;1.443025
9368.000000;1.442387
9367.000000;1.441414
9366.000000;1.439964
9365.000000;1.438169
9364.000000;1.436304
9363.000000;1.434837
9362.000000;1.434152
9361.000000;1.433882
9360.000000;1.433026
9359.000000;1.431254
9358.000000;1.429700
9357.000000;1.429791
9356.000000;1.431527
9355.000000;1.433518
9354.000000;1.434508
9353.000000;1.434267
9352.000000;1.433183
9351.000000;1.431777
9350.000000;1.430674
9349.000000;1.430283
9348.000000;1.430240
9347.000000;1.429676
9346.000000;1.428366
9345.000000;1.427225
9344.000000;1.427208
9343.000000;1.427993
9342.000000;1.428168
9341.000000;1.426793
9340.000000;1.424533
9339.000000;1.423046
9338.000000;1.423309
9337.000000;1.424674
9336.000000;1.425627
9335.000000;1.425331
9334.000000;1.424144
9333.000000;1.422788
9332.000000;1.421649
9331.000000;1.420996
9330.000000;1.421100
9329.000000;1.421637
9328.000000;1.421621
9327.000000;1.420655
9326.000000;1.419753
9325.000000;1.420122
9324.000000;1.421383
9323.000000;1.421876
9322.000000;1.420768
9321.000000;1.418963
9320.000000;1.417721
9319.000000;1.417229
9318.000000;1.416909
9317.000000;1.416408
9316.000000;1.415817
9315.000000;1.415400
9314.000000;1.415532
9313.000000;1.416434
9312.000000;1.417537
9311.000000;1.417471
9310.000000;1.415329
9309.000000;1.411859
9308.000000;1.408946
9307.000000;1.407949
9306.000000;1.408720
9305.000000;1.409890
9304.000000;1.409942
9303.000000;1.408325
9302.000000;1.405960
9301.000000;1.404512
9300.000000;1.404864
9299.000000;1.406355
9298.000000;1.407667
9297.000000;1.408185
9296.000000;1.408179
9295.000000;1.407910
9294.000000;1.407214
9293.000000;1.406036
9292.000000;1.404895
9291.000000;1.404519
9290.000000;1.405153
9289.000000;1.406322
9288.000000;1.407179
9287.000000;1.407080
9286.000000;1.405982
9285.000000;1.404383
9284.000000;1.402907
9283.000000;1.401944
9282.000000;1.401576
9281.000000;1.401657
9280.000000;1.401874
9279.000000;1.401946
9278.000000;1.401901
9277.000000;1.401989
9276.000000;1.402198
9275.000000;1.402126
9274.000000;1.401543
9273.000000;1.400840
9272.000000;1.400594
9271.000000;1.400732
9270.000000;1.400483
9269.000000;1.399240
9268.000000;1.397218
9267.000000;1.395179
9266.000000;1.393783
9265.000000;1.393294
9264.000000;1.393659
9263.000000;1.394548
9262.000000;1.395329
9261.000000;1.395247
9260.000000;1.393916
9259.000000;1.391768
9258.000000;1.389928
9257.000000;1.389408
9256.000000;1.390268
9255.000000;1.391518
9254.000000;1.391929
9253.000000;1.391021
9252.000000;1.389333
9251.000000;1.387809
9250.000000;1.387033
9249.000000;1.387019
9248.000000;1.387516
9247.000000;1.388334
9246.000000;1.389344
9245.000000;1.390206
9244.000000;1.390308
9243.000000;1.389216
9242.000000;1.387160
9241.000000;1.384864
9240.000000;1.382915
9239.000000;1.381511
9238.000000;1.380765
9237.000000;1.380863
9236.000000;1.381735
9235.000000;1.382870
9234.000000;1.383669
9233.000000;1.383854
9232.000000;1.383371
9231.000000;1.382216
9230.000000;1.380745
9229.000000;1.379883
9228.000000;1.380473
9227.000000;1.382229
9226.000000;1.383635
9225.000000;1.383223
9224.000000;1.380964
9223.000000;1.378206
9222.000000;1.376272
9221.000000;1.375351
9220.000000;1.374788
9219.000000;1.374246
9218.000000;1.374231
9217.000000;1.375342
9216.000000;1.377242
9215.000000;1.378730
9214.000000;1.378841
9213.000000;1.377662
9212.000000;1.376037
9211.000000;1.374803
9210.000000;1.374423
9209.000000;1.374951
9208.000000;1.376055
9207.000000;1.377178
9206.000000;1.377969
9205.000000;1.378409
9204.000000;1.378400
9203.000000;1.377571
9202.000000;1.375827
9201.000000;1.373893
9200.000000;1.372872
9199.000000;1.373209
9198.000000;1.374246
9197.000000;1.374775
9196.000000;1.373958
9195.000000;1.371832
9194.000000;1.369174
9193.000000;1.366934
9192.000000;1.365603
9191.000000;1.365044
9190.000000;1.364941
9189.000000;1.365213
9188.000000;1.365831
9187.000000;1.366473
9186.000000;1.366731
9185.000000;1.366587
9184.000000;1.366336
9183.000000;1.366078
9182.000000;1.365610
9181.000000;1.364820
9180.000000;1.363833
9179.000000;1.362708
9178.000000;1.361335
9177.000000;1.359806
9176.000000;1.358649
9175.000000;1.358437
9174.000000;1.359197
9173.000000;1.360346
9172.000000;1.361139
9171.000000;1.361209
9170.000000;1.360811
9169.000000;1.360661
9168.000000;1.361346
9167.000000;1.362727
9166.000000;1.363984
9165.000000;1.364320
9164.000000;1.363524
9163.000000;1.361862
9162.000000;1.359725
9161.000000;1.357565
9160.000000;1.355896
9159.000000;1.354999
9158.000000;1.354661
9157.000000;1.354381
9156.000000;1.353854
9155.000000;1.353246
9154.000000;1.353063
9153.000000;1.353819
9152.000000;1.355589
9151.000000;1.357707
9150.000000;1.359014
9149.000000;1.358639
9148.000000;1.356573
9147.000000;1.353497
9146.000000;1.350286
9145.000000;1.347735
9144.000000;1.346388
9143.000000;1.346245
9142.000000;1.346695
9141.000000;1.347039
9140.000000;1.347105
9139.000000;1.347180
9138.000000;1.347496
9137.000000;1.348100
9136.000000;1.349101
9135.000000;1.350535
9134.000000;1.351932
9133.000000;1.352501
9132.000000;1.352024
9131.000000;1.351183
9130.000000;1.350666
9129.000000;1.350279
9128.000000;1.349381
9127.000000;1.347956
9126.000000;1.346776
9125.000000;1.346468
9124.000000;1.346818
9123.000000;1.347139
9122.000000;1.347010
9121.000000;1.346501
9120.000000;1.345968
9119.000000;1.345729
9118.000000;1.345780
9117.000000;1.345746
9116.000000;1.345317
9115.000000;1.344763
9114.000000;1.344704
9113.000000;1.345232
9112.000000;1.345650
9111.000000;1.345370
9110.000000;1.344694
9109.000000;1.344197
9108.000000;1.343631
9107.000000;1.342173
9106.000000;1.339816
9105.000000;1.337779
9104.000000;1.337215
9103.000000;1.337950
9102.000000;1.338813
9101.000000;1.338921
9100.000000;1.338307
9099.000000;1.337512
9098.000000;1.337007
9097.000000;1.337014
9096.000000;1.337482
9095.000000;1.338092
9094.000000;1.338432
9093.000000;1.338266
9092.000000;1.337621
9091.000000;1.336699
9090.000000;1.335830
9089.000000;1.335371
9088.000000;1.335457
9087.000000;1.335833
9086.000000;1.336095
9085.000000;1.336050
9084.000000;1.335771
9083.000000;1.335443
9082.000000;1.335296
9081.000000;1.335506
9080.000000;1.335939
9079.000000;1.336074
9078.000000;1.335504
9077.000000;1.334504
9076.000000;1.333780
9075.000000;1.333610
9074.000000;1.333578
9073.000000;1.333280
9072.000000;1.332898
9071.000000;1.332809
9070.000000;1.332872
9069.000000;1.332479
9068.000000;1.331314
9067.000000;1.329844
9066.000000;1.328954
9065.000000;1.329126
9064.000000;1.329986
9063.000000;1.330658
9062.000000;1.330653
9061.000000;1.330346
9060.000000;1.330440
9059.000000;1.331055
9058.000000;1.331590
9057.000000;1.331472
9056.000000;1.330753
9055.000000;1.329858
9054.000000;1.329064
9053.000000;1.328464
