Criado como novo conjunto de dados;"1909daniel.spp","-4234842.4 Secs"
cm-1;Abs
10000.000000;1.306520
9999.000000;1.306957
9998.000000;1.307393
9997.000000;1.307831
9996.000000;1.308268
9995.000000;1.308708
9994.000000;1.309144
9993.000000;1.309588
9992.000000;1.310012
9991.000000;1.310937
9990.000000;1.311856
9989.000000;1.312388
9988.000000;1.312433
9987.000000;1.311991
9986.000000;1.311023
9985.000000;1.309490
9984.000000;1.307643
9983.000000;1.306122
9982.000000;1.305539
9981.000000;1.305813
9980.000000;1.306093
9979.000000;1.305535
9978.000000;1.304168
9977.000000;1.302785
9976.000000;1.301984
9975.000000;1.301554
9974.000000;1.300913
9973.000000;1.299944
9972.000000;1.299108
9971.000000;1.298729
9970.000000;1.298455
9969.000000;1.297660
9968.000000;1.296284
9967.000000;1.294999
9966.000000;1.294471
9965.000000;1.294633
9964.000000;1.294818
9963.000000;1.294505
9962.000000;1.293721
9961.000000;1.292740
9960.000000;1.291702
9959.000000;1.290755
9958.000000;1.290243
9957.000000;1.290338
9956.000000;1.290579
9955.000000;1.290196
9954.000000;1.288989
9953.000000;1.287584
9952.000000;1.286740
9951.000000;1.286658
9950.000000;1.287012
9949.000000;1.287274
9948.000000;1.286879
9947.000000;1.285501
9946.000000;1.283492
9945.000000;1.281758
9944.000000;1.280847
9943.000000;1.280354
9942.000000;1.279564
9941.000000;1.278437
9940.000000;1.277523
9939.000000;1.277040
9938.000000;1.276627
9937.000000;1.276040
9936.000000;1.275542
9935.000000;1.275336
9934.000000;1.275026
9933.000000;1.274050
9932.000000;1.272515
9931.000000;1.271247
9930.000000;1.270961
9929.000000;1.271507
9928.000000;1.271920
9927.000000;1.271254
9926.000000;1.269491
9925.000000;1.267614
9924.000000;1.266638
9923.000000;1.266643
9922.000000;1.266952
9921.000000;1.267113
9920.000000;1.267222
9919.000000;1.267268
9918.000000;1.266771
9917.000000;1.265456
9916.000000;1.263855
9915.000000;1.262725
9914.000000;1.262112
9913.000000;1.261480
9912.000000;1.260614
9911.000000;1.259821
9910.000000;1.259212
9909.000000;1.258395
9908.000000;1.257151
9907.000000;1.255997
9906.000000;1.255673
9905.000000;1.256232
9904.000000;1.256883
9903.000000;1.256691
9902.000000;1.255339
9901.000000;1.253289
9900.000000;1.251368
9899.000000;1.250135
9898.000000;1.249562
9897.000000;1.249296
9896.000000;1.249224
9895.000000;1.249556
9894.000000;1.250277
9893.000000;1.250792
9892.000000;1.250446
9891.000000;1.249311
9890.000000;1.248126
9889.000000;1.247429
9888.000000;1.247043
9887.000000;1.246558
9886.000000;1.246004
9885.000000;1.245732
9884.000000;1.245704
9883.000000;1.245282
9882.000000;1.243925
9881.000000;1.241897
9880.000000;1.240012
9879.000000;1.238744
9878.000000;1.237885
9877.000000;1.237158
9876.000000;1.236781
9875.000000;1.237076
9874.000000;1.237735
9873.000000;1.237925
9872.000000;1.237202
9871.000000;1.235994
9870.000000;1.234981
9869.000000;1.234308
9868.000000;1.233673
9867.000000;1.232945
9866.000000;1.232312
9865.000000;1.231928
9864.000000;1.231790
9863.000000;1.231947
9862.000000;1.232444
9861.000000;1.232946
9860.000000;1.232696
9859.000000;1.231121
9858.000000;1.228420
9857.000000;1.225435
9856.000000;1.223033
9855.000000;1.221629
9854.000000;1.221094
9853.000000;1.220885
9852.000000;1.220338
9851.000000;1.219136
9850.000000;1.217632
9849.000000;1.216588
9848.000000;1.216464
9847.000000;1.216962
9846.000000;1.217361
9845.000000;1.217306
9844.000000;1.217125
9843.000000;1.217238
9842.000000;1.217440
9841.000000;1.217110
9840.000000;1.216113
9839.000000;1.215096
9838.000000;1.214676
9837.000000;1.214658
9836.000000;1.214374
9835.000000;1.213540
9834.000000;1.212343
9833.000000;1.210906
9832.000000;1.209244
9831.000000;1.207750
9830.000000;1.207138
9829.000000;1.207613
9828.000000;1.208431
9827.000000;1.208610
9826.000000;1.207854
9825.000000;1.206602
9824.000000;1.205446
9823.000000;1.204747
9822.000000;1.204499
9821.000000;1.204234
9820.000000;1.203302
9819.000000;1.201572
9818.000000;1.199680
9817.000000;1.198320
9816.000000;1.197540
9815.000000;1.197047
9814.000000;1.196890
9813.000000;1.197278
9812.000000;1.197866
9811.000000;1.197838
9810.000000;1.196870
9809.000000;1.195528
9808.000000;1.194504
9807.000000;1.193791
9806.000000;1.192844
9805.000000;1.191278
9804.000000;1.189226
9803.000000;1.187193
9802.000000;1.185742
9801.000000;1.185158
9800.000000;1.185284
9799.000000;1.185705
9798.000000;1.186138
9797.000000;1.186494
9796.000000;1.186634
9795.000000;1.186377
9794.000000;1.185870
9793.000000;1.185645
9792.000000;1.186094
9791.000000;1.186967
9790.000000;1.187513
9789.000000;1.187008
9788.000000;1.185184
9787.000000;1.182445
9786.000000;1.179823
9785.000000;1.178444
9784.000000;1.178672
9783.000000;1.179757
9782.000000;1.180463
9781.000000;1.180028
9780.000000;1.178497
9779.000000;1.176389
9778.000000;1.174334
9777.000000;1.172900
9776.000000;1.172377
9775.000000;1.172568
9774.000000;1.172904
9773.000000;1.172874
9772.000000;1.172305
9771.000000;1.171277
9770.000000;1.169908
9769.000000;1.168298
9768.000000;1.166606
9767.000000;1.165103
9766.000000;1.164114
9765.000000;1.163900
9764.000000;1.164537
9763.000000;1.165803
9762.000000;1.167110
9761.000000;1.167650
9760.000000;1.166891
9759.000000;1.165165
9758.000000;1.163552
9757.000000;1.162881
9756.000000;1.162880
9755.000000;1.162524
9754.000000;1.161183
9753.000000;1.159092
9752.000000;1.156725
9751.000000;1.154277
9750.000000;1.152016
9749.000000;1.150652
9748.000000;1.150789
9747.000000;1.152095
9746.000000;1.153451
9745.000000;1.153988
9744.000000;1.153739
9743.000000;1.153261
9742.000000;1.152900
9741.000000;1.152539
9740.000000;1.151881
9739.000000;1.150864
9738.000000;1.149859
9737.000000;1.149390
9736.000000;1.149531
9735.000000;1.149623
9734.000000;1.148793
9733.000000;1.146822
9732.000000;1.144372
9731.000000;1.142363
9730.000000;1.141326
9729.000000;1.141286
9728.000000;1.141913
9727.000000;1.142643
9726.000000;1.142884
9725.000000;1.142380
9724.000000;1.141349
9723.000000;1.140188
9722.000000;1.139131
9721.000000;1.138304
9720.000000;1.137896
9719.000000;1.138053
9718.000000;1.138592
9717.000000;1.139052
9716.000000;1.139050
9715.000000;1.138498
9714.000000;1.137449
9713.000000;1.135968
9712.000000;1.134272
9711.000000;1.132803
9710.000000;1.131956
9709.000000;1.131725
9708.000000;1.131756
9707.000000;1.131702
9706.000000;1.131361
9705.000000;1.130565
9704.000000;1.129199
9703.000000;1.127461
9702.000000;1.125938
9701.000000;1.125207
9700.000000;1.125380
9699.000000;1.126057
9698.000000;1.126663
9697.000000;1.126767
9696.000000;1.126211
9695.000000;1.125085
9694.000000;1.123623
9693.000000;1.122058
9692.000000;1.120602
9691.000000;1.119520
9690.000000;1.118991
9689.000000;1.118777
9688.000000;1.118284
9687.000000;1.117215
9686.000000;1.116021
9685.000000;1.115411
9684.000000;1.115502
9683.000000;1.115773
9682.000000;1.115759
9681.000000;1.115409
9680.000000;1.114732
9679.000000;1.113601
9678.000000;1.112205
9677.000000;1.111295
9676.000000;1.111546
9675.000000;1.112720
9674.000000;1.113731
9673.000000;1.113619
9672.000000;1.112396
9671.000000;1.110891
9670.000000;1.109871
9669.000000;1.109330
9668.000000;1.108620
9667.000000;1.107265
9666.000000;1.105534
9665.000000;1.104084
9664.000000;1.103178
9663.000000;1.102550
9662.000000;1.101956
9661.000000;1.101471
9660.000000;1.101142
9659.000000;1.100769
9658.000000;1.100257
9657.000000;1.099879
9656.000000;1.099847
9655.000000;1.099846
9654.000000;1.099328
9653.000000;1.098177
9652.000000;1.096799
9651.000000;1.095652
9650.000000;1.094955
9649.000000;1.094761
9648.000000;1.094985
9647.000000;1.095360
9646.000000;1.095586
9645.000000;1.095541
9644.000000;1.095198
9643.000000;1.094483
9642.000000;1.093436
9641.000000;1.092398
9640.000000;1.091712
9639.000000;1.091237
9638.000000;1.090480
9637.000000;1.089242
9636.000000;1.087873
9635.000000;1.086879
9634.000000;1.086509
9633.000000;1.086686
9632.000000;1.087027
9631.000000;1.086862
9630.000000;1.085618
9629.000000;1.083393
9628.000000;1.080973
9627.000000;1.079153
9626.000000;1.078207
9625.000000;1.078036
9624.000000;1.078444
9623.000000;1.079045
9622.000000;1.079211
9621.000000;1.078536
9620.000000;1.077315
9619.000000;1.076244
9618.000000;1.075671
9617.000000;1.075365
9616.000000;1.075007
9615.000000;1.074568
9614.000000;1.074123
9613.000000;1.073549
9612.000000;1.072700
9611.000000;1.071768
9610.000000;1.071215
9609.000000;1.071280
9608.000000;1.071685
9607.000000;1.071880
9606.000000;1.071511
9605.000000;1.070612
9604.000000;1.069488
9603.000000;1.068527
9602.000000;1.068053
9601.000000;1.068160
9600.000000;1.068602
9599.000000;1.068920
9598.000000;1.068775
9597.000000;1.068151
9596.000000;1.067249
9595.000000;1.066215
9594.000000;1.065009
9593.000000;1.063498
9592.000000;1.061689
9591.000000;1.059911
9590.000000;1.058710
9589.000000;1.058428
9588.000000;1.058852
9587.000000;1.059357
9586.000000;1.059423
9585.000000;1.058930
9584.000000;1.058007
9583.000000;1.056821
9582.000000;1.055617
9581.000000;1.054731
9580.000000;1.054340
9579.000000;1.054228
9578.000000;1.053965
9577.000000;1.053335
9576.000000;1.052529
9575.000000;1.051938
9574.000000;1.051776
9573.000000;1.051831
9572.000000;1.051570
9571.000000;1.050618
9570.000000;1.049183
9569.000000;1.047887
9568.000000;1.047143
9567.000000;1.046849
9566.000000;1.046741
9565.000000;1.046735
9564.000000;1.046759
9563.000000;1.046538
9562.000000;1.045914
9561.000000;1.045218
9560.000000;1.044934
9559.000000;1.045008
9558.000000;1.044805
9557.000000;1.043836
9556.000000;1.042245
9555.000000;1.040548
9554.000000;1.039164
9553.000000;1.038312
9552.000000;1.038078
9551.000000;1.038309
9550.000000;1.038561
9549.000000;1.038370
9548.000000;1.037638
9547.000000;1.036689
9546.000000;1.035934
9545.000000;1.035509
9544.000000;1.035202
9543.000000;1.034754
9542.000000;1.034200
9541.000000;1.033830
9540.000000;1.033751
9539.000000;1.033671
9538.000000;1.033241
9537.000000;1.032466
9536.000000;1.031541
9535.000000;1.030479
9534.000000;1.029253
9533.000000;1.028206
9532.000000;1.027851
9531.000000;1.028172
9530.000000;1.028458
9529.000000;1.028059
9528.000000;1.027082
9527.000000;1.026121
9526.000000;1.025501
9525.000000;1.025031
9524.000000;1.024378
9523.000000;1.023452
9522.000000;1.022434
9521.000000;1.021596
9520.000000;1.021070
9519.000000;1.020737
9518.000000;1.020374
9517.000000;1.019941
9516.000000;1.019609
9515.000000;1.019464
9514.000000;1.019385
9513.000000;1.019257
9512.000000;1.019098
9511.000000;1.018843
9510.000000;1.018237
9509.000000;1.017172
9508.000000;1.015947
9507.000000;1.014951
9506.000000;1.014178
9505.000000;1.013384
9504.000000;1.012645
9503.000000;1.012399
9502.000000;1.012836
9501.000000;1.013510
9500.000000;1.013708
9499.000000;1.013089
9498.000000;1.011887
9497.000000;1.010624
9496.000000;1.009738
9495.000000;1.009377
9494.000000;1.009367
9493.000000;1.009339
9492.000000;1.008979
9491.000000;1.008209
9490.000000;1.007220
9489.000000;1.006349
9488.000000;1.005887
9487.000000;1.005840
9486.000000;1.005829
9485.000000;1.005302
9484.000000;1.003973
9483.000000;1.002077
9482.000000;1.000202
9481.000000;0.998905
9480.000000;0.998423
9479.000000;0.998635
9478.000000;0.999177
9477.000000;0.999630
9476.000000;0.999703
9475.000000;0.999305
9474.000000;0.998522
9473.000000;0.997529
9472.000000;0.996523
9471.000000;0.995693
9470.000000;0.995208
9469.000000;0.995144
9468.000000;0.995343
9467.000000;0.995401
9466.000000;0.994983
9465.000000;0.994255
9464.000000;0.993796
9463.000000;0.993904
9462.000000;0.994092
9461.000000;0.993543
9460.000000;0.992061
9459.000000;0.990309
9458.000000;0.989044
9457.000000;0.988407
9456.000000;0.988103
9455.000000;0.987959
9454.000000;0.987997
9453.000000;0.988055
9452.000000;0.987753
9451.000000;0.986946
9450.000000;0.985985
9449.000000;0.985382
9448.000000;0.985301
9447.000000;0.985471
9446.000000;0.985459
9445.000000;0.984961
9444.000000;0.983988
9443.000000;0.982890
9442.000000;0.982118
9441.000000;0.981777
9440.000000;0.981451
9439.000000;0.980607
9438.000000;0.979213
9437.000000;0.977864
9436.000000;0.977247
9435.000000;0.977494
9434.000000;0.978058
9433.000000;0.978195
9432.000000;0.977584
9431.000000;0.976502
9430.000000;0.975400
9429.000000;0.974398
9428.000000;0.973311
9427.000000;0.972145
9426.000000;0.971322
9425.000000;0.971239
9424.000000;0.971719
9423.000000;0.972147
9422.000000;0.972159
9421.000000;0.971987
9420.000000;0.972040
9419.000000;0.972299
9418.000000;0.972335
9417.000000;0.971887
9416.000000;0.971237
9415.000000;0.970872
9414.000000;0.970824
9413.000000;0.970501
9412.000000;0.969346
9411.000000;0.967623
9410.000000;0.966305
9409.000000;0.966110
9408.000000;0.966811
9407.000000;0.967560
9406.000000;0.967697
9405.000000;0.967071
9404.000000;0.965792
9403.000000;0.964092
9402.000000;0.962439
9401.000000;0.961343
9400.000000;0.960873
9399.000000;0.960602
9398.000000;0.960197
9397.000000;0.959795
9396.000000;0.959630
9395.000000;0.959538
9394.000000;0.959141
9393.000000;0.958342
9392.000000;0.957355
9391.000000;0.956317
9390.000000;0.955214
9389.000000;0.954195
9388.000000;0.953679
9387.000000;0.953987
9386.000000;0.954995
9385.000000;0.956188
9384.000000;0.956978
9383.000000;0.956977
9382.000000;0.956153
9381.000000;0.954838
9380.000000;0.953518
9379.000000;0.952505
9378.000000;0.951808
9377.000000;0.951266
9376.000000;0.950752
9375.000000;0.950268
9374.000000;0.949925
9373.000000;0.949848
9372.000000;0.950025
9371.000000;0.950232
9370.000000;0.950156
9369.000000;0.949663
9368.000000;0.948907
9367.000000;0.948140
9366.000000;0.947432
9365.000000;0.946637
9364.000000;0.945653
9363.000000;0.944669
9362.000000;0.944038
9361.000000;0.943872
9360.000000;0.943879
9359.000000;0.943732
9358.000000;0.943505
9357.000000;0.943516
9356.000000;0.943731
9355.000000;0.943631
9354.000000;0.942830
9353.000000;0.941604
9352.000000;0.940629
9351.000000;0.940303
9350.000000;0.940497
9349.000000;0.940832
9348.000000;0.940944
9347.000000;0.940573
9346.000000;0.939724
9345.000000;0.938772
9344.000000;0.938179
9343.000000;0.938037
9342.000000;0.938018
9341.000000;0.937776
9340.000000;0.937281
9339.000000;0.936740
9338.000000;0.936346
9337.000000;0.936130
9336.000000;0.935905
9335.000000;0.935359
9334.000000;0.934371
9333.000000;0.933267
9332.000000;0.932569
9331.000000;0.932435
9330.000000;0.932488
9329.000000;0.932277
9328.000000;0.931774
9327.000000;0.931281
9326.000000;0.930991
9325.000000;0.930779
9324.000000;0.930386
9323.000000;0.929720
9322.000000;0.929009
9321.000000;0.928642
9320.000000;0.928758
9319.000000;0.928997
9318.000000;0.928852
9317.000000;0.928311
9316.000000;0.927870
9315.000000;0.927772
9314.000000;0.927517
9313.000000;0.926466
9312.000000;0.924791
9311.000000;0.923428
9310.000000;0.923041
9309.000000;0.923327
9308.000000;0.923484
9307.000000;0.923106
9306.000000;0.922400
9305.000000;0.921710
9304.000000;0.921142
9303.000000;0.920663
9302.000000;0.920302
9301.000000;0.920083
9300.000000;0.919872
9299.000000;0.919475
9298.000000;0.918934
9297.000000;0.918575
9296.000000;0.918640
9295.000000;0.918909
9294.000000;0.918852
9293.000000;0.918167
9292.000000;0.917080
9291.000000;0.916032
9290.000000;0.915189
9289.000000;0.914366
9288.000000;0.913415
9287.000000;0.912547
9286.000000;0.912190
9285.000000;0.912545
9284.000000;0.913327
9283.000000;0.913917
9282.000000;0.913782
9281.000000;0.912842
9280.000000;0.911537
9279.000000;0.910552
9278.000000;0.910331
9277.000000;0.910756
9276.000000;0.911274
9275.000000;0.911384
9274.000000;0.911006
9273.000000;0.910384
9272.000000;0.909723
9271.000000;0.909067
9270.000000;0.908510
9269.000000;0.908277
9268.000000;0.908438
9267.000000;0.908665
9266.000000;0.908510
9265.000000;0.907956
9264.000000;0.907472
9263.000000;0.907450
9262.000000;0.907758
9261.000000;0.907924
9260.000000;0.907627
9259.000000;0.906879
9258.000000;0.905888
9257.000000;0.904935
9256.000000;0.904329
9255.000000;0.904240
9254.000000;0.904499
9253.000000;0.904710
9252.000000;0.904641
9251.000000;0.904429
9250.000000;0.904350
9249.000000;0.904474
9248.000000;0.904555
9247.000000;0.904179
9246.000000;0.903043
9245.000000;0.901267
9244.000000;0.899532
9243.000000;0.898699
9242.000000;0.899060
9241.000000;0.899976
9240.000000;0.900432
9239.000000;0.899963
9238.000000;0.898963
9237.000000;0.898125
9236.000000;0.897758
9235.000000;0.897689
9234.000000;0.897603
9233.000000;0.897320
9232.000000;0.896817
9231.000000;0.896162
9230.000000;0.895491
9229.000000;0.894997
9228.000000;0.894822
9227.000000;0.894920
9226.000000;0.895009
9225.000000;0.894776
9224.000000;0.894201
9223.000000;0.893627
9222.000000;0.893398
9221.000000;0.893477
9220.000000;0.893537
9219.000000;0.893362
9218.000000;0.892985
9217.000000;0.892432
9216.000000;0.891634
9215.000000;0.890714
9214.000000;0.890121
9213.000000;0.890218
9212.000000;0.890832
9211.000000;0.891394
9210.000000;0.891475
9209.000000;0.891059
9208.000000;0.890367
9207.000000;0.889665
9206.000000;0.889196
9205.000000;0.889055
9204.000000;0.889051
9203.000000;0.888849
9202.000000;0.888315
9201.000000;0.887599
9200.000000;0.886894
9199.000000;0.886258
9198.000000;0.885709
9197.000000;0.885317
9196.000000;0.885084
9195.000000;0.884856
9194.000000;0.884453
9193.000000;0.883842
9192.000000;0.883141
9191.000000;0.882489
9190.000000;0.881942
9189.000000;0.881462
9188.000000;0.880970
9187.000000;0.880454
9186.000000;0.880047
9185.000000;0.879929
9184.000000;0.880172
9183.000000;0.880717
9182.000000;0.881431
9181.000000;0.882088
9180.000000;0.882365
9179.000000;0.882044
9178.000000;0.881269
9177.000000;0.880403
9176.000000;0.879611
9175.000000;0.878738
9174.000000;0.877683
9173.000000;0.876746
9172.000000;0.876433
9171.000000;0.876952
9170.000000;0.877970
9169.000000;0.878828
9168.000000;0.879017
9167.000000;0.878556
9166.000000;0.877931
9165.000000;0.877585
9164.000000;0.877450
9163.000000;0.877078
9162.000000;0.876272
9161.000000;0.875432
9160.000000;0.875166
9159.000000;0.875628
9158.000000;0.876311
9157.000000;0.876471
9156.000000;0.875772
9155.000000;0.874580
9154.000000;0.873617
9153.000000;0.873229
9152.000000;0.873050
9151.000000;0.872542
9150.000000;0.871739
9149.000000;0.871157
9148.000000;0.870972
9147.000000;0.870724
9146.000000;0.870062
9145.000000;0.869382
9144.000000;0.869360
9143.000000;0.870042
9142.000000;0.870814
9141.000000;0.871172
9140.000000;0.871149
9139.000000;0.870965
9138.000000;0.870659
9137.000000;0.870195
9136.000000;0.869625
9135.000000;0.868984
9134.000000;0.868197
9133.000000;0.867267
9132.000000;0.866434
9131.000000;0.866005
9130.000000;0.866077
9129.000000;0.866488
9128.000000;0.866965
9127.000000;0.867259
9126.000000;0.867282
9125.000000;0.867211
9124.000000;0.867349
9123.000000;0.867731
9122.000000;0.867952
9121.000000;0.867551
9120.000000;0.866564
9119.000000;0.865528
9118.000000;0.864898
9117.000000;0.864582
9116.000000;0.864159
9115.000000;0.863469
9114.000000;0.862810
9113.000000;0.862535
9112.000000;0.862596
9111.000000;0.862606
9110.000000;0.862307
9109.000000;0.861852
9108.000000;0.861614
9107.000000;0.861808
9106.000000;0.862330
9105.000000;0.862865
9104.000000;0.863084
9103.000000;0.862816
9102.000000;0.862143
9101.000000;0.861368
9100.000000;0.860801
9099.000000;0.860533
9098.000000;0.860403
9097.000000;0.860181
9096.000000;0.859778
9095.000000;0.859283
9094.000000;0.858809
9093.000000;0.858375
9092.000000;0.857957
9091.000000;0.857621
9090.000000;0.857480
9089.000000;0.857505
9088.000000;0.857482
9087.000000;0.857217
9086.000000;0.856681
9085.000000;0.855872
9084.000000;0.854711
9083.000000;0.853317
9082.000000;0.852288
9081.000000;0.852353
9080.000000;0.853581
9079.000000;0.855144
9078.000000;0.856018
9077.000000;0.855849
9076.000000;0.855031
9075.000000;0.854127
9074.000000;0.853459
9073.000000;0.853162
9072.000000;0.853314
9071.000000;0.853849
9070.000000;0.854476
9069.000000;0.854826
9068.000000;0.854754
9067.000000;0.854422
9066.000000;0.854054
9065.000000;0.853641
9064.000000;0.852989
9063.000000;0.852116
9062.000000;0.851434
9061.000000;0.851364
9060.000000;0.851800
9059.000000;0.852187
9058.000000;0.852146
9057.000000;0.851827
9056.000000;0.851566
9055.000000;0.851441
9054.000000;0.851339
9053.000000;0.851246
