Criado como novo conjunto de dados;"1909daniel.spp","-4247262.8 Secs"
cm-1;Abs
10000.000000;1.811433
9999.000000;1.807429
9998.000000;1.803867
9997.000000;1.801293
9996.000000;1.800954
9995.000000;1.803122
9994.000000;1.805639
9993.000000;1.806098
9992.000000;1.804747
9991.000000;1.803742
9990.000000;1.803658
9989.000000;1.802931
9988.000000;1.800883
9987.000000;1.799290
9986.000000;1.799884
9985.000000;1.801744
9984.000000;1.802505
9983.000000;1.801446
9982.000000;1.800057
9981.000000;1.799850
9980.000000;1.800628
9979.000000;1.800809
9978.000000;1.799000
9977.000000;1.795348
9976.000000;1.791693
9975.000000;1.790206
9974.000000;1.791421
9973.000000;1.793827
9972.000000;1.795728
9971.000000;1.796905
9970.000000;1.797752
9969.000000;1.797493
9968.000000;1.794520
9967.000000;1.788520
9966.000000;1.781473
9965.000000;1.776514
9964.000000;1.776124
9963.000000;1.780721
9962.000000;1.788012
9961.000000;1.794097
9960.000000;1.796341
9959.000000;1.795056
9958.000000;1.791877
9957.000000;1.787515
9956.000000;1.782140
9955.000000;1.777023
9954.000000;1.774114
9953.000000;1.773890
9952.000000;1.774687
9951.000000;1.774538
9950.000000;1.773175
9949.000000;1.771922
9948.000000;1.771984
9947.000000;1.772931
9946.000000;1.772737
9945.000000;1.769823
9944.000000;1.765424
9943.000000;1.763021
9942.000000;1.764704
9941.000000;1.768686
9940.000000;1.771218
9939.000000;1.770685
9938.000000;1.768614
9937.000000;1.766865
9936.000000;1.765642
9935.000000;1.764508
9934.000000;1.763544
9933.000000;1.762702
9932.000000;1.761450
9931.000000;1.760129
9930.000000;1.760476
9929.000000;1.763373
9928.000000;1.766587
9927.000000;1.766315
9926.000000;1.761418
9925.000000;1.755026
9924.000000;1.751327
9923.000000;1.751687
9922.000000;1.754325
9921.000000;1.756868
9920.000000;1.758311
9919.000000;1.758614
9918.000000;1.757540
9917.000000;1.754915
9916.000000;1.751627
9915.000000;1.749206
9914.000000;1.748153
9913.000000;1.747503
9912.000000;1.746392
9911.000000;1.745270
9910.000000;1.745044
9909.000000;1.745676
9908.000000;1.746326
9907.000000;1.746385
9906.000000;1.745663
9905.000000;1.744128
9904.000000;1.742343
9903.000000;1.741636
9902.000000;1.742655
9901.000000;1.743952
9900.000000;1.743158
9899.000000;1.739755
9898.000000;1.735751
9897.000000;1.733582
9896.000000;1.734057
9895.000000;1.736051
9894.000000;1.737552
9893.000000;1.737054
9892.000000;1.734605
9891.000000;1.731712
9890.000000;1.729826
9889.000000;1.728937
9888.000000;1.728145
9887.000000;1.727319
9886.000000;1.727189
9885.000000;1.727920
9884.000000;1.728724
9883.000000;1.729141
9882.000000;1.729567
9881.000000;1.729966
9880.000000;1.729168
9879.000000;1.726297
9878.000000;1.722236
9877.000000;1.718971
9876.000000;1.717951
9875.000000;1.719446
9874.000000;1.722641
9873.000000;1.725537
9872.000000;1.725629
9871.000000;1.722174
9870.000000;1.717540
9869.000000;1.715020
9868.000000;1.715284
9867.000000;1.715981
9866.000000;1.715096
9865.000000;1.713710
9864.000000;1.714470
9863.000000;1.717939
9862.000000;1.721567
9861.000000;1.722393
9860.000000;1.719981
9859.000000;1.716059
9858.000000;1.712113
9857.000000;1.708491
9856.000000;1.705518
9855.000000;1.704163
9854.000000;1.705054
9853.000000;1.707445
9852.000000;1.709658
9851.000000;1.710348
9850.000000;1.709157
9849.000000;1.706476
9848.000000;1.703319
9847.000000;1.701169
9846.000000;1.700932
9845.000000;1.702100
9844.000000;1.703359
9843.000000;1.703876
9842.000000;1.703576
9841.000000;1.702403
9840.000000;1.700288
9839.000000;1.697954
9838.000000;1.696697
9837.000000;1.696860
9836.000000;1.697133
9835.000000;1.695986
9834.000000;1.693389
9833.000000;1.690544
9832.000000;1.688395
9831.000000;1.687215
9830.000000;1.687318
9829.000000;1.689140
9828.000000;1.692297
9827.000000;1.695164
9826.000000;1.695931
9825.000000;1.694091
9824.000000;1.690749
9823.000000;1.687625
9822.000000;1.685919
9821.000000;1.685837
9820.000000;1.686749
9819.000000;1.687607
9818.000000;1.687484
9817.000000;1.686070
9816.000000;1.683863
9815.000000;1.681828
9814.000000;1.680735
9813.000000;1.680542
9812.000000;1.680300
9811.000000;1.678923
9810.000000;1.676339
9809.000000;1.673739
9808.000000;1.672331
9807.000000;1.671953
9806.000000;1.671353
9805.000000;1.669876
9804.000000;1.668280
9803.000000;1.667598
9802.000000;1.667836
9801.000000;1.668353
9800.000000;1.668918
9799.000000;1.669461
9798.000000;1.669199
9797.000000;1.667293
9796.000000;1.664458
9795.000000;1.662751
9794.000000;1.663385
9793.000000;1.665508
9792.000000;1.667366
9791.000000;1.667925
9790.000000;1.667031
9789.000000;1.664948
9788.000000;1.662496
9787.000000;1.660865
9786.000000;1.660486
9785.000000;1.660590
9784.000000;1.660462
9783.000000;1.660462
9782.000000;1.661078
9781.000000;1.661558
9780.000000;1.660531
9779.000000;1.657750
9778.000000;1.654290
9777.000000;1.651237
9776.000000;1.649038
9775.000000;1.647929
9774.000000;1.648029
9773.000000;1.648886
9772.000000;1.649604
9771.000000;1.649676
9770.000000;1.649305
9769.000000;1.648966
9768.000000;1.648996
9767.000000;1.649344
9766.000000;1.649458
9765.000000;1.648825
9764.000000;1.647867
9763.000000;1.647729
9762.000000;1.648636
9761.000000;1.649037
9760.000000;1.647402
9759.000000;1.644484
9758.000000;1.642513
9757.000000;1.642234
9756.000000;1.641976
9755.000000;1.639939
9754.000000;1.636444
9753.000000;1.633278
9752.000000;1.631595
9751.000000;1.631242
9750.000000;1.631589
9749.000000;1.632255
9748.000000;1.633186
9747.000000;1.634478
9746.000000;1.636043
9745.000000;1.637293
9744.000000;1.637393
9743.000000;1.635949
9742.000000;1.633359
9741.000000;1.630491
9740.000000;1.628179
9739.000000;1.626854
9738.000000;1.626355
9737.000000;1.626100
9736.000000;1.625712
9735.000000;1.625466
9734.000000;1.625843
9733.000000;1.626712
9732.000000;1.627272
9731.000000;1.626737
9730.000000;1.624876
9729.000000;1.622144
9728.000000;1.619605
9727.000000;1.618389
9726.000000;1.618709
9725.000000;1.619586
9724.000000;1.619956
9723.000000;1.619738
9722.000000;1.619303
9721.000000;1.618411
9720.000000;1.616647
9719.000000;1.614623
9718.000000;1.613564
9717.000000;1.613622
9716.000000;1.613630
9715.000000;1.612796
9714.000000;1.611802
9713.000000;1.611765
9712.000000;1.612765
9711.000000;1.613817
9710.000000;1.613927
9709.000000;1.612873
9708.000000;1.611264
9707.000000;1.610070
9706.000000;1.609826
9705.000000;1.610160
9704.000000;1.610363
9703.000000;1.610307
9702.000000;1.610311
9701.000000;1.610174
9700.000000;1.609165
9699.000000;1.607146
9698.000000;1.604996
9697.000000;1.603532
9696.000000;1.602633
9695.000000;1.601724
9694.000000;1.600500
9693.000000;1.598860
9692.000000;1.596726
9691.000000;1.594360
9690.000000;1.592507
9689.000000;1.591757
9688.000000;1.591909
9687.000000;1.592255
9686.000000;1.592219
9685.000000;1.591591
9684.000000;1.590531
9683.000000;1.589472
9682.000000;1.588783
9681.000000;1.588407
9680.000000;1.587949
9679.000000;1.587108
9678.000000;1.585789
9677.000000;1.584003
9676.000000;1.582184
9675.000000;1.581353
9674.000000;1.582194
9673.000000;1.583888
9672.000000;1.584655
9671.000000;1.583816
9670.000000;1.582490
9669.000000;1.581936
9668.000000;1.581980
9667.000000;1.581512
9666.000000;1.579875
9665.000000;1.577279
9664.000000;1.574385
9663.000000;1.572106
9662.000000;1.571403
9661.000000;1.572492
9660.000000;1.574349
9659.000000;1.575596
9658.000000;1.575804
9657.000000;1.575574
9656.000000;1.575505
9655.000000;1.575536
9654.000000;1.575202
9653.000000;1.573911
9652.000000;1.571141
9651.000000;1.567007
9650.000000;1.562629
9649.000000;1.559578
9648.000000;1.558797
9647.000000;1.560033
9646.000000;1.562199
9645.000000;1.564164
9644.000000;1.565293
9643.000000;1.565541
9642.000000;1.565149
9641.000000;1.564356
9640.000000;1.563461
9639.000000;1.562858
9638.000000;1.562598
9637.000000;1.562091
9636.000000;1.560746
9635.000000;1.558844
9634.000000;1.557164
9633.000000;1.555770
9632.000000;1.553997
9631.000000;1.551944
9630.000000;1.551052
9629.000000;1.552488
9628.000000;1.555389
9627.000000;1.557390
9626.000000;1.556920
9625.000000;1.554480
9624.000000;1.551729
9623.000000;1.549912
9622.000000;1.549147
9621.000000;1.548706
9620.000000;1.547829
9619.000000;1.546423
9618.000000;1.545013
9617.000000;1.544051
9616.000000;1.543523
9615.000000;1.543210
9614.000000;1.542923
9613.000000;1.542369
9612.000000;1.541265
9611.000000;1.539853
9610.000000;1.538831
9609.000000;1.538469
9608.000000;1.538186
9607.000000;1.537459
9606.000000;1.536744
9605.000000;1.536961
9604.000000;1.538360
9603.000000;1.540361
9602.000000;1.542156
9601.000000;1.543039
9600.000000;1.542373
9599.000000;1.539968
9598.000000;1.536711
9597.000000;1.534189
9596.000000;1.533278
9595.000000;1.533396
9594.000000;1.533297
9593.000000;1.532412
9592.000000;1.531291
9591.000000;1.530875
9590.000000;1.531436
9589.000000;1.532241
9588.000000;1.532328
9587.000000;1.531534
9586.000000;1.530420
9585.000000;1.529216
9584.000000;1.527548
9583.000000;1.525507
9582.000000;1.524164
9581.000000;1.524223
9580.000000;1.524636
9579.000000;1.523622
9578.000000;1.521077
9577.000000;1.518959
9576.000000;1.519005
9575.000000;1.520685
9574.000000;1.521859
9573.000000;1.521163
9572.000000;1.519169
9571.000000;1.517405
9570.000000;1.516931
9569.000000;1.517741
9568.000000;1.519017
9567.000000;1.519765
9566.000000;1.519443
9565.000000;1.518148
9564.000000;1.516339
9563.000000;1.514589
9562.000000;1.513470
9561.000000;1.513285
9560.000000;1.513714
9559.000000;1.513972
9558.000000;1.513575
9557.000000;1.512878
9556.000000;1.512623
9555.000000;1.512990
9554.000000;1.513313
9553.000000;1.512831
9552.000000;1.511525
9551.000000;1.510018
9550.000000;1.508776
9549.000000;1.507740
9548.000000;1.506776
9547.000000;1.506053
9546.000000;1.505581
9545.000000;1.504656
9544.000000;1.502423
9543.000000;1.499233
9542.000000;1.496896
9541.000000;1.497065
9540.000000;1.499463
9539.000000;1.501967
9538.000000;1.502458
9537.000000;1.500452
9536.000000;1.497079
9535.000000;1.493930
9534.000000;1.492010
9533.000000;1.491329
9532.000000;1.491175
9531.000000;1.490905
9530.000000;1.490562
9529.000000;1.490691
9528.000000;1.491546
9527.000000;1.492589
9526.000000;1.492886
9525.000000;1.491984
9524.000000;1.490325
9523.000000;1.488902
9522.000000;1.488458
9521.000000;1.488740
9520.000000;1.488544
9519.000000;1.486862
9518.000000;1.484076
9517.000000;1.481735
9516.000000;1.481080
9515.000000;1.482053
9514.000000;1.483766
9513.000000;1.485504
9512.000000;1.486886
9511.000000;1.487326
9510.000000;1.486052
9509.000000;1.483063
9508.000000;1.479767
9507.000000;1.478089
9506.000000;1.478789
9505.000000;1.480764
9504.000000;1.481995
9503.000000;1.481246
9502.000000;1.479045
9501.000000;1.476979
9500.000000;1.476102
9499.000000;1.476080
9498.000000;1.475623
9497.000000;1.473741
9496.000000;1.470784
9495.000000;1.468319
9494.000000;1.467853
9493.000000;1.469568
9492.000000;1.472298
9491.000000;1.474614
9490.000000;1.475797
9489.000000;1.475770
9488.000000;1.474575
9487.000000;1.472440
9486.000000;1.470159
9485.000000;1.468736
9484.000000;1.468451
9483.000000;1.468566
9482.000000;1.468081
9481.000000;1.466595
9480.000000;1.464345
9479.000000;1.461857
9478.000000;1.459787
9477.000000;1.458756
9476.000000;1.458946
9475.000000;1.459924
9474.000000;1.461016
9473.000000;1.461662
9472.000000;1.461341
9471.000000;1.459670
9470.000000;1.457069
9469.000000;1.454961
9468.000000;1.454695
9467.000000;1.456265
9466.000000;1.458405
9465.000000;1.459845
9464.000000;1.460026
9463.000000;1.458818
9462.000000;1.456390
9461.000000;1.453585
9460.000000;1.451591
9459.000000;1.450746
9458.000000;1.450173
9457.000000;1.449089
9456.000000;1.447981
9455.000000;1.447808
9454.000000;1.448461
9453.000000;1.448875
9452.000000;1.448627
9451.000000;1.448573
9450.000000;1.449569
9449.000000;1.451106
9448.000000;1.451594
9447.000000;1.449852
9446.000000;1.446158
9445.000000;1.442041
9444.000000;1.439222
9443.000000;1.438455
9442.000000;1.439101
9441.000000;1.439850
9440.000000;1.439986
9439.000000;1.439849
9438.000000;1.440146
9437.000000;1.441204
9436.000000;1.442873
9435.000000;1.444678
9434.000000;1.445840
9433.000000;1.445516
9432.000000;1.443418
9431.000000;1.440158
9430.000000;1.436800
9429.000000;1.434213
9428.000000;1.432831
9427.000000;1.432618
9426.000000;1.433038
9425.000000;1.433379
9424.000000;1.433379
9423.000000;1.433375
9422.000000;1.433668
9421.000000;1.434034
9420.000000;1.434085
9419.000000;1.433843
9418.000000;1.433563
9417.000000;1.433215
9416.000000;1.432579
9415.000000;1.431721
9414.000000;1.430919
9413.000000;1.430131
9412.000000;1.428959
9411.000000;1.427266
9410.000000;1.425508
9409.000000;1.424339
9408.000000;1.424070
9407.000000;1.424555
9406.000000;1.425499
9405.000000;1.426799
9404.000000;1.428559
9403.000000;1.430707
9402.000000;1.432507
9401.000000;1.432748
9400.000000;1.430834
9399.000000;1.427538
9398.000000;1.424335
9397.000000;1.422106
9396.000000;1.420699
9395.000000;1.419539
9394.000000;1.418254
9393.000000;1.416770
9392.000000;1.415278
9391.000000;1.414260
9390.000000;1.414205
9389.000000;1.415076
9388.000000;1.416222
9387.000000;1.416965
9386.000000;1.417134
9385.000000;1.416916
9384.000000;1.416422
9383.000000;1.415643
9382.000000;1.414749
9381.000000;1.414131
9380.000000;1.414013
9379.000000;1.414125
9378.000000;1.413909
9377.000000;1.413075
9376.000000;1.411860
9375.000000;1.410615
9374.000000;1.409298
9373.000000;1.407657
9372.000000;1.405873
9371.000000;1.404614
9370.000000;1.404290
9369.000000;1.404643
9368.000000;1.405248
9367.000000;1.406045
9366.000000;1.406995
9365.000000;1.407523
9364.000000;1.406873
9363.000000;1.405052
9362.000000;1.402895
9361.000000;1.401127
9360.000000;1.399856
9359.000000;1.399099
9358.000000;1.399218
9357.000000;1.400419
9356.000000;1.402033
9355.000000;1.402718
9354.000000;1.401560
9353.000000;1.398972
9352.000000;1.396496
9351.000000;1.395535
9350.000000;1.396151
9349.000000;1.397119
9348.000000;1.397270
9347.000000;1.396727
9346.000000;1.396493
9345.000000;1.396883
9344.000000;1.396997
9343.000000;1.395950
9342.000000;1.394086
9341.000000;1.392463
9340.000000;1.391549
9339.000000;1.391049
9338.000000;1.390828
9337.000000;1.391290
9336.000000;1.392555
9335.000000;1.393677
9334.000000;1.393256
9333.000000;1.390853
9332.000000;1.387555
9331.000000;1.385022
9330.000000;1.384094
9329.000000;1.384441
9328.000000;1.385351
9327.000000;1.386496
9326.000000;1.387857
9325.000000;1.389209
9324.000000;1.389961
9323.000000;1.389460
9322.000000;1.387463
9321.000000;1.384546
9320.000000;1.382027
9319.000000;1.381119
9318.000000;1.381872
9317.000000;1.383075
9316.000000;1.383452
9315.000000;1.382853
9314.000000;1.382045
9313.000000;1.381624
9312.000000;1.381560
9311.000000;1.381693
9310.000000;1.382008
9309.000000;1.382253
9308.000000;1.381819
9307.000000;1.380353
9306.000000;1.378161
9305.000000;1.375785
9304.000000;1.373510
9303.000000;1.371585
9302.000000;1.370541
9301.000000;1.370759
9300.000000;1.371846
9299.000000;1.372916
9298.000000;1.373496
9297.000000;1.373703
9296.000000;1.373478
9295.000000;1.372293
9294.000000;1.370093
9293.000000;1.368077
9292.000000;1.367814
9291.000000;1.369484
9290.000000;1.371510
9289.000000;1.372207
9288.000000;1.371496
9287.000000;1.370592
9286.000000;1.370320
9285.000000;1.370373
9284.000000;1.370156
9283.000000;1.369695
9282.000000;1.369332
9281.000000;1.368980
9280.000000;1.368241
9279.000000;1.367055
9278.000000;1.365890
9277.000000;1.365331
9276.000000;1.365641
9275.000000;1.366595
9274.000000;1.367563
9273.000000;1.367871
9272.000000;1.367352
9271.000000;1.366452
9270.000000;1.365642
9269.000000;1.364918
9268.000000;1.364094
9267.000000;1.363260
9266.000000;1.362539
9265.000000;1.361603
9264.000000;1.359959
9263.000000;1.357777
9262.000000;1.355973
9261.000000;1.355321
9260.000000;1.355739
9259.000000;1.356460
9258.000000;1.356628
9257.000000;1.355854
9256.000000;1.354589
9255.000000;1.353950
9254.000000;1.354753
9253.000000;1.356619
9252.000000;1.358293
9251.000000;1.358955
9250.000000;1.358888
9249.000000;1.358758
9248.000000;1.358676
9247.000000;1.358243
9246.000000;1.357137
9245.000000;1.355377
9244.000000;1.353252
9243.000000;1.351199
9242.000000;1.349590
9241.000000;1.348473
9240.000000;1.347738
9239.000000;1.347609
9238.000000;1.348582
9237.000000;1.350575
9236.000000;1.352495
9235.000000;1.353127
9234.000000;1.352334
9233.000000;1.350987
9232.000000;1.349876
9231.000000;1.349105
9230.000000;1.348469
9229.000000;1.347883
9228.000000;1.347266
9227.000000;1.346415
9226.000000;1.345322
9225.000000;1.344419
9224.000000;1.344205
9223.000000;1.344617
9222.000000;1.344972
9221.000000;1.344612
9220.000000;1.343529
9219.000000;1.342251
9218.000000;1.341216
9217.000000;1.340417
9216.000000;1.339673
9215.000000;1.339022
9214.000000;1.338681
9213.000000;1.338682
9212.000000;1.338767
9211.000000;1.338649
9210.000000;1.338225
9209.000000;1.337539
9208.000000;1.336778
9207.000000;1.336382
9206.000000;1.336881
9205.000000;1.338337
9204.000000;1.339963
9203.000000;1.340536
9202.000000;1.339409
9201.000000;1.337150
9200.000000;1.335143
9199.000000;1.334498
9198.000000;1.335287
9197.000000;1.336745
9196.000000;1.338096
9195.000000;1.338975
9194.000000;1.339143
9193.000000;1.338241
9192.000000;1.336240
9191.000000;1.333936
9190.000000;1.332527
9189.000000;1.332571
9188.000000;1.333545
9187.000000;1.334454
9186.000000;1.334655
9185.000000;1.334117
9184.000000;1.333200
9183.000000;1.332324
9182.000000;1.331686
9181.000000;1.331139
9180.000000;1.330433
9179.000000;1.329561
9178.000000;1.328738
9177.000000;1.328056
9176.000000;1.327409
9175.000000;1.326771
9174.000000;1.326339
9173.000000;1.326314
9172.000000;1.326740
9171.000000;1.327484
9170.000000;1.328134
9169.000000;1.327989
9168.000000;1.326639
9167.000000;1.324678
9166.000000;1.323365
9165.000000;1.323373
9164.000000;1.324158
9163.000000;1.324728
9162.000000;1.324712
9161.000000;1.324384
9160.000000;1.323995
9159.000000;1.323583
9158.000000;1.323215
9157.000000;1.322871
9156.000000;1.322184
9155.000000;1.320850
9154.000000;1.319323
9153.000000;1.318600
9152.000000;1.319101
9151.000000;1.320162
9150.000000;1.320838
9149.000000;1.320853
9148.000000;1.320472
9147.000000;1.319765
9146.000000;1.318514
9145.000000;1.316804
9144.000000;1.315254
9143.000000;1.314460
9142.000000;1.314427
9141.000000;1.314690
9140.000000;1.314781
9139.000000;1.314472
9138.000000;1.313841
9137.000000;1.313328
9136.000000;1.313467
9135.000000;1.314241
9134.000000;1.314832
9133.000000;1.314480
9132.000000;1.313534
9131.000000;1.313099
9130.000000;1.313546
9129.000000;1.313939
9128.000000;1.313280
9127.000000;1.311834
9126.000000;1.310731
9125.000000;1.310657
9124.000000;1.311401
9123.000000;1.312370
9122.000000;1.312987
9121.000000;1.312757
9120.000000;1.311650
9119.000000;1.310467
9118.000000;1.310226
9117.000000;1.311021
9116.000000;1.311906
9115.000000;1.312016
9114.000000;1.311408
9113.000000;1.310672
9112.000000;1.310218
9111.000000;1.310117
9110.000000;1.310201
9109.000000;1.310068
9108.000000;1.309387
9107.000000;1.308419
9106.000000;1.307867
9105.000000;1.308021
9104.000000;1.308341
9103.000000;1.308079
9102.000000;1.306982
9101.000000;1.305263
9100.000000;1.303362
9099.000000;1.302007
9098.000000;1.301990
9097.000000;1.303376
9096.000000;1.305162
9095.000000;1.306094
9094.000000;1.305728
9093.000000;1.304492
9092.000000;1.303006
9091.000000;1.301709
9090.000000;1.300840
9089.000000;1.300337
9088.000000;1.299962
9087.000000;1.299774
9086.000000;1.300162
9085.000000;1.301042
9084.000000;1.301462
9083.000000;1.300600
9082.000000;1.298945
9081.000000;1.297889
9080.000000;1.298223
9079.000000;1.299487
9078.000000;1.300660
9077.000000;1.301041
9076.000000;1.300572
9075.000000;1.299820
9074.000000;1.299703
9073.000000;1.300748
9072.000000;1.302406
9071.000000;1.303413
9070.000000;1.302991
9069.000000;1.301474
9068.000000;1.299697
9067.000000;1.298178
9066.000000;1.296996
9065.000000;1.296070
9064.000000;1.295335
9063.000000;1.294821
9062.000000;1.294636
9061.000000;1.294778
9060.000000;1.294978
9059.000000;1.294901
9058.000000;1.294458
9057.000000;1.293742
9056.000000;1.292841
9055.000000;1.291979
9054.000000;1.291692
9053.000000;1.292405
