Criado como novo conjunto de dados;"1909daniel.spp","-4214141.3 Secs"
cm-1;Abs
10000.000000;1.210584
9999.000000;1.210247
9998.000000;1.209149
9997.000000;1.207519
9996.000000;1.206077
9995.000000;1.205127
9994.000000;1.204484
9993.000000;1.203706
9992.000000;1.202854
9991.000000;1.202469
9990.000000;1.202909
9989.000000;1.203605
9988.000000;1.203448
9987.000000;1.201993
9986.000000;1.199997
9985.000000;1.198514
9984.000000;1.197848
9983.000000;1.197705
9982.000000;1.197916
9981.000000;1.198338
9980.000000;1.198325
9979.000000;1.197159
9978.000000;1.195134
9977.000000;1.193457
9976.000000;1.192822
9975.000000;1.192666
9974.000000;1.192105
9973.000000;1.191032
9972.000000;1.189912
9971.000000;1.189005
9970.000000;1.188244
9969.000000;1.187526
9968.000000;1.186651
9967.000000;1.185291
9966.000000;1.183479
9965.000000;1.181914
9964.000000;1.181331
9963.000000;1.181679
9962.000000;1.182225
9961.000000;1.182358
9960.000000;1.182003
9959.000000;1.181341
9958.000000;1.180464
9957.000000;1.179333
9956.000000;1.177905
9955.000000;1.176367
9954.000000;1.175250
9953.000000;1.175068
9952.000000;1.175680
9951.000000;1.176202
9950.000000;1.175785
9949.000000;1.174358
9948.000000;1.172506
9947.000000;1.170836
9946.000000;1.169673
9945.000000;1.169088
9944.000000;1.168862
9943.000000;1.168604
9942.000000;1.168163
9941.000000;1.167762
9940.000000;1.167547
9939.000000;1.167258
9938.000000;1.166582
9937.000000;1.165620
9936.000000;1.164722
9935.000000;1.164048
9934.000000;1.163554
9933.000000;1.163211
9932.000000;1.162988
9931.000000;1.162744
9930.000000;1.162383
9929.000000;1.161957
9928.000000;1.161446
9927.000000;1.160634
9926.000000;1.159396
9925.000000;1.157864
9924.000000;1.156119
9923.000000;1.154076
9922.000000;1.151951
9921.000000;1.150464
9920.000000;1.150117
9919.000000;1.150455
9918.000000;1.150483
9917.000000;1.149764
9916.000000;1.148740
9915.000000;1.148062
9914.000000;1.147961
9913.000000;1.148216
9912.000000;1.148351
9911.000000;1.147842
9910.000000;1.146505
9909.000000;1.144748
9908.000000;1.143249
9907.000000;1.142340
9906.000000;1.141876
9905.000000;1.141579
9904.000000;1.141302
9903.000000;1.141000
9902.000000;1.140660
9901.000000;1.140247
9900.000000;1.139659
9899.000000;1.138854
9898.000000;1.138064
9897.000000;1.137605
9896.000000;1.137363
9895.000000;1.136769
9894.000000;1.135511
9893.000000;1.133942
9892.000000;1.132522
9891.000000;1.131217
9890.000000;1.129839
9889.000000;1.128611
9888.000000;1.127841
9887.000000;1.127272
9886.000000;1.126383
9885.000000;1.125265
9884.000000;1.124592
9883.000000;1.124659
9882.000000;1.124979
9881.000000;1.124981
9880.000000;1.124645
9879.000000;1.124214
9878.000000;1.123719
9877.000000;1.123082
9876.000000;1.122407
9875.000000;1.121874
9874.000000;1.121434
9873.000000;1.120766
9872.000000;1.119522
9871.000000;1.117659
9870.000000;1.115604
9869.000000;1.113971
9868.000000;1.112942
9867.000000;1.112064
9866.000000;1.110907
9865.000000;1.109796
9864.000000;1.109496
9863.000000;1.110168
9862.000000;1.111103
9861.000000;1.111612
9860.000000;1.111726
9859.000000;1.111729
9858.000000;1.111415
9857.000000;1.110287
9856.000000;1.108347
9855.000000;1.106252
9854.000000;1.104652
9853.000000;1.103640
9852.000000;1.102882
9851.000000;1.102091
9850.000000;1.101310
9849.000000;1.100832
9848.000000;1.100893
9847.000000;1.101360
9846.000000;1.101664
9845.000000;1.101168
9844.000000;1.099682
9843.000000;1.097657
9842.000000;1.095828
9841.000000;1.094590
9840.000000;1.093672
9839.000000;1.092457
9838.000000;1.090756
9837.000000;1.089242
9836.000000;1.088899
9835.000000;1.089920
9834.000000;1.091233
9833.000000;1.091366
9832.000000;1.089918
9831.000000;1.087965
9830.000000;1.086850
9829.000000;1.086767
9828.000000;1.086721
9827.000000;1.085791
9826.000000;1.084102
9825.000000;1.082490
9824.000000;1.081577
9823.000000;1.081433
9822.000000;1.081848
9821.000000;1.082553
9820.000000;1.083241
9819.000000;1.083714
9818.000000;1.084018
9817.000000;1.084186
9816.000000;1.083935
9815.000000;1.082938
9814.000000;1.081360
9813.000000;1.079742
9812.000000;1.078351
9811.000000;1.077039
9810.000000;1.075750
9809.000000;1.074692
9808.000000;1.073829
9807.000000;1.072727
9806.000000;1.071223
9805.000000;1.069861
9804.000000;1.069252
9803.000000;1.069285
9802.000000;1.069313
9801.000000;1.068911
9800.000000;1.068122
9799.000000;1.067160
9798.000000;1.066317
9797.000000;1.065994
9796.000000;1.066322
9795.000000;1.066718
9794.000000;1.066249
9793.000000;1.064638
9792.000000;1.062601
9791.000000;1.061029
9790.000000;1.060115
9789.000000;1.059410
9788.000000;1.058533
9787.000000;1.057581
9786.000000;1.056833
9785.000000;1.056278
9784.000000;1.055622
9783.000000;1.054756
9782.000000;1.054017
9781.000000;1.053790
9780.000000;1.053975
9779.000000;1.054121
9778.000000;1.054039
9777.000000;1.053894
9776.000000;1.053607
9775.000000;1.052604
9774.000000;1.050534
9773.000000;1.047985
9772.000000;1.046068
9771.000000;1.045367
9770.000000;1.045562
9769.000000;1.045939
9768.000000;1.045927
9767.000000;1.045180
9766.000000;1.043593
9765.000000;1.041531
9764.000000;1.039857
9763.000000;1.039372
9762.000000;1.040070
9761.000000;1.041005
9760.000000;1.041052
9759.000000;1.039940
9758.000000;1.038430
9757.000000;1.037393
9756.000000;1.036896
9755.000000;1.036415
9754.000000;1.035712
9753.000000;1.034987
9752.000000;1.034201
9751.000000;1.032936
9750.000000;1.031211
9749.000000;1.029898
9748.000000;1.029821
9747.000000;1.030721
9746.000000;1.031526
9745.000000;1.031489
9744.000000;1.030654
9743.000000;1.029388
9742.000000;1.028012
9741.000000;1.026870
9740.000000;1.026233
9739.000000;1.025963
9738.000000;1.025559
9737.000000;1.024617
9736.000000;1.023107
9735.000000;1.021300
9734.000000;1.019705
9733.000000;1.018928
9732.000000;1.019140
9731.000000;1.019670
9730.000000;1.019522
9729.000000;1.018435
9728.000000;1.017099
9727.000000;1.016208
9726.000000;1.015711
9725.000000;1.015180
9724.000000;1.014491
9723.000000;1.013800
9722.000000;1.013103
9721.000000;1.012256
9720.000000;1.011363
9719.000000;1.010748
9718.000000;1.010460
9717.000000;1.010081
9716.000000;1.009206
9715.000000;1.007940
9714.000000;1.006718
9713.000000;1.005723
9712.000000;1.004716
9711.000000;1.003503
9710.000000;1.002367
9709.000000;1.001826
9708.000000;1.002018
9707.000000;1.002506
9706.000000;1.002716
9705.000000;1.002486
9704.000000;1.002075
9703.000000;1.001729
9702.000000;1.001356
9701.000000;1.000620
9700.000000;0.999325
9699.000000;0.997726
9698.000000;0.996390
9697.000000;0.995683
9696.000000;0.995452
9695.000000;0.995306
9694.000000;0.995089
9693.000000;0.994852
9692.000000;0.994431
9691.000000;0.993452
9690.000000;0.991881
9689.000000;0.990217
9688.000000;0.988943
9687.000000;0.988058
9686.000000;0.987313
9685.000000;0.986646
9684.000000;0.986100
9683.000000;0.985552
9682.000000;0.984867
9681.000000;0.984197
9680.000000;0.983813
9679.000000;0.983674
9678.000000;0.983430
9677.000000;0.982868
9676.000000;0.982107
9675.000000;0.981373
9674.000000;0.980780
9673.000000;0.980327
9672.000000;0.979935
9671.000000;0.979420
9670.000000;0.978604
9669.000000;0.977484
9668.000000;0.976261
9667.000000;0.975208
9666.000000;0.974546
9665.000000;0.974292
9664.000000;0.974133
9663.000000;0.973588
9662.000000;0.972494
9661.000000;0.971262
9660.000000;0.970431
9659.000000;0.970070
9658.000000;0.969806
9657.000000;0.969343
9656.000000;0.968691
9655.000000;0.967925
9654.000000;0.967057
9653.000000;0.966216
9652.000000;0.965708
9651.000000;0.965693
9650.000000;0.965896
9649.000000;0.965788
9648.000000;0.965050
9647.000000;0.963810
9646.000000;0.962473
9645.000000;0.961390
9644.000000;0.960677
9643.000000;0.960253
9642.000000;0.959909
9641.000000;0.959310
9640.000000;0.958132
9639.000000;0.956458
9638.000000;0.954984
9637.000000;0.954488
9636.000000;0.954946
9635.000000;0.955420
9634.000000;0.954996
9633.000000;0.953742
9632.000000;0.952480
9631.000000;0.951758
9630.000000;0.951325
9629.000000;0.950609
9628.000000;0.949493
9627.000000;0.948531
9626.000000;0.948384
9625.000000;0.949030
9624.000000;0.949586
9623.000000;0.949130
9622.000000;0.947743
9621.000000;0.946476
9620.000000;0.946143
9619.000000;0.946397
9618.000000;0.946224
9617.000000;0.945127
9616.000000;0.943509
9615.000000;0.942049
9614.000000;0.941088
9613.000000;0.940588
9612.000000;0.940326
9611.000000;0.940006
9610.000000;0.939392
9609.000000;0.938470
9608.000000;0.937441
9607.000000;0.936535
9606.000000;0.935863
9605.000000;0.935383
9604.000000;0.934920
9603.000000;0.934291
9602.000000;0.933525
9601.000000;0.932854
9600.000000;0.932395
9599.000000;0.931984
9598.000000;0.931437
9597.000000;0.930783
9596.000000;0.930058
9595.000000;0.929055
9594.000000;0.927591
9593.000000;0.925915
9592.000000;0.924530
9591.000000;0.923642
9590.000000;0.923089
9589.000000;0.922807
9588.000000;0.923012
9587.000000;0.923780
9586.000000;0.924643
9585.000000;0.924839
9584.000000;0.923957
9583.000000;0.922312
9582.000000;0.920739
9581.000000;0.919972
9580.000000;0.920063
9579.000000;0.920346
9578.000000;0.920033
9577.000000;0.918895
9576.000000;0.917284
9575.000000;0.915627
9574.000000;0.914109
9573.000000;0.912796
9572.000000;0.911799
9571.000000;0.911204
9570.000000;0.910932
9569.000000;0.910774
9568.000000;0.910565
9567.000000;0.910248
9566.000000;0.909811
9565.000000;0.909209
9564.000000;0.908410
9563.000000;0.907568
9562.000000;0.907068
9561.000000;0.907245
9560.000000;0.907972
9559.000000;0.908635
9558.000000;0.908636
9557.000000;0.907836
9556.000000;0.906481
9555.000000;0.904889
9554.000000;0.903364
9553.000000;0.902228
9552.000000;0.901656
9551.000000;0.901452
9550.000000;0.901188
9549.000000;0.900609
9548.000000;0.899832
9547.000000;0.899141
9546.000000;0.898701
9545.000000;0.898474
9544.000000;0.898308
9543.000000;0.898074
9542.000000;0.897726
9541.000000;0.897223
9540.000000;0.896446
9539.000000;0.895331
9538.000000;0.894017
9537.000000;0.892710
9536.000000;0.891387
9535.000000;0.889904
9534.000000;0.888454
9533.000000;0.887600
9532.000000;0.887621
9531.000000;0.888050
9530.000000;0.888090
9529.000000;0.887390
9528.000000;0.886214
9527.000000;0.885064
9526.000000;0.884353
9525.000000;0.884252
9524.000000;0.884483
9523.000000;0.884372
9522.000000;0.883451
9521.000000;0.882034
9520.000000;0.880871
9519.000000;0.880254
9518.000000;0.879777
9517.000000;0.879034
9516.000000;0.878266
9515.000000;0.878102
9514.000000;0.878795
9513.000000;0.879827
9512.000000;0.880236
9511.000000;0.879394
9510.000000;0.877580
9509.000000;0.875767
9508.000000;0.874753
9507.000000;0.874528
9506.000000;0.874539
9505.000000;0.874389
9504.000000;0.874023
9503.000000;0.873404
9502.000000;0.872427
9501.000000;0.871257
9500.000000;0.870402
9499.000000;0.870204
9498.000000;0.870418
9497.000000;0.870447
9496.000000;0.869927
9495.000000;0.868988
9494.000000;0.868037
9493.000000;0.867329
9492.000000;0.866727
9491.000000;0.865832
9490.000000;0.864456
9489.000000;0.862992
9488.000000;0.862185
9487.000000;0.862392
9486.000000;0.863124
9485.000000;0.863453
9484.000000;0.862889
9483.000000;0.861755
9482.000000;0.860687
9481.000000;0.859892
9480.000000;0.859033
9479.000000;0.857799
9478.000000;0.856370
9477.000000;0.855208
9476.000000;0.854514
9475.000000;0.854138
9474.000000;0.853898
9473.000000;0.853757
9472.000000;0.853647
9471.000000;0.853413
9470.000000;0.853002
9469.000000;0.852523
9468.000000;0.852004
9467.000000;0.851350
9466.000000;0.850641
9465.000000;0.850216
9464.000000;0.850233
9463.000000;0.850349
9462.000000;0.850076
9461.000000;0.849284
9460.000000;0.848180
9459.000000;0.846974
9458.000000;0.845842
9457.000000;0.845028
9456.000000;0.844651
9455.000000;0.844445
9454.000000;0.844000
9453.000000;0.843218
9452.000000;0.842327
9451.000000;0.841486
9450.000000;0.840689
9449.000000;0.840018
9448.000000;0.839673
9447.000000;0.839658
9446.000000;0.839670
9445.000000;0.839417
9444.000000;0.838916
9443.000000;0.838404
9442.000000;0.838064
9441.000000;0.837877
9440.000000;0.837632
9439.000000;0.837084
9438.000000;0.836224
9437.000000;0.835376
9436.000000;0.834914
9435.000000;0.834867
9434.000000;0.834878
9433.000000;0.834521
9432.000000;0.833597
9431.000000;0.832223
9430.000000;0.830799
9429.000000;0.829763
9428.000000;0.829212
9427.000000;0.828808
9426.000000;0.828225
9425.000000;0.827571
9424.000000;0.827133
9423.000000;0.826825
9422.000000;0.826242
9421.000000;0.825272
9420.000000;0.824351
9419.000000;0.823944
9418.000000;0.824014
9417.000000;0.824121
9416.000000;0.823897
9415.000000;0.823287
9414.000000;0.822436
9413.000000;0.821478
9412.000000;0.820454
9411.000000;0.819401
9410.000000;0.818519
9409.000000;0.818120
9408.000000;0.818305
9407.000000;0.818774
9406.000000;0.819058
9405.000000;0.818908
9404.000000;0.818339
9403.000000;0.817411
9402.000000;0.816202
9401.000000;0.814934
9400.000000;0.813870
9399.000000;0.813091
9398.000000;0.812600
9397.000000;0.812561
9396.000000;0.813094
9395.000000;0.813796
9394.000000;0.813865
9393.000000;0.812896
9392.000000;0.811337
9391.000000;0.809980
9390.000000;0.809224
9389.000000;0.808990
9388.000000;0.809082
9387.000000;0.809312
9386.000000;0.809426
9385.000000;0.809226
9384.000000;0.808803
9383.000000;0.808438
9382.000000;0.808259
9381.000000;0.808119
9380.000000;0.807820
9379.000000;0.807300
9378.000000;0.806564
9377.000000;0.805569
9376.000000;0.804320
9375.000000;0.803010
9374.000000;0.801965
9373.000000;0.801398
9372.000000;0.801246
9371.000000;0.801258
9370.000000;0.801220
9369.000000;0.801038
9368.000000;0.800634
9367.000000;0.799875
9366.000000;0.798690
9365.000000;0.797246
9364.000000;0.795926
9363.000000;0.795079
9362.000000;0.794783
9361.000000;0.794836
9360.000000;0.794929
9359.000000;0.794859
9358.000000;0.794654
9357.000000;0.794511
9356.000000;0.794553
9355.000000;0.794630
9354.000000;0.794357
9353.000000;0.793386
9352.000000;0.791675
9351.000000;0.789581
9350.000000;0.787724
9349.000000;0.786646
9348.000000;0.786474
9347.000000;0.786869
9346.000000;0.787300
9345.000000;0.787389
9344.000000;0.787022
9343.000000;0.786303
9342.000000;0.785497
9341.000000;0.784930
9340.000000;0.784771
9339.000000;0.784891
9338.000000;0.785029
9337.000000;0.785089
9336.000000;0.785188
9335.000000;0.785373
9334.000000;0.785409
9333.000000;0.784936
9332.000000;0.783833
9331.000000;0.782381
9330.000000;0.781051
9329.000000;0.780136
9328.000000;0.779567
9327.000000;0.779101
9326.000000;0.778643
9325.000000;0.778337
9324.000000;0.778313
9323.000000;0.778441
9322.000000;0.778423
9321.000000;0.778104
9320.000000;0.777589
9319.000000;0.777042
9318.000000;0.776444
9317.000000;0.775643
9316.000000;0.774626
9315.000000;0.773631
9314.000000;0.772923
9313.000000;0.772491
9312.000000;0.772091
9311.000000;0.771592
9310.000000;0.771138
9309.000000;0.770833
9308.000000;0.770457
9307.000000;0.769695
9306.000000;0.768588
9305.000000;0.767539
9304.000000;0.766880
9303.000000;0.766639
9302.000000;0.766705
9301.000000;0.766953
9300.000000;0.767148
9299.000000;0.766961
9298.000000;0.766291
9297.000000;0.765444
9296.000000;0.764856
9295.000000;0.764675
9294.000000;0.764678
9293.000000;0.764476
9292.000000;0.763816
9291.000000;0.762810
9290.000000;0.761900
9289.000000;0.761440
9288.000000;0.761310
9287.000000;0.761105
9286.000000;0.760719
9285.000000;0.760472
9284.000000;0.760585
9283.000000;0.760820
9282.000000;0.760781
9281.000000;0.760344
9280.000000;0.759631
9279.000000;0.758816
9278.000000;0.758112
9277.000000;0.757707
9276.000000;0.757487
9275.000000;0.757039
9274.000000;0.756195
9273.000000;0.755339
9272.000000;0.754938
9271.000000;0.754963
9270.000000;0.755089
9269.000000;0.755247
9268.000000;0.755537
9267.000000;0.755711
9266.000000;0.755255
9265.000000;0.754081
9264.000000;0.752752
9263.000000;0.751880
9262.000000;0.751564
9261.000000;0.751508
9260.000000;0.751400
9259.000000;0.751011
9258.000000;0.750161
9257.000000;0.748871
9256.000000;0.747499
9255.000000;0.746563
9254.000000;0.746351
9253.000000;0.746688
9252.000000;0.747077
9251.000000;0.747143
9250.000000;0.746982
9249.000000;0.747002
9248.000000;0.747361
9247.000000;0.747683
9246.000000;0.747441
9245.000000;0.746524
9244.000000;0.745315
9243.000000;0.744283
9242.000000;0.743674
9241.000000;0.743453
9240.000000;0.743323
9239.000000;0.742858
9238.000000;0.741896
9237.000000;0.740817
9236.000000;0.740202
9235.000000;0.740206
9234.000000;0.740434
9233.000000;0.740468
9232.000000;0.740285
9231.000000;0.740096
9230.000000;0.739973
9229.000000;0.739765
9228.000000;0.739288
9227.000000;0.738510
9226.000000;0.737618
9225.000000;0.736928
9224.000000;0.736632
9223.000000;0.736606
9222.000000;0.736530
9221.000000;0.736210
9220.000000;0.735698
9219.000000;0.735126
9218.000000;0.734538
9217.000000;0.733912
9216.000000;0.733263
9215.000000;0.732701
9214.000000;0.732423
9213.000000;0.732537
9212.000000;0.732826
9211.000000;0.732803
9210.000000;0.732247
9209.000000;0.731580
9208.000000;0.731432
9207.000000;0.731809
9206.000000;0.731984
9205.000000;0.731347
9204.000000;0.730156
9203.000000;0.729209
9202.000000;0.728914
9201.000000;0.728936
9200.000000;0.728718
9199.000000;0.728131
9198.000000;0.727488
9197.000000;0.727067
9196.000000;0.726776
9195.000000;0.726309
9194.000000;0.725528
9193.000000;0.724643
9192.000000;0.724063
9191.000000;0.724097
9190.000000;0.724716
9189.000000;0.725530
9188.000000;0.726038
9187.000000;0.726015
9186.000000;0.725635
9185.000000;0.725155
9184.000000;0.724575
9183.000000;0.723767
9182.000000;0.722876
9181.000000;0.722294
9180.000000;0.722181
9179.000000;0.722247
9178.000000;0.722107
9177.000000;0.721641
9176.000000;0.720897
9175.000000;0.719899
9174.000000;0.718786
9173.000000;0.717944
9172.000000;0.717708
9171.000000;0.717983
9170.000000;0.718361
9169.000000;0.718555
9168.000000;0.718550
9167.000000;0.718392
9166.000000;0.718052
9165.000000;0.717477
9164.000000;0.716642
9163.000000;0.715577
9162.000000;0.714463
9161.000000;0.713599
9160.000000;0.713160
9159.000000;0.713026
9158.000000;0.712994
9157.000000;0.713021
9156.000000;0.713134
9155.000000;0.713218
9154.000000;0.713092
9153.000000;0.712705
9152.000000;0.712102
9151.000000;0.711342
9150.000000;0.710621
9149.000000;0.710282
9148.000000;0.710393
9147.000000;0.710474
9146.000000;0.710001
9145.000000;0.709122
9144.000000;0.708508
9143.000000;0.708497
9142.000000;0.708777
9141.000000;0.708957
9140.000000;0.709034
9139.000000;0.709147
9138.000000;0.709206
9137.000000;0.709037
9136.000000;0.708654
9135.000000;0.708169
9134.000000;0.707578
9133.000000;0.706847
9132.000000;0.706115
9131.000000;0.705596
9130.000000;0.705326
9129.000000;0.705116
9128.000000;0.704737
9127.000000;0.704105
9126.000000;0.703392
9125.000000;0.702990
9124.000000;0.703212
9123.000000;0.703924
9122.000000;0.704560
9121.000000;0.704587
9120.000000;0.703926
9119.000000;0.702905
9118.000000;0.701931
9117.000000;0.701258
9116.000000;0.700942
9115.000000;0.700842
9114.000000;0.700728
9113.000000;0.700471
9112.000000;0.700168
9111.000000;0.700017
9110.000000;0.700089
9109.000000;0.700226
9108.000000;0.700178
9107.000000;0.699865
9106.000000;0.699496
9105.000000;0.699342
9104.000000;0.699338
9103.000000;0.699079
9102.000000;0.698359
9101.000000;0.697572
9100.000000;0.697305
9099.000000;0.697605
9098.000000;0.697931
9097.000000;0.697880
9096.000000;0.697610
9095.000000;0.697435
9094.000000;0.697301
9093.000000;0.696923
9092.000000;0.696255
9091.000000;0.695512
9090.000000;0.694833
9089.000000;0.694176
9088.000000;0.693528
9087.000000;0.692993
9086.000000;0.692606
9085.000000;0.692253
9084.000000;0.691835
9083.000000;0.691405
9082.000000;0.691083
9081.000000;0.690914
9080.000000;0.690856
9079.000000;0.690814
9078.000000;0.690639
9077.000000;0.690190
9076.000000;0.689506
9075.000000;0.688862
9074.000000;0.688556
9073.000000;0.688644
9072.000000;0.688949
9071.000000;0.689308
9070.000000;0.689714
9069.000000;0.690180
9068.000000;0.690579
9067.000000;0.690696
9066.000000;0.690400
9065.000000;0.689693
9064.000000;0.688635
9063.000000;0.687354
9062.000000;0.686126
9061.000000;0.685323
9060.000000;0.685147
9059.000000;0.685452
9058.000000;0.685851
9057.000000;0.685981
9056.000000;0.685703
9055.000000;0.685142
9054.000000;0.684589
9053.000000;0.684299
