Criado como novo conjunto de dados;"1909daniel.spp","-4225121.9 Secs"
cm-1;Abs
10000.000000;1.546475
9999.000000;1.546457
9998.000000;1.546439
9997.000000;1.546420
9996.000000;1.546404
9995.000000;1.546382
9994.000000;1.546371
9993.000000;1.546340
9992.000000;1.546345
9991.000000;1.546284
9990.000000;1.546361
9989.000000;1.545823
9988.000000;1.544413
9987.000000;1.542894
9986.000000;1.541687
9985.000000;1.540825
9984.000000;1.539668
9983.000000;1.537790
9982.000000;1.535407
9981.000000;1.533089
9980.000000;1.531214
9979.000000;1.529822
9978.000000;1.528836
9977.000000;1.528322
9976.000000;1.528608
9975.000000;1.529999
9974.000000;1.532159
9973.000000;1.533933
9972.000000;1.534105
9971.000000;1.532340
9970.000000;1.529312
9969.000000;1.526140
9968.000000;1.523930
9967.000000;1.523431
9966.000000;1.524559
9965.000000;1.526296
9964.000000;1.527455
9963.000000;1.527596
9962.000000;1.527004
9961.000000;1.525992
9960.000000;1.524760
9959.000000;1.523743
9958.000000;1.523429
9957.000000;1.523731
9956.000000;1.524044
9955.000000;1.523965
9954.000000;1.523560
9953.000000;1.522911
9952.000000;1.521952
9951.000000;1.520791
9950.000000;1.519723
9949.000000;1.518781
9948.000000;1.517671
9947.000000;1.516246
9946.000000;1.514718
9945.000000;1.513331
9944.000000;1.512125
9943.000000;1.511081
9942.000000;1.510191
9941.000000;1.509372
9940.000000;1.508570
9939.000000;1.507861
9938.000000;1.507165
9937.000000;1.506097
9936.000000;1.504658
9935.000000;1.503815
9934.000000;1.504568
9933.000000;1.506355
9932.000000;1.507236
9931.000000;1.505996
9930.000000;1.503461
9929.000000;1.501311
9928.000000;1.500372
9927.000000;1.500536
9926.000000;1.501455
9925.000000;1.502499
9924.000000;1.502636
9923.000000;1.501380
9922.000000;1.499695
9921.000000;1.499023
9920.000000;1.499366
9919.000000;1.499082
9918.000000;1.496902
9917.000000;1.493521
9916.000000;1.490753
9915.000000;1.489601
9914.000000;1.489596
9913.000000;1.489671
9912.000000;1.489196
9911.000000;1.488238
9910.000000;1.487319
9909.000000;1.487115
9908.000000;1.488011
9907.000000;1.489541
9906.000000;1.490383
9905.000000;1.489420
9904.000000;1.487058
9903.000000;1.485175
9902.000000;1.485394
9901.000000;1.487427
9900.000000;1.489265
9899.000000;1.489043
9898.000000;1.486669
9897.000000;1.483609
9896.000000;1.481332
9895.000000;1.480238
9894.000000;1.479894
9893.000000;1.479871
9892.000000;1.480054
9891.000000;1.480252
9890.000000;1.479961
9889.000000;1.478793
9888.000000;1.476969
9887.000000;1.475152
9886.000000;1.473888
9885.000000;1.473425
9884.000000;1.473864
9883.000000;1.475048
9882.000000;1.476227
9881.000000;1.476317
9880.000000;1.474841
9879.000000;1.472428
9878.000000;1.470127
9877.000000;1.468467
9876.000000;1.467323
9875.000000;1.466360
9874.000000;1.465252
9873.000000;1.463815
9872.000000;1.462414
9871.000000;1.461982
9870.000000;1.463071
9869.000000;1.464907
9868.000000;1.465909
9867.000000;1.465336
9866.000000;1.463960
9865.000000;1.463014
9864.000000;1.462963
9863.000000;1.463465
9862.000000;1.464030
9861.000000;1.464330
9860.000000;1.464073
9859.000000;1.463023
9858.000000;1.461237
9857.000000;1.459082
9856.000000;1.456955
9855.000000;1.455067
9854.000000;1.453504
9853.000000;1.452413
9852.000000;1.451970
9851.000000;1.452033
9850.000000;1.452066
9849.000000;1.451745
9848.000000;1.451586
9847.000000;1.452449
9846.000000;1.454242
9845.000000;1.455561
9844.000000;1.455064
9843.000000;1.452920
9842.000000;1.450413
9841.000000;1.448440
9840.000000;1.447006
9839.000000;1.445907
9838.000000;1.445129
9837.000000;1.444550
9836.000000;1.443920
9835.000000;1.443329
9834.000000;1.443214
9833.000000;1.443695
9832.000000;1.444245
9831.000000;1.444233
9830.000000;1.443539
9829.000000;1.442538
9828.000000;1.441657
9827.000000;1.440994
9826.000000;1.440171
9825.000000;1.438637
9824.000000;1.436464
9823.000000;1.434595
9822.000000;1.433747
9821.000000;1.433286
9820.000000;1.431943
9819.000000;1.429632
9818.000000;1.427724
9817.000000;1.427339
9816.000000;1.428158
9815.000000;1.429202
9814.000000;1.430040
9813.000000;1.430736
9812.000000;1.431203
9811.000000;1.431249
9810.000000;1.430872
9809.000000;1.429991
9808.000000;1.428245
9807.000000;1.425630
9806.000000;1.423023
9805.000000;1.421545
9804.000000;1.421587
9803.000000;1.422798
9802.000000;1.424655
9801.000000;1.426506
9800.000000;1.427317
9799.000000;1.426154
9798.000000;1.423154
9797.000000;1.419625
9796.000000;1.417058
9795.000000;1.416126
9794.000000;1.416407
9793.000000;1.416798
9792.000000;1.416376
9791.000000;1.415197
9790.000000;1.414171
9789.000000;1.413974
9788.000000;1.414231
9787.000000;1.414020
9786.000000;1.412996
9785.000000;1.411728
9784.000000;1.411009
9783.000000;1.411086
9782.000000;1.411497
9781.000000;1.411448
9780.000000;1.410439
9779.000000;1.408772
9778.000000;1.407361
9777.000000;1.406812
9776.000000;1.406770
9775.000000;1.406349
9774.000000;1.405135
9773.000000;1.403555
9772.000000;1.402312
9771.000000;1.401637
9770.000000;1.401082
9769.000000;1.399952
9768.000000;1.398085
9767.000000;1.396241
9766.000000;1.395508
9765.000000;1.396227
9764.000000;1.397687
9763.000000;1.398890
9762.000000;1.399300
9761.000000;1.398739
9760.000000;1.397145
9759.000000;1.394905
9758.000000;1.393023
9757.000000;1.392359
9756.000000;1.392778
9755.000000;1.393440
9754.000000;1.393752
9753.000000;1.393659
9752.000000;1.393181
9751.000000;1.392230
9750.000000;1.390860
9749.000000;1.389303
9748.000000;1.387783
9747.000000;1.386569
9746.000000;1.386023
9745.000000;1.386172
9744.000000;1.386420
9743.000000;1.386164
9742.000000;1.385541
9741.000000;1.385001
9740.000000;1.384337
9739.000000;1.382929
9738.000000;1.380963
9737.000000;1.379522
9736.000000;1.379208
9735.000000;1.379439
9734.000000;1.379433
9733.000000;1.379240
9732.000000;1.379277
9731.000000;1.379300
9730.000000;1.378505
9729.000000;1.376539
9728.000000;1.373985
9727.000000;1.371832
9726.000000;1.370763
9725.000000;1.370884
9724.000000;1.371822
9723.000000;1.372994
9722.000000;1.373909
9721.000000;1.374239
9720.000000;1.373774
9719.000000;1.372655
9718.000000;1.371632
9717.000000;1.371543
9716.000000;1.372315
9715.000000;1.372808
9714.000000;1.371990
9713.000000;1.369980
9712.000000;1.367648
9711.000000;1.365592
9710.000000;1.363972
9709.000000;1.362976
9708.000000;1.362728
9707.000000;1.362754
9706.000000;1.362209
9705.000000;1.360897
9704.000000;1.359619
9703.000000;1.359209
9702.000000;1.359523
9701.000000;1.359641
9700.000000;1.358940
9699.000000;1.357713
9698.000000;1.356769
9697.000000;1.356552
9696.000000;1.356722
9695.000000;1.356625
9694.000000;1.356073
9693.000000;1.355534
9692.000000;1.355516
9691.000000;1.355904
9690.000000;1.356141
9689.000000;1.355960
9688.000000;1.355610
9687.000000;1.355281
9686.000000;1.354710
9685.000000;1.353603
9684.000000;1.352210
9683.000000;1.351086
9682.000000;1.350359
9681.000000;1.349553
9680.000000;1.348220
9679.000000;1.346471
9678.000000;1.344727
9677.000000;1.343183
9676.000000;1.341822
9675.000000;1.340829
9674.000000;1.340618
9673.000000;1.341294
9672.000000;1.342309
9671.000000;1.342903
9670.000000;1.342850
9669.000000;1.342517
9668.000000;1.342239
9667.000000;1.341962
9666.000000;1.341594
9665.000000;1.341362
9664.000000;1.341446
9663.000000;1.341487
9662.000000;1.340880
9661.000000;1.339638
9660.000000;1.338562
9659.000000;1.338304
9658.000000;1.338414
9657.000000;1.337606
9656.000000;1.335038
9655.000000;1.331274
9654.000000;1.327865
9653.000000;1.326057
9652.000000;1.325887
9651.000000;1.326454
9650.000000;1.327018
9649.000000;1.327664
9648.000000;1.328740
9647.000000;1.329899
9646.000000;1.330196
9645.000000;1.329269
9644.000000;1.327878
9643.000000;1.326867
9642.000000;1.326002
9641.000000;1.324458
9640.000000;1.322315
9639.000000;1.320790
9638.000000;1.320726
9637.000000;1.321443
9636.000000;1.321541
9635.000000;1.320510
9634.000000;1.319004
9633.000000;1.317706
9632.000000;1.316628
9631.000000;1.315629
9630.000000;1.314944
9629.000000;1.314822
9628.000000;1.315032
9627.000000;1.315235
9626.000000;1.315632
9625.000000;1.316680
9624.000000;1.318085
9623.000000;1.318624
9622.000000;1.317333
9621.000000;1.314655
9620.000000;1.312046
9619.000000;1.310517
9618.000000;1.309879
9617.000000;1.309340
9616.000000;1.308496
9615.000000;1.307569
9614.000000;1.306914
9613.000000;1.306541
9612.000000;1.306153
9611.000000;1.305519
9610.000000;1.304782
9609.000000;1.304385
9608.000000;1.304674
9607.000000;1.305524
9606.000000;1.306390
9605.000000;1.306721
9604.000000;1.306225
9603.000000;1.304800
9602.000000;1.302536
9601.000000;1.299980
9600.000000;1.298079
9599.000000;1.297458
9598.000000;1.297820
9597.000000;1.298373
9596.000000;1.298727
9595.000000;1.298969
9594.000000;1.298923
9593.000000;1.297986
9592.000000;1.296060
9591.000000;1.294137
9590.000000;1.293439
9589.000000;1.294190
9588.000000;1.295581
9587.000000;1.296696
9586.000000;1.297043
9585.000000;1.296371
9584.000000;1.294613
9583.000000;1.292167
9582.000000;1.289748
9581.000000;1.287782
9580.000000;1.286233
9579.000000;1.285056
9578.000000;1.284384
9577.000000;1.284099
9576.000000;1.283708
9575.000000;1.282982
9574.000000;1.282360
9573.000000;1.282262
9572.000000;1.282300
9571.000000;1.281719
9570.000000;1.280494
9569.000000;1.279452
9568.000000;1.279258
9567.000000;1.279758
9566.000000;1.280416
9565.000000;1.280907
9564.000000;1.281126
9563.000000;1.281062
9562.000000;1.280904
9561.000000;1.280905
9560.000000;1.280839
9559.000000;1.280035
9558.000000;1.278388
9557.000000;1.276982
9556.000000;1.277036
9555.000000;1.278266
9554.000000;1.278955
9553.000000;1.277888
9552.000000;1.275714
9551.000000;1.274012
9550.000000;1.273489
9549.000000;1.273585
9548.000000;1.273545
9547.000000;1.273309
9546.000000;1.273170
9545.000000;1.273012
9544.000000;1.272315
9543.000000;1.270889
9542.000000;1.269273
9541.000000;1.268207
9540.000000;1.267795
9539.000000;1.267428
9538.000000;1.266590
9537.000000;1.265519
9536.000000;1.264859
9535.000000;1.264807
9534.000000;1.264940
9533.000000;1.264852
9532.000000;1.264555
9531.000000;1.264151
9530.000000;1.263479
9529.000000;1.262367
9528.000000;1.260958
9527.000000;1.259490
9526.000000;1.257972
9525.000000;1.256402
9524.000000;1.255135
9523.000000;1.254656
9522.000000;1.255015
9521.000000;1.255730
9520.000000;1.256171
9519.000000;1.255877
9518.000000;1.254737
9517.000000;1.253269
9516.000000;1.252549
9515.000000;1.253305
9514.000000;1.255052
9513.000000;1.256526
9512.000000;1.256971
9511.000000;1.256570
9510.000000;1.255666
9509.000000;1.254298
9508.000000;1.252719
9507.000000;1.251612
9506.000000;1.251274
9505.000000;1.251050
9504.000000;1.250128
9503.000000;1.248599
9502.000000;1.247214
9501.000000;1.246341
9500.000000;1.245705
9499.000000;1.244983
9498.000000;1.244121
9497.000000;1.243117
9496.000000;1.241981
9495.000000;1.241013
9494.000000;1.240735
9493.000000;1.241374
9492.000000;1.242597
9491.000000;1.243719
9490.000000;1.244037
9489.000000;1.243163
9488.000000;1.241418
9487.000000;1.239826
9486.000000;1.239351
9485.000000;1.240079
9484.000000;1.241302
9483.000000;1.242246
9482.000000;1.242423
9481.000000;1.241525
9480.000000;1.239590
9479.000000;1.237329
9478.000000;1.235768
9477.000000;1.235300
9476.000000;1.235327
9475.000000;1.234957
9474.000000;1.233822
9473.000000;1.232219
9472.000000;1.230769
9471.000000;1.229995
9470.000000;1.229890
9469.000000;1.229769
9468.000000;1.228874
9467.000000;1.227277
9466.000000;1.225878
9465.000000;1.225419
9464.000000;1.225841
9463.000000;1.226637
9462.000000;1.227406
9461.000000;1.227844
9460.000000;1.227623
9459.000000;1.226662
9458.000000;1.225328
9457.000000;1.224116
9456.000000;1.223356
9455.000000;1.223292
9454.000000;1.223958
9453.000000;1.224714
9452.000000;1.224457
9451.000000;1.222826
9450.000000;1.220882
9449.000000;1.219994
9448.000000;1.220271
9447.000000;1.220646
9446.000000;1.220305
9445.000000;1.219410
9444.000000;1.218511
9443.000000;1.217962
9442.000000;1.218010
9441.000000;1.218747
9440.000000;1.219577
9439.000000;1.219327
9438.000000;1.217424
9437.000000;1.214752
9436.000000;1.212876
9435.000000;1.212563
9434.000000;1.213276
9433.000000;1.213931
9432.000000;1.213796
9431.000000;1.212745
9430.000000;1.211087
9429.000000;1.209387
9428.000000;1.208303
9427.000000;1.208251
9426.000000;1.209034
9425.000000;1.209796
9424.000000;1.209501
9423.000000;1.207782
9422.000000;1.205461
9421.000000;1.204027
9420.000000;1.204330
9419.000000;1.205712
9418.000000;1.206547
9417.000000;1.205825
9416.000000;1.204105
9415.000000;1.202776
9414.000000;1.202491
9413.000000;1.202570
9412.000000;1.201955
9411.000000;1.200516
9410.000000;1.199154
9409.000000;1.198718
9408.000000;1.199129
9407.000000;1.199630
9406.000000;1.199704
9405.000000;1.199525
9404.000000;1.199544
9403.000000;1.199829
9402.000000;1.199922
9401.000000;1.199353
9400.000000;1.198254
9399.000000;1.197306
9398.000000;1.196938
9397.000000;1.196752
9396.000000;1.195999
9395.000000;1.194612
9394.000000;1.193406
9393.000000;1.193070
9392.000000;1.193277
9391.000000;1.193069
9390.000000;1.191933
9389.000000;1.190226
9388.000000;1.188729
9387.000000;1.188114
9386.000000;1.188630
9385.000000;1.189839
9384.000000;1.190695
9383.000000;1.190450
9382.000000;1.189593
9381.000000;1.189439
9380.000000;1.190553
9379.000000;1.191938
9378.000000;1.192067
9377.000000;1.190507
9376.000000;1.188180
9375.000000;1.186271
9374.000000;1.185273
9373.000000;1.184977
9372.000000;1.184949
9371.000000;1.184815
9370.000000;1.184281
9369.000000;1.183175
9368.000000;1.181634
9367.000000;1.180208
9366.000000;1.179574
9365.000000;1.179954
9364.000000;1.180849
9363.000000;1.181522
9362.000000;1.181698
9361.000000;1.181580
9360.000000;1.181263
9359.000000;1.180564
9358.000000;1.179488
9357.000000;1.178406
9356.000000;1.177477
9355.000000;1.176303
9354.000000;1.174591
9353.000000;1.172887
9352.000000;1.172166
9351.000000;1.172706
9350.000000;1.173778
9349.000000;1.174443
9348.000000;1.174315
9347.000000;1.173528
9346.000000;1.172416
9345.000000;1.171434
9344.000000;1.171025
9343.000000;1.171254
9342.000000;1.171705
9341.000000;1.171875
9340.000000;1.171519
9339.000000;1.170573
9338.000000;1.169070
9337.000000;1.167351
9336.000000;1.166091
9335.000000;1.165755
9334.000000;1.166098
9333.000000;1.166458
9332.000000;1.166493
9331.000000;1.166431
9330.000000;1.166585
9329.000000;1.166873
9328.000000;1.166880
9327.000000;1.166300
9326.000000;1.165260
9325.000000;1.164278
9324.000000;1.163875
9323.000000;1.164149
9322.000000;1.164746
9321.000000;1.165253
9320.000000;1.165472
9319.000000;1.165252
9318.000000;1.164342
9317.000000;1.162786
9316.000000;1.161296
9315.000000;1.160710
9314.000000;1.160973
9313.000000;1.161059
9312.000000;1.160127
9311.000000;1.158468
9310.000000;1.157029
9309.000000;1.156308
9308.000000;1.156091
9307.000000;1.156090
9306.000000;1.156280
9305.000000;1.156542
9304.000000;1.156447
9303.000000;1.155667
9302.000000;1.154424
9301.000000;1.153317
9300.000000;1.152794
9299.000000;1.152892
9298.000000;1.153289
9297.000000;1.153460
9296.000000;1.152987
9295.000000;1.151980
9294.000000;1.151118
9293.000000;1.151072
9292.000000;1.151860
9291.000000;1.152853
9290.000000;1.153338
9289.000000;1.152965
9288.000000;1.151809
9287.000000;1.150308
9286.000000;1.149154
9285.000000;1.148910
9284.000000;1.149551
9283.000000;1.150472
9282.000000;1.151047
9281.000000;1.151104
9280.000000;1.150863
9279.000000;1.150588
9278.000000;1.150345
9277.000000;1.149936
9276.000000;1.149040
9275.000000;1.147574
9274.000000;1.145948
9273.000000;1.144796
9272.000000;1.144409
9271.000000;1.144582
9270.000000;1.145002
9269.000000;1.145430
9268.000000;1.145451
9267.000000;1.144550
9266.000000;1.142833
9265.000000;1.141354
9264.000000;1.141185
9263.000000;1.142221
9262.000000;1.143265
9261.000000;1.143300
9260.000000;1.142318
9259.000000;1.140871
9258.000000;1.139311
9257.000000;1.137725
9256.000000;1.136315
9255.000000;1.135488
9254.000000;1.135585
9253.000000;1.136543
9252.000000;1.137788
9251.000000;1.138561
9250.000000;1.138583
9249.000000;1.138319
9248.000000;1.138337
9247.000000;1.138485
9246.000000;1.138065
9245.000000;1.136847
9244.000000;1.135478
9243.000000;1.134696
9242.000000;1.134516
9241.000000;1.134433
9240.000000;1.134152
9239.000000;1.133828
9238.000000;1.133752
9237.000000;1.134010
9236.000000;1.134372
9235.000000;1.134394
9234.000000;1.133800
9233.000000;1.132894
9232.000000;1.132357
9231.000000;1.132432
9230.000000;1.132612
9229.000000;1.132386
9228.000000;1.131920
9227.000000;1.131627
9226.000000;1.131421
9225.000000;1.130926
9224.000000;1.130216
9223.000000;1.129777
9222.000000;1.129734
9221.000000;1.129638
9220.000000;1.129146
9219.000000;1.128466
9218.000000;1.127943
9217.000000;1.127555
9216.000000;1.127034
9215.000000;1.126244
9214.000000;1.125277
9213.000000;1.124349
9212.000000;1.123737
9211.000000;1.123626
9210.000000;1.123929
9209.000000;1.124363
9208.000000;1.124718
9207.000000;1.124904
9206.000000;1.124820
9205.000000;1.124468
9204.000000;1.124120
9203.000000;1.124016
9202.000000;1.123846
9201.000000;1.122993
9200.000000;1.121434
9199.000000;1.119999
9198.000000;1.119432
9197.000000;1.119503
9196.000000;1.119401
9195.000000;1.118816
9194.000000;1.118227
9193.000000;1.118158
9192.000000;1.118482
9191.000000;1.118621
9190.000000;1.118268
9189.000000;1.117751
9188.000000;1.117625
9187.000000;1.117964
9186.000000;1.118242
9185.000000;1.118032
9184.000000;1.117626
9183.000000;1.117661
9182.000000;1.118182
9181.000000;1.118514
9180.000000;1.118145
9179.000000;1.117333
9178.000000;1.116608
9177.000000;1.116069
9176.000000;1.115529
9175.000000;1.115071
9174.000000;1.114982
9173.000000;1.115236
9172.000000;1.115433
9171.000000;1.115257
9170.000000;1.114697
9169.000000;1.113812
9168.000000;1.112637
9167.000000;1.111408
9166.000000;1.110622
9165.000000;1.110697
9164.000000;1.111631
9163.000000;1.112960
9162.000000;1.113933
9161.000000;1.113829
9160.000000;1.112466
9159.000000;1.110502
9158.000000;1.108995
9157.000000;1.108520
9156.000000;1.108794
9155.000000;1.109153
9154.000000;1.109207
9153.000000;1.108963
9152.000000;1.108498
9151.000000;1.107766
9150.000000;1.106722
9149.000000;1.105479
9148.000000;1.104274
9147.000000;1.103363
9146.000000;1.102955
9145.000000;1.103102
9144.000000;1.103586
9143.000000;1.103956
9142.000000;1.103864
9141.000000;1.103439
9140.000000;1.103234
9139.000000;1.103701
9138.000000;1.104734
9137.000000;1.105781
9136.000000;1.106328
9135.000000;1.106220
9134.000000;1.105599
9133.000000;1.104765
9132.000000;1.104055
9131.000000;1.103604
9130.000000;1.103131
9129.000000;1.102172
9128.000000;1.100669
9127.000000;1.099157
9126.000000;1.098281
9125.000000;1.098270
9124.000000;1.098914
9123.000000;1.099794
9122.000000;1.100364
9121.000000;1.100101
9120.000000;1.098996
9119.000000;1.097858
9118.000000;1.097762
9117.000000;1.098994
9116.000000;1.100686
9115.000000;1.101514
9114.000000;1.100746
9113.000000;1.098731
9112.000000;1.096580
9111.000000;1.095357
9110.000000;1.095399
9109.000000;1.096247
9108.000000;1.097231
9107.000000;1.098012
9106.000000;1.098545
9105.000000;1.098737
9104.000000;1.098435
9103.000000;1.097702
9102.000000;1.096816
9101.000000;1.095950
9100.000000;1.095076
9099.000000;1.094237
9098.000000;1.093660
9097.000000;1.093515
9096.000000;1.093700
9095.000000;1.093995
9094.000000;1.094263
9093.000000;1.094378
9092.000000;1.094100
9091.000000;1.093253
9090.000000;1.092025
9089.000000;1.090922
9088.000000;1.090362
9087.000000;1.090333
9086.000000;1.090465
9085.000000;1.090382
9084.000000;1.089956
9083.000000;1.089285
9082.000000;1.088530
9081.000000;1.087863
9080.000000;1.087473
9079.000000;1.087441
9078.000000;1.087573
9077.000000;1.087537
9076.000000;1.087228
9075.000000;1.086897
9074.000000;1.086815
9073.000000;1.087023
9072.000000;1.087520
9071.000000;1.088443
9070.000000;1.089706
9069.000000;1.090666
9068.000000;1.090600
9067.000000;1.089605
9066.000000;1.088611
9065.000000;1.088329
9064.000000;1.088460
9063.000000;1.088144
9062.000000;1.086962
9061.000000;1.085320
9060.000000;1.083958
9059.000000;1.083311
9058.000000;1.083332
9057.000000;1.083726
9056.000000;1.084248
9055.000000;1.084783
9054.000000;1.085231
9053.000000;1.085411
