Criado como novo conjunto de dados;"1909daniel.spp","-4240962.7 Secs"
cm-1;Abs
10000.000000;1.793446
9999.000000;1.792297
9998.000000;1.791188
9997.000000;1.790014
9996.000000;1.788965
9995.000000;1.787671
9994.000000;1.787113
9993.000000;1.789094
9992.000000;1.791241
9991.000000;1.791260
9990.000000;1.788391
9989.000000;1.784034
9988.000000;1.780184
9987.000000;1.778299
9986.000000;1.778503
9985.000000;1.779588
9984.000000;1.780108
9983.000000;1.779755
9982.000000;1.779215
9981.000000;1.778750
9980.000000;1.777736
9979.000000;1.775793
9978.000000;1.773549
9977.000000;1.771840
9976.000000;1.770751
9975.000000;1.769832
9974.000000;1.768879
9973.000000;1.768178
9972.000000;1.768217
9971.000000;1.769198
9970.000000;1.770525
9969.000000;1.770945
9968.000000;1.769748
9967.000000;1.767671
9966.000000;1.766199
9965.000000;1.766126
9964.000000;1.766984
9963.000000;1.767889
9962.000000;1.768392
9961.000000;1.768218
9960.000000;1.767308
9959.000000;1.766573
9958.000000;1.767281
9957.000000;1.768899
9956.000000;1.768612
9955.000000;1.764272
9954.000000;1.757370
9953.000000;1.751781
9952.000000;1.750034
9951.000000;1.751709
9950.000000;1.754820
9949.000000;1.757667
9948.000000;1.759323
9947.000000;1.759319
9946.000000;1.757780
9945.000000;1.755676
9944.000000;1.754228
9943.000000;1.753796
9942.000000;1.753500
9941.000000;1.752269
9940.000000;1.750362
9939.000000;1.749247
9938.000000;1.749683
9937.000000;1.750549
9936.000000;1.750170
9935.000000;1.748430
9934.000000;1.746512
9933.000000;1.744817
9932.000000;1.742518
9931.000000;1.739454
9930.000000;1.737227
9929.000000;1.737524
9928.000000;1.740086
9927.000000;1.743139
9926.000000;1.745242
9925.000000;1.745997
9924.000000;1.745499
9923.000000;1.744028
9922.000000;1.742089
9921.000000;1.740057
9920.000000;1.737922
9919.000000;1.735973
9918.000000;1.735285
9917.000000;1.736462
9916.000000;1.738195
9915.000000;1.738175
9914.000000;1.735589
9913.000000;1.731927
9912.000000;1.729100
9911.000000;1.727614
9910.000000;1.726835
9909.000000;1.726200
9908.000000;1.725642
9907.000000;1.725227
9906.000000;1.724998
9905.000000;1.725169
9904.000000;1.725902
9903.000000;1.726816
9902.000000;1.727249
9901.000000;1.727168
9900.000000;1.727347
9899.000000;1.728222
9898.000000;1.728860
9897.000000;1.727754
9896.000000;1.724772
9895.000000;1.721516
9894.000000;1.719469
9893.000000;1.718482
9892.000000;1.717623
9891.000000;1.716936
9890.000000;1.717357
9889.000000;1.718752
9888.000000;1.719134
9887.000000;1.716641
9886.000000;1.711795
9885.000000;1.707102
9884.000000;1.704889
9883.000000;1.705902
9882.000000;1.709334
9881.000000;1.713478
9880.000000;1.716491
9879.000000;1.717297
9878.000000;1.716186
9877.000000;1.714430
9876.000000;1.713225
9875.000000;1.712839
9874.000000;1.712369
9873.000000;1.710372
9872.000000;1.706269
9871.000000;1.701356
9870.000000;1.697905
9869.000000;1.697055
9868.000000;1.698031
9867.000000;1.699555
9866.000000;1.701344
9865.000000;1.703609
9864.000000;1.705658
9863.000000;1.706095
9862.000000;1.704498
9861.000000;1.701942
9860.000000;1.699779
9859.000000;1.698570
9858.000000;1.698191
9857.000000;1.698317
9856.000000;1.698511
9855.000000;1.698212
9854.000000;1.697116
9853.000000;1.695413
9852.000000;1.693488
9851.000000;1.691576
9850.000000;1.689859
9849.000000;1.688616
9848.000000;1.687975
9847.000000;1.687593
9846.000000;1.686843
9845.000000;1.685457
9844.000000;1.683951
9843.000000;1.683293
9842.000000;1.683926
9841.000000;1.685030
9840.000000;1.684977
9839.000000;1.682815
9838.000000;1.679277
9837.000000;1.676118
9836.000000;1.674541
9835.000000;1.674459
9834.000000;1.675050
9833.000000;1.675555
9832.000000;1.675485
9831.000000;1.674511
9830.000000;1.672699
9829.000000;1.670914
9828.000000;1.670434
9827.000000;1.671847
9826.000000;1.674450
9825.000000;1.676688
9824.000000;1.677152
9823.000000;1.675241
9822.000000;1.671210
9821.000000;1.666131
9820.000000;1.661826
9819.000000;1.660042
9818.000000;1.661043
9817.000000;1.663193
9816.000000;1.664423
9815.000000;1.664094
9814.000000;1.662985
9813.000000;1.661849
9812.000000;1.660824
9811.000000;1.660029
9810.000000;1.659784
9809.000000;1.660118
9808.000000;1.660809
9807.000000;1.661966
9806.000000;1.663765
9805.000000;1.665392
9804.000000;1.665206
9803.000000;1.662577
9802.000000;1.658906
9801.000000;1.656155
9800.000000;1.654958
9799.000000;1.654688
9798.000000;1.654730
9797.000000;1.654849
9796.000000;1.654636
9795.000000;1.653490
9794.000000;1.651343
9793.000000;1.648936
9792.000000;1.647349
9791.000000;1.647375
9790.000000;1.648957
9789.000000;1.650772
9788.000000;1.650833
9787.000000;1.648299
9786.000000;1.644553
9785.000000;1.641792
9784.000000;1.640768
9783.000000;1.640568
9782.000000;1.640306
9781.000000;1.640116
9780.000000;1.640348
9779.000000;1.640686
9778.000000;1.640554
9777.000000;1.639913
9776.000000;1.639124
9775.000000;1.638401
9774.000000;1.637794
9773.000000;1.637416
9772.000000;1.637377
9771.000000;1.637535
9770.000000;1.637506
9769.000000;1.637042
9768.000000;1.636335
9767.000000;1.635853
9766.000000;1.635824
9765.000000;1.635843
9764.000000;1.635120
9763.000000;1.633291
9762.000000;1.630846
9761.000000;1.628653
9760.000000;1.627180
9759.000000;1.626372
9758.000000;1.625989
9757.000000;1.625664
9756.000000;1.625098
9755.000000;1.624455
9754.000000;1.624118
9753.000000;1.624081
9752.000000;1.623851
9751.000000;1.623126
9750.000000;1.622304
9749.000000;1.621773
9748.000000;1.621135
9747.000000;1.619906
9746.000000;1.618639
9745.000000;1.618359
9744.000000;1.618844
9743.000000;1.618458
9742.000000;1.616171
9741.000000;1.613073
9740.000000;1.611232
9739.000000;1.611491
9738.000000;1.612958
9737.000000;1.614334
9736.000000;1.615140
9735.000000;1.615488
9734.000000;1.615053
9733.000000;1.613006
9732.000000;1.609279
9731.000000;1.605477
9730.000000;1.603843
9729.000000;1.605142
9728.000000;1.607836
9727.000000;1.609517
9726.000000;1.609003
9725.000000;1.606888
9724.000000;1.604471
9723.000000;1.602736
9722.000000;1.601991
9721.000000;1.601762
9720.000000;1.601176
9719.000000;1.600045
9718.000000;1.599339
9717.000000;1.599903
9716.000000;1.600988
9715.000000;1.600914
9714.000000;1.599206
9713.000000;1.597137
9712.000000;1.596069
9711.000000;1.596252
9710.000000;1.597335
9709.000000;1.598998
9708.000000;1.600577
9707.000000;1.600932
9706.000000;1.599537
9705.000000;1.597218
9704.000000;1.595165
9703.000000;1.593659
9702.000000;1.592309
9701.000000;1.591089
9700.000000;1.590361
9699.000000;1.590065
9698.000000;1.589577
9697.000000;1.588500
9696.000000;1.587257
9695.000000;1.586726
9694.000000;1.587343
9693.000000;1.588532
9692.000000;1.589115
9691.000000;1.588575
9690.000000;1.587828
9689.000000;1.588217
9688.000000;1.589692
9687.000000;1.590568
9686.000000;1.589316
9685.000000;1.586112
9684.000000;1.582386
9683.000000;1.579450
9682.000000;1.577845
9681.000000;1.577360
9680.000000;1.577214
9679.000000;1.576759
9678.000000;1.576422
9677.000000;1.577323
9676.000000;1.579455
9675.000000;1.580873
9674.000000;1.579552
9673.000000;1.575779
9672.000000;1.571851
9671.000000;1.569667
9670.000000;1.569540
9669.000000;1.570916
9668.000000;1.573104
9667.000000;1.575197
9666.000000;1.576102
9665.000000;1.575086
9664.000000;1.572096
9663.000000;1.567724
9662.000000;1.563232
9661.000000;1.560182
9660.000000;1.559242
9659.000000;1.559454
9658.000000;1.559369
9657.000000;1.558797
9656.000000;1.558659
9655.000000;1.559253
9654.000000;1.559735
9653.000000;1.559485
9652.000000;1.558944
9651.000000;1.558599
9650.000000;1.558080
9649.000000;1.556874
9648.000000;1.555191
9647.000000;1.553448
9646.000000;1.551579
9645.000000;1.549630
9644.000000;1.548461
9643.000000;1.548940
9642.000000;1.550604
9641.000000;1.551894
9640.000000;1.551750
9639.000000;1.550379
9638.000000;1.548543
9637.000000;1.546793
9636.000000;1.545478
9635.000000;1.544842
9634.000000;1.544728
9633.000000;1.544504
9632.000000;1.543606
9631.000000;1.542065
9630.000000;1.540382
9629.000000;1.538993
9628.000000;1.537911
9627.000000;1.536820
9626.000000;1.535548
9625.000000;1.534447
9624.000000;1.534150
9623.000000;1.534819
9622.000000;1.535898
9621.000000;1.536825
9620.000000;1.537742
9619.000000;1.539066
9618.000000;1.540579
9617.000000;1.541470
9616.000000;1.541197
9615.000000;1.539899
9614.000000;1.538046
9613.000000;1.536155
9612.000000;1.534762
9611.000000;1.534012
9610.000000;1.533231
9609.000000;1.531600
9608.000000;1.529520
9607.000000;1.528558
9606.000000;1.529521
9605.000000;1.531109
9604.000000;1.531203
9603.000000;1.529341
9602.000000;1.527172
9601.000000;1.526458
9600.000000;1.527268
9599.000000;1.528217
9598.000000;1.527908
9597.000000;1.525940
9596.000000;1.522919
9595.000000;1.519906
9594.000000;1.517806
9593.000000;1.517052
9592.000000;1.517650
9591.000000;1.519223
9590.000000;1.520860
9589.000000;1.521225
9588.000000;1.519482
9587.000000;1.516349
9586.000000;1.513807
9585.000000;1.513455
9584.000000;1.515250
9583.000000;1.517758
9582.000000;1.519324
9581.000000;1.519072
9580.000000;1.517257
9579.000000;1.514932
9578.000000;1.513071
9577.000000;1.511794
9576.000000;1.510536
9575.000000;1.509056
9574.000000;1.508041
9573.000000;1.508423
9572.000000;1.510169
9571.000000;1.511949
9570.000000;1.512020
9569.000000;1.509576
9568.000000;1.505546
9567.000000;1.502122
9566.000000;1.501246
9565.000000;1.503077
9564.000000;1.505738
9563.000000;1.506866
9562.000000;1.505579
9561.000000;1.502847
9560.000000;1.500269
9559.000000;1.498867
9558.000000;1.498764
9557.000000;1.499365
9556.000000;1.499823
9555.000000;1.499753
9554.000000;1.499591
9553.000000;1.500029
9552.000000;1.501149
9551.000000;1.502367
9550.000000;1.503052
9549.000000;1.502764
9548.000000;1.501044
9547.000000;1.497665
9546.000000;1.493316
9545.000000;1.489531
9544.000000;1.487613
9543.000000;1.487714
9542.000000;1.488910
9541.000000;1.489865
9540.000000;1.489527
9539.000000;1.487750
9538.000000;1.485530
9537.000000;1.484327
9536.000000;1.484890
9535.000000;1.486760
9534.000000;1.488867
9533.000000;1.490294
9532.000000;1.490455
9531.000000;1.489097
9530.000000;1.486536
9529.000000;1.483598
9528.000000;1.481100
9527.000000;1.479524
9526.000000;1.479103
9525.000000;1.479656
9524.000000;1.480180
9523.000000;1.479322
9522.000000;1.476818
9521.000000;1.473999
9520.000000;1.472365
9519.000000;1.472015
9518.000000;1.471952
9517.000000;1.471506
9516.000000;1.470850
9515.000000;1.470406
9514.000000;1.470475
9513.000000;1.471314
9512.000000;1.472827
9511.000000;1.474164
9510.000000;1.474355
9509.000000;1.473468
9508.000000;1.472479
9507.000000;1.471874
9506.000000;1.471050
9505.000000;1.469377
9504.000000;1.467225
9503.000000;1.465550
9502.000000;1.464926
9501.000000;1.465269
9500.000000;1.466009
9499.000000;1.466207
9498.000000;1.465061
9497.000000;1.462926
9496.000000;1.461385
9495.000000;1.461706
9494.000000;1.463393
9493.000000;1.464697
9492.000000;1.464363
9491.000000;1.462440
9490.000000;1.459617
9489.000000;1.456574
9488.000000;1.454026
9487.000000;1.452707
9486.000000;1.452872
9485.000000;1.454016
9484.000000;1.455309
9483.000000;1.456184
9482.000000;1.456405
9481.000000;1.455864
9480.000000;1.454528
9479.000000;1.452525
9478.000000;1.450268
9477.000000;1.448637
9476.000000;1.448817
9475.000000;1.451366
9474.000000;1.455099
9473.000000;1.457331
9472.000000;1.455999
9471.000000;1.451728
9470.000000;1.447288
9469.000000;1.444963
9468.000000;1.444863
9467.000000;1.445654
9466.000000;1.446297
9465.000000;1.446734
9464.000000;1.447163
9463.000000;1.447310
9462.000000;1.446812
9461.000000;1.445924
9460.000000;1.445330
9459.000000;1.445308
9458.000000;1.445286
9457.000000;1.444310
9456.000000;1.441938
9455.000000;1.438810
9454.000000;1.436416
9453.000000;1.436118
9452.000000;1.438060
9451.000000;1.440903
9450.000000;1.442825
9449.000000;1.443027
9448.000000;1.442104
9447.000000;1.440917
9446.000000;1.439592
9445.000000;1.437911
9444.000000;1.436193
9443.000000;1.435160
9442.000000;1.434988
9441.000000;1.435073
9440.000000;1.434927
9439.000000;1.434857
9438.000000;1.435341
9437.000000;1.435994
9436.000000;1.435711
9435.000000;1.433986
9434.000000;1.431697
9433.000000;1.430172
9432.000000;1.429582
9431.000000;1.428743
9430.000000;1.426713
9429.000000;1.424163
9428.000000;1.422665
9427.000000;1.422835
9426.000000;1.423777
9425.000000;1.424417
9424.000000;1.424633
9423.000000;1.424653
9422.000000;1.424090
9421.000000;1.422444
9420.000000;1.420231
9419.000000;1.418647
9418.000000;1.418119
9417.000000;1.417993
9416.000000;1.417716
9415.000000;1.417502
9414.000000;1.417535
9413.000000;1.417363
9412.000000;1.416717
9411.000000;1.416332
9410.000000;1.417139
9409.000000;1.418803
9408.000000;1.419793
9407.000000;1.419006
9406.000000;1.416821
9405.000000;1.414505
9404.000000;1.413018
9403.000000;1.412499
9402.000000;1.412526
9401.000000;1.412652
9400.000000;1.412771
9399.000000;1.412984
9398.000000;1.413122
9397.000000;1.412664
9396.000000;1.411347
9395.000000;1.409634
9394.000000;1.408267
9393.000000;1.407544
9392.000000;1.407299
9391.000000;1.407291
9390.000000;1.407210
9389.000000;1.406575
9388.000000;1.405209
9387.000000;1.403744
9386.000000;1.403038
9385.000000;1.403125
9384.000000;1.403302
9383.000000;1.403248
9382.000000;1.403368
9381.000000;1.403858
9380.000000;1.404136
9379.000000;1.403615
9378.000000;1.402577
9377.000000;1.401816
9376.000000;1.401694
9375.000000;1.401917
9374.000000;1.401956
9373.000000;1.401401
9372.000000;1.400195
9371.000000;1.398844
9370.000000;1.398160
9369.000000;1.398457
9368.000000;1.399175
9367.000000;1.399494
9366.000000;1.399132
9365.000000;1.398248
9364.000000;1.396933
9363.000000;1.395298
9362.000000;1.393804
9361.000000;1.392877
9360.000000;1.392288
9359.000000;1.391466
9358.000000;1.390406
9357.000000;1.389777
9356.000000;1.390037
9355.000000;1.390783
9354.000000;1.391137
9353.000000;1.390489
9352.000000;1.388821
9351.000000;1.386624
9350.000000;1.384668
9349.000000;1.383653
9348.000000;1.383776
9347.000000;1.384556
9346.000000;1.385116
9345.000000;1.384808
9344.000000;1.383688
9343.000000;1.382448
9342.000000;1.381808
9341.000000;1.381933
9340.000000;1.382455
9339.000000;1.382971
9338.000000;1.383299
9337.000000;1.383243
9336.000000;1.382497
9335.000000;1.380988
9334.000000;1.379102
9333.000000;1.377411
9332.000000;1.376410
9331.000000;1.376540
9330.000000;1.377928
9329.000000;1.379806
9328.000000;1.380762
9327.000000;1.380207
9326.000000;1.379176
9325.000000;1.378963
9324.000000;1.379311
9323.000000;1.378877
9322.000000;1.377347
9321.000000;1.376042
9320.000000;1.376122
9319.000000;1.376979
9318.000000;1.376953
9317.000000;1.375324
9316.000000;1.373089
9315.000000;1.371821
9314.000000;1.372112
9313.000000;1.373108
9312.000000;1.373446
9311.000000;1.372650
9310.000000;1.371496
9309.000000;1.370913
9308.000000;1.370886
9307.000000;1.370711
9306.000000;1.370033
9305.000000;1.369082
9304.000000;1.368056
9303.000000;1.367037
9302.000000;1.366509
9301.000000;1.367039
9300.000000;1.368203
9299.000000;1.368563
9298.000000;1.367222
9297.000000;1.364944
9296.000000;1.363269
9295.000000;1.362962
9294.000000;1.363696
9293.000000;1.364712
9292.000000;1.365270
9291.000000;1.364791
9290.000000;1.363199
9289.000000;1.361139
9288.000000;1.359520
9287.000000;1.358905
9286.000000;1.359418
9285.000000;1.360808
9284.000000;1.362276
9283.000000;1.362787
9282.000000;1.362089
9281.000000;1.361108
9280.000000;1.360889
9279.000000;1.361363
9278.000000;1.361490
9277.000000;1.360458
9276.000000;1.358323
9275.000000;1.355723
9274.000000;1.353561
9273.000000;1.352787
9272.000000;1.353709
9271.000000;1.355318
9270.000000;1.355919
9269.000000;1.354816
9268.000000;1.352977
9267.000000;1.351870
9266.000000;1.352049
9265.000000;1.353042
9264.000000;1.354117
9263.000000;1.354784
9262.000000;1.354762
9261.000000;1.353910
9260.000000;1.352342
9259.000000;1.350486
9258.000000;1.348883
9257.000000;1.347889
9256.000000;1.347473
9255.000000;1.347319
9254.000000;1.347189
9253.000000;1.347113
9252.000000;1.347169
9251.000000;1.347227
9250.000000;1.347135
9249.000000;1.347005
9248.000000;1.347026
9247.000000;1.347048
9246.000000;1.346664
9245.000000;1.345787
9244.000000;1.344859
9243.000000;1.344333
9242.000000;1.344130
9241.000000;1.343738
9240.000000;1.342805
9239.000000;1.341524
9238.000000;1.340489
9237.000000;1.340203
9236.000000;1.340570
9235.000000;1.340886
9234.000000;1.340510
9233.000000;1.339487
9232.000000;1.338395
9231.000000;1.337650
9230.000000;1.337163
9229.000000;1.336677
9228.000000;1.336163
9227.000000;1.335762
9226.000000;1.335537
9225.000000;1.335416
9224.000000;1.335246
9223.000000;1.334816
9222.000000;1.334031
9221.000000;1.333193
9220.000000;1.332924
9219.000000;1.333523
9218.000000;1.334469
9217.000000;1.334851
9216.000000;1.334384
9215.000000;1.333718
9214.000000;1.333558
9213.000000;1.333759
9212.000000;1.333626
9211.000000;1.332958
9210.000000;1.332363
9209.000000;1.332400
9208.000000;1.332882
9207.000000;1.333346
9206.000000;1.333834
9205.000000;1.334647
9204.000000;1.335456
9203.000000;1.335292
9202.000000;1.333596
9201.000000;1.330848
9200.000000;1.328046
9199.000000;1.326044
9198.000000;1.325439
9197.000000;1.326351
9196.000000;1.327851
9195.000000;1.328175
9194.000000;1.326324
9193.000000;1.323292
9192.000000;1.321079
9191.000000;1.320603
9190.000000;1.321116
9189.000000;1.321530
9188.000000;1.321637
9187.000000;1.321800
9186.000000;1.322046
9185.000000;1.321928
9184.000000;1.321156
9183.000000;1.320069
9182.000000;1.319428
9181.000000;1.319758
9180.000000;1.320796
9179.000000;1.321539
9178.000000;1.321018
9177.000000;1.319156
9176.000000;1.316846
9175.000000;1.315258
9174.000000;1.315109
9173.000000;1.316297
9172.000000;1.317933
9171.000000;1.318884
9170.000000;1.318648
9169.000000;1.317718
9168.000000;1.316907
9167.000000;1.316499
9166.000000;1.316288
9165.000000;1.316191
9164.000000;1.316442
9163.000000;1.317210
9162.000000;1.318283
9161.000000;1.319152
9160.000000;1.319194
9159.000000;1.317962
9158.000000;1.315682
9157.000000;1.313359
9156.000000;1.311992
9155.000000;1.311780
9154.000000;1.312427
9153.000000;1.313901
9152.000000;1.316149
9151.000000;1.318177
9150.000000;1.318378
9149.000000;1.316226
9148.000000;1.313044
9147.000000;1.310684
9146.000000;1.309883
9145.000000;1.310070
9144.000000;1.310253
9143.000000;1.309765
9142.000000;1.308591
9141.000000;1.307395
9140.000000;1.306949
9139.000000;1.307228
9138.000000;1.307321
9137.000000;1.306516
9136.000000;1.305130
9135.000000;1.304013
9134.000000;1.303659
9133.000000;1.304121
9132.000000;1.305310
9131.000000;1.306857
9130.000000;1.307973
9129.000000;1.308089
9128.000000;1.307548
9127.000000;1.307158
9126.000000;1.307199
9125.000000;1.307300
9124.000000;1.307082
9123.000000;1.306443
9122.000000;1.305350
9121.000000;1.303895
9120.000000;1.302530
9119.000000;1.301735
9118.000000;1.301406
9117.000000;1.301004
9116.000000;1.300405
9115.000000;1.300155
9114.000000;1.300691
9113.000000;1.301678
9112.000000;1.302329
9111.000000;1.302199
9110.000000;1.301529
9109.000000;1.300886
9108.000000;1.300588
9107.000000;1.300464
9106.000000;1.300143
9105.000000;1.299530
9104.000000;1.298917
9103.000000;1.298584
9102.000000;1.298482
9101.000000;1.298421
9100.000000;1.298314
9099.000000;1.298027
9098.000000;1.297272
9097.000000;1.295996
9096.000000;1.294738
9095.000000;1.294192
9094.000000;1.294445
9093.000000;1.294949
9092.000000;1.295175
9091.000000;1.294978
9090.000000;1.294423
9089.000000;1.293643
9088.000000;1.292903
9087.000000;1.292487
9086.000000;1.292417
9085.000000;1.292452
9084.000000;1.292392
9083.000000;1.292115
9082.000000;1.291398
9081.000000;1.290104
9080.000000;1.288582
9079.000000;1.287523
9078.000000;1.287325
9077.000000;1.287815
9076.000000;1.288525
9075.000000;1.289018
9074.000000;1.289097
9073.000000;1.289024
9072.000000;1.289418
9071.000000;1.290569
9070.000000;1.291889
9069.000000;1.292368
9068.000000;1.291605
9067.000000;1.290078
9066.000000;1.288478
9065.000000;1.287246
9064.000000;1.286696
9063.000000;1.286968
9062.000000;1.287686
9061.000000;1.288125
9060.000000;1.287927
9059.000000;1.287345
9058.000000;1.286699
9057.000000;1.286062
9056.000000;1.285568
9055.000000;1.285458
9054.000000;1.285573
9053.000000;1.285358
