Criado como novo conjunto de dados;"1909daniel.spp","-4216300.9 Secs"
cm-1;Abs
10000.000000;1.362145
9999.000000;1.362499
9998.000000;1.362854
9997.000000;1.363209
9996.000000;1.363564
9995.000000;1.363919
9994.000000;1.364275
9993.000000;1.364630
9992.000000;1.364991
9991.000000;1.365182
9990.000000;1.365201
9989.000000;1.365142
9988.000000;1.365017
9987.000000;1.364773
9986.000000;1.364174
9985.000000;1.362881
9984.000000;1.360955
9983.000000;1.359035
9982.000000;1.357729
9981.000000;1.357100
9980.000000;1.356904
9979.000000;1.356944
9978.000000;1.356921
9977.000000;1.356360
9976.000000;1.355133
9975.000000;1.353751
9974.000000;1.352683
9973.000000;1.351711
9972.000000;1.350429
9971.000000;1.349074
9970.000000;1.348356
9969.000000;1.348635
9968.000000;1.349651
9967.000000;1.350805
9966.000000;1.351288
9965.000000;1.350371
9964.000000;1.348230
9963.000000;1.346213
9962.000000;1.345516
9961.000000;1.345668
9960.000000;1.345048
9959.000000;1.343015
9958.000000;1.340770
9957.000000;1.339823
9956.000000;1.340290
9955.000000;1.341100
9954.000000;1.341377
9953.000000;1.341105
9952.000000;1.340670
9951.000000;1.340204
9950.000000;1.339446
9949.000000;1.338069
9948.000000;1.336159
9947.000000;1.334336
9946.000000;1.333190
9945.000000;1.332551
9944.000000;1.331665
9943.000000;1.330296
9942.000000;1.329293
9941.000000;1.329667
9940.000000;1.331224
9939.000000;1.332509
9938.000000;1.332272
9937.000000;1.330824
9936.000000;1.329677
9935.000000;1.329879
9934.000000;1.330870
9933.000000;1.331052
9932.000000;1.329439
9931.000000;1.326655
9930.000000;1.324267
9929.000000;1.323306
9928.000000;1.323524
9927.000000;1.323851
9926.000000;1.323342
9925.000000;1.321816
9924.000000;1.319870
9923.000000;1.318323
9922.000000;1.317495
9921.000000;1.316976
9920.000000;1.316169
9919.000000;1.315026
9918.000000;1.314111
9917.000000;1.313934
9916.000000;1.314396
9915.000000;1.314904
9914.000000;1.314872
9913.000000;1.314113
9912.000000;1.312946
9911.000000;1.312013
9910.000000;1.311827
9909.000000;1.312398
9908.000000;1.313275
9907.000000;1.313926
9906.000000;1.314066
9905.000000;1.313675
9904.000000;1.312822
9903.000000;1.311519
9902.000000;1.309739
9901.000000;1.307659
9900.000000;1.305932
9899.000000;1.305451
9898.000000;1.306484
9897.000000;1.308096
9896.000000;1.308827
9895.000000;1.308120
9894.000000;1.306871
9893.000000;1.306311
9892.000000;1.306575
9891.000000;1.306665
9890.000000;1.305607
9889.000000;1.303329
9888.000000;1.300463
9887.000000;1.297748
9886.000000;1.295802
9885.000000;1.295020
9884.000000;1.295217
9883.000000;1.295562
9882.000000;1.295236
9881.000000;1.294163
9880.000000;1.292842
9879.000000;1.291553
9878.000000;1.290175
9877.000000;1.288767
9876.000000;1.287887
9875.000000;1.288034
9874.000000;1.289052
9873.000000;1.290350
9872.000000;1.291473
9871.000000;1.292119
9870.000000;1.291902
9869.000000;1.290637
9868.000000;1.288818
9867.000000;1.287270
9866.000000;1.286221
9865.000000;1.285167
9864.000000;1.283778
9863.000000;1.282531
9862.000000;1.282110
9861.000000;1.282447
9860.000000;1.282661
9859.000000;1.281854
9858.000000;1.279852
9857.000000;1.277316
9856.000000;1.275262
9855.000000;1.274340
9854.000000;1.274385
9853.000000;1.274700
9852.000000;1.274774
9851.000000;1.274634
9850.000000;1.274500
9849.000000;1.274356
9848.000000;1.273959
9847.000000;1.273096
9846.000000;1.271807
9845.000000;1.270535
9844.000000;1.269984
9843.000000;1.270418
9842.000000;1.271069
9841.000000;1.270759
9840.000000;1.269299
9839.000000;1.267733
9838.000000;1.266951
9837.000000;1.266671
9836.000000;1.266199
9835.000000;1.265600
9834.000000;1.265409
9833.000000;1.265475
9832.000000;1.264922
9831.000000;1.263269
9830.000000;1.261040
9829.000000;1.259198
9828.000000;1.258377
9827.000000;1.258589
9826.000000;1.259223
9825.000000;1.259391
9824.000000;1.258808
9823.000000;1.258314
9822.000000;1.258940
9821.000000;1.260400
9820.000000;1.261111
9819.000000;1.259983
9818.000000;1.257738
9817.000000;1.256108
9816.000000;1.256061
9815.000000;1.257061
9814.000000;1.257655
9813.000000;1.256599
9812.000000;1.253815
9811.000000;1.250543
9810.000000;1.248324
9809.000000;1.247582
9808.000000;1.247336
9807.000000;1.246458
9806.000000;1.244909
9805.000000;1.243459
9804.000000;1.242501
9803.000000;1.241701
9802.000000;1.240760
9801.000000;1.240035
9800.000000;1.240162
9799.000000;1.241245
9798.000000;1.242587
9797.000000;1.243178
9796.000000;1.242512
9795.000000;1.241056
9794.000000;1.239900
9793.000000;1.239799
9792.000000;1.240456
9791.000000;1.240809
9790.000000;1.240075
9789.000000;1.238533
9788.000000;1.237245
9787.000000;1.237009
9786.000000;1.237564
9785.000000;1.237833
9784.000000;1.237053
9783.000000;1.235620
9782.000000;1.234652
9781.000000;1.234723
9780.000000;1.235197
9779.000000;1.234858
9778.000000;1.233110
9777.000000;1.230464
9776.000000;1.227982
9775.000000;1.226421
9774.000000;1.225862
9773.000000;1.225908
9772.000000;1.226068
9771.000000;1.225906
9770.000000;1.225019
9769.000000;1.223189
9768.000000;1.220789
9767.000000;1.218815
9766.000000;1.218160
9765.000000;1.218775
9764.000000;1.219726
9763.000000;1.220162
9762.000000;1.219997
9761.000000;1.219548
9760.000000;1.218882
9759.000000;1.217890
9758.000000;1.216774
9757.000000;1.216030
9756.000000;1.215844
9755.000000;1.215780
9754.000000;1.215224
9753.000000;1.214073
9752.000000;1.212833
9751.000000;1.212090
9750.000000;1.211946
9749.000000;1.211965
9748.000000;1.211626
9747.000000;1.210799
9746.000000;1.209785
9745.000000;1.208944
9744.000000;1.208348
9743.000000;1.207790
9742.000000;1.207032
9741.000000;1.206037
9740.000000;1.205030
9739.000000;1.204367
9738.000000;1.204239
9737.000000;1.204427
9736.000000;1.204451
9735.000000;1.204053
9734.000000;1.203510
9733.000000;1.203322
9732.000000;1.203614
9731.000000;1.203926
9730.000000;1.203624
9729.000000;1.202480
9728.000000;1.200857
9727.000000;1.199394
9726.000000;1.198499
9725.000000;1.198078
9724.000000;1.197677
9723.000000;1.196887
9722.000000;1.195657
9721.000000;1.194263
9720.000000;1.193047
9719.000000;1.192245
9718.000000;1.191988
9717.000000;1.192305
9716.000000;1.192981
9715.000000;1.193418
9714.000000;1.192887
9713.000000;1.191184
9712.000000;1.188985
9711.000000;1.187304
9710.000000;1.186520
9709.000000;1.186126
9708.000000;1.185520
9707.000000;1.184815
9706.000000;1.184570
9705.000000;1.184844
9704.000000;1.184942
9703.000000;1.184179
9702.000000;1.182705
9701.000000;1.181410
9700.000000;1.181161
9699.000000;1.182119
9698.000000;1.183551
9697.000000;1.184232
9696.000000;1.183332
9695.000000;1.181140
9694.000000;1.178834
9693.000000;1.177430
9692.000000;1.177054
9691.000000;1.177203
9690.000000;1.177375
9689.000000;1.177238
9688.000000;1.176515
9687.000000;1.175180
9686.000000;1.173741
9685.000000;1.172930
9684.000000;1.172976
9683.000000;1.173393
9682.000000;1.173534
9681.000000;1.173161
9680.000000;1.172392
9679.000000;1.171337
9678.000000;1.169980
9677.000000;1.168315
9676.000000;1.166486
9675.000000;1.164814
9674.000000;1.163712
9673.000000;1.163432
9672.000000;1.163826
9671.000000;1.164435
9670.000000;1.164872
9669.000000;1.165006
9668.000000;1.164746
9667.000000;1.163883
9666.000000;1.162359
9665.000000;1.160575
9664.000000;1.159142
9663.000000;1.158288
9662.000000;1.157715
9661.000000;1.157108
9660.000000;1.156622
9659.000000;1.156695
9658.000000;1.157424
9657.000000;1.158305
9656.000000;1.158650
9655.000000;1.158177
9654.000000;1.157127
9653.000000;1.155884
9652.000000;1.154632
9651.000000;1.153404
9650.000000;1.152290
9649.000000;1.151396
9648.000000;1.150651
9647.000000;1.149895
9646.000000;1.149156
9645.000000;1.148619
9644.000000;1.148251
9643.000000;1.147652
9642.000000;1.146456
9641.000000;1.144769
9640.000000;1.143052
9639.000000;1.141674
9638.000000;1.140777
9637.000000;1.140478
9636.000000;1.140899
9635.000000;1.141879
9634.000000;1.142839
9633.000000;1.143136
9632.000000;1.142554
9631.000000;1.141432
9630.000000;1.140364
9629.000000;1.139801
9628.000000;1.139781
9627.000000;1.139945
9626.000000;1.139822
9625.000000;1.139178
9624.000000;1.138073
9623.000000;1.136652
9622.000000;1.135046
9621.000000;1.133476
9620.000000;1.132223
9619.000000;1.131398
9618.000000;1.130839
9617.000000;1.130286
9616.000000;1.129619
9615.000000;1.128895
9614.000000;1.128308
9613.000000;1.128160
9612.000000;1.128653
9611.000000;1.129542
9610.000000;1.130151
9609.000000;1.129936
9608.000000;1.128992
9607.000000;1.127855
9606.000000;1.126925
9605.000000;1.126281
9604.000000;1.125876
9603.000000;1.125641
9602.000000;1.125439
9601.000000;1.125191
9600.000000;1.125001
9599.000000;1.124898
9598.000000;1.124546
9597.000000;1.123581
9596.000000;1.122249
9595.000000;1.121252
9594.000000;1.120832
9593.000000;1.120396
9592.000000;1.119282
9591.000000;1.117530
9590.000000;1.115615
9589.000000;1.113848
9588.000000;1.112469
9587.000000;1.111988
9586.000000;1.112760
9585.000000;1.114247
9584.000000;1.115259
9583.000000;1.115122
9582.000000;1.114233
9581.000000;1.113351
9580.000000;1.112748
9579.000000;1.112243
9578.000000;1.111612
9577.000000;1.110667
9576.000000;1.109239
9575.000000;1.107520
9574.000000;1.106219
9573.000000;1.105914
9572.000000;1.106283
9571.000000;1.106357
9570.000000;1.105634
9569.000000;1.104610
9568.000000;1.104088
9567.000000;1.104253
9566.000000;1.104644
9565.000000;1.104809
9564.000000;1.104681
9563.000000;1.104347
9562.000000;1.103736
9561.000000;1.102662
9560.000000;1.101067
9559.000000;1.099149
9558.000000;1.097325
9557.000000;1.096107
9556.000000;1.095869
9555.000000;1.096581
9554.000000;1.097706
9553.000000;1.098443
9552.000000;1.098217
9551.000000;1.097035
9550.000000;1.095412
9549.000000;1.093962
9548.000000;1.093022
9547.000000;1.092540
9546.000000;1.092253
9545.000000;1.091937
9544.000000;1.091584
9543.000000;1.091370
9542.000000;1.091430
9541.000000;1.091610
9540.000000;1.091471
9539.000000;1.090643
9538.000000;1.089228
9537.000000;1.087823
9536.000000;1.087083
9535.000000;1.087180
9534.000000;1.087617
9533.000000;1.087530
9532.000000;1.086312
9531.000000;1.084099
9530.000000;1.081712
9529.000000;1.080044
9528.000000;1.079384
9527.000000;1.079250
9526.000000;1.078899
9525.000000;1.078038
9524.000000;1.076993
9523.000000;1.076251
9522.000000;1.075959
9521.000000;1.075879
9520.000000;1.075702
9519.000000;1.075283
9518.000000;1.074673
9517.000000;1.074082
9516.000000;1.073835
9515.000000;1.074191
9514.000000;1.075082
9513.000000;1.076034
9512.000000;1.076448
9511.000000;1.076014
9510.000000;1.074891
9509.000000;1.073546
9508.000000;1.072460
9507.000000;1.071902
9506.000000;1.071812
9505.000000;1.071838
9504.000000;1.071583
9503.000000;1.070901
9502.000000;1.069939
9501.000000;1.068849
9500.000000;1.067580
9499.000000;1.066092
9498.000000;1.064726
9497.000000;1.064098
9496.000000;1.064467
9495.000000;1.065290
9494.000000;1.065595
9493.000000;1.064833
9492.000000;1.063250
9491.000000;1.061462
9490.000000;1.059883
9489.000000;1.058639
9488.000000;1.057777
9487.000000;1.057250
9486.000000;1.056825
9485.000000;1.056307
9484.000000;1.055903
9483.000000;1.056020
9482.000000;1.056570
9481.000000;1.056809
9480.000000;1.056187
9479.000000;1.055198
9478.000000;1.054934
9477.000000;1.055781
9476.000000;1.056887
9475.000000;1.057076
9474.000000;1.056042
9473.000000;1.054472
9472.000000;1.053194
9471.000000;1.052503
9470.000000;1.052197
9469.000000;1.051933
9468.000000;1.051492
9467.000000;1.050929
9466.000000;1.050563
9465.000000;1.050635
9464.000000;1.050922
9463.000000;1.050857
9462.000000;1.050140
9461.000000;1.049102
9460.000000;1.048285
9459.000000;1.047770
9458.000000;1.047141
9457.000000;1.046102
9456.000000;1.044876
9455.000000;1.043854
9454.000000;1.043038
9453.000000;1.042052
9452.000000;1.040690
9451.000000;1.039266
9450.000000;1.038366
9449.000000;1.038336
9448.000000;1.039022
9447.000000;1.039897
9446.000000;1.040395
9445.000000;1.040263
9444.000000;1.039760
9443.000000;1.039421
9442.000000;1.039490
9441.000000;1.039609
9440.000000;1.039214
9439.000000;1.038243
9438.000000;1.037258
9437.000000;1.036794
9436.000000;1.036789
9435.000000;1.036780
9434.000000;1.036474
9433.000000;1.035892
9432.000000;1.035027
9431.000000;1.033706
9430.000000;1.031946
9429.000000;1.030173
9428.000000;1.028909
9427.000000;1.028272
9426.000000;1.027940
9425.000000;1.027579
9424.000000;1.027171
9423.000000;1.026899
9422.000000;1.026809
9421.000000;1.026691
9420.000000;1.026291
9419.000000;1.025569
9418.000000;1.024716
9417.000000;1.023977
9416.000000;1.023532
9415.000000;1.023489
9414.000000;1.023831
9413.000000;1.024278
9412.000000;1.024348
9411.000000;1.023723
9410.000000;1.022577
9409.000000;1.021417
9408.000000;1.020646
9407.000000;1.020360
9406.000000;1.020487
9405.000000;1.020848
9404.000000;1.021048
9403.000000;1.020558
9402.000000;1.019139
9401.000000;1.017179
9400.000000;1.015486
9399.000000;1.014731
9398.000000;1.015001
9397.000000;1.015687
9396.000000;1.015836
9395.000000;1.014880
9394.000000;1.013188
9393.000000;1.011750
9392.000000;1.011192
9391.000000;1.011212
9390.000000;1.011083
9389.000000;1.010525
9388.000000;1.009882
9387.000000;1.009587
9386.000000;1.009767
9385.000000;1.010284
9384.000000;1.010822
9383.000000;1.010915
9382.000000;1.010264
9381.000000;1.009213
9380.000000;1.008599
9379.000000;1.008879
9378.000000;1.009530
9377.000000;1.009585
9376.000000;1.008702
9375.000000;1.007457
9374.000000;1.006566
9373.000000;1.006124
9372.000000;1.005775
9371.000000;1.005351
9370.000000;1.005008
9369.000000;1.004753
9368.000000;1.004208
9367.000000;1.003093
9366.000000;1.001763
9365.000000;1.000874
9364.000000;1.000535
9363.000000;1.000152
9362.000000;0.999266
9361.000000;0.998216
9360.000000;0.997672
9359.000000;0.997755
9358.000000;0.997988
9357.000000;0.998003
9356.000000;0.997890
9355.000000;0.997771
9354.000000;0.997473
9353.000000;0.996812
9352.000000;0.995903
9351.000000;0.994979
9350.000000;0.994094
9349.000000;0.993264
9348.000000;0.992734
9347.000000;0.992801
9346.000000;0.993373
9345.000000;0.993974
9344.000000;0.994222
9343.000000;0.994122
9342.000000;0.993833
9341.000000;0.993400
9340.000000;0.992822
9339.000000;0.992258
9338.000000;0.991926
9337.000000;0.991820
9336.000000;0.991685
9335.000000;0.991340
9334.000000;0.990887
9333.000000;0.990503
9332.000000;0.990109
9331.000000;0.989418
9330.000000;0.988356
9329.000000;0.987305
9328.000000;0.986772
9327.000000;0.986849
9326.000000;0.987075
9325.000000;0.986845
9324.000000;0.985921
9323.000000;0.984583
9322.000000;0.983376
9321.000000;0.982700
9320.000000;0.982525
9319.000000;0.982429
9318.000000;0.981991
9317.000000;0.981204
9316.000000;0.980454
9315.000000;0.980067
9314.000000;0.979968
9313.000000;0.979846
9312.000000;0.979529
9311.000000;0.979081
9310.000000;0.978591
9309.000000;0.978031
9308.000000;0.977367
9307.000000;0.976674
9306.000000;0.976059
9305.000000;0.975558
9304.000000;0.975160
9303.000000;0.974881
9302.000000;0.974691
9301.000000;0.974432
9300.000000;0.973960
9299.000000;0.973412
9298.000000;0.973151
9297.000000;0.973333
9296.000000;0.973625
9295.000000;0.973540
9294.000000;0.972987
9293.000000;0.972288
9292.000000;0.971661
9291.000000;0.970935
9290.000000;0.969929
9289.000000;0.968904
9288.000000;0.968401
9287.000000;0.968670
9286.000000;0.969418
9285.000000;0.970081
9284.000000;0.970215
9283.000000;0.969654
9282.000000;0.968540
9281.000000;0.967308
9280.000000;0.966525
9279.000000;0.966531
9278.000000;0.967162
9277.000000;0.967842
9276.000000;0.967978
9275.000000;0.967350
9274.000000;0.966205
9273.000000;0.965015
9272.000000;0.964143
9271.000000;0.963717
9270.000000;0.963696
9269.000000;0.963881
9268.000000;0.963853
9267.000000;0.963164
9266.000000;0.961819
9265.000000;0.960458
9264.000000;0.959823
9263.000000;0.960012
9262.000000;0.960449
9261.000000;0.960602
9260.000000;0.960490
9259.000000;0.960404
9258.000000;0.960396
9257.000000;0.960226
9256.000000;0.959717
9255.000000;0.958944
9254.000000;0.958129
9253.000000;0.957471
9252.000000;0.957068
9251.000000;0.956913
9250.000000;0.956898
9249.000000;0.956868
9248.000000;0.956628
9247.000000;0.955952
9246.000000;0.954710
9245.000000;0.953093
9244.000000;0.951653
9243.000000;0.950966
9242.000000;0.951218
9241.000000;0.952086
9240.000000;0.952993
9239.000000;0.953483
9238.000000;0.953451
9237.000000;0.953104
9236.000000;0.952705
9235.000000;0.952325
9234.000000;0.951895
9233.000000;0.951435
9232.000000;0.951086
9231.000000;0.950873
9230.000000;0.950586
9229.000000;0.950018
9228.000000;0.949238
9227.000000;0.948463
9226.000000;0.947726
9225.000000;0.946863
9224.000000;0.945857
9223.000000;0.945012
9222.000000;0.944661
9221.000000;0.944800
9220.000000;0.945112
9219.000000;0.945309
9218.000000;0.945367
9217.000000;0.945428
9216.000000;0.945548
9215.000000;0.945605
9214.000000;0.945407
9213.000000;0.944858
9212.000000;0.944018
9211.000000;0.943028
9210.000000;0.942005
9209.000000;0.941048
9208.000000;0.940305
9207.000000;0.939983
9206.000000;0.940170
9205.000000;0.940634
9204.000000;0.940872
9203.000000;0.940501
9202.000000;0.939640
9201.000000;0.938839
9200.000000;0.938605
9199.000000;0.939009
9198.000000;0.939692
9197.000000;0.940150
9196.000000;0.940054
9195.000000;0.939397
9194.000000;0.938423
9193.000000;0.937378
9192.000000;0.936369
9191.000000;0.935544
9190.000000;0.935326
9189.000000;0.936175
9188.000000;0.937932
9187.000000;0.939607
9186.000000;0.940092
9185.000000;0.939150
9184.000000;0.937571
9183.000000;0.936368
9182.000000;0.935945
9181.000000;0.935951
9180.000000;0.935756
9179.000000;0.935074
9178.000000;0.934254
9177.000000;0.933893
9176.000000;0.934068
9175.000000;0.934078
9174.000000;0.933163
9173.000000;0.931428
9172.000000;0.929771
9171.000000;0.928902
9170.000000;0.928693
9169.000000;0.928522
9168.000000;0.927958
9167.000000;0.927021
9166.000000;0.926026
9165.000000;0.925379
9164.000000;0.925356
9163.000000;0.925891
9162.000000;0.926646
9161.000000;0.927350
9160.000000;0.927973
9159.000000;0.928508
9158.000000;0.928815
9157.000000;0.928791
9156.000000;0.928531
9155.000000;0.928163
9154.000000;0.927678
9153.000000;0.927064
9152.000000;0.926446
9151.000000;0.925890
9150.000000;0.925206
9149.000000;0.924214
9148.000000;0.923149
9147.000000;0.922536
9146.000000;0.922599
9145.000000;0.922972
9144.000000;0.923103
9143.000000;0.922826
9142.000000;0.922471
9141.000000;0.922450
9140.000000;0.922818
9139.000000;0.923236
9138.000000;0.923360
9137.000000;0.923204
9136.000000;0.923022
9135.000000;0.922868
9134.000000;0.922488
9133.000000;0.921733
9132.000000;0.920888
9131.000000;0.920406
9130.000000;0.920414
9129.000000;0.920648
9128.000000;0.920753
9127.000000;0.920469
9126.000000;0.919656
9125.000000;0.918465
9124.000000;0.917442
9123.000000;0.917102
9122.000000;0.917278
9121.000000;0.917193
9120.000000;0.916384
9119.000000;0.915356
9118.000000;0.915051
9117.000000;0.915757
9116.000000;0.916777
9115.000000;0.917198
9114.000000;0.916776
9113.000000;0.916039
9112.000000;0.915661
9111.000000;0.915861
9110.000000;0.916309
9109.000000;0.916523
9108.000000;0.916327
9107.000000;0.915952
9106.000000;0.915692
9105.000000;0.915509
9104.000000;0.915082
9103.000000;0.914271
9102.000000;0.913439
9101.000000;0.913158
9100.000000;0.913599
9099.000000;0.914333
9098.000000;0.914755
9097.000000;0.914586
9096.000000;0.913911
9095.000000;0.912960
9094.000000;0.912048
9093.000000;0.911558
9092.000000;0.911645
9091.000000;0.911908
9090.000000;0.911670
9089.000000;0.910771
9088.000000;0.909886
9087.000000;0.909828
9086.000000;0.910687
9085.000000;0.911801
9084.000000;0.912389
9083.000000;0.912026
9082.000000;0.910683
9081.000000;0.908748
9080.000000;0.907011
9079.000000;0.906188
9078.000000;0.906244
9077.000000;0.906427
9076.000000;0.906144
9075.000000;0.905627
9074.000000;0.905528
9073.000000;0.906070
9072.000000;0.906924
9071.000000;0.907738
9070.000000;0.908376
9069.000000;0.908627
9068.000000;0.908129
9067.000000;0.906831
9066.000000;0.905293
9065.000000;0.904241
9064.000000;0.903862
9063.000000;0.903734
9062.000000;0.903411
9061.000000;0.902933
9060.000000;0.902741
9059.000000;0.903202
9058.000000;0.904228
9057.000000;0.905261
9056.000000;0.905611
9055.000000;0.904925
9054.000000;0.903416
9053.000000;0.901682
