Criado como novo conjunto de dados;"1909daniel.spp","-4224221.9 Secs"
cm-1;Abs
10000.000000;1.572722
9999.000000;1.573565
9998.000000;1.572687
9997.000000;1.570287
9996.000000;1.568464
9995.000000;1.568430
9994.000000;1.569396
9993.000000;1.569697
9992.000000;1.568984
9991.000000;1.568190
9990.000000;1.568165
9989.000000;1.568802
9988.000000;1.569356
9987.000000;1.569031
9986.000000;1.567443
9985.000000;1.564818
9984.000000;1.561789
9983.000000;1.559028
9982.000000;1.557148
9981.000000;1.556583
9980.000000;1.557028
9979.000000;1.557252
9978.000000;1.556317
9977.000000;1.554948
9976.000000;1.554733
9975.000000;1.555814
9974.000000;1.556426
9973.000000;1.555153
9972.000000;1.552672
9971.000000;1.550515
9970.000000;1.548934
9969.000000;1.546962
9968.000000;1.544236
9967.000000;1.541896
9966.000000;1.541619
9965.000000;1.544169
9964.000000;1.548692
9963.000000;1.553075
9962.000000;1.555322
9961.000000;1.555057
9960.000000;1.553512
9959.000000;1.552035
9958.000000;1.551013
9957.000000;1.550208
9956.000000;1.549369
9955.000000;1.548161
9954.000000;1.546168
9953.000000;1.543595
9952.000000;1.541539
9951.000000;1.540937
9950.000000;1.541466
9949.000000;1.541830
9948.000000;1.540913
9947.000000;1.538554
9946.000000;1.535556
9945.000000;1.533178
9944.000000;1.532297
9943.000000;1.532593
9942.000000;1.532790
9941.000000;1.532072
9940.000000;1.530855
9939.000000;1.529725
9938.000000;1.528313
9937.000000;1.526065
9936.000000;1.523669
9935.000000;1.522634
9934.000000;1.523452
9933.000000;1.524968
9932.000000;1.525789
9931.000000;1.525780
9930.000000;1.525842
9929.000000;1.526594
9928.000000;1.527660
9927.000000;1.528139
9926.000000;1.527540
9925.000000;1.526233
9924.000000;1.525117
9923.000000;1.524932
9922.000000;1.525783
9921.000000;1.527080
9920.000000;1.527658
9919.000000;1.526295
9918.000000;1.522821
9917.000000;1.518787
9916.000000;1.516337
9915.000000;1.516125
9914.000000;1.516731
9913.000000;1.516365
9912.000000;1.514708
9911.000000;1.512710
9910.000000;1.511242
9909.000000;1.510659
9908.000000;1.511138
9907.000000;1.512493
9906.000000;1.513780
9905.000000;1.513897
9904.000000;1.512770
9903.000000;1.511328
9902.000000;1.510259
9901.000000;1.509410
9900.000000;1.508493
9899.000000;1.507757
9898.000000;1.507627
9897.000000;1.508049
9896.000000;1.508500
9895.000000;1.508487
9894.000000;1.507840
9893.000000;1.506715
9892.000000;1.505512
9891.000000;1.504615
9890.000000;1.504021
9889.000000;1.503320
9888.000000;1.502088
9887.000000;1.500265
9886.000000;1.498271
9885.000000;1.496857
9884.000000;1.496651
9883.000000;1.497543
9882.000000;1.498473
9881.000000;1.498161
9880.000000;1.496319
9879.000000;1.494033
9878.000000;1.492727
9877.000000;1.492732
9876.000000;1.492985
9875.000000;1.492283
9874.000000;1.490690
9873.000000;1.489308
9872.000000;1.488680
9871.000000;1.488027
9870.000000;1.486477
9869.000000;1.484556
9868.000000;1.483632
9867.000000;1.484045
9866.000000;1.484711
9865.000000;1.484758
9864.000000;1.484669
9863.000000;1.485225
9862.000000;1.486019
9861.000000;1.485816
9860.000000;1.484101
9859.000000;1.481574
9858.000000;1.479281
9857.000000;1.477820
9856.000000;1.477244
9855.000000;1.477190
9854.000000;1.477127
9853.000000;1.476863
9852.000000;1.476702
9851.000000;1.476749
9850.000000;1.476339
9849.000000;1.474700
9848.000000;1.472031
9847.000000;1.469313
9846.000000;1.467154
9845.000000;1.465367
9844.000000;1.463784
9843.000000;1.462943
9842.000000;1.463665
9841.000000;1.466145
9840.000000;1.469594
9839.000000;1.472578
9838.000000;1.473798
9837.000000;1.472870
9836.000000;1.470514
9835.000000;1.467901
9834.000000;1.465776
9833.000000;1.464174
9832.000000;1.462740
9831.000000;1.461297
9830.000000;1.460356
9829.000000;1.460987
9828.000000;1.463640
9827.000000;1.466929
9826.000000;1.468232
9825.000000;1.466211
9824.000000;1.462320
9823.000000;1.459131
9822.000000;1.457704
9821.000000;1.457328
9820.000000;1.457217
9819.000000;1.457276
9818.000000;1.457273
9817.000000;1.456488
9816.000000;1.454762
9815.000000;1.453108
9814.000000;1.452595
9813.000000;1.453101
9812.000000;1.453639
9811.000000;1.453470
9810.000000;1.452495
9809.000000;1.451065
9808.000000;1.450001
9807.000000;1.450380
9806.000000;1.452478
9805.000000;1.454971
9804.000000;1.455839
9803.000000;1.454287
9802.000000;1.451370
9801.000000;1.448674
9800.000000;1.446872
9799.000000;1.445609
9798.000000;1.444242
9797.000000;1.442478
9796.000000;1.440586
9795.000000;1.439220
9794.000000;1.438870
9793.000000;1.439279
9792.000000;1.439559
9791.000000;1.439055
9790.000000;1.437965
9789.000000;1.436950
9788.000000;1.436316
9787.000000;1.435836
9786.000000;1.435267
9785.000000;1.434719
9784.000000;1.434447
9783.000000;1.434541
9782.000000;1.434854
9781.000000;1.435060
9780.000000;1.434758
9779.000000;1.433734
9778.000000;1.432240
9777.000000;1.430829
9776.000000;1.429764
9775.000000;1.428740
9774.000000;1.427402
9773.000000;1.425939
9772.000000;1.424907
9771.000000;1.424578
9770.000000;1.424747
9769.000000;1.425072
9768.000000;1.425261
9767.000000;1.424934
9766.000000;1.423697
9765.000000;1.421578
9764.000000;1.419155
9763.000000;1.417123
9762.000000;1.415940
9761.000000;1.415858
9760.000000;1.416879
9759.000000;1.418449
9758.000000;1.419529
9757.000000;1.419366
9756.000000;1.418154
9755.000000;1.416750
9754.000000;1.415844
9753.000000;1.415455
9752.000000;1.415026
9751.000000;1.413857
9750.000000;1.411696
9749.000000;1.409165
9748.000000;1.407478
9747.000000;1.407459
9746.000000;1.408752
9745.000000;1.410059
9744.000000;1.410201
9743.000000;1.408978
9742.000000;1.407166
9741.000000;1.405791
9740.000000;1.405292
9739.000000;1.405239
9738.000000;1.404891
9737.000000;1.404024
9736.000000;1.403060
9735.000000;1.402464
9734.000000;1.402345
9733.000000;1.402732
9732.000000;1.403827
9731.000000;1.405624
9730.000000;1.407418
9729.000000;1.408101
9728.000000;1.407041
9727.000000;1.404546
9726.000000;1.401534
9725.000000;1.398883
9724.000000;1.397001
9723.000000;1.395780
9722.000000;1.394880
9721.000000;1.394045
9720.000000;1.393170
9719.000000;1.392231
9718.000000;1.391413
9717.000000;1.391150
9716.000000;1.391676
9715.000000;1.392550
9714.000000;1.393035
9713.000000;1.392984
9712.000000;1.392923
9711.000000;1.393196
9710.000000;1.393561
9709.000000;1.393769
9708.000000;1.393950
9707.000000;1.394061
9706.000000;1.393548
9705.000000;1.392030
9704.000000;1.389865
9703.000000;1.387537
9702.000000;1.385010
9701.000000;1.382297
9700.000000;1.380145
9699.000000;1.379339
9698.000000;1.379580
9697.000000;1.379790
9696.000000;1.379437
9695.000000;1.378939
9694.000000;1.378821
9693.000000;1.379180
9692.000000;1.380010
9691.000000;1.381265
9690.000000;1.382274
9689.000000;1.381843
9688.000000;1.379507
9687.000000;1.376298
9686.000000;1.373807
9685.000000;1.372732
9684.000000;1.372544
9683.000000;1.372303
9682.000000;1.371605
9681.000000;1.370863
9680.000000;1.370817
9679.000000;1.371740
9678.000000;1.373094
9677.000000;1.373981
9676.000000;1.373839
9675.000000;1.372613
9674.000000;1.370542
9673.000000;1.368183
9672.000000;1.366452
9671.000000;1.365948
9670.000000;1.366179
9669.000000;1.366002
9668.000000;1.365005
9667.000000;1.363931
9666.000000;1.363501
9665.000000;1.363332
9664.000000;1.362493
9663.000000;1.360823
9662.000000;1.359134
9661.000000;1.358141
9660.000000;1.357728
9659.000000;1.357390
9658.000000;1.357002
9657.000000;1.356786
9656.000000;1.356698
9655.000000;1.356308
9654.000000;1.355379
9653.000000;1.354237
9652.000000;1.353339
9651.000000;1.352686
9650.000000;1.351943
9649.000000;1.351003
9648.000000;1.350078
9647.000000;1.349294
9646.000000;1.348614
9645.000000;1.348179
9644.000000;1.348205
9643.000000;1.348402
9642.000000;1.348137
9641.000000;1.347506
9640.000000;1.347613
9639.000000;1.349147
9638.000000;1.351134
9637.000000;1.351839
9636.000000;1.350753
9635.000000;1.348983
9634.000000;1.347767
9633.000000;1.347368
9632.000000;1.347382
9631.000000;1.347348
9630.000000;1.346873
9629.000000;1.345773
9628.000000;1.344369
9627.000000;1.343183
9626.000000;1.342189
9625.000000;1.340849
9624.000000;1.339057
9623.000000;1.337491
9622.000000;1.336694
9621.000000;1.336298
9620.000000;1.335570
9619.000000;1.334416
9618.000000;1.333391
9617.000000;1.332916
9616.000000;1.332927
9615.000000;1.333171
9614.000000;1.333455
9613.000000;1.333578
9612.000000;1.333334
9611.000000;1.332715
9610.000000;1.331971
9609.000000;1.331370
9608.000000;1.330939
9607.000000;1.330458
9606.000000;1.329702
9605.000000;1.328674
9604.000000;1.327550
9603.000000;1.326442
9602.000000;1.325391
9601.000000;1.324595
9600.000000;1.324339
9599.000000;1.324541
9598.000000;1.324680
9597.000000;1.324408
9596.000000;1.323988
9595.000000;1.323770
9594.000000;1.323481
9593.000000;1.322511
9592.000000;1.320761
9591.000000;1.318679
9590.000000;1.316628
9589.000000;1.314814
9588.000000;1.313779
9587.000000;1.314178
9586.000000;1.315824
9585.000000;1.317513
9584.000000;1.318129
9583.000000;1.317517
9582.000000;1.316102
9581.000000;1.314231
9580.000000;1.312266
9579.000000;1.310763
9578.000000;1.310017
9577.000000;1.309667
9576.000000;1.309209
9575.000000;1.308699
9574.000000;1.308564
9573.000000;1.308867
9572.000000;1.309153
9571.000000;1.308988
9570.000000;1.308393
9569.000000;1.307774
9568.000000;1.307587
9567.000000;1.307939
9566.000000;1.308307
9565.000000;1.307853
9564.000000;1.306313
9563.000000;1.304419
9562.000000;1.303151
9561.000000;1.302681
9560.000000;1.302304
9559.000000;1.301343
9558.000000;1.299876
9557.000000;1.298584
9556.000000;1.298062
9555.000000;1.298327
9554.000000;1.298862
9553.000000;1.299118
9552.000000;1.298994
9551.000000;1.298726
9550.000000;1.298413
9549.000000;1.297944
9548.000000;1.297363
9547.000000;1.296970
9546.000000;1.296871
9545.000000;1.296729
9544.000000;1.296201
9543.000000;1.295350
9542.000000;1.294358
9541.000000;1.293182
9540.000000;1.291830
9539.000000;1.290670
9538.000000;1.289987
9537.000000;1.289403
9536.000000;1.288255
9535.000000;1.286510
9534.000000;1.284878
9533.000000;1.284047
9532.000000;1.284147
9531.000000;1.284854
9530.000000;1.285613
9529.000000;1.285703
9528.000000;1.284561
9527.000000;1.282330
9526.000000;1.279904
9525.000000;1.278283
9524.000000;1.277952
9523.000000;1.278761
9522.000000;1.280121
9521.000000;1.281251
9520.000000;1.281564
9519.000000;1.281072
9518.000000;1.280353
9517.000000;1.279941
9516.000000;1.279821
9515.000000;1.279601
9514.000000;1.279104
9513.000000;1.278626
9512.000000;1.278547
9511.000000;1.278811
9510.000000;1.278953
9509.000000;1.278605
9508.000000;1.277797
9507.000000;1.276613
9506.000000;1.274804
9505.000000;1.272151
9504.000000;1.269185
9503.000000;1.267115
9502.000000;1.266765
9501.000000;1.267776
9500.000000;1.269069
9499.000000;1.269911
9498.000000;1.270290
9497.000000;1.270439
9496.000000;1.270408
9495.000000;1.270085
9494.000000;1.269292
9493.000000;1.267797
9492.000000;1.265507
9491.000000;1.262765
9490.000000;1.260325
9489.000000;1.258926
9488.000000;1.258898
9487.000000;1.260062
9486.000000;1.261797
9485.000000;1.263284
9484.000000;1.263996
9483.000000;1.263999
9482.000000;1.263606
9481.000000;1.262859
9480.000000;1.261626
9479.000000;1.260152
9478.000000;1.259090
9477.000000;1.258796
9476.000000;1.258905
9475.000000;1.258783
9474.000000;1.258197
9473.000000;1.257357
9472.000000;1.256507
9471.000000;1.255756
9470.000000;1.255202
9469.000000;1.254973
9468.000000;1.255135
9467.000000;1.255623
9466.000000;1.256219
9465.000000;1.256524
9464.000000;1.256114
9463.000000;1.254891
9462.000000;1.253257
9461.000000;1.251839
9460.000000;1.251057
9459.000000;1.250927
9458.000000;1.251118
9457.000000;1.251098
9456.000000;1.250437
9455.000000;1.249249
9454.000000;1.248202
9453.000000;1.247861
9452.000000;1.248066
9451.000000;1.248145
9450.000000;1.247666
9449.000000;1.246721
9448.000000;1.245556
9447.000000;1.244296
9446.000000;1.243047
9445.000000;1.241894
9444.000000;1.240682
9443.000000;1.239206
9442.000000;1.237816
9441.000000;1.237398
9440.000000;1.238321
9439.000000;1.239674
9438.000000;1.240121
9437.000000;1.239491
9436.000000;1.238923
9435.000000;1.239339
9434.000000;1.240338
9433.000000;1.240831
9432.000000;1.240300
9431.000000;1.239054
9430.000000;1.237553
9429.000000;1.236007
9428.000000;1.234588
9427.000000;1.233566
9426.000000;1.233146
9425.000000;1.233295
9424.000000;1.233710
9423.000000;1.233868
9422.000000;1.233348
9421.000000;1.232356
9420.000000;1.231700
9419.000000;1.231888
9418.000000;1.232427
9417.000000;1.232427
9416.000000;1.231805
9415.000000;1.231299
9414.000000;1.231255
9413.000000;1.231064
9412.000000;1.230044
9411.000000;1.228391
9410.000000;1.226899
9409.000000;1.226133
9408.000000;1.226212
9407.000000;1.227016
9406.000000;1.228147
9405.000000;1.228907
9404.000000;1.228806
9403.000000;1.228013
9402.000000;1.226962
9401.000000;1.225720
9400.000000;1.224121
9399.000000;1.222368
9398.000000;1.220969
9397.000000;1.220116
9396.000000;1.219546
9395.000000;1.219030
9394.000000;1.218582
9393.000000;1.218131
9392.000000;1.217523
9391.000000;1.217011
9390.000000;1.217291
9389.000000;1.218673
9388.000000;1.220434
9387.000000;1.221314
9386.000000;1.220599
9385.000000;1.218607
9384.000000;1.216299
9383.000000;1.214608
9382.000000;1.213874
9381.000000;1.213660
9380.000000;1.213205
9379.000000;1.212288
9378.000000;1.211478
9377.000000;1.211311
9376.000000;1.211470
9375.000000;1.211122
9374.000000;1.209992
9373.000000;1.208692
9372.000000;1.207956
9371.000000;1.207884
9370.000000;1.208035
9369.000000;1.207932
9368.000000;1.207285
9367.000000;1.205985
9366.000000;1.204184
9365.000000;1.202372
9364.000000;1.201208
9363.000000;1.201181
9362.000000;1.202364
9361.000000;1.204302
9360.000000;1.206089
9359.000000;1.206763
9358.000000;1.205986
9357.000000;1.204370
9356.000000;1.202958
9355.000000;1.202327
9354.000000;1.202281
9353.000000;1.202342
9352.000000;1.202319
9351.000000;1.202283
9350.000000;1.202225
9349.000000;1.201984
9348.000000;1.201437
9347.000000;1.200540
9346.000000;1.199266
9345.000000;1.197710
9344.000000;1.196206
9343.000000;1.195078
9342.000000;1.194261
9341.000000;1.193441
9340.000000;1.192650
9339.000000;1.192421
9338.000000;1.193179
9337.000000;1.194651
9336.000000;1.196062
9335.000000;1.196719
9334.000000;1.196233
9333.000000;1.194497
9332.000000;1.191876
9331.000000;1.189333
9330.000000;1.187854
9329.000000;1.187586
9328.000000;1.187790
9327.000000;1.187735
9326.000000;1.187381
9325.000000;1.187143
9324.000000;1.187272
9323.000000;1.187683
9322.000000;1.188181
9321.000000;1.188582
9320.000000;1.188689
9319.000000;1.188346
9318.000000;1.187589
9317.000000;1.186753
9316.000000;1.186384
9315.000000;1.186835
9314.000000;1.187810
9313.000000;1.188423
9312.000000;1.188016
9311.000000;1.186881
9310.000000;1.185849
9309.000000;1.185184
9308.000000;1.184334
9307.000000;1.182844
9306.000000;1.181052
9305.000000;1.179661
9304.000000;1.179020
9303.000000;1.179130
9302.000000;1.179932
9301.000000;1.181123
9300.000000;1.181930
9299.000000;1.181652
9298.000000;1.180445
9297.000000;1.179195
9296.000000;1.178614
9295.000000;1.178724
9294.000000;1.179055
9293.000000;1.178995
9292.000000;1.178069
9291.000000;1.176415
9290.000000;1.174994
9289.000000;1.174846
9288.000000;1.175968
9287.000000;1.177264
9286.000000;1.177782
9285.000000;1.177672
9284.000000;1.177643
9283.000000;1.177831
9282.000000;1.177632
9281.000000;1.176496
9280.000000;1.174527
9279.000000;1.172329
9278.000000;1.170515
9277.000000;1.169402
9276.000000;1.168976
9275.000000;1.169036
9274.000000;1.169402
9273.000000;1.170012
9272.000000;1.170833
9271.000000;1.171705
9270.000000;1.172351
9269.000000;1.172508
9268.000000;1.172046
9267.000000;1.171020
9266.000000;1.169666
9265.000000;1.168309
9264.000000;1.167226
9263.000000;1.166533
9262.000000;1.166147
9261.000000;1.165840
9260.000000;1.165442
9259.000000;1.165082
9258.000000;1.165121
9257.000000;1.165653
9256.000000;1.166175
9255.000000;1.165974
9254.000000;1.164888
9253.000000;1.163497
9252.000000;1.162531
9251.000000;1.162267
9250.000000;1.162452
9249.000000;1.162535
9248.000000;1.161966
9247.000000;1.160634
9246.000000;1.159163
9245.000000;1.158538
9244.000000;1.159207
9243.000000;1.160563
9242.000000;1.161438
9241.000000;1.161110
9240.000000;1.159796
9239.000000;1.158375
9238.000000;1.157734
9237.000000;1.158136
9236.000000;1.158940
9235.000000;1.159099
9234.000000;1.158177
9233.000000;1.156724
9232.000000;1.155520
9231.000000;1.154712
9230.000000;1.153961
9229.000000;1.153237
9228.000000;1.152963
9227.000000;1.153328
9226.000000;1.153888
9225.000000;1.154064
9224.000000;1.153784
9223.000000;1.153414
9222.000000;1.153220
9221.000000;1.153122
9220.000000;1.152952
9219.000000;1.152664
9218.000000;1.152272
9217.000000;1.151773
9216.000000;1.151249
9215.000000;1.150913
9214.000000;1.150919
9213.000000;1.151144
9212.000000;1.151248
9211.000000;1.150960
9210.000000;1.150257
9209.000000;1.149273
9208.000000;1.148191
9207.000000;1.147275
9206.000000;1.146859
9205.000000;1.147103
9204.000000;1.147719
9203.000000;1.148134
9202.000000;1.148014
9201.000000;1.147596
9200.000000;1.147417
9199.000000;1.147774
9198.000000;1.148407
9197.000000;1.148652
9196.000000;1.147943
9195.000000;1.146287
9194.000000;1.144310
9193.000000;1.142792
9192.000000;1.142121
9191.000000;1.142149
9190.000000;1.142497
9189.000000;1.142897
9188.000000;1.143257
9187.000000;1.143558
9186.000000;1.143771
9185.000000;1.143843
9184.000000;1.143750
9183.000000;1.143577
9182.000000;1.143433
9181.000000;1.143215
9180.000000;1.142609
9179.000000;1.141487
9178.000000;1.140174
9177.000000;1.139112
9176.000000;1.138369
9175.000000;1.137787
9174.000000;1.137534
9173.000000;1.138049
9172.000000;1.139292
9171.000000;1.140474
9170.000000;1.140838
9169.000000;1.140494
9168.000000;1.140131
9167.000000;1.140052
9166.000000;1.139840
9165.000000;1.138985
9164.000000;1.137568
9163.000000;1.136191
9162.000000;1.135357
9161.000000;1.135040
9160.000000;1.134854
9159.000000;1.134524
9158.000000;1.134065
9157.000000;1.133503
9156.000000;1.132721
9155.000000;1.131844
9154.000000;1.131460
9153.000000;1.132012
9152.000000;1.133012
9151.000000;1.133308
9150.000000;1.132364
9149.000000;1.130886
9148.000000;1.129932
9147.000000;1.129712
9146.000000;1.129597
9145.000000;1.129067
9144.000000;1.128319
9143.000000;1.127963
9142.000000;1.128334
9141.000000;1.129137
9140.000000;1.129736
9139.000000;1.129858
9138.000000;1.129961
9137.000000;1.130606
9136.000000;1.131510
9135.000000;1.131652
9134.000000;1.130508
9133.000000;1.128701
9132.000000;1.127212
9131.000000;1.126362
9130.000000;1.125878
9129.000000;1.125472
9128.000000;1.124914
9127.000000;1.123946
9126.000000;1.122723
9125.000000;1.122062
9124.000000;1.122591
9123.000000;1.123746
9122.000000;1.124301
9121.000000;1.123911
9120.000000;1.123455
9119.000000;1.123737
9118.000000;1.124502
9117.000000;1.124995
9116.000000;1.124959
9115.000000;1.124649
9114.000000;1.124233
9113.000000;1.123672
9112.000000;1.123070
9111.000000;1.122740
9110.000000;1.122886
9109.000000;1.123366
9108.000000;1.123783
9107.000000;1.123788
9106.000000;1.123386
9105.000000;1.122945
9104.000000;1.122803
9103.000000;1.122839
9102.000000;1.122590
9101.000000;1.121808
9100.000000;1.120733
9099.000000;1.119844
9098.000000;1.119509
9097.000000;1.119838
9096.000000;1.120566
9095.000000;1.121064
9094.000000;1.120774
9093.000000;1.119759
9092.000000;1.118617
9091.000000;1.117858
9090.000000;1.117570
9089.000000;1.117665
9088.000000;1.118050
9087.000000;1.118428
9086.000000;1.118312
9085.000000;1.117489
9084.000000;1.116304
9083.000000;1.115263
9082.000000;1.114551
9081.000000;1.114078
9080.000000;1.113784
9079.000000;1.113672
9078.000000;1.113680
9077.000000;1.113748
9076.000000;1.113907
9075.000000;1.114101
9074.000000;1.114114
9073.000000;1.113910
9072.000000;1.113915
9071.000000;1.114646
9070.000000;1.116050
9069.000000;1.117395
9068.000000;1.117866
9067.000000;1.117169
9066.000000;1.115614
9065.000000;1.113804
9064.000000;1.112238
9063.000000;1.111056
9062.000000;1.110137
9061.000000;1.109444
9060.000000;1.109174
9059.000000;1.109443
9058.000000;1.109926
9057.000000;1.110070
9056.000000;1.109692
9055.000000;1.109171
9054.000000;1.108968
9053.000000;1.109114
