Criado como novo conjunto de dados;"1909daniel.spp","-4235562.5 Secs"
cm-1;Abs
10000.000000;1.429672
9999.000000;1.428289
9998.000000;1.426049
9997.000000;1.423717
9996.000000;1.422060
9995.000000;1.421405
9994.000000;1.421385
9993.000000;1.421257
9992.000000;1.420616
9991.000000;1.419713
9990.000000;1.419083
9989.000000;1.419035
9988.000000;1.419520
9987.000000;1.420210
9986.000000;1.420480
9985.000000;1.419629
9984.000000;1.417644
9983.000000;1.415669
9982.000000;1.415079
9981.000000;1.415974
9980.000000;1.417068
9979.000000;1.417229
9978.000000;1.416599
9977.000000;1.415882
9976.000000;1.415159
9975.000000;1.414056
9974.000000;1.412685
9973.000000;1.411635
9972.000000;1.411128
9971.000000;1.410872
9970.000000;1.410732
9969.000000;1.410801
9968.000000;1.410696
9967.000000;1.409642
9966.000000;1.407713
9965.000000;1.406217
9964.000000;1.406135
9963.000000;1.406728
9962.000000;1.406476
9961.000000;1.405126
9960.000000;1.403912
9959.000000;1.403732
9958.000000;1.404006
9957.000000;1.403545
9956.000000;1.401957
9955.000000;1.399820
9954.000000;1.397961
9953.000000;1.396988
9952.000000;1.397136
9951.000000;1.398065
9950.000000;1.398932
9949.000000;1.399022
9948.000000;1.398273
9947.000000;1.397070
9946.000000;1.395697
9945.000000;1.394209
9944.000000;1.392652
9943.000000;1.391206
9942.000000;1.390159
9941.000000;1.389767
9940.000000;1.389940
9939.000000;1.389998
9938.000000;1.389070
9937.000000;1.387076
9936.000000;1.385133
9935.000000;1.384608
9934.000000;1.385752
9933.000000;1.387412
9932.000000;1.388059
9931.000000;1.387052
9930.000000;1.384993
9929.000000;1.382944
9928.000000;1.381380
9927.000000;1.379986
9926.000000;1.378443
9925.000000;1.377171
9924.000000;1.376910
9923.000000;1.377681
9922.000000;1.378655
9921.000000;1.379138
9920.000000;1.379141
9919.000000;1.378859
9918.000000;1.378223
9917.000000;1.377330
9916.000000;1.376726
9915.000000;1.376677
9914.000000;1.376504
9913.000000;1.375289
9912.000000;1.373088
9911.000000;1.370892
9910.000000;1.369452
9909.000000;1.368651
9908.000000;1.367937
9907.000000;1.366892
9906.000000;1.365526
9905.000000;1.364426
9904.000000;1.364452
9903.000000;1.365769
9902.000000;1.367282
9901.000000;1.367622
9900.000000;1.366675
9899.000000;1.365526
9898.000000;1.364922
9897.000000;1.364487
9896.000000;1.363575
9895.000000;1.362167
9894.000000;1.360691
9893.000000;1.359527
9892.000000;1.358923
9891.000000;1.358932
9890.000000;1.359157
9889.000000;1.359010
9888.000000;1.358414
9887.000000;1.357800
9886.000000;1.357309
9885.000000;1.356537
9884.000000;1.355375
9883.000000;1.354460
9882.000000;1.354292
9881.000000;1.354389
9880.000000;1.353870
9879.000000;1.352538
9878.000000;1.350906
9877.000000;1.349373
9876.000000;1.347944
9875.000000;1.346640
9874.000000;1.345613
9873.000000;1.344838
9872.000000;1.344121
9871.000000;1.343476
9870.000000;1.343163
9869.000000;1.343315
9868.000000;1.343779
9867.000000;1.344325
9866.000000;1.344751
9865.000000;1.344818
9864.000000;1.344357
9863.000000;1.343486
9862.000000;1.342508
9861.000000;1.341621
9860.000000;1.340892
9859.000000;1.340367
9858.000000;1.339872
9857.000000;1.338822
9856.000000;1.336675
9855.000000;1.333688
9854.000000;1.330955
9853.000000;1.329552
9852.000000;1.329750
9851.000000;1.330936
9850.000000;1.332061
9849.000000;1.332248
9848.000000;1.331300
9847.000000;1.329812
9846.000000;1.328607
9845.000000;1.327933
9844.000000;1.327352
9843.000000;1.326453
9842.000000;1.325461
9841.000000;1.324967
9840.000000;1.325253
9839.000000;1.326049
9838.000000;1.326845
9837.000000;1.327245
9836.000000;1.327062
9835.000000;1.326248
9834.000000;1.324889
9833.000000;1.323257
9832.000000;1.321773
9831.000000;1.320786
9830.000000;1.320294
9829.000000;1.319947
9828.000000;1.319431
9827.000000;1.318763
9826.000000;1.318140
9825.000000;1.317598
9824.000000;1.316991
9823.000000;1.316255
9822.000000;1.315457
9821.000000;1.314570
9820.000000;1.313497
9819.000000;1.312400
9818.000000;1.311718
9817.000000;1.311629
9816.000000;1.311677
9815.000000;1.311243
9814.000000;1.310312
9813.000000;1.309451
9812.000000;1.309023
9811.000000;1.308701
9810.000000;1.307850
9809.000000;1.306192
9808.000000;1.304009
9807.000000;1.301917
9806.000000;1.300578
9805.000000;1.300354
9804.000000;1.300971
9803.000000;1.301581
9802.000000;1.301397
9801.000000;1.300348
9800.000000;1.299003
9799.000000;1.297882
9798.000000;1.297039
9797.000000;1.296264
9796.000000;1.295419
9795.000000;1.294509
9794.000000;1.293620
9793.000000;1.292948
9792.000000;1.292771
9791.000000;1.293201
9790.000000;1.293960
9789.000000;1.294480
9788.000000;1.294273
9787.000000;1.293278
9786.000000;1.291957
9785.000000;1.291009
9784.000000;1.290808
9783.000000;1.291006
9782.000000;1.290820
9781.000000;1.289799
9780.000000;1.288219
9779.000000;1.286672
9778.000000;1.285495
9777.000000;1.284698
9776.000000;1.284197
9775.000000;1.283840
9774.000000;1.283363
9773.000000;1.282645
9772.000000;1.281949
9771.000000;1.281636
9770.000000;1.281562
9769.000000;1.281027
9768.000000;1.279516
9767.000000;1.277438
9766.000000;1.275891
9765.000000;1.275726
9764.000000;1.276866
9763.000000;1.278373
9762.000000;1.279134
9761.000000;1.278541
9760.000000;1.276694
9759.000000;1.274162
9758.000000;1.271696
9757.000000;1.269991
9756.000000;1.269333
9755.000000;1.269340
9754.000000;1.269273
9753.000000;1.268788
9752.000000;1.268143
9751.000000;1.267541
9750.000000;1.266679
9749.000000;1.265320
9748.000000;1.263990
9747.000000;1.263518
9746.000000;1.263920
9745.000000;1.264303
9744.000000;1.263947
9743.000000;1.263037
9742.000000;1.262216
9741.000000;1.261903
9740.000000;1.262241
9739.000000;1.263129
9738.000000;1.263867
9737.000000;1.263256
9736.000000;1.260756
9735.000000;1.257482
9734.000000;1.255463
9733.000000;1.255737
9732.000000;1.257413
9731.000000;1.258640
9730.000000;1.258356
9729.000000;1.256985
9728.000000;1.255613
9727.000000;1.254765
9726.000000;1.254105
9725.000000;1.253134
9724.000000;1.251903
9723.000000;1.250951
9722.000000;1.250700
9721.000000;1.251100
9720.000000;1.251705
9719.000000;1.251901
9718.000000;1.251167
9717.000000;1.249506
9716.000000;1.247639
9715.000000;1.246480
9714.000000;1.246259
9713.000000;1.246325
9712.000000;1.245879
9711.000000;1.244703
9710.000000;1.243110
9709.000000;1.241553
9708.000000;1.240492
9707.000000;1.240241
9706.000000;1.240577
9705.000000;1.240694
9704.000000;1.239938
9703.000000;1.238504
9702.000000;1.237160
9701.000000;1.236424
9700.000000;1.236290
9699.000000;1.236539
9698.000000;1.236886
9697.000000;1.236886
9696.000000;1.236157
9695.000000;1.234832
9694.000000;1.233477
9693.000000;1.232488
9692.000000;1.231814
9691.000000;1.231305
9690.000000;1.230956
9689.000000;1.230648
9688.000000;1.229969
9687.000000;1.228586
9686.000000;1.226749
9685.000000;1.225199
9684.000000;1.224509
9683.000000;1.224571
9682.000000;1.224705
9681.000000;1.224340
9680.000000;1.223636
9679.000000;1.223331
9678.000000;1.223818
9677.000000;1.224506
9676.000000;1.224344
9675.000000;1.222971
9674.000000;1.221030
9673.000000;1.219316
9672.000000;1.217998
9671.000000;1.216839
9670.000000;1.215820
9669.000000;1.215182
9668.000000;1.215021
9667.000000;1.215185
9666.000000;1.215504
9665.000000;1.215808
9664.000000;1.215706
9663.000000;1.214708
9662.000000;1.212777
9661.000000;1.210615
9660.000000;1.209127
9659.000000;1.208600
9658.000000;1.208495
9657.000000;1.208042
9656.000000;1.206962
9655.000000;1.205600
9654.000000;1.204469
9653.000000;1.203824
9652.000000;1.203712
9651.000000;1.204162
9650.000000;1.205089
9649.000000;1.206060
9648.000000;1.206429
9647.000000;1.205896
9646.000000;1.204825
9645.000000;1.203908
9644.000000;1.203571
9643.000000;1.203713
9642.000000;1.203811
9641.000000;1.203225
9640.000000;1.201650
9639.000000;1.199546
9638.000000;1.197971
9637.000000;1.197710
9636.000000;1.198519
9635.000000;1.199358
9634.000000;1.199398
9633.000000;1.198645
9632.000000;1.197587
9631.000000;1.196506
9630.000000;1.195350
9629.000000;1.194075
9628.000000;1.192831
9627.000000;1.191835
9626.000000;1.191199
9625.000000;1.190865
9624.000000;1.190619
9623.000000;1.190232
9622.000000;1.189711
9621.000000;1.189321
9620.000000;1.189212
9619.000000;1.189093
9618.000000;1.188493
9617.000000;1.187340
9616.000000;1.186077
9615.000000;1.185145
9614.000000;1.184589
9613.000000;1.184226
9612.000000;1.183990
9611.000000;1.183865
9610.000000;1.183622
9609.000000;1.182939
9608.000000;1.181802
9607.000000;1.180576
9606.000000;1.179607
9605.000000;1.178865
9604.000000;1.178066
9603.000000;1.177083
9602.000000;1.176142
9601.000000;1.175609
9600.000000;1.175565
9599.000000;1.175610
9598.000000;1.175178
9597.000000;1.174113
9596.000000;1.172836
9595.000000;1.171827
9594.000000;1.171059
9593.000000;1.170165
9592.000000;1.169091
9591.000000;1.168240
9590.000000;1.167881
9589.000000;1.167767
9588.000000;1.167570
9587.000000;1.167416
9586.000000;1.167640
9585.000000;1.168103
9584.000000;1.168131
9583.000000;1.167183
9582.000000;1.165376
9581.000000;1.163343
9580.000000;1.161792
9579.000000;1.161153
9578.000000;1.161309
9577.000000;1.161574
9576.000000;1.161246
9575.000000;1.160384
9574.000000;1.159806
9573.000000;1.160073
9572.000000;1.160682
9571.000000;1.160581
9570.000000;1.159358
9569.000000;1.157628
9568.000000;1.156283
9567.000000;1.155663
9566.000000;1.155498
9565.000000;1.155374
9564.000000;1.155116
9563.000000;1.154836
9562.000000;1.154725
9561.000000;1.154763
9560.000000;1.154689
9559.000000;1.154325
9558.000000;1.153821
9557.000000;1.153389
9556.000000;1.152897
9555.000000;1.152015
9554.000000;1.150755
9553.000000;1.149548
9552.000000;1.148708
9551.000000;1.148116
9550.000000;1.147546
9549.000000;1.147016
9548.000000;1.146628
9547.000000;1.146309
9546.000000;1.145958
9545.000000;1.145625
9544.000000;1.145252
9543.000000;1.144493
9542.000000;1.143134
9541.000000;1.141588
9540.000000;1.140558
9539.000000;1.140229
9538.000000;1.140194
9537.000000;1.140163
9536.000000;1.140324
9535.000000;1.140793
9534.000000;1.141100
9533.000000;1.140610
9532.000000;1.139320
9531.000000;1.137947
9530.000000;1.137198
9529.000000;1.137098
9528.000000;1.137029
9527.000000;1.136349
9526.000000;1.135004
9525.000000;1.133573
9524.000000;1.132678
9523.000000;1.132363
9522.000000;1.132122
9521.000000;1.131488
9520.000000;1.130439
9519.000000;1.129232
9518.000000;1.128120
9517.000000;1.127340
9516.000000;1.127128
9515.000000;1.127439
9514.000000;1.127779
9513.000000;1.127608
9512.000000;1.126923
9511.000000;1.126209
9510.000000;1.125817
9509.000000;1.125617
9508.000000;1.125290
9507.000000;1.124737
9506.000000;1.124084
9505.000000;1.123466
9504.000000;1.122950
9503.000000;1.122531
9502.000000;1.122050
9501.000000;1.121236
9500.000000;1.120033
9499.000000;1.118862
9498.000000;1.118342
9497.000000;1.118662
9496.000000;1.119313
9495.000000;1.119572
9494.000000;1.119178
9493.000000;1.118367
9492.000000;1.117375
9491.000000;1.116188
9490.000000;1.114831
9489.000000;1.113620
9488.000000;1.112928
9487.000000;1.112797
9486.000000;1.112922
9485.000000;1.112959
9484.000000;1.112704
9483.000000;1.112066
9482.000000;1.111110
9481.000000;1.110107
9480.000000;1.109328
9479.000000;1.108721
9478.000000;1.107971
9477.000000;1.107021
9476.000000;1.106324
9475.000000;1.106345
9474.000000;1.106885
9473.000000;1.107166
9472.000000;1.106623
9471.000000;1.105438
9470.000000;1.104192
9469.000000;1.103171
9468.000000;1.102197
9467.000000;1.101079
9466.000000;1.100047
9465.000000;1.099633
9464.000000;1.100146
9463.000000;1.101274
9462.000000;1.102192
9461.000000;1.102135
9460.000000;1.100989
9459.000000;1.099335
9458.000000;1.097902
9457.000000;1.097036
9456.000000;1.096726
9455.000000;1.096955
9454.000000;1.097672
9453.000000;1.098375
9452.000000;1.098161
9451.000000;1.096607
9450.000000;1.094464
9449.000000;1.093054
9448.000000;1.092899
9447.000000;1.093294
9446.000000;1.093267
9445.000000;1.092575
9444.000000;1.091579
9443.000000;1.090563
9442.000000;1.089631
9441.000000;1.088987
9440.000000;1.088790
9439.000000;1.088733
9438.000000;1.088241
9437.000000;1.087227
9436.000000;1.086295
9435.000000;1.086000
9434.000000;1.086197
9433.000000;1.086297
9432.000000;1.085989
9431.000000;1.085465
9430.000000;1.085055
9429.000000;1.084886
9428.000000;1.084849
9427.000000;1.084735
9426.000000;1.084371
9425.000000;1.083755
9424.000000;1.083065
9423.000000;1.082508
9422.000000;1.082139
9421.000000;1.081821
9420.000000;1.081366
9419.000000;1.080705
9418.000000;1.079954
9417.000000;1.079344
9416.000000;1.079038
9415.000000;1.078959
9414.000000;1.078786
9413.000000;1.078154
9412.000000;1.076904
9411.000000;1.075233
9410.000000;1.073670
9409.000000;1.072821
9408.000000;1.072966
9407.000000;1.073806
9406.000000;1.074654
9405.000000;1.074894
9404.000000;1.074355
9403.000000;1.073372
9402.000000;1.072522
9401.000000;1.072146
9400.000000;1.072001
9399.000000;1.071534
9398.000000;1.070578
9397.000000;1.069584
9396.000000;1.068954
9395.000000;1.068428
9394.000000;1.067467
9393.000000;1.066106
9392.000000;1.064996
9391.000000;1.064645
9390.000000;1.064983
9389.000000;1.065654
9388.000000;1.066260
9387.000000;1.066321
9386.000000;1.065525
9385.000000;1.064287
9384.000000;1.063574
9383.000000;1.063778
9382.000000;1.064147
9381.000000;1.063734
9380.000000;1.062635
9379.000000;1.061795
9378.000000;1.061786
9377.000000;1.062245
9376.000000;1.062402
9375.000000;1.061780
9374.000000;1.060336
9373.000000;1.058338
9372.000000;1.056235
9371.000000;1.054449
9370.000000;1.053160
9369.000000;1.052362
9368.000000;1.052061
9367.000000;1.052271
9366.000000;1.052852
9365.000000;1.053562
9364.000000;1.054226
9363.000000;1.054713
9362.000000;1.054815
9361.000000;1.054401
9360.000000;1.053641
9359.000000;1.052838
9358.000000;1.052083
9357.000000;1.051312
9356.000000;1.050660
9355.000000;1.050415
9354.000000;1.050532
9353.000000;1.050497
9352.000000;1.049840
9351.000000;1.048630
9350.000000;1.047362
9349.000000;1.046465
9348.000000;1.046040
9347.000000;1.045921
9346.000000;1.045878
9345.000000;1.045792
9344.000000;1.045691
9343.000000;1.045579
9342.000000;1.045307
9341.000000;1.044769
9340.000000;1.044204
9339.000000;1.044087
9338.000000;1.044628
9337.000000;1.045498
9336.000000;1.046093
9335.000000;1.045929
9334.000000;1.044796
9333.000000;1.042797
9332.000000;1.040406
9331.000000;1.038338
9330.000000;1.037145
9329.000000;1.036933
9328.000000;1.037450
9327.000000;1.038322
9326.000000;1.039143
9325.000000;1.039542
9324.000000;1.039331
9323.000000;1.038565
9322.000000;1.037368
9321.000000;1.035822
9320.000000;1.034095
9319.000000;1.032518
9318.000000;1.031446
9317.000000;1.031101
9316.000000;1.031553
9315.000000;1.032619
9314.000000;1.033697
9313.000000;1.034033
9312.000000;1.033442
9311.000000;1.032610
9310.000000;1.032317
9309.000000;1.032461
9308.000000;1.032209
9307.000000;1.031089
9306.000000;1.029543
9305.000000;1.028320
9304.000000;1.027684
9303.000000;1.027460
9302.000000;1.027487
9301.000000;1.027637
9300.000000;1.027598
9299.000000;1.027085
9298.000000;1.026258
9297.000000;1.025589
9296.000000;1.025262
9295.000000;1.025000
9294.000000;1.024571
9293.000000;1.024158
9292.000000;1.024059
9291.000000;1.024194
9290.000000;1.024120
9289.000000;1.023468
9288.000000;1.022235
9287.000000;1.020752
9286.000000;1.019495
9285.000000;1.018868
9284.000000;1.018994
9283.000000;1.019636
9282.000000;1.020338
9281.000000;1.020635
9280.000000;1.020239
9279.000000;1.019208
9278.000000;1.018051
9277.000000;1.017470
9276.000000;1.017823
9275.000000;1.018802
9274.000000;1.019683
9273.000000;1.019841
9272.000000;1.019086
9271.000000;1.017765
9270.000000;1.016649
9269.000000;1.016455
9268.000000;1.017185
9267.000000;1.018004
9266.000000;1.018043
9265.000000;1.017261
9264.000000;1.016275
9263.000000;1.015534
9262.000000;1.015020
9261.000000;1.014690
9260.000000;1.014685
9259.000000;1.014912
9258.000000;1.014782
9257.000000;1.013678
9256.000000;1.011574
9255.000000;1.009079
9254.000000;1.007023
9253.000000;1.006091
9252.000000;1.006551
9251.000000;1.008043
9250.000000;1.009690
9249.000000;1.010651
9248.000000;1.010591
9247.000000;1.009669
9246.000000;1.008294
9245.000000;1.007003
9244.000000;1.006270
9243.000000;1.006130
9242.000000;1.006085
9241.000000;1.005631
9240.000000;1.004840
9239.000000;1.004232
9238.000000;1.004129
9237.000000;1.004350
9236.000000;1.004511
9235.000000;1.004466
9234.000000;1.004389
9233.000000;1.004524
9232.000000;1.004875
9231.000000;1.005091
9230.000000;1.004742
9229.000000;1.003774
9228.000000;1.002610
9227.000000;1.001714
9226.000000;1.001157
9225.000000;1.000745
9224.000000;1.000439
9223.000000;1.000433
9222.000000;1.000811
9221.000000;1.001351
9220.000000;1.001685
9219.000000;1.001567
9218.000000;1.000953
9217.000000;0.999957
9216.000000;0.998776
9215.000000;0.997626
9214.000000;0.996678
9213.000000;0.996058
9212.000000;0.995823
9211.000000;0.995896
9210.000000;0.996073
9209.000000;0.996155
9208.000000;0.996056
9207.000000;0.995775
9206.000000;0.995347
9205.000000;0.994849
9204.000000;0.994337
9203.000000;0.993710
9202.000000;0.992785
9201.000000;0.991627
9200.000000;0.990706
9199.000000;0.990560
9198.000000;0.991306
9197.000000;0.992522
9196.000000;0.993522
9195.000000;0.993715
9194.000000;0.992876
9193.000000;0.991309
9192.000000;0.989684
9191.000000;0.988552
9190.000000;0.988011
9189.000000;0.987844
9188.000000;0.987794
9187.000000;0.987606
9186.000000;0.987093
9185.000000;0.986426
9184.000000;0.986201
9183.000000;0.986849
9182.000000;0.988011
9181.000000;0.988798
9180.000000;0.988735
9179.000000;0.988179
9178.000000;0.987767
9177.000000;0.987739
9176.000000;0.987909
9175.000000;0.987951
9174.000000;0.987560
9173.000000;0.986595
9172.000000;0.985360
9171.000000;0.984598
9170.000000;0.984859
9169.000000;0.985822
9168.000000;0.986433
9167.000000;0.985842
9166.000000;0.984170
9165.000000;0.982336
9164.000000;0.981244
9163.000000;0.981162
9162.000000;0.981713
9161.000000;0.982280
9160.000000;0.982409
9159.000000;0.981977
9158.000000;0.981171
9157.000000;0.980358
9156.000000;0.979898
9155.000000;0.979949
9154.000000;0.980376
9153.000000;0.980835
9152.000000;0.980959
9151.000000;0.980526
9150.000000;0.979599
9149.000000;0.978535
9148.000000;0.977768
9147.000000;0.977458
9146.000000;0.977358
9145.000000;0.977072
9144.000000;0.976436
9143.000000;0.975634
9142.000000;0.975016
9141.000000;0.974842
9140.000000;0.975127
9139.000000;0.975630
9138.000000;0.975996
9137.000000;0.975991
9136.000000;0.975608
9135.000000;0.974978
9134.000000;0.974303
9133.000000;0.973881
9132.000000;0.973997
9131.000000;0.974660
9130.000000;0.975532
9129.000000;0.976241
9128.000000;0.976636
9127.000000;0.976649
9126.000000;0.976124
9125.000000;0.975018
9124.000000;0.973658
9123.000000;0.972488
9122.000000;0.971620
9121.000000;0.970892
9120.000000;0.970325
9119.000000;0.970179
9118.000000;0.970496
9117.000000;0.970913
9116.000000;0.971112
9115.000000;0.971164
9114.000000;0.971257
9113.000000;0.971291
9112.000000;0.971030
9111.000000;0.970505
9110.000000;0.969970
9109.000000;0.969501
9108.000000;0.968935
9107.000000;0.968264
9106.000000;0.967818
9105.000000;0.967888
9104.000000;0.968310
9103.000000;0.968622
9102.000000;0.968598
9101.000000;0.968456
9100.000000;0.968499
9099.000000;0.968670
9098.000000;0.968550
9097.000000;0.967781
9096.000000;0.966438
9095.000000;0.965027
9094.000000;0.964139
9093.000000;0.964028
9092.000000;0.964402
9091.000000;0.964660
9090.000000;0.964446
9089.000000;0.963969
9088.000000;0.963704
9087.000000;0.963779
9086.000000;0.963805
9085.000000;0.963334
9084.000000;0.962351
9083.000000;0.961269
9082.000000;0.960587
9081.000000;0.960623
9080.000000;0.961353
9079.000000;0.962304
9078.000000;0.962721
9077.000000;0.962117
9076.000000;0.960722
9075.000000;0.959240
9074.000000;0.958173
9073.000000;0.957549
9072.000000;0.957267
9071.000000;0.957430
9070.000000;0.958158
9069.000000;0.959227
9068.000000;0.960101
9067.000000;0.960356
9066.000000;0.959973
9065.000000;0.959235
9064.000000;0.958390
9063.000000;0.957472
9062.000000;0.956408
9061.000000;0.955262
9060.000000;0.954350
9059.000000;0.954067
9058.000000;0.954562
9057.000000;0.955553
9056.000000;0.956502
9055.000000;0.957042
9054.000000;0.957239
9053.000000;0.957365
