Criado como novo conjunto de dados;"1909daniel.spp","-4239522.6 Secs"
cm-1;Abs
10000.000000;1.652437
9999.000000;1.652163
9998.000000;1.650722
9997.000000;1.648248
9996.000000;1.646080
9995.000000;1.645073
9994.000000;1.644881
9993.000000;1.644377
9992.000000;1.643060
9991.000000;1.641511
9990.000000;1.640913
9989.000000;1.642071
9988.000000;1.644528
9987.000000;1.646391
9986.000000;1.645706
9985.000000;1.642568
9984.000000;1.639439
9983.000000;1.638822
9982.000000;1.640773
9981.000000;1.642893
9980.000000;1.642644
9979.000000;1.639550
9978.000000;1.635278
9977.000000;1.632030
9976.000000;1.630956
9975.000000;1.631639
9974.000000;1.632801
9973.000000;1.633528
9972.000000;1.633719
9971.000000;1.633472
9970.000000;1.632634
9969.000000;1.631300
9968.000000;1.630211
9967.000000;1.630029
9966.000000;1.630530
9965.000000;1.631142
9964.000000;1.631846
9963.000000;1.632662
9962.000000;1.632567
9961.000000;1.630196
9960.000000;1.625881
9959.000000;1.621877
9958.000000;1.619977
9957.000000;1.619711
9956.000000;1.619460
9955.000000;1.618799
9954.000000;1.618862
9953.000000;1.620527
9952.000000;1.623100
9951.000000;1.625011
9950.000000;1.625222
9949.000000;1.623726
9948.000000;1.621106
9947.000000;1.618036
9946.000000;1.615183
9945.000000;1.613274
9944.000000;1.612866
9943.000000;1.613752
9942.000000;1.614653
9941.000000;1.613994
9940.000000;1.611348
9939.000000;1.607937
9938.000000;1.605470
9937.000000;1.604632
9936.000000;1.604808
9935.000000;1.605027
9934.000000;1.604877
9933.000000;1.604536
9932.000000;1.604295
9931.000000;1.604213
9930.000000;1.604022
9929.000000;1.603456
9928.000000;1.602685
9927.000000;1.602102
9926.000000;1.601739
9925.000000;1.601330
9924.000000;1.600958
9923.000000;1.601024
9922.000000;1.601294
9921.000000;1.600710
9920.000000;1.598760
9919.000000;1.596513
9918.000000;1.595568
9917.000000;1.596142
9916.000000;1.596762
9915.000000;1.595961
9914.000000;1.593662
9913.000000;1.590720
9912.000000;1.587929
9911.000000;1.586004
9910.000000;1.585848
9909.000000;1.587838
9908.000000;1.590823
9907.000000;1.592571
9906.000000;1.591738
9905.000000;1.589077
9904.000000;1.586288
9903.000000;1.584155
9902.000000;1.582378
9901.000000;1.580964
9900.000000;1.580862
9899.000000;1.582674
9898.000000;1.585256
9897.000000;1.586486
9896.000000;1.585568
9895.000000;1.583835
9894.000000;1.582920
9893.000000;1.582864
9892.000000;1.582553
9891.000000;1.581504
9890.000000;1.580390
9889.000000;1.579760
9888.000000;1.579186
9887.000000;1.578079
9886.000000;1.576659
9885.000000;1.575548
9884.000000;1.574763
9883.000000;1.573773
9882.000000;1.572463
9881.000000;1.571408
9880.000000;1.571049
9879.000000;1.571097
9878.000000;1.570982
9877.000000;1.570431
9876.000000;1.569320
9875.000000;1.567445
9874.000000;1.564998
9873.000000;1.562962
9872.000000;1.562334
9871.000000;1.562935
9870.000000;1.563574
9869.000000;1.563505
9868.000000;1.563147
9867.000000;1.563110
9866.000000;1.563209
9865.000000;1.562864
9864.000000;1.561869
9863.000000;1.560187
9862.000000;1.557491
9861.000000;1.553919
9860.000000;1.550984
9859.000000;1.550547
9858.000000;1.552663
9857.000000;1.555156
9856.000000;1.555674
9855.000000;1.553778
9854.000000;1.550725
9853.000000;1.547964
9852.000000;1.546527
9851.000000;1.547058
9850.000000;1.549285
9849.000000;1.551517
9848.000000;1.551697
9847.000000;1.549402
9846.000000;1.546318
9845.000000;1.544447
9844.000000;1.544222
9843.000000;1.544466
9842.000000;1.543960
9841.000000;1.542836
9840.000000;1.542317
9839.000000;1.543068
9838.000000;1.544037
9837.000000;1.543297
9836.000000;1.540202
9835.000000;1.536286
9834.000000;1.533707
9833.000000;1.533310
9832.000000;1.534505
9831.000000;1.536430
9830.000000;1.538449
9829.000000;1.539750
9828.000000;1.539512
9827.000000;1.537880
9826.000000;1.536031
9825.000000;1.534794
9824.000000;1.533668
9823.000000;1.531682
9822.000000;1.528912
9821.000000;1.526519
9820.000000;1.525411
9819.000000;1.525370
9818.000000;1.525488
9817.000000;1.525113
9816.000000;1.524247
9815.000000;1.523337
9814.000000;1.522872
9813.000000;1.523025
9812.000000;1.523494
9811.000000;1.523702
9810.000000;1.523222
9809.000000;1.522100
9808.000000;1.520782
9807.000000;1.519724
9806.000000;1.519046
9805.000000;1.518550
9804.000000;1.518082
9803.000000;1.517763
9802.000000;1.517752
9801.000000;1.517839
9800.000000;1.517532
9799.000000;1.516647
9798.000000;1.515600
9797.000000;1.514944
9796.000000;1.514741
9795.000000;1.514546
9794.000000;1.513969
9793.000000;1.512992
9792.000000;1.511694
9791.000000;1.509973
9790.000000;1.507770
9789.000000;1.505461
9788.000000;1.503757
9787.000000;1.503152
9786.000000;1.503490
9785.000000;1.504083
9784.000000;1.504219
9783.000000;1.503663
9782.000000;1.502833
9781.000000;1.502501
9780.000000;1.503091
9779.000000;1.504145
9778.000000;1.504578
9777.000000;1.503536
9776.000000;1.501148
9775.000000;1.498431
9774.000000;1.496412
9773.000000;1.495374
9772.000000;1.494928
9771.000000;1.494625
9770.000000;1.494282
9769.000000;1.493718
9768.000000;1.492548
9767.000000;1.490650
9766.000000;1.488707
9765.000000;1.487823
9764.000000;1.488370
9763.000000;1.489529
9762.000000;1.490263
9761.000000;1.490476
9760.000000;1.490741
9759.000000;1.491096
9758.000000;1.490799
9757.000000;1.489411
9756.000000;1.487482
9755.000000;1.485854
9754.000000;1.484707
9753.000000;1.483625
9752.000000;1.482297
9751.000000;1.480820
9750.000000;1.479561
9749.000000;1.479015
9748.000000;1.479562
9747.000000;1.480952
9746.000000;1.482127
9745.000000;1.481978
9744.000000;1.480313
9743.000000;1.477890
9742.000000;1.475642
9741.000000;1.474116
9740.000000;1.473476
9739.000000;1.473610
9738.000000;1.474216
9737.000000;1.474912
9736.000000;1.475208
9735.000000;1.474367
9734.000000;1.471812
9733.000000;1.468133
9732.000000;1.465235
9731.000000;1.464739
9730.000000;1.466204
9729.000000;1.467434
9728.000000;1.466752
9727.000000;1.464485
9726.000000;1.462051
9725.000000;1.460382
9724.000000;1.459659
9723.000000;1.459871
9722.000000;1.460881
9721.000000;1.462231
9720.000000;1.463419
9719.000000;1.464269
9718.000000;1.464674
9717.000000;1.464202
9716.000000;1.462405
9715.000000;1.459539
9714.000000;1.456530
9713.000000;1.454186
9712.000000;1.452722
9711.000000;1.451972
9710.000000;1.451721
9709.000000;1.451721
9708.000000;1.451586
9707.000000;1.450957
9706.000000;1.449899
9705.000000;1.449033
9704.000000;1.448980
9703.000000;1.449611
9702.000000;1.449958
9701.000000;1.449062
9700.000000;1.446977
9699.000000;1.444741
9698.000000;1.443388
9697.000000;1.443206
9696.000000;1.443816
9695.000000;1.444531
9694.000000;1.444647
9693.000000;1.443854
9692.000000;1.442601
9691.000000;1.441678
9690.000000;1.441242
9689.000000;1.440660
9688.000000;1.439566
9687.000000;1.438559
9686.000000;1.438299
9685.000000;1.438284
9684.000000;1.437263
9683.000000;1.434830
9682.000000;1.431896
9681.000000;1.429500
9680.000000;1.427803
9679.000000;1.426466
9678.000000;1.425480
9677.000000;1.425199
9676.000000;1.425827
9675.000000;1.427231
9674.000000;1.429122
9673.000000;1.431092
9672.000000;1.432500
9671.000000;1.432696
9670.000000;1.431574
9669.000000;1.429744
9668.000000;1.427967
9667.000000;1.426496
9666.000000;1.425066
9665.000000;1.423532
9664.000000;1.422284
9663.000000;1.421771
9662.000000;1.421751
9661.000000;1.421446
9660.000000;1.420623
9659.000000;1.420081
9658.000000;1.420622
9657.000000;1.421870
9656.000000;1.422679
9655.000000;1.422639
9654.000000;1.422484
9653.000000;1.422694
9652.000000;1.422404
9651.000000;1.420403
9650.000000;1.416957
9649.000000;1.413921
9648.000000;1.412899
9647.000000;1.413726
9646.000000;1.414849
9645.000000;1.414923
9644.000000;1.413859
9643.000000;1.412500
9642.000000;1.411670
9641.000000;1.411605
9640.000000;1.411961
9639.000000;1.412016
9638.000000;1.411001
9637.000000;1.408622
9636.000000;1.405481
9635.000000;1.402867
9634.000000;1.401886
9633.000000;1.402662
9632.000000;1.404208
9631.000000;1.405032
9630.000000;1.403993
9629.000000;1.401017
9628.000000;1.397371
9627.000000;1.395084
9626.000000;1.395526
9625.000000;1.398215
9624.000000;1.401059
9623.000000;1.401992
9622.000000;1.400603
9621.000000;1.398221
9620.000000;1.396536
9619.000000;1.396253
9618.000000;1.396839
9617.000000;1.397352
9616.000000;1.397386
9615.000000;1.397116
9614.000000;1.396620
9613.000000;1.395555
9612.000000;1.393700
9611.000000;1.391570
9610.000000;1.390063
9609.000000;1.389555
9608.000000;1.389655
9607.000000;1.389860
9606.000000;1.390097
9605.000000;1.390451
9604.000000;1.390628
9603.000000;1.390023
9602.000000;1.388311
9601.000000;1.385863
9600.000000;1.383551
9599.000000;1.382134
9598.000000;1.381751
9597.000000;1.381840
9596.000000;1.381600
9595.000000;1.380687
9594.000000;1.379493
9593.000000;1.378665
9592.000000;1.378431
9591.000000;1.378381
9590.000000;1.377818
9589.000000;1.376354
9588.000000;1.374279
9587.000000;1.372428
9586.000000;1.371549
9585.000000;1.371636
9584.000000;1.371888
9583.000000;1.371430
9582.000000;1.370130
9581.000000;1.368677
9580.000000;1.367860
9579.000000;1.367796
9578.000000;1.367869
9577.000000;1.367456
9576.000000;1.366755
9575.000000;1.366649
9574.000000;1.367563
9573.000000;1.368597
9572.000000;1.368275
9571.000000;1.366195
9570.000000;1.363515
9569.000000;1.361610
9568.000000;1.360739
9567.000000;1.360283
9566.000000;1.359778
9565.000000;1.359225
9564.000000;1.358714
9563.000000;1.358426
9562.000000;1.358875
9561.000000;1.360439
9560.000000;1.362507
9559.000000;1.363665
9558.000000;1.362997
9557.000000;1.360821
9556.000000;1.358076
9555.000000;1.355569
9554.000000;1.353969
9553.000000;1.353749
9552.000000;1.354541
9551.000000;1.355064
9550.000000;1.354418
9549.000000;1.353198
9548.000000;1.352679
9547.000000;1.353114
9546.000000;1.353499
9545.000000;1.352944
9544.000000;1.351596
9543.000000;1.350102
9542.000000;1.348845
9541.000000;1.347959
9540.000000;1.347494
9539.000000;1.347171
9538.000000;1.346409
9537.000000;1.345034
9536.000000;1.343690
9535.000000;1.343139
9534.000000;1.343358
9533.000000;1.343665
9532.000000;1.343544
9531.000000;1.342999
9530.000000;1.342137
9529.000000;1.340833
9528.000000;1.339002
9527.000000;1.337027
9526.000000;1.335676
9525.000000;1.335515
9524.000000;1.336378
9523.000000;1.337432
9522.000000;1.337857
9521.000000;1.337486
9520.000000;1.336704
9519.000000;1.335867
9518.000000;1.335073
9517.000000;1.334410
9516.000000;1.333955
9515.000000;1.333451
9514.000000;1.332454
9513.000000;1.330995
9512.000000;1.329701
9511.000000;1.329018
9510.000000;1.328704
9509.000000;1.328359
9508.000000;1.328074
9507.000000;1.328104
9506.000000;1.328136
9505.000000;1.327473
9504.000000;1.325937
9503.000000;1.324107
9502.000000;1.322627
9501.000000;1.321654
9500.000000;1.321014
9499.000000;1.320539
9498.000000;1.320185
9497.000000;1.320047
9496.000000;1.320276
9495.000000;1.320750
9494.000000;1.320932
9493.000000;1.320406
9492.000000;1.319468
9491.000000;1.318747
9490.000000;1.318332
9489.000000;1.317772
9488.000000;1.316983
9487.000000;1.316510
9486.000000;1.316653
9485.000000;1.316844
9484.000000;1.316320
9483.000000;1.315029
9482.000000;1.313448
9481.000000;1.311870
9480.000000;1.310410
9479.000000;1.309477
9478.000000;1.309549
9477.000000;1.310402
9476.000000;1.311040
9475.000000;1.310590
9474.000000;1.309096
9473.000000;1.307332
9472.000000;1.306003
9471.000000;1.305228
9470.000000;1.304650
9469.000000;1.303976
9468.000000;1.303395
9467.000000;1.303392
9466.000000;1.304159
9465.000000;1.305357
9464.000000;1.306487
9463.000000;1.307206
9462.000000;1.307125
9461.000000;1.305772
9460.000000;1.303228
9459.000000;1.300558
9458.000000;1.299016
9457.000000;1.298765
9456.000000;1.298795
9455.000000;1.298188
9454.000000;1.297064
9453.000000;1.296112
9452.000000;1.295621
9451.000000;1.295327
9450.000000;1.294921
9449.000000;1.294313
9448.000000;1.293509
9447.000000;1.292540
9446.000000;1.291533
9445.000000;1.290627
9444.000000;1.289847
9443.000000;1.289220
9442.000000;1.288968
9441.000000;1.289310
9440.000000;1.290049
9439.000000;1.290540
9438.000000;1.290214
9437.000000;1.289173
9436.000000;1.288170
9435.000000;1.287963
9434.000000;1.288651
9433.000000;1.289542
9432.000000;1.289663
9431.000000;1.288478
9430.000000;1.286224
9429.000000;1.283682
9428.000000;1.281717
9427.000000;1.280863
9426.000000;1.281092
9425.000000;1.281860
9424.000000;1.282454
9423.000000;1.282435
9422.000000;1.281828
9421.000000;1.280984
9420.000000;1.280346
9419.000000;1.280317
9418.000000;1.281089
9417.000000;1.282381
9416.000000;1.283380
9415.000000;1.283204
9414.000000;1.281639
9413.000000;1.279406
9412.000000;1.277539
9411.000000;1.276441
9410.000000;1.275578
9409.000000;1.274190
9408.000000;1.272330
9407.000000;1.270976
9406.000000;1.270975
9405.000000;1.272047
9404.000000;1.273066
9403.000000;1.273292
9402.000000;1.272970
9401.000000;1.272652
9400.000000;1.272399
9399.000000;1.271950
9398.000000;1.271369
9397.000000;1.271033
9396.000000;1.271022
9395.000000;1.270979
9394.000000;1.270649
9393.000000;1.270174
9392.000000;1.269639
9391.000000;1.268731
9390.000000;1.267232
9389.000000;1.265615
9388.000000;1.264628
9387.000000;1.264281
9386.000000;1.263706
9385.000000;1.262302
9384.000000;1.260659
9383.000000;1.259911
9382.000000;1.260278
9381.000000;1.260694
9380.000000;1.260004
9379.000000;1.258247
9378.000000;1.256483
9377.000000;1.255588
9376.000000;1.255585
9375.000000;1.256027
9374.000000;1.256592
9373.000000;1.257099
9372.000000;1.257236
9371.000000;1.256712
9370.000000;1.255709
9369.000000;1.254850
9368.000000;1.254539
9367.000000;1.254472
9366.000000;1.253966
9365.000000;1.252729
9364.000000;1.251201
9363.000000;1.250114
9362.000000;1.249835
9361.000000;1.250140
9360.000000;1.250527
9359.000000;1.250642
9358.000000;1.250460
9357.000000;1.250191
9356.000000;1.250097
9355.000000;1.250299
9354.000000;1.250588
9353.000000;1.250444
9352.000000;1.249443
9351.000000;1.247770
9350.000000;1.246207
9349.000000;1.245448
9348.000000;1.245457
9347.000000;1.245630
9346.000000;1.245488
9345.000000;1.245017
9344.000000;1.244334
9343.000000;1.243367
9342.000000;1.242028
9341.000000;1.240509
9340.000000;1.239144
9339.000000;1.238133
9338.000000;1.237613
9337.000000;1.237826
9336.000000;1.238819
9335.000000;1.239986
9334.000000;1.240296
9333.000000;1.239229
9332.000000;1.237272
9331.000000;1.235322
9330.000000;1.233824
9329.000000;1.232754
9328.000000;1.232159
9327.000000;1.232227
9326.000000;1.232805
9325.000000;1.233291
9324.000000;1.233290
9323.000000;1.233114
9322.000000;1.233357
9321.000000;1.234060
9320.000000;1.234554
9319.000000;1.234150
9318.000000;1.232897
9317.000000;1.231621
9316.000000;1.231224
9315.000000;1.231833
9314.000000;1.232568
9313.000000;1.232311
9312.000000;1.230855
9311.000000;1.229114
9310.000000;1.228008
9309.000000;1.227414
9308.000000;1.226553
9307.000000;1.225240
9306.000000;1.224168
9305.000000;1.223906
9304.000000;1.224175
9303.000000;1.224357
9302.000000;1.224296
9301.000000;1.224217
9300.000000;1.224127
9299.000000;1.223806
9298.000000;1.223304
9297.000000;1.222946
9296.000000;1.222789
9295.000000;1.222479
9294.000000;1.221807
9293.000000;1.221087
9292.000000;1.220765
9291.000000;1.220895
9290.000000;1.221173
9289.000000;1.221228
9288.000000;1.220770
9287.000000;1.219725
9286.000000;1.218506
9285.000000;1.217895
9284.000000;1.218278
9283.000000;1.219038
9282.000000;1.219034
9281.000000;1.217734
9280.000000;1.215666
9279.000000;1.213714
9278.000000;1.212330
9277.000000;1.211544
9276.000000;1.211404
9275.000000;1.211989
9274.000000;1.213045
9273.000000;1.213973
9272.000000;1.214309
9271.000000;1.214045
9270.000000;1.213366
9269.000000;1.212305
9268.000000;1.210911
9267.000000;1.209588
9266.000000;1.208958
9265.000000;1.209299
9264.000000;1.210329
9263.000000;1.211547
9262.000000;1.212564
9261.000000;1.213021
9260.000000;1.212517
9259.000000;1.210990
9258.000000;1.209019
9257.000000;1.207391
9256.000000;1.206363
9255.000000;1.205646
9254.000000;1.205024
9253.000000;1.204598
9252.000000;1.204410
9251.000000;1.204176
9250.000000;1.203661
9249.000000;1.203033
9248.000000;1.202587
9247.000000;1.202288
9246.000000;1.201859
9245.000000;1.201199
9244.000000;1.200530
9243.000000;1.200193
9242.000000;1.200445
9241.000000;1.201318
9240.000000;1.202481
9239.000000;1.203323
9238.000000;1.203357
9237.000000;1.202527
9236.000000;1.201036
9235.000000;1.199125
9234.000000;1.197185
9233.000000;1.195809
9232.000000;1.195279
9231.000000;1.195066
9230.000000;1.194306
9229.000000;1.192913
9228.000000;1.191740
9227.000000;1.191515
9226.000000;1.192049
9225.000000;1.192667
9224.000000;1.192957
9223.000000;1.192773
9222.000000;1.191977
9221.000000;1.190700
9220.000000;1.189636
9219.000000;1.189489
9218.000000;1.190113
9217.000000;1.190619
9216.000000;1.190435
9215.000000;1.189891
9214.000000;1.189581
9213.000000;1.189495
9212.000000;1.189106
9211.000000;1.188187
9210.000000;1.187263
9209.000000;1.187206
9208.000000;1.188489
9207.000000;1.190702
9206.000000;1.192655
9205.000000;1.193121
9204.000000;1.191814
9203.000000;1.189659
9202.000000;1.187924
9201.000000;1.187072
9200.000000;1.186599
9199.000000;1.185902
9198.000000;1.185019
9197.000000;1.184407
9196.000000;1.184235
9195.000000;1.184251
9194.000000;1.184206
9193.000000;1.184092
9192.000000;1.183961
9191.000000;1.183798
9190.000000;1.183658
9189.000000;1.183653
9188.000000;1.183697
9187.000000;1.183467
9186.000000;1.182762
9185.000000;1.181756
9184.000000;1.180789
9183.000000;1.180087
9182.000000;1.179790
9181.000000;1.180012
9180.000000;1.180623
9179.000000;1.181146
9178.000000;1.181145
9177.000000;1.180644
9176.000000;1.179894
9175.000000;1.178907
9174.000000;1.177570
9173.000000;1.176152
9172.000000;1.175322
9171.000000;1.175514
9170.000000;1.176479
9169.000000;1.177448
9168.000000;1.177638
9167.000000;1.176687
9166.000000;1.174953
9165.000000;1.173369
9164.000000;1.172650
9163.000000;1.172544
9162.000000;1.172152
9161.000000;1.171127
9160.000000;1.170193
9159.000000;1.170197
9158.000000;1.170966
9157.000000;1.171519
9156.000000;1.171310
9155.000000;1.170816
9154.000000;1.170851
9153.000000;1.171594
9152.000000;1.172479
9151.000000;1.172871
9150.000000;1.172673
9149.000000;1.172240
9148.000000;1.171788
9147.000000;1.171052
9146.000000;1.169655
9145.000000;1.167749
9144.000000;1.166036
9143.000000;1.165100
9142.000000;1.164878
9141.000000;1.164912
9140.000000;1.164899
9139.000000;1.164833
9138.000000;1.164761
9137.000000;1.164661
9136.000000;1.164524
9135.000000;1.164373
9134.000000;1.164191
9133.000000;1.163983
9132.000000;1.163881
9131.000000;1.164062
9130.000000;1.164510
9129.000000;1.164944
9128.000000;1.164984
9127.000000;1.164396
9126.000000;1.163293
9125.000000;1.162164
9124.000000;1.161531
9123.000000;1.161392
9122.000000;1.161201
9121.000000;1.160616
9120.000000;1.160059
9119.000000;1.160213
9118.000000;1.161070
9117.000000;1.161834
9116.000000;1.161910
9115.000000;1.161651
9114.000000;1.161803
9113.000000;1.162402
9112.000000;1.162641
9111.000000;1.161906
9110.000000;1.160646
9109.000000;1.159899
9108.000000;1.160054
9107.000000;1.160415
9106.000000;1.160108
9105.000000;1.159096
9104.000000;1.158011
9103.000000;1.157224
9102.000000;1.156605
9101.000000;1.156177
9100.000000;1.156320
9099.000000;1.156998
9098.000000;1.157315
9097.000000;1.156441
9096.000000;1.154755
9095.000000;1.153449
9094.000000;1.153062
9093.000000;1.153002
9092.000000;1.152556
9091.000000;1.151810
9090.000000;1.151305
9089.000000;1.151239
9088.000000;1.151370
9087.000000;1.151436
9086.000000;1.151327
9085.000000;1.151037
9084.000000;1.150742
9083.000000;1.150780
9082.000000;1.151265
9081.000000;1.151783
9080.000000;1.151778
9079.000000;1.151147
9078.000000;1.150246
9077.000000;1.149448
9076.000000;1.148997
9075.000000;1.149136
9074.000000;1.149913
9073.000000;1.150817
9072.000000;1.151049
9071.000000;1.150406
9070.000000;1.149558
9069.000000;1.149193
9068.000000;1.149171
9067.000000;1.148852
9066.000000;1.148030
9065.000000;1.147108
9064.000000;1.146401
9063.000000;1.145769
9062.000000;1.145080
9061.000000;1.144576
9060.000000;1.144461
9059.000000;1.144438
9058.000000;1.144105
9057.000000;1.143652
9056.000000;1.143657
9055.000000;1.144147
9054.000000;1.144370
9053.000000;1.143762
