Criado como novo conjunto de dados;"1909daniel.spp","-4255183.5 Secs"
cm-1;Abs
10000.000000;1.834670
9999.000000;1.828419
9998.000000;1.822125
9997.000000;1.818064
9996.000000;1.817605
9995.000000;1.819655
9994.000000;1.821928
9993.000000;1.823354
9992.000000;1.824182
9991.000000;1.824079
9990.000000;1.821969
9989.000000;1.818112
9988.000000;1.814859
9987.000000;1.814553
9986.000000;1.817237
9985.000000;1.820556
9984.000000;1.821525
9983.000000;1.818744
9982.000000;1.813570
9981.000000;1.809188
9980.000000;1.808118
9979.000000;1.810287
9978.000000;1.813547
9977.000000;1.815849
9976.000000;1.816401
9975.000000;1.815319
9974.000000;1.813319
9973.000000;1.811573
9972.000000;1.810807
9971.000000;1.810414
9970.000000;1.809294
9969.000000;1.807708
9968.000000;1.807230
9967.000000;1.808553
9966.000000;1.810386
9965.000000;1.811065
9964.000000;1.810431
9963.000000;1.809561
9962.000000;1.809303
9961.000000;1.809505
9960.000000;1.809067
9959.000000;1.806497
9958.000000;1.801247
9957.000000;1.794979
9956.000000;1.790717
9955.000000;1.790239
9954.000000;1.792752
9953.000000;1.795967
9952.000000;1.797842
9951.000000;1.797597
9950.000000;1.795925
9949.000000;1.794438
9948.000000;1.794203
9947.000000;1.794459
9946.000000;1.793433
9945.000000;1.790702
9944.000000;1.787828
9943.000000;1.786199
9942.000000;1.785427
9941.000000;1.784586
9940.000000;1.783783
9939.000000;1.783498
9938.000000;1.783412
9937.000000;1.783001
9936.000000;1.782525
9935.000000;1.782323
9934.000000;1.781748
9933.000000;1.780176
9932.000000;1.778746
9931.000000;1.779490
9930.000000;1.782544
9929.000000;1.785538
9928.000000;1.786243
9927.000000;1.784785
9926.000000;1.782588
9925.000000;1.780197
9924.000000;1.777114
9923.000000;1.773395
9922.000000;1.770546
9921.000000;1.770429
9920.000000;1.773294
9919.000000;1.776981
9918.000000;1.778417
9917.000000;1.776250
9916.000000;1.771783
9915.000000;1.767289
9914.000000;1.764170
9913.000000;1.762988
9912.000000;1.764075
9911.000000;1.767067
9910.000000;1.770184
9909.000000;1.771264
9908.000000;1.769946
9907.000000;1.767856
9906.000000;1.766652
9905.000000;1.766751
9904.000000;1.767693
9903.000000;1.768758
9902.000000;1.769065
9901.000000;1.767987
9900.000000;1.765938
9899.000000;1.764091
9898.000000;1.762996
9897.000000;1.762064
9896.000000;1.760681
9895.000000;1.759155
9894.000000;1.758078
9893.000000;1.757319
9892.000000;1.756219
9891.000000;1.754614
9890.000000;1.753030
9889.000000;1.751835
9888.000000;1.750712
9887.000000;1.749009
9886.000000;1.746426
9885.000000;1.743483
9884.000000;1.741362
9883.000000;1.740970
9882.000000;1.741986
9881.000000;1.743114
9880.000000;1.743565
9879.000000;1.743900
9878.000000;1.744949
9877.000000;1.746402
9876.000000;1.747311
9875.000000;1.747597
9874.000000;1.747951
9873.000000;1.748263
9872.000000;1.747225
9871.000000;1.743994
9870.000000;1.739486
9869.000000;1.735423
9868.000000;1.732799
9867.000000;1.731958
9866.000000;1.733309
9865.000000;1.736661
9864.000000;1.740180
9863.000000;1.741481
9862.000000;1.740149
9861.000000;1.737983
9860.000000;1.736325
9859.000000;1.734402
9858.000000;1.730963
9857.000000;1.726436
9856.000000;1.722413
9855.000000;1.719818
9854.000000;1.718744
9853.000000;1.719364
9852.000000;1.721634
9851.000000;1.724277
9850.000000;1.725400
9849.000000;1.724577
9848.000000;1.723367
9847.000000;1.723269
9846.000000;1.724114
9845.000000;1.724877
9844.000000;1.725060
9843.000000;1.724590
9842.000000;1.723125
9841.000000;1.720446
9840.000000;1.717198
9839.000000;1.714520
9838.000000;1.713086
9837.000000;1.712891
9836.000000;1.713603
9835.000000;1.714652
9834.000000;1.715262
9833.000000;1.715027
9832.000000;1.714435
9831.000000;1.714366
9830.000000;1.715136
9829.000000;1.716324
9828.000000;1.717261
9827.000000;1.717478
9826.000000;1.717095
9825.000000;1.716854
9824.000000;1.717320
9823.000000;1.717834
9822.000000;1.716817
9821.000000;1.713592
9820.000000;1.709337
9819.000000;1.705664
9818.000000;1.703005
9817.000000;1.701137
9816.000000;1.700554
9815.000000;1.701910
9814.000000;1.704394
9813.000000;1.706057
9812.000000;1.706037
9811.000000;1.705310
9810.000000;1.704742
9809.000000;1.703523
9808.000000;1.700415
9807.000000;1.696062
9806.000000;1.692812
9805.000000;1.692109
9804.000000;1.692901
9803.000000;1.692949
9802.000000;1.691455
9801.000000;1.689879
9800.000000;1.690035
9799.000000;1.691841
9798.000000;1.693322
9797.000000;1.692829
9796.000000;1.690781
9795.000000;1.688788
9794.000000;1.687568
9793.000000;1.686506
9792.000000;1.685076
9791.000000;1.683830
9790.000000;1.683676
9789.000000;1.684674
9788.000000;1.685852
9787.000000;1.685875
9786.000000;1.683834
9785.000000;1.679958
9784.000000;1.675928
9783.000000;1.673974
9782.000000;1.675094
9781.000000;1.678132
9780.000000;1.680899
9779.000000;1.682181
9778.000000;1.682386
9777.000000;1.682401
9776.000000;1.682332
9775.000000;1.681443
9774.000000;1.679136
9773.000000;1.675927
9772.000000;1.673450
9771.000000;1.673251
9770.000000;1.675196
9769.000000;1.677119
9768.000000;1.676643
9767.000000;1.673692
9766.000000;1.670716
9765.000000;1.670050
9764.000000;1.671443
9763.000000;1.672638
9762.000000;1.672239
9761.000000;1.671162
9760.000000;1.670858
9759.000000;1.671088
9758.000000;1.670431
9757.000000;1.668563
9756.000000;1.666693
9755.000000;1.665502
9754.000000;1.663916
9753.000000;1.660729
9752.000000;1.656689
9751.000000;1.653872
9750.000000;1.653279
9749.000000;1.653940
9748.000000;1.654338
9747.000000;1.653996
9746.000000;1.653464
9745.000000;1.653319
9744.000000;1.653539
9743.000000;1.653578
9742.000000;1.652859
9741.000000;1.651341
9740.000000;1.649651
9739.000000;1.648349
9738.000000;1.647287
9737.000000;1.646403
9736.000000;1.646666
9735.000000;1.649166
9734.000000;1.653136
9733.000000;1.655772
9732.000000;1.654794
9731.000000;1.650824
9730.000000;1.646503
9729.000000;1.643717
9728.000000;1.642318
9727.000000;1.641144
9726.000000;1.639525
9725.000000;1.637721
9724.000000;1.636399
9723.000000;1.635947
9722.000000;1.636201
9721.000000;1.636667
9720.000000;1.636805
9719.000000;1.635994
9718.000000;1.633687
9717.000000;1.630353
9716.000000;1.628099
9715.000000;1.629283
9714.000000;1.633923
9713.000000;1.638926
9712.000000;1.640631
9711.000000;1.638188
9710.000000;1.633789
9709.000000;1.630001
9708.000000;1.627906
9707.000000;1.627478
9706.000000;1.628452
9705.000000;1.630316
9704.000000;1.632144
9703.000000;1.633095
9702.000000;1.632982
9701.000000;1.632228
9700.000000;1.631436
9699.000000;1.630997
9698.000000;1.630782
9697.000000;1.630161
9696.000000;1.628623
9695.000000;1.626447
9694.000000;1.624467
9693.000000;1.623243
9692.000000;1.622830
9691.000000;1.623086
9690.000000;1.623525
9689.000000;1.622974
9688.000000;1.620347
9687.000000;1.616165
9686.000000;1.612618
9685.000000;1.611552
9684.000000;1.612739
9683.000000;1.614332
9682.000000;1.614624
9681.000000;1.613096
9680.000000;1.610293
9679.000000;1.607359
9678.000000;1.605554
9677.000000;1.605446
9676.000000;1.606375
9675.000000;1.607146
9674.000000;1.607279
9673.000000;1.607125
9672.000000;1.606887
9671.000000;1.606297
9670.000000;1.605448
9669.000000;1.605100
9668.000000;1.605600
9667.000000;1.605976
9666.000000;1.604772
9665.000000;1.601710
9664.000000;1.598048
9663.000000;1.595353
9662.000000;1.594334
9661.000000;1.594772
9660.000000;1.596069
9659.000000;1.597538
9658.000000;1.598374
9657.000000;1.597828
9656.000000;1.595687
9655.000000;1.592520
9654.000000;1.589365
9653.000000;1.587127
9652.000000;1.586234
9651.000000;1.586634
9650.000000;1.587898
9649.000000;1.589376
9648.000000;1.590492
9647.000000;1.591028
9646.000000;1.591137
9645.000000;1.591092
9644.000000;1.591069
9643.000000;1.591211
9642.000000;1.591650
9641.000000;1.592271
9640.000000;1.592646
9639.000000;1.592402
9638.000000;1.591468
9637.000000;1.589868
9636.000000;1.587551
9635.000000;1.584633
9634.000000;1.581577
9633.000000;1.578882
9632.000000;1.576767
9631.000000;1.575417
9630.000000;1.575285
9629.000000;1.576606
9628.000000;1.578595
9627.000000;1.579690
9626.000000;1.578969
9625.000000;1.577084
9624.000000;1.575417
9623.000000;1.574597
9622.000000;1.574152
9621.000000;1.573376
9620.000000;1.572180
9619.000000;1.571082
9618.000000;1.570619
9617.000000;1.570831
9616.000000;1.571260
9615.000000;1.571398
9614.000000;1.571096
9613.000000;1.570531
9612.000000;1.569809
9611.000000;1.568744
9610.000000;1.567150
9609.000000;1.565286
9608.000000;1.563776
9607.000000;1.563002
9606.000000;1.562673
9605.000000;1.562220
9604.000000;1.561663
9603.000000;1.561881
9602.000000;1.563695
9601.000000;1.566591
9600.000000;1.568632
9599.000000;1.568167
9598.000000;1.565760
9597.000000;1.563934
9596.000000;1.564677
9595.000000;1.567330
9594.000000;1.569153
9593.000000;1.568128
9592.000000;1.564897
9591.000000;1.561594
9590.000000;1.559249
9589.000000;1.557050
9588.000000;1.554073
9587.000000;1.550884
9586.000000;1.548750
9585.000000;1.547800
9584.000000;1.546826
9583.000000;1.544987
9582.000000;1.542950
9581.000000;1.542009
9580.000000;1.542674
9579.000000;1.544537
9578.000000;1.546967
9577.000000;1.549308
9576.000000;1.550737
9575.000000;1.550799
9574.000000;1.550163
9573.000000;1.550028
9572.000000;1.550565
9571.000000;1.550560
9570.000000;1.548903
9569.000000;1.545952
9568.000000;1.543059
9567.000000;1.541144
9566.000000;1.540142
9565.000000;1.539505
9564.000000;1.538790
9563.000000;1.537895
9562.000000;1.537057
9561.000000;1.536520
9560.000000;1.536111
9559.000000;1.535437
9558.000000;1.534642
9557.000000;1.534446
9556.000000;1.535048
9555.000000;1.535468
9554.000000;1.534568
9553.000000;1.532516
9552.000000;1.530555
9551.000000;1.529501
9550.000000;1.529156
9549.000000;1.529126
9548.000000;1.529483
9547.000000;1.530343
9546.000000;1.531297
9545.000000;1.531632
9544.000000;1.530885
9543.000000;1.528997
9542.000000;1.526230
9541.000000;1.523207
9540.000000;1.520699
9539.000000;1.519152
9538.000000;1.518520
9537.000000;1.518579
9536.000000;1.519119
9535.000000;1.519784
9534.000000;1.520125
9533.000000;1.520049
9532.000000;1.519822
9531.000000;1.519433
9530.000000;1.518476
9529.000000;1.517045
9528.000000;1.516149
9527.000000;1.516569
9526.000000;1.517651
9525.000000;1.518070
9524.000000;1.517670
9523.000000;1.517563
9522.000000;1.518250
9521.000000;1.518722
9520.000000;1.517984
9519.000000;1.516575
9518.000000;1.515795
9517.000000;1.515816
9516.000000;1.515507
9515.000000;1.514223
9514.000000;1.512781
9513.000000;1.512257
9512.000000;1.512506
9511.000000;1.512432
9510.000000;1.511455
9509.000000;1.510189
9508.000000;1.509680
9507.000000;1.510338
9506.000000;1.511603
9505.000000;1.512362
9504.000000;1.511686
9503.000000;1.509502
9502.000000;1.506601
9501.000000;1.503839
9500.000000;1.501389
9499.000000;1.499006
9498.000000;1.496895
9497.000000;1.495863
9496.000000;1.496438
9495.000000;1.498109
9494.000000;1.499731
9493.000000;1.500594
9492.000000;1.500767
9491.000000;1.500415
9490.000000;1.499197
9489.000000;1.496786
9488.000000;1.493852
9487.000000;1.491885
9486.000000;1.491729
9485.000000;1.492717
9484.000000;1.493553
9483.000000;1.493766
9482.000000;1.493802
9481.000000;1.493820
9480.000000;1.493193
9479.000000;1.491506
9478.000000;1.489412
9477.000000;1.487900
9476.000000;1.487158
9475.000000;1.486770
9474.000000;1.486735
9473.000000;1.487463
9472.000000;1.488707
9471.000000;1.489361
9470.000000;1.488760
9469.000000;1.487632
9468.000000;1.487060
9467.000000;1.486862
9466.000000;1.485803
9465.000000;1.483420
9464.000000;1.480915
9463.000000;1.479798
9462.000000;1.480102
9461.000000;1.480478
9460.000000;1.480002
9459.000000;1.479330
9458.000000;1.479663
9457.000000;1.480929
9456.000000;1.481628
9455.000000;1.480564
9454.000000;1.478133
9453.000000;1.475625
9452.000000;1.473844
9451.000000;1.472899
9450.000000;1.472762
9449.000000;1.473187
9448.000000;1.473250
9447.000000;1.471878
9446.000000;1.469167
9445.000000;1.466637
9444.000000;1.465844
9443.000000;1.467022
9442.000000;1.469147
9441.000000;1.470973
9440.000000;1.471918
9439.000000;1.472250
9438.000000;1.472564
9437.000000;1.472889
9436.000000;1.472423
9435.000000;1.470563
9434.000000;1.468121
9433.000000;1.466787
9432.000000;1.467247
9431.000000;1.468436
9430.000000;1.468807
9429.000000;1.467748
9428.000000;1.465475
9427.000000;1.462342
9426.000000;1.458972
9425.000000;1.456433
9424.000000;1.455407
9423.000000;1.455438
9422.000000;1.455663
9421.000000;1.456038
9420.000000;1.457154
9419.000000;1.458999
9418.000000;1.460663
9417.000000;1.461297
9416.000000;1.460657
9415.000000;1.458782
9414.000000;1.456043
9413.000000;1.453649
9412.000000;1.452991
9411.000000;1.453965
9410.000000;1.454641
9409.000000;1.453322
9408.000000;1.450636
9407.000000;1.448793
9406.000000;1.449012
9405.000000;1.450441
9404.000000;1.451525
9403.000000;1.451787
9402.000000;1.451887
9401.000000;1.452369
9400.000000;1.453002
9399.000000;1.453224
9398.000000;1.452769
9397.000000;1.451706
9396.000000;1.450193
9395.000000;1.448522
9394.000000;1.447248
9393.000000;1.446797
9392.000000;1.446762
9391.000000;1.446011
9390.000000;1.443895
9389.000000;1.441185
9388.000000;1.439461
9387.000000;1.439631
9386.000000;1.441250
9385.000000;1.443077
9384.000000;1.443998
9383.000000;1.443557
9382.000000;1.442048
9381.000000;1.440278
9380.000000;1.439098
9379.000000;1.439009
9378.000000;1.440020
9377.000000;1.441566
9376.000000;1.442565
9375.000000;1.442059
9374.000000;1.440202
9373.000000;1.438272
9372.000000;1.437274
9371.000000;1.436809
9370.000000;1.435799
9369.000000;1.434082
9368.000000;1.432676
9367.000000;1.432506
9366.000000;1.433497
9365.000000;1.434887
9364.000000;1.435840
9363.000000;1.435684
9362.000000;1.434211
9361.000000;1.431985
9360.000000;1.429877
9359.000000;1.428172
9358.000000;1.426570
9357.000000;1.425042
9356.000000;1.423979
9355.000000;1.423297
9354.000000;1.422199
9353.000000;1.420350
9352.000000;1.418681
9351.000000;1.418419
9350.000000;1.419694
9349.000000;1.421638
9348.000000;1.423467
9347.000000;1.424803
9346.000000;1.425203
9345.000000;1.424163
9344.000000;1.421691
9343.000000;1.418432
9342.000000;1.415253
9341.000000;1.413113
9340.000000;1.412957
9339.000000;1.414960
9338.000000;1.417883
9337.000000;1.419879
9336.000000;1.420118
9335.000000;1.419194
9334.000000;1.417955
9333.000000;1.416616
9332.000000;1.415228
9331.000000;1.414357
9330.000000;1.414645
9329.000000;1.415880
9328.000000;1.416989
9327.000000;1.417011
9326.000000;1.415858
9325.000000;1.414176
9324.000000;1.412692
9323.000000;1.411772
9322.000000;1.411457
9321.000000;1.411730
9320.000000;1.412460
9319.000000;1.413005
9318.000000;1.412303
9317.000000;1.409949
9316.000000;1.407173
9315.000000;1.406031
9314.000000;1.407276
9313.000000;1.409373
9312.000000;1.410002
9311.000000;1.408421
9310.000000;1.405926
9309.000000;1.404191
9308.000000;1.403772
9307.000000;1.404169
9306.000000;1.404660
9305.000000;1.404804
9304.000000;1.404591
9303.000000;1.404406
9302.000000;1.404674
9301.000000;1.405359
9300.000000;1.405924
9299.000000;1.405996
9298.000000;1.405798
9297.000000;1.405636
9296.000000;1.405213
9295.000000;1.403919
9294.000000;1.401805
9293.000000;1.399791
9292.000000;1.398745
9291.000000;1.398635
9290.000000;1.398769
9289.000000;1.398678
9288.000000;1.398550
9287.000000;1.398844
9286.000000;1.399690
9285.000000;1.400694
9284.000000;1.401243
9283.000000;1.400919
9282.000000;1.399688
9281.000000;1.397786
9280.000000;1.395523
9279.000000;1.393256
9278.000000;1.391521
9277.000000;1.390961
9276.000000;1.391880
9275.000000;1.393812
9274.000000;1.395594
9273.000000;1.396028
9272.000000;1.394679
9271.000000;1.392191
9270.000000;1.389847
9269.000000;1.388675
9268.000000;1.388756
9267.000000;1.389264
9266.000000;1.389198
9265.000000;1.388229
9264.000000;1.386885
9263.000000;1.386000
9262.000000;1.386032
9261.000000;1.386841
9260.000000;1.387997
9259.000000;1.389134
9258.000000;1.389945
9257.000000;1.390057
9256.000000;1.389171
9255.000000;1.387409
9254.000000;1.385331
9253.000000;1.383476
9252.000000;1.382021
9251.000000;1.380967
9250.000000;1.380403
9249.000000;1.380296
9248.000000;1.380231
9247.000000;1.379830
9246.000000;1.379443
9245.000000;1.379917
9244.000000;1.381487
9243.000000;1.383229
9242.000000;1.383902
9241.000000;1.383133
9240.000000;1.381563
9239.000000;1.380070
9238.000000;1.379113
9237.000000;1.378612
9236.000000;1.378120
9235.000000;1.377214
9234.000000;1.376005
9233.000000;1.375151
9232.000000;1.375125
9231.000000;1.375532
9230.000000;1.375443
9229.000000;1.374449
9228.000000;1.373059
9227.000000;1.372024
9226.000000;1.371559
9225.000000;1.371399
9224.000000;1.371418
9223.000000;1.371895
9222.000000;1.373036
9221.000000;1.374366
9220.000000;1.374924
9219.000000;1.374268
9218.000000;1.373083
9217.000000;1.372430
9216.000000;1.372515
9215.000000;1.372557
9214.000000;1.371804
9213.000000;1.370302
9212.000000;1.368657
9211.000000;1.367524
9210.000000;1.367399
9209.000000;1.368311
9208.000000;1.369410
9207.000000;1.369502
9206.000000;1.368523
9205.000000;1.367912
9204.000000;1.368870
9203.000000;1.370691
9202.000000;1.371582
9201.000000;1.370858
9200.000000;1.369447
9199.000000;1.368381
9198.000000;1.367749
9197.000000;1.367236
9196.000000;1.366718
9195.000000;1.365965
9194.000000;1.364536
9193.000000;1.362477
9192.000000;1.360574
9191.000000;1.359526
9190.000000;1.359329
9189.000000;1.359737
9188.000000;1.360724
9187.000000;1.362024
9186.000000;1.362820
9185.000000;1.362611
9184.000000;1.362051
9183.000000;1.362180
9182.000000;1.363003
9181.000000;1.363476
9180.000000;1.362922
9179.000000;1.361826
9178.000000;1.361032
9177.000000;1.360671
9176.000000;1.360242
9175.000000;1.359474
9174.000000;1.358721
9173.000000;1.358466
9172.000000;1.358641
9171.000000;1.358581
9170.000000;1.357693
9169.000000;1.356083
9168.000000;1.354387
9167.000000;1.353044
9166.000000;1.352003
9165.000000;1.351130
9164.000000;1.350586
9163.000000;1.350581
9162.000000;1.350979
9161.000000;1.351395
9160.000000;1.351526
9159.000000;1.351232
9158.000000;1.350481
9157.000000;1.349502
9156.000000;1.348816
9155.000000;1.348806
9154.000000;1.349283
9153.000000;1.349697
9152.000000;1.349721
9151.000000;1.349404
9150.000000;1.348870
9149.000000;1.348203
9148.000000;1.347596
9147.000000;1.347249
9146.000000;1.347077
9145.000000;1.346870
9144.000000;1.346786
9143.000000;1.347205
9142.000000;1.347925
9141.000000;1.347988
9140.000000;1.346727
9139.000000;1.344696
9138.000000;1.343111
9137.000000;1.342530
9136.000000;1.342566
9135.000000;1.342760
9134.000000;1.343203
9133.000000;1.344158
9132.000000;1.345501
9131.000000;1.346788
9130.000000;1.347585
9129.000000;1.347592
9128.000000;1.346768
9127.000000;1.345506
9126.000000;1.344396
9125.000000;1.343596
9124.000000;1.342740
9123.000000;1.341733
9122.000000;1.341216
9121.000000;1.341679
9120.000000;1.342461
9119.000000;1.342370
9118.000000;1.341268
9117.000000;1.340211
9116.000000;1.339849
9115.000000;1.339582
9114.000000;1.338776
9113.000000;1.338008
9112.000000;1.338243
9111.000000;1.339232
9110.000000;1.339654
9109.000000;1.338855
9108.000000;1.337639
9107.000000;1.337141
9106.000000;1.337553
9105.000000;1.338205
9104.000000;1.338398
9103.000000;1.337867
9102.000000;1.336814
9101.000000;1.335877
9100.000000;1.335839
9099.000000;1.336973
9098.000000;1.338688
9097.000000;1.339971
9096.000000;1.340132
9095.000000;1.339102
9094.000000;1.337202
9093.000000;1.334890
9092.000000;1.332654
9091.000000;1.330934
9090.000000;1.330009
9089.000000;1.329827
9088.000000;1.329909
9087.000000;1.329605
9086.000000;1.328650
9085.000000;1.327431
9084.000000;1.326562
9083.000000;1.326322
9082.000000;1.326703
9081.000000;1.327750
9080.000000;1.329338
9079.000000;1.330730
9078.000000;1.331042
9077.000000;1.330291
9076.000000;1.329416
9075.000000;1.329027
9074.000000;1.328689
9073.000000;1.327782
9072.000000;1.326548
9071.000000;1.325785
9070.000000;1.325805
9069.000000;1.326235
9068.000000;1.326672
9067.000000;1.327007
9066.000000;1.327131
9065.000000;1.326874
9064.000000;1.326359
9063.000000;1.326041
9062.000000;1.326204
9061.000000;1.326627
9060.000000;1.326812
9059.000000;1.326384
9058.000000;1.325341
9057.000000;1.324065
9056.000000;1.323042
9055.000000;1.322403
9054.000000;1.321841
9053.000000;1.321148
