Criado como novo conjunto de dados;"1909daniel.spp","-4265984.0 Secs"
cm-1;Abs
10000.000000;1.424124
9999.000000;1.424190
9998.000000;1.423802
9997.000000;1.423272
9996.000000;1.422856
9995.000000;1.422733
9994.000000;1.422926
9993.000000;1.423006
9992.000000;1.422305
9991.000000;1.420711
9990.000000;1.419009
9989.000000;1.418114
9988.000000;1.418138
9987.000000;1.418402
9986.000000;1.418164
9985.000000;1.417164
9984.000000;1.415674
9983.000000;1.414285
9982.000000;1.413465
9981.000000;1.413097
9980.000000;1.412580
9979.000000;1.411558
9978.000000;1.410307
9977.000000;1.409240
9976.000000;1.408359
9975.000000;1.407488
9974.000000;1.406727
9973.000000;1.406264
9972.000000;1.405938
9971.000000;1.405441
9970.000000;1.404890
9969.000000;1.404784
9968.000000;1.405276
9967.000000;1.405740
9966.000000;1.405234
9965.000000;1.403393
9964.000000;1.400887
9963.000000;1.398998
9962.000000;1.398611
9961.000000;1.399443
9960.000000;1.400218
9959.000000;1.399739
9958.000000;1.397942
9957.000000;1.395894
9956.000000;1.394710
9955.000000;1.394514
9954.000000;1.394441
9953.000000;1.393670
9952.000000;1.392408
9951.000000;1.391644
9950.000000;1.391859
9949.000000;1.392356
9948.000000;1.392126
9947.000000;1.391050
9946.000000;1.389777
9945.000000;1.388658
9944.000000;1.387491
9943.000000;1.386276
9942.000000;1.385462
9941.000000;1.385239
9940.000000;1.385205
9939.000000;1.385013
9938.000000;1.384791
9937.000000;1.384613
9936.000000;1.384094
9935.000000;1.382942
9934.000000;1.381512
9933.000000;1.380377
9932.000000;1.379675
9931.000000;1.379289
9930.000000;1.379317
9929.000000;1.379803
9928.000000;1.380221
9927.000000;1.379810
9926.000000;1.378396
9925.000000;1.376491
9924.000000;1.374623
9923.000000;1.373010
9922.000000;1.371859
9921.000000;1.371511
9920.000000;1.372014
9919.000000;1.372768
9918.000000;1.372842
9917.000000;1.371742
9916.000000;1.369908
9915.000000;1.368392
9914.000000;1.367873
9913.000000;1.367939
9912.000000;1.367525
9911.000000;1.366154
9910.000000;1.364500
9909.000000;1.363555
9908.000000;1.363568
9907.000000;1.364008
9906.000000;1.364260
9905.000000;1.364020
9904.000000;1.363249
9903.000000;1.362134
9902.000000;1.360981
9901.000000;1.359846
9900.000000;1.358442
9899.000000;1.356709
9898.000000;1.355251
9897.000000;1.354765
9896.000000;1.355166
9895.000000;1.355678
9894.000000;1.355730
9893.000000;1.355356
9892.000000;1.354747
9891.000000;1.353957
9890.000000;1.353145
9889.000000;1.352620
9888.000000;1.352378
9887.000000;1.351957
9886.000000;1.350996
9885.000000;1.349678
9884.000000;1.348380
9883.000000;1.347157
9882.000000;1.345891
9881.000000;1.344740
9880.000000;1.344027
9879.000000;1.343741
9878.000000;1.343468
9877.000000;1.342932
9876.000000;1.342377
9875.000000;1.342254
9874.000000;1.342581
9873.000000;1.342751
9872.000000;1.342031
9871.000000;1.340305
9870.000000;1.338292
9869.000000;1.336938
9868.000000;1.336499
9867.000000;1.336277
9866.000000;1.335403
9865.000000;1.333838
9864.000000;1.332386
9863.000000;1.331675
9862.000000;1.331427
9861.000000;1.330916
9860.000000;1.329970
9859.000000;1.329148
9858.000000;1.329005
9857.000000;1.329519
9856.000000;1.330251
9855.000000;1.330736
9854.000000;1.330657
9853.000000;1.329943
9852.000000;1.328941
9851.000000;1.328221
9850.000000;1.327902
9849.000000;1.327402
9848.000000;1.326245
9847.000000;1.324866
9846.000000;1.324104
9845.000000;1.324035
9844.000000;1.323845
9843.000000;1.322924
9842.000000;1.321587
9841.000000;1.320470
9840.000000;1.319639
9839.000000;1.318664
9838.000000;1.317354
9837.000000;1.316062
9836.000000;1.315254
9835.000000;1.315026
9834.000000;1.315070
9833.000000;1.314929
9832.000000;1.314268
9831.000000;1.313009
9830.000000;1.311328
9829.000000;1.309605
9828.000000;1.308350
9827.000000;1.307974
9826.000000;1.308490
9825.000000;1.309433
9824.000000;1.310168
9823.000000;1.310232
9822.000000;1.309439
9821.000000;1.307960
9820.000000;1.306430
9819.000000;1.305574
9818.000000;1.305368
9817.000000;1.304870
9816.000000;1.303384
9815.000000;1.301516
9814.000000;1.300430
9813.000000;1.300249
9812.000000;1.299992
9811.000000;1.299126
9810.000000;1.298295
9809.000000;1.298155
9808.000000;1.298273
9807.000000;1.297799
9806.000000;1.296721
9805.000000;1.295730
9804.000000;1.295166
9803.000000;1.294813
9802.000000;1.294592
9801.000000;1.294738
9800.000000;1.295189
9799.000000;1.295307
9798.000000;1.294466
9797.000000;1.292662
9796.000000;1.290393
9795.000000;1.288213
9794.000000;1.286540
9793.000000;1.285639
9792.000000;1.285578
9791.000000;1.286202
9790.000000;1.287188
9789.000000;1.288045
9788.000000;1.288155
9787.000000;1.287123
9786.000000;1.285201
9785.000000;1.283222
9784.000000;1.281987
9783.000000;1.281670
9782.000000;1.281802
9781.000000;1.281714
9780.000000;1.281000
9779.000000;1.279695
9778.000000;1.278171
9777.000000;1.276897
9776.000000;1.276203
9775.000000;1.276109
9774.000000;1.276302
9773.000000;1.276348
9772.000000;1.276023
9771.000000;1.275427
9770.000000;1.274765
9769.000000;1.274112
9768.000000;1.273450
9767.000000;1.272824
9766.000000;1.272309
9765.000000;1.271891
9764.000000;1.271484
9763.000000;1.270974
9762.000000;1.270109
9761.000000;1.268555
9760.000000;1.266396
9759.000000;1.264461
9758.000000;1.263756
9757.000000;1.264421
9756.000000;1.265464
9755.000000;1.265631
9754.000000;1.264471
9753.000000;1.262540
9752.000000;1.260799
9751.000000;1.259886
9750.000000;1.259734
9749.000000;1.259688
9748.000000;1.259117
9747.000000;1.258002
9746.000000;1.256920
9745.000000;1.256520
9744.000000;1.257036
9743.000000;1.258090
9742.000000;1.258770
9741.000000;1.258102
9740.000000;1.255895
9739.000000;1.253062
9738.000000;1.250784
9737.000000;1.249476
9736.000000;1.248833
9735.000000;1.248578
9734.000000;1.248557
9733.000000;1.248225
9732.000000;1.246938
9731.000000;1.245006
9730.000000;1.243661
9729.000000;1.243587
9728.000000;1.244108
9727.000000;1.244269
9726.000000;1.244159
9725.000000;1.244523
9724.000000;1.245372
9723.000000;1.245722
9722.000000;1.244727
9721.000000;1.242600
9720.000000;1.240358
9719.000000;1.238977
9718.000000;1.238693
9717.000000;1.238817
9716.000000;1.238298
9715.000000;1.236777
9714.000000;1.234976
9713.000000;1.233853
9712.000000;1.233612
9711.000000;1.233814
9710.000000;1.234135
9709.000000;1.234556
9708.000000;1.234985
9707.000000;1.235157
9706.000000;1.234897
9705.000000;1.234151
9704.000000;1.232860
9703.000000;1.231135
9702.000000;1.229420
9701.000000;1.228130
9700.000000;1.227244
9699.000000;1.226602
9698.000000;1.226363
9697.000000;1.226692
9696.000000;1.227129
9695.000000;1.226873
9694.000000;1.225775
9693.000000;1.224548
9692.000000;1.223820
9691.000000;1.223432
9690.000000;1.222785
9689.000000;1.221537
9688.000000;1.219824
9687.000000;1.218105
9686.000000;1.217002
9685.000000;1.216910
9684.000000;1.217497
9683.000000;1.217909
9682.000000;1.217651
9681.000000;1.216984
9680.000000;1.216301
9679.000000;1.215532
9678.000000;1.214489
9677.000000;1.213422
9676.000000;1.212747
9675.000000;1.212332
9674.000000;1.211568
9673.000000;1.210287
9672.000000;1.209219
9671.000000;1.209210
9670.000000;1.210140
9669.000000;1.210867
9668.000000;1.210335
9667.000000;1.208670
9666.000000;1.207009
9665.000000;1.206244
9664.000000;1.206156
9663.000000;1.205862
9662.000000;1.204949
9661.000000;1.203939
9660.000000;1.203594
9659.000000;1.203935
9658.000000;1.204158
9657.000000;1.203516
9656.000000;1.202171
9655.000000;1.200993
9654.000000;1.200472
9653.000000;1.200036
9652.000000;1.198751
9651.000000;1.196609
9650.000000;1.194708
9649.000000;1.193965
9648.000000;1.194066
9647.000000;1.193931
9646.000000;1.192958
9645.000000;1.191446
9644.000000;1.190016
9643.000000;1.189072
9642.000000;1.188745
9641.000000;1.188926
9640.000000;1.189271
9639.000000;1.189456
9638.000000;1.189413
9637.000000;1.189081
9636.000000;1.188081
9635.000000;1.186142
9634.000000;1.183840
9633.000000;1.182342
9632.000000;1.182214
9631.000000;1.182910
9630.000000;1.183656
9629.000000;1.184332
9628.000000;1.185078
9627.000000;1.185436
9626.000000;1.184628
9625.000000;1.182650
9624.000000;1.180531
9623.000000;1.179306
9622.000000;1.179071
9621.000000;1.179136
9620.000000;1.178838
9619.000000;1.178019
9618.000000;1.176943
9617.000000;1.176024
9616.000000;1.175550
9615.000000;1.175428
9614.000000;1.175168
9613.000000;1.174265
9612.000000;1.172690
9611.000000;1.170933
9610.000000;1.169545
9609.000000;1.168701
9608.000000;1.168204
9607.000000;1.167793
9606.000000;1.167367
9605.000000;1.167017
9604.000000;1.166908
9603.000000;1.167043
9602.000000;1.167033
9601.000000;1.166305
9600.000000;1.164778
9599.000000;1.163223
9598.000000;1.162617
9597.000000;1.163076
9596.000000;1.163728
9595.000000;1.163767
9594.000000;1.163356
9593.000000;1.163180
9592.000000;1.163395
9591.000000;1.163448
9590.000000;1.162884
9589.000000;1.161867
9588.000000;1.160776
9587.000000;1.159667
9586.000000;1.158383
9585.000000;1.156980
9584.000000;1.155775
9583.000000;1.155032
9582.000000;1.154788
9581.000000;1.154885
9580.000000;1.155010
9579.000000;1.154766
9578.000000;1.153889
9577.000000;1.152524
9576.000000;1.151202
9575.000000;1.150422
9574.000000;1.150221
9573.000000;1.150110
9572.000000;1.149438
9571.000000;1.147924
9570.000000;1.145916
9569.000000;1.144144
9568.000000;1.143150
9567.000000;1.142929
9566.000000;1.143105
9565.000000;1.143379
9564.000000;1.143702
9563.000000;1.144035
9562.000000;1.144160
9561.000000;1.143866
9560.000000;1.143257
9559.000000;1.142644
9558.000000;1.142163
9557.000000;1.141708
9556.000000;1.141280
9555.000000;1.141119
9554.000000;1.141313
9553.000000;1.141464
9552.000000;1.141008
9551.000000;1.139822
9550.000000;1.138312
9549.000000;1.136978
9548.000000;1.136100
9547.000000;1.135758
9546.000000;1.135822
9545.000000;1.135883
9544.000000;1.135465
9543.000000;1.134382
9542.000000;1.132772
9541.000000;1.130856
9540.000000;1.128938
9539.000000;1.127600
9538.000000;1.127418
9537.000000;1.128293
9536.000000;1.129350
9535.000000;1.129732
9534.000000;1.129300
9533.000000;1.128406
9532.000000;1.127289
9531.000000;1.125985
9530.000000;1.124581
9529.000000;1.123208
9528.000000;1.121911
9527.000000;1.120791
9526.000000;1.120149
9525.000000;1.120161
9524.000000;1.120509
9523.000000;1.120571
9522.000000;1.119937
9521.000000;1.118630
9520.000000;1.117034
9519.000000;1.115803
9518.000000;1.115576
9517.000000;1.116348
9516.000000;1.117260
9515.000000;1.117420
9514.000000;1.116896
9513.000000;1.116477
9512.000000;1.116502
9511.000000;1.116494
9510.000000;1.115969
9509.000000;1.115085
9508.000000;1.114243
9507.000000;1.113512
9506.000000;1.112773
9505.000000;1.112065
9504.000000;1.111415
9503.000000;1.110568
9502.000000;1.109320
9501.000000;1.108011
9500.000000;1.107284
9499.000000;1.107371
9498.000000;1.107920
9497.000000;1.108508
9496.000000;1.108988
9495.000000;1.109223
9494.000000;1.108852
9493.000000;1.107640
9492.000000;1.105922
9491.000000;1.104427
9490.000000;1.103629
9489.000000;1.103435
9488.000000;1.103453
9487.000000;1.103350
9486.000000;1.102906
9485.000000;1.102010
9484.000000;1.100848
9483.000000;1.099902
9482.000000;1.099474
9481.000000;1.099278
9480.000000;1.098791
9479.000000;1.097985
9478.000000;1.097327
9477.000000;1.096985
9476.000000;1.096492
9475.000000;1.095471
9474.000000;1.094329
9473.000000;1.093777
9472.000000;1.093894
9471.000000;1.094139
9470.000000;1.094191
9469.000000;1.094210
9468.000000;1.094190
9467.000000;1.093639
9466.000000;1.092260
9465.000000;1.090631
9464.000000;1.089738
9463.000000;1.089919
9462.000000;1.090560
9461.000000;1.090795
9460.000000;1.090291
9459.000000;1.089340
9458.000000;1.088404
9457.000000;1.087698
9456.000000;1.087122
9455.000000;1.086469
9454.000000;1.085676
9453.000000;1.084907
9452.000000;1.084392
9451.000000;1.084146
9450.000000;1.083801
9449.000000;1.082803
9448.000000;1.080982
9447.000000;1.078959
9446.000000;1.077793
9445.000000;1.078043
9444.000000;1.079195
9443.000000;1.080103
9442.000000;1.079985
9441.000000;1.078927
9440.000000;1.077516
9439.000000;1.076243
9438.000000;1.075318
9437.000000;1.074802
9436.000000;1.074677
9435.000000;1.074796
9434.000000;1.074881
9433.000000;1.074661
9432.000000;1.074052
9431.000000;1.073235
9430.000000;1.072499
9429.000000;1.071953
9428.000000;1.071417
9427.000000;1.070637
9426.000000;1.069570
9425.000000;1.068381
9424.000000;1.067257
9423.000000;1.066345
9422.000000;1.065803
9421.000000;1.065742
9420.000000;1.066075
9419.000000;1.066495
9418.000000;1.066661
9417.000000;1.066402
9416.000000;1.065825
9415.000000;1.065237
9414.000000;1.064884
9413.000000;1.064666
9412.000000;1.064234
9411.000000;1.063409
9410.000000;1.062380
9409.000000;1.061393
9408.000000;1.060497
9407.000000;1.059774
9406.000000;1.059578
9405.000000;1.060147
9404.000000;1.061082
9403.000000;1.061618
9402.000000;1.061391
9401.000000;1.060608
9400.000000;1.059489
9399.000000;1.058003
9398.000000;1.056304
9397.000000;1.054952
9396.000000;1.054415
9395.000000;1.054591
9394.000000;1.055017
9393.000000;1.055288
9392.000000;1.055090
9391.000000;1.054134
9390.000000;1.052461
9389.000000;1.050692
9388.000000;1.049622
9387.000000;1.049550
9386.000000;1.050192
9385.000000;1.051123
9384.000000;1.052047
9383.000000;1.052664
9382.000000;1.052630
9381.000000;1.051825
9380.000000;1.050508
9379.000000;1.049098
9378.000000;1.047864
9377.000000;1.046879
9376.000000;1.046182
9375.000000;1.045869
9374.000000;1.046016
9373.000000;1.046539
9372.000000;1.047147
9371.000000;1.047435
9370.000000;1.047070
9369.000000;1.045914
9368.000000;1.044086
9367.000000;1.042006
9366.000000;1.040320
9365.000000;1.039569
9364.000000;1.039783
9363.000000;1.040477
9362.000000;1.041098
9361.000000;1.041417
9360.000000;1.041472
9359.000000;1.041327
9358.000000;1.041050
9357.000000;1.040763
9356.000000;1.040486
9355.000000;1.039997
9354.000000;1.039067
9353.000000;1.037840
9352.000000;1.036775
9351.000000;1.036199
9350.000000;1.036031
9349.000000;1.035960
9348.000000;1.035735
9347.000000;1.035260
9346.000000;1.034589
9345.000000;1.033949
9344.000000;1.033641
9343.000000;1.033757
9342.000000;1.034005
9341.000000;1.033873
9340.000000;1.033051
9339.000000;1.031730
9338.000000;1.030516
9337.000000;1.030004
9336.000000;1.030264
9335.000000;1.030680
9334.000000;1.030428
9333.000000;1.029245
9332.000000;1.027747
9331.000000;1.026876
9330.000000;1.027015
9329.000000;1.027644
9328.000000;1.027843
9327.000000;1.027097
9326.000000;1.025640
9325.000000;1.024137
9324.000000;1.023163
9323.000000;1.022931
9322.000000;1.023325
9321.000000;1.024008
9320.000000;1.024524
9319.000000;1.024470
9318.000000;1.023769
9317.000000;1.022765
9316.000000;1.021959
9315.000000;1.021608
9314.000000;1.021603
9313.000000;1.021718
9312.000000;1.021848
9311.000000;1.021929
9310.000000;1.021767
9309.000000;1.021126
9308.000000;1.020026
9307.000000;1.018763
9306.000000;1.017573
9305.000000;1.016415
9304.000000;1.015211
9303.000000;1.014137
9302.000000;1.013442
9301.000000;1.013055
9300.000000;1.012643
9299.000000;1.012121
9298.000000;1.011824
9297.000000;1.012034
9296.000000;1.012550
9295.000000;1.012947
9294.000000;1.013126
9293.000000;1.013303
9292.000000;1.013477
9291.000000;1.013246
9290.000000;1.012284
9289.000000;1.010822
9288.000000;1.009470
9287.000000;1.008675
9286.000000;1.008486
9285.000000;1.008741
9284.000000;1.009222
9283.000000;1.009576
9282.000000;1.009296
9281.000000;1.008060
9280.000000;1.006213
9279.000000;1.004732
9278.000000;1.004502
9277.000000;1.005500
9276.000000;1.006745
9275.000000;1.007147
9274.000000;1.006427
9273.000000;1.005217
9272.000000;1.004325
9271.000000;1.003985
9270.000000;1.003783
9269.000000;1.003182
9268.000000;1.002071
9267.000000;1.000848
9266.000000;1.000047
9265.000000;0.999933
9264.000000;1.000423
9263.000000;1.001209
9262.000000;1.001822
9261.000000;1.001745
9260.000000;1.000792
9259.000000;0.999463
9258.000000;0.998646
9257.000000;0.998735
9256.000000;0.999150
9255.000000;0.998945
9254.000000;0.997800
9253.000000;0.996262
9252.000000;0.995132
9251.000000;0.994883
9250.000000;0.995559
9249.000000;0.996823
9248.000000;0.997978
9247.000000;0.998248
9246.000000;0.997296
9245.000000;0.995466
9244.000000;0.993491
9243.000000;0.992036
9242.000000;0.991403
9241.000000;0.991430
9240.000000;0.991609
9239.000000;0.991523
9238.000000;0.991254
9237.000000;0.991206
9236.000000;0.991520
9235.000000;0.991877
9234.000000;0.991932
9233.000000;0.991650
9232.000000;0.991049
9231.000000;0.989958
9230.000000;0.988388
9229.000000;0.986929
9228.000000;0.986317
9227.000000;0.986565
9226.000000;0.986893
9225.000000;0.986618
9224.000000;0.985857
9223.000000;0.985198
9222.000000;0.984952
9221.000000;0.984996
9220.000000;0.985140
9219.000000;0.985330
9218.000000;0.985480
9217.000000;0.985392
9216.000000;0.984977
9215.000000;0.984411
9214.000000;0.983933
9213.000000;0.983616
9212.000000;0.983452
9211.000000;0.983481
9210.000000;0.983654
9209.000000;0.983655
9208.000000;0.983149
9207.000000;0.982243
9206.000000;0.981421
9205.000000;0.980956
9204.000000;0.980610
9203.000000;0.980050
9202.000000;0.979336
9201.000000;0.978811
9200.000000;0.978660
9199.000000;0.978835
9198.000000;0.979234
9197.000000;0.979664
9196.000000;0.979748
9195.000000;0.979221
9194.000000;0.978308
9193.000000;0.977503
9192.000000;0.976948
9191.000000;0.976376
9190.000000;0.975711
9189.000000;0.975308
9188.000000;0.975392
9187.000000;0.975647
9186.000000;0.975654
9185.000000;0.975442
9184.000000;0.975280
9183.000000;0.975126
9182.000000;0.974693
9181.000000;0.973963
9180.000000;0.973270
9179.000000;0.972880
9178.000000;0.972785
9177.000000;0.972901
9176.000000;0.973152
9175.000000;0.973279
9174.000000;0.972894
9173.000000;0.971901
9172.000000;0.970665
9171.000000;0.969641
9170.000000;0.968989
9169.000000;0.968666
9168.000000;0.968664
9167.000000;0.968956
9166.000000;0.969335
9165.000000;0.969503
9164.000000;0.969305
9163.000000;0.968759
9162.000000;0.967925
9161.000000;0.966935
9160.000000;0.966114
9159.000000;0.965824
9158.000000;0.966064
9157.000000;0.966341
9156.000000;0.966077
9155.000000;0.965123
9154.000000;0.963897
9153.000000;0.963042
9152.000000;0.962965
9151.000000;0.963590
9150.000000;0.964448
9149.000000;0.965036
9148.000000;0.965161
9147.000000;0.964964
9146.000000;0.964625
9145.000000;0.964168
9144.000000;0.963568
9143.000000;0.962942
9142.000000;0.962487
9141.000000;0.962256
9140.000000;0.962145
9139.000000;0.962107
9138.000000;0.962225
9137.000000;0.962535
9136.000000;0.962871
9135.000000;0.962989
9134.000000;0.962763
9133.000000;0.962243
9132.000000;0.961565
9131.000000;0.960851
9130.000000;0.960146
9129.000000;0.959398
9128.000000;0.958549
9127.000000;0.957734
9126.000000;0.957304
9125.000000;0.957538
9124.000000;0.958321
9123.000000;0.959156
9122.000000;0.959493
9121.000000;0.959070
9120.000000;0.958073
9119.000000;0.957048
9118.000000;0.956535
9117.000000;0.956603
9116.000000;0.956745
9115.000000;0.956392
9114.000000;0.955507
9113.000000;0.954599
9112.000000;0.954196
9111.000000;0.954414
9110.000000;0.954961
9109.000000;0.955387
9108.000000;0.955351
9107.000000;0.954848
9106.000000;0.954247
9105.000000;0.953978
9104.000000;0.954105
9103.000000;0.954275
9102.000000;0.954143
9101.000000;0.953764
9100.000000;0.953495
9099.000000;0.953543
9098.000000;0.953686
9097.000000;0.953477
9096.000000;0.952719
9095.000000;0.951742
9094.000000;0.951088
9093.000000;0.950901
9092.000000;0.950766
9091.000000;0.950250
9090.000000;0.949454
9089.000000;0.948807
9088.000000;0.948470
9087.000000;0.948235
9086.000000;0.947992
9085.000000;0.947871
9084.000000;0.947829
9083.000000;0.947481
9082.000000;0.946663
9081.000000;0.945891
9080.000000;0.945860
9079.000000;0.946557
9078.000000;0.947196
9077.000000;0.947082
9076.000000;0.946295
9075.000000;0.945429
9074.000000;0.944906
9073.000000;0.944726
9072.000000;0.944738
9071.000000;0.944884
9070.000000;0.945155
9069.000000;0.945446
9068.000000;0.945555
9067.000000;0.945330
9066.000000;0.944778
9065.000000;0.944034
9064.000000;0.943232
9063.000000;0.942407
9062.000000;0.941542
9061.000000;0.940722
9060.000000;0.940207
9059.000000;0.940275
9058.000000;0.940905
9057.000000;0.941652
9056.000000;0.941938
9055.000000;0.941550
9054.000000;0.940807
9053.000000;0.940221
