Criado como novo conjunto de dados;"1909daniel.spp","-4228362.1 Secs"
cm-1;Abs
10000.000000;1.450742
9999.000000;1.449589
9998.000000;1.446961
9997.000000;1.444576
9996.000000;1.443053
9995.000000;1.441667
9994.000000;1.439653
9993.000000;1.437173
9992.000000;1.435087
9991.000000;1.434245
9990.000000;1.435034
9989.000000;1.437168
9988.000000;1.439705
9987.000000;1.441490
9986.000000;1.441813
9985.000000;1.440704
9984.000000;1.438640
9983.000000;1.436151
9982.000000;1.433702
9981.000000;1.431702
9980.000000;1.430434
9979.000000;1.429964
9978.000000;1.430106
9977.000000;1.430420
9976.000000;1.430343
9975.000000;1.429561
9974.000000;1.428388
9973.000000;1.427565
9972.000000;1.427481
9971.000000;1.427657
9970.000000;1.427254
9969.000000;1.426106
9968.000000;1.424946
9967.000000;1.424385
9966.000000;1.423985
9965.000000;1.422792
9964.000000;1.420770
9963.000000;1.419187
9962.000000;1.419286
9961.000000;1.420869
9960.000000;1.422527
9959.000000;1.423100
9958.000000;1.422533
9957.000000;1.421367
9956.000000;1.419998
9955.000000;1.418647
9954.000000;1.417593
9953.000000;1.417079
9952.000000;1.417071
9951.000000;1.417325
9950.000000;1.417585
9949.000000;1.417521
9948.000000;1.416636
9947.000000;1.414572
9946.000000;1.411600
9945.000000;1.408646
9944.000000;1.406732
9943.000000;1.406302
9942.000000;1.406970
9941.000000;1.407782
9940.000000;1.407843
9939.000000;1.406898
9938.000000;1.405433
9937.000000;1.404251
9936.000000;1.403929
9935.000000;1.404535
9934.000000;1.405619
9933.000000;1.406412
9932.000000;1.406231
9931.000000;1.404928
9930.000000;1.402977
9929.000000;1.401019
9928.000000;1.399371
9927.000000;1.398016
9926.000000;1.396900
9925.000000;1.395972
9924.000000;1.394999
9923.000000;1.393641
9922.000000;1.391861
9921.000000;1.390090
9920.000000;1.388890
9919.000000;1.388529
9918.000000;1.388895
9917.000000;1.389663
9916.000000;1.390357
9915.000000;1.390349
9914.000000;1.389172
9913.000000;1.387074
9912.000000;1.385062
9911.000000;1.384193
9910.000000;1.384798
9909.000000;1.386373
9908.000000;1.388010
9907.000000;1.388825
9906.000000;1.388274
9905.000000;1.386493
9904.000000;1.384345
9903.000000;1.382828
9902.000000;1.382291
9901.000000;1.382406
9900.000000;1.382802
9899.000000;1.383327
9898.000000;1.383674
9897.000000;1.383248
9896.000000;1.381736
9895.000000;1.379492
9894.000000;1.377094
9893.000000;1.374831
9892.000000;1.372918
9891.000000;1.371858
9890.000000;1.372050
9889.000000;1.373076
9888.000000;1.373810
9887.000000;1.373365
9886.000000;1.371822
9885.000000;1.370062
9884.000000;1.369050
9883.000000;1.369078
9882.000000;1.369470
9881.000000;1.369188
9880.000000;1.368024
9879.000000;1.366886
9878.000000;1.366627
9877.000000;1.366940
9876.000000;1.366857
9875.000000;1.365979
9874.000000;1.364544
9873.000000;1.362597
9872.000000;1.360069
9871.000000;1.357689
9870.000000;1.356790
9869.000000;1.357773
9868.000000;1.359415
9867.000000;1.360144
9866.000000;1.359617
9865.000000;1.358702
9864.000000;1.358390
9863.000000;1.359079
9862.000000;1.360410
9861.000000;1.361323
9860.000000;1.360800
9859.000000;1.359039
9858.000000;1.357415
9857.000000;1.356834
9856.000000;1.356577
9855.000000;1.355353
9854.000000;1.353117
9853.000000;1.351017
9852.000000;1.349806
9851.000000;1.349156
9850.000000;1.348514
9849.000000;1.347833
9848.000000;1.347204
9847.000000;1.346388
9846.000000;1.345107
9845.000000;1.343489
9844.000000;1.341964
9843.000000;1.340877
9842.000000;1.340340
9841.000000;1.340267
9840.000000;1.340407
9839.000000;1.340473
9838.000000;1.340313
9837.000000;1.339960
9836.000000;1.339582
9835.000000;1.339414
9834.000000;1.339579
9833.000000;1.339830
9832.000000;1.339704
9831.000000;1.339069
9830.000000;1.338238
9829.000000;1.337346
9828.000000;1.336061
9827.000000;1.334316
9826.000000;1.332864
9825.000000;1.332443
9824.000000;1.332606
9823.000000;1.332143
9822.000000;1.330716
9821.000000;1.329307
9820.000000;1.328900
9819.000000;1.329442
9818.000000;1.330295
9817.000000;1.331030
9816.000000;1.331355
9815.000000;1.330906
9814.000000;1.329689
9813.000000;1.328369
9812.000000;1.327579
9811.000000;1.327165
9810.000000;1.326474
9809.000000;1.325227
9808.000000;1.323759
9807.000000;1.322579
9806.000000;1.322030
9805.000000;1.322160
9804.000000;1.322535
9803.000000;1.322317
9802.000000;1.320962
9801.000000;1.318886
9800.000000;1.317122
9799.000000;1.316273
9798.000000;1.315950
9797.000000;1.315218
9796.000000;1.313514
9795.000000;1.311245
9794.000000;1.309565
9793.000000;1.309379
9792.000000;1.310372
9791.000000;1.311148
9790.000000;1.310543
9789.000000;1.308736
9788.000000;1.306910
9787.000000;1.306043
9786.000000;1.306208
9785.000000;1.306779
9784.000000;1.306967
9783.000000;1.306377
9782.000000;1.305322
9781.000000;1.304495
9780.000000;1.304212
9779.000000;1.304126
9778.000000;1.303781
9777.000000;1.303168
9776.000000;1.302515
9775.000000;1.301886
9774.000000;1.301353
9773.000000;1.301182
9772.000000;1.301309
9771.000000;1.300987
9770.000000;1.299665
9769.000000;1.298020
9768.000000;1.297251
9767.000000;1.297380
9766.000000;1.297108
9765.000000;1.295577
9764.000000;1.293480
9763.000000;1.292024
9762.000000;1.291514
9761.000000;1.291445
9760.000000;1.291322
9759.000000;1.290829
9758.000000;1.289720
9757.000000;1.288221
9756.000000;1.287174
9755.000000;1.287131
9754.000000;1.287582
9753.000000;1.287696
9752.000000;1.287502
9751.000000;1.287552
9750.000000;1.287650
9749.000000;1.286916
9748.000000;1.285235
9747.000000;1.283731
9746.000000;1.283424
9745.000000;1.284090
9744.000000;1.284767
9743.000000;1.284799
9742.000000;1.283994
9741.000000;1.282324
9740.000000;1.280096
9739.000000;1.278080
9738.000000;1.276868
9737.000000;1.276230
9736.000000;1.275518
9735.000000;1.274556
9734.000000;1.273709
9733.000000;1.273253
9732.000000;1.273099
9731.000000;1.273041
9730.000000;1.272843
9729.000000;1.272155
9728.000000;1.270802
9727.000000;1.269177
9726.000000;1.267966
9725.000000;1.267475
9724.000000;1.267499
9723.000000;1.267783
9722.000000;1.268165
9721.000000;1.268327
9720.000000;1.267933
9719.000000;1.267180
9718.000000;1.266712
9717.000000;1.266777
9716.000000;1.266874
9715.000000;1.266470
9714.000000;1.265647
9713.000000;1.264734
9712.000000;1.263733
9711.000000;1.262532
9710.000000;1.261368
9709.000000;1.260515
9708.000000;1.259683
9707.000000;1.258342
9706.000000;1.256682
9705.000000;1.255706
9704.000000;1.256077
9703.000000;1.257215
9702.000000;1.257825
9701.000000;1.257209
9700.000000;1.255802
9699.000000;1.254474
9698.000000;1.253661
9697.000000;1.253241
9696.000000;1.253018
9695.000000;1.252996
9694.000000;1.253157
9693.000000;1.253206
9692.000000;1.252786
9691.000000;1.251853
9690.000000;1.250624
9689.000000;1.249191
9688.000000;1.247503
9687.000000;1.245766
9686.000000;1.244541
9685.000000;1.244193
9684.000000;1.244425
9683.000000;1.244606
9682.000000;1.244420
9681.000000;1.243925
9680.000000;1.243203
9679.000000;1.242306
9678.000000;1.241489
9677.000000;1.241041
9676.000000;1.240787
9675.000000;1.240113
9674.000000;1.238717
9673.000000;1.237076
9672.000000;1.235937
9671.000000;1.235525
9670.000000;1.235452
9669.000000;1.235270
9668.000000;1.234869
9667.000000;1.234377
9666.000000;1.233900
9665.000000;1.233416
9664.000000;1.232804
9663.000000;1.231922
9662.000000;1.230746
9661.000000;1.229438
9660.000000;1.228216
9659.000000;1.227181
9658.000000;1.226355
9657.000000;1.225843
9656.000000;1.225797
9655.000000;1.226120
9654.000000;1.226298
9653.000000;1.225702
9652.000000;1.224177
9651.000000;1.222324
9650.000000;1.221120
9649.000000;1.221176
9648.000000;1.222237
9647.000000;1.223312
9646.000000;1.223377
9645.000000;1.222154
9644.000000;1.220304
9643.000000;1.218852
9642.000000;1.218386
9641.000000;1.218750
9640.000000;1.219416
9639.000000;1.219951
9638.000000;1.220088
9637.000000;1.219579
9636.000000;1.218315
9635.000000;1.216613
9634.000000;1.215098
9633.000000;1.214162
9632.000000;1.213699
9631.000000;1.213447
9630.000000;1.213396
9629.000000;1.213647
9628.000000;1.213997
9627.000000;1.213931
9626.000000;1.213077
9625.000000;1.211532
9624.000000;1.209716
9623.000000;1.208034
9622.000000;1.206707
9621.000000;1.205783
9620.000000;1.205206
9619.000000;1.204862
9618.000000;1.204608
9617.000000;1.204324
9616.000000;1.203973
9615.000000;1.203610
9614.000000;1.203262
9613.000000;1.202784
9612.000000;1.201933
9611.000000;1.200658
9610.000000;1.199199
9609.000000;1.197884
9608.000000;1.196996
9607.000000;1.196772
9606.000000;1.197243
9605.000000;1.197946
9604.000000;1.198062
9603.000000;1.197170
9602.000000;1.195732
9601.000000;1.194515
9600.000000;1.193630
9599.000000;1.192580
9598.000000;1.191212
9597.000000;1.190171
9596.000000;1.190174
9595.000000;1.191106
9594.000000;1.192066
9593.000000;1.192180
9592.000000;1.191238
9591.000000;1.189700
9590.000000;1.188302
9589.000000;1.187630
9588.000000;1.187820
9587.000000;1.188502
9586.000000;1.189005
9585.000000;1.188729
9584.000000;1.187525
9583.000000;1.185918
9582.000000;1.184910
9581.000000;1.185231
9580.000000;1.186574
9579.000000;1.187621
9578.000000;1.187106
9577.000000;1.184959
9576.000000;1.182320
9575.000000;1.180485
9574.000000;1.179947
9573.000000;1.180358
9572.000000;1.181053
9571.000000;1.181439
9570.000000;1.181039
9569.000000;1.179562
9568.000000;1.177233
9567.000000;1.174868
9566.000000;1.173301
9565.000000;1.172722
9564.000000;1.172783
9563.000000;1.173261
9562.000000;1.174215
9561.000000;1.175398
9560.000000;1.176020
9559.000000;1.175526
9558.000000;1.174342
9557.000000;1.173340
9556.000000;1.172758
9555.000000;1.172146
9554.000000;1.171263
9553.000000;1.170374
9552.000000;1.169600
9551.000000;1.168634
9550.000000;1.167391
9549.000000;1.166444
9548.000000;1.166360
9547.000000;1.166897
9546.000000;1.167217
9545.000000;1.166738
9544.000000;1.165459
9543.000000;1.163683
9542.000000;1.161819
9541.000000;1.160354
9540.000000;1.159553
9539.000000;1.159137
9538.000000;1.158566
9537.000000;1.157732
9536.000000;1.157066
9535.000000;1.156847
9534.000000;1.156723
9533.000000;1.156104
9532.000000;1.154897
9531.000000;1.153643
9530.000000;1.152935
9529.000000;1.152847
9528.000000;1.152990
9527.000000;1.153081
9526.000000;1.153260
9525.000000;1.153729
9524.000000;1.154195
9523.000000;1.154001
9522.000000;1.152920
9521.000000;1.151520
9520.000000;1.150471
9519.000000;1.149716
9518.000000;1.148632
9517.000000;1.146949
9516.000000;1.145228
9515.000000;1.144369
9514.000000;1.144859
9513.000000;1.146454
9512.000000;1.148371
9511.000000;1.149725
9510.000000;1.149998
9509.000000;1.149266
9508.000000;1.147975
9507.000000;1.146536
9506.000000;1.145147
9505.000000;1.143868
9504.000000;1.142645
9503.000000;1.141297
9502.000000;1.139734
9501.000000;1.138257
9500.000000;1.137394
9499.000000;1.137353
9498.000000;1.137782
9497.000000;1.138143
9496.000000;1.138181
9495.000000;1.137934
9494.000000;1.137500
9493.000000;1.137005
9492.000000;1.136672
9491.000000;1.136644
9490.000000;1.136704
9489.000000;1.136394
9488.000000;1.135488
9487.000000;1.134226
9486.000000;1.132972
9485.000000;1.131774
9484.000000;1.130448
9483.000000;1.129004
9482.000000;1.127773
9481.000000;1.127058
9480.000000;1.126853
9479.000000;1.126968
9478.000000;1.127238
9477.000000;1.127463
9476.000000;1.127309
9475.000000;1.126573
9474.000000;1.125543
9473.000000;1.124832
9472.000000;1.124734
9471.000000;1.124900
9470.000000;1.124752
9469.000000;1.124088
9468.000000;1.123182
9467.000000;1.122469
9466.000000;1.122213
9465.000000;1.122346
9464.000000;1.122450
9463.000000;1.122011
9462.000000;1.120922
9461.000000;1.119686
9460.000000;1.118955
9459.000000;1.118899
9458.000000;1.119145
9457.000000;1.119216
9456.000000;1.118833
9455.000000;1.117888
9454.000000;1.116483
9453.000000;1.115048
9452.000000;1.114130
9451.000000;1.113887
9450.000000;1.113943
9449.000000;1.113832
9448.000000;1.113438
9447.000000;1.112850
9446.000000;1.111990
9445.000000;1.110655
9444.000000;1.108949
9443.000000;1.107466
9442.000000;1.106917
9441.000000;1.107573
9440.000000;1.108973
9439.000000;1.110156
9438.000000;1.110307
9437.000000;1.109414
9436.000000;1.108284
9435.000000;1.107824
9434.000000;1.108270
9433.000000;1.109090
9432.000000;1.109521
9431.000000;1.109080
9430.000000;1.107722
9429.000000;1.105768
9428.000000;1.103798
9427.000000;1.102408
9426.000000;1.101844
9425.000000;1.101863
9424.000000;1.101978
9423.000000;1.101821
9422.000000;1.101247
9421.000000;1.100264
9420.000000;1.099031
9419.000000;1.097866
9418.000000;1.097091
9417.000000;1.096807
9416.000000;1.096908
9415.000000;1.097218
9414.000000;1.097496
9413.000000;1.097407
9412.000000;1.096749
9411.000000;1.095778
9410.000000;1.095080
9409.000000;1.094964
9408.000000;1.095076
9407.000000;1.094755
9406.000000;1.093693
9405.000000;1.092183
9404.000000;1.090853
9403.000000;1.090268
9402.000000;1.090594
9401.000000;1.091380
9400.000000;1.091750
9399.000000;1.091069
9398.000000;1.089498
9397.000000;1.087733
9396.000000;1.086303
9395.000000;1.085304
9394.000000;1.084679
9393.000000;1.084396
9392.000000;1.084283
9391.000000;1.084012
9390.000000;1.083462
9389.000000;1.082924
9388.000000;1.082771
9387.000000;1.083029
9386.000000;1.083410
9385.000000;1.083666
9384.000000;1.083747
9383.000000;1.083659
9382.000000;1.083327
9381.000000;1.082647
9380.000000;1.081619
9379.000000;1.080421
9378.000000;1.079345
9377.000000;1.078633
9376.000000;1.078338
9375.000000;1.078349
9374.000000;1.078523
9373.000000;1.078725
9372.000000;1.078802
9371.000000;1.078622
9370.000000;1.078180
9369.000000;1.077567
9368.000000;1.076831
9367.000000;1.075970
9366.000000;1.075047
9365.000000;1.074194
9364.000000;1.073478
9363.000000;1.072868
9362.000000;1.072342
9361.000000;1.071904
9360.000000;1.071527
9359.000000;1.071229
9358.000000;1.071140
9357.000000;1.071273
9356.000000;1.071273
9355.000000;1.070703
9354.000000;1.069653
9353.000000;1.068732
9352.000000;1.068306
9351.000000;1.068051
9350.000000;1.067444
9349.000000;1.066474
9348.000000;1.065594
9347.000000;1.065215
9346.000000;1.065487
9345.000000;1.066298
9344.000000;1.067106
9343.000000;1.067030
9342.000000;1.065656
9341.000000;1.063709
9340.000000;1.062430
9339.000000;1.062215
9338.000000;1.062324
9337.000000;1.062081
9336.000000;1.061809
9335.000000;1.062204
9334.000000;1.063183
9333.000000;1.063856
9332.000000;1.063550
9331.000000;1.062439
9330.000000;1.061123
9329.000000;1.059958
9328.000000;1.059001
9327.000000;1.058313
9326.000000;1.057984
9325.000000;1.057928
9324.000000;1.057907
9323.000000;1.057793
9322.000000;1.057643
9321.000000;1.057459
9320.000000;1.057068
9319.000000;1.056397
9318.000000;1.055734
9317.000000;1.055446
9316.000000;1.055452
9315.000000;1.055238
9314.000000;1.054498
9313.000000;1.053553
9312.000000;1.052915
9311.000000;1.052568
9310.000000;1.051948
9309.000000;1.050730
9308.000000;1.049359
9307.000000;1.048586
9306.000000;1.048576
9305.000000;1.048730
9304.000000;1.048453
9303.000000;1.047867
9302.000000;1.047527
9301.000000;1.047594
9300.000000;1.047671
9299.000000;1.047464
9298.000000;1.047175
9297.000000;1.047003
9296.000000;1.046633
9295.000000;1.045714
9294.000000;1.044676
9293.000000;1.044456
9292.000000;1.045291
9291.000000;1.046261
9290.000000;1.046309
9289.000000;1.045386
9288.000000;1.044249
9287.000000;1.043424
9286.000000;1.042793
9285.000000;1.042136
9284.000000;1.041597
9283.000000;1.041487
9282.000000;1.041824
9281.000000;1.042240
9280.000000;1.042290
9279.000000;1.041805
9278.000000;1.040978
9277.000000;1.040093
9276.000000;1.039202
9275.000000;1.038150
9274.000000;1.036940
9273.000000;1.035956
9272.000000;1.035711
9271.000000;1.036395
9270.000000;1.037640
9269.000000;1.038653
9268.000000;1.038660
9267.000000;1.037502
9266.000000;1.035893
9265.000000;1.034863
9264.000000;1.034808
9263.000000;1.035200
9262.000000;1.035260
9261.000000;1.034705
9260.000000;1.033717
9259.000000;1.032511
9258.000000;1.031257
9257.000000;1.030242
9256.000000;1.029730
9255.000000;1.029678
9254.000000;1.029846
9253.000000;1.030129
9252.000000;1.030534
9251.000000;1.030899
9250.000000;1.030952
9249.000000;1.030658
9248.000000;1.030233
9247.000000;1.029755
9246.000000;1.029005
9245.000000;1.027806
9244.000000;1.026402
9243.000000;1.025377
9242.000000;1.025183
9241.000000;1.025760
9240.000000;1.026608
9239.000000;1.027287
9238.000000;1.027828
9237.000000;1.028468
9236.000000;1.028981
9235.000000;1.028640
9234.000000;1.027141
9233.000000;1.025273
9232.000000;1.024221
9231.000000;1.024272
9230.000000;1.024637
9229.000000;1.024522
9228.000000;1.023939
9227.000000;1.023359
9226.000000;1.022978
9225.000000;1.022605
9224.000000;1.022055
9223.000000;1.021390
9222.000000;1.020847
9221.000000;1.020637
9220.000000;1.020752
9219.000000;1.020900
9218.000000;1.020738
9217.000000;1.020198
9216.000000;1.019517
9215.000000;1.018971
9214.000000;1.018688
9213.000000;1.018659
9212.000000;1.018703
9211.000000;1.018480
9210.000000;1.017807
9209.000000;1.017020
9208.000000;1.016702
9207.000000;1.016964
9206.000000;1.017292
9205.000000;1.017230
9204.000000;1.016932
9203.000000;1.016803
9202.000000;1.016825
9201.000000;1.016570
9200.000000;1.015818
9199.000000;1.014918
9198.000000;1.014450
9197.000000;1.014617
9196.000000;1.014962
9195.000000;1.014667
9194.000000;1.013251
9193.000000;1.011108
9192.000000;1.009270
9191.000000;1.008532
9190.000000;1.008875
9189.000000;1.009739
9188.000000;1.010670
9187.000000;1.011500
9186.000000;1.012048
9185.000000;1.011990
9184.000000;1.011152
9183.000000;1.009812
9182.000000;1.008575
9181.000000;1.007935
9180.000000;1.007938
9179.000000;1.008193
9178.000000;1.008209
9177.000000;1.007760
9176.000000;1.006970
9175.000000;1.006149
9174.000000;1.005583
9173.000000;1.005426
9172.000000;1.005632
9171.000000;1.005933
9170.000000;1.005989
9169.000000;1.005698
9168.000000;1.005328
9167.000000;1.005271
9166.000000;1.005641
9165.000000;1.006139
9164.000000;1.006300
9163.000000;1.005893
9162.000000;1.005076
9161.000000;1.004184
9160.000000;1.003396
9159.000000;1.002679
9158.000000;1.002014
9157.000000;1.001518
9156.000000;1.001221
9155.000000;1.000851
9154.000000;1.000097
9153.000000;0.999031
9152.000000;0.998065
9151.000000;0.997463
9150.000000;0.997123
9149.000000;0.996910
9148.000000;0.996920
9147.000000;0.997238
9146.000000;0.997636
9145.000000;0.997772
9144.000000;0.997611
9143.000000;0.997379
9142.000000;0.997100
9141.000000;0.996488
9140.000000;0.995419
9139.000000;0.994318
9138.000000;0.993827
9137.000000;0.994128
9136.000000;0.994737
9135.000000;0.994991
9134.000000;0.994617
9133.000000;0.993839
9132.000000;0.993079
9131.000000;0.992688
9130.000000;0.992829
9129.000000;0.993386
9128.000000;0.993946
9127.000000;0.994027
9126.000000;0.993483
9125.000000;0.992630
9124.000000;0.991957
9123.000000;0.991753
9122.000000;0.992012
9121.000000;0.992527
9120.000000;0.992955
9119.000000;0.992923
9118.000000;0.992311
9117.000000;0.991446
9116.000000;0.990866
9115.000000;0.990844
9114.000000;0.991191
9113.000000;0.991499
9112.000000;0.991501
9111.000000;0.991193
9110.000000;0.990739
9109.000000;0.990320
9108.000000;0.990104
9107.000000;0.990267
9106.000000;0.990880
9105.000000;0.991650
9104.000000;0.991856
9103.000000;0.990862
9102.000000;0.988877
9101.000000;0.986994
9100.000000;0.986278
9099.000000;0.986805
9098.000000;0.987720
9097.000000;0.988104
9096.000000;0.987666
9095.000000;0.986733
9094.000000;0.985820
9093.000000;0.985258
9092.000000;0.985048
9091.000000;0.984970
9090.000000;0.984859
9089.000000;0.984751
9088.000000;0.984723
9087.000000;0.984708
9086.000000;0.984599
9085.000000;0.984436
9084.000000;0.984329
9083.000000;0.984246
9082.000000;0.984061
9081.000000;0.983772
9080.000000;0.983485
9079.000000;0.983225
9078.000000;0.982944
9077.000000;0.982679
9076.000000;0.982479
9075.000000;0.982203
9074.000000;0.981637
9073.000000;0.980848
9072.000000;0.980263
9071.000000;0.980297
9070.000000;0.980983
9069.000000;0.981936
9068.000000;0.982599
9067.000000;0.982588
9066.000000;0.981979
9065.000000;0.981213
9064.000000;0.980585
9063.000000;0.979945
9062.000000;0.979099
9061.000000;0.978304
9060.000000;0.977996
9059.000000;0.978115
9058.000000;0.978124
9057.000000;0.977733
9056.000000;0.977205
9055.000000;0.976882
9054.000000;0.976781
9053.000000;0.976824
