Criado como novo conjunto de dados;"1909daniel.spp","-4251583.5 Secs"
cm-1;Abs
10000.000000;1.682959
9999.000000;1.681834
9998.000000;1.680493
9997.000000;1.679623
9996.000000;1.676371
9995.000000;1.670421
9994.000000;1.665587
9993.000000;1.663751
9992.000000;1.664661
9991.000000;1.666394
9990.000000;1.667515
9989.000000;1.667819
9988.000000;1.667957
9987.000000;1.668364
9986.000000;1.668714
9985.000000;1.668445
9984.000000;1.667660
9983.000000;1.667001
9982.000000;1.666499
9981.000000;1.665276
9980.000000;1.662737
9979.000000;1.659493
9978.000000;1.656766
9977.000000;1.655315
9976.000000;1.655163
9975.000000;1.655762
9974.000000;1.655942
9973.000000;1.654395
9972.000000;1.651083
9971.000000;1.647880
9970.000000;1.646979
9969.000000;1.648700
9968.000000;1.651268
9967.000000;1.652603
9966.000000;1.651904
9965.000000;1.649700
9964.000000;1.647150
9963.000000;1.645472
9962.000000;1.645325
9961.000000;1.646250
9960.000000;1.646936
9959.000000;1.646259
9958.000000;1.644095
9957.000000;1.641340
9956.000000;1.639409
9955.000000;1.639401
9954.000000;1.641092
9953.000000;1.642674
9952.000000;1.642272
9951.000000;1.640011
9950.000000;1.637936
9949.000000;1.637776
9948.000000;1.639393
9947.000000;1.641493
9946.000000;1.643068
9945.000000;1.643677
9944.000000;1.642982
9943.000000;1.640851
9942.000000;1.637753
9941.000000;1.634451
9940.000000;1.631422
9939.000000;1.628999
9938.000000;1.627824
9937.000000;1.628455
9936.000000;1.630521
9935.000000;1.632743
9934.000000;1.633884
9933.000000;1.633472
9932.000000;1.631749
9931.000000;1.629375
9930.000000;1.627195
9929.000000;1.625787
9928.000000;1.625055
9927.000000;1.624536
9926.000000;1.624116
9925.000000;1.624074
9924.000000;1.624296
9923.000000;1.623963
9922.000000;1.622456
9921.000000;1.620318
9920.000000;1.618829
9919.000000;1.618731
9918.000000;1.619562
9917.000000;1.620107
9916.000000;1.619292
9915.000000;1.616870
9914.000000;1.613568
9913.000000;1.610543
9912.000000;1.608524
9911.000000;1.607544
9910.000000;1.607476
9909.000000;1.608401
9908.000000;1.610011
9907.000000;1.610985
9906.000000;1.609844
9905.000000;1.606690
9904.000000;1.603459
9903.000000;1.602113
9902.000000;1.602905
9901.000000;1.604608
9900.000000;1.606051
9899.000000;1.606913
9898.000000;1.607166
9897.000000;1.606488
9896.000000;1.604598
9895.000000;1.601816
9894.000000;1.598993
9893.000000;1.596913
9892.000000;1.595847
9891.000000;1.595569
9890.000000;1.595598
9889.000000;1.595284
9888.000000;1.593943
9887.000000;1.591317
9886.000000;1.588051
9885.000000;1.585593
9884.000000;1.585234
9883.000000;1.586980
9882.000000;1.589531
9881.000000;1.591367
9880.000000;1.591783
9879.000000;1.590952
9878.000000;1.589355
9877.000000;1.587447
9876.000000;1.585728
9875.000000;1.584725
9874.000000;1.584666
9873.000000;1.585218
9872.000000;1.585723
9871.000000;1.585794
9870.000000;1.585622
9869.000000;1.585597
9868.000000;1.585639
9867.000000;1.585158
9866.000000;1.583808
9865.000000;1.582069
9864.000000;1.580751
9863.000000;1.580051
9862.000000;1.579527
9861.000000;1.578985
9860.000000;1.578780
9859.000000;1.579009
9858.000000;1.578929
9857.000000;1.577802
9856.000000;1.576091
9855.000000;1.575101
9854.000000;1.575329
9853.000000;1.575762
9852.000000;1.575080
9851.000000;1.573131
9850.000000;1.570847
9849.000000;1.569056
9848.000000;1.567905
9847.000000;1.567247
9846.000000;1.567013
9845.000000;1.567069
9844.000000;1.567141
9843.000000;1.567107
9842.000000;1.567104
9841.000000;1.567084
9840.000000;1.566576
9839.000000;1.565283
9838.000000;1.563735
9837.000000;1.562816
9836.000000;1.562674
9835.000000;1.562530
9834.000000;1.561644
9833.000000;1.560093
9832.000000;1.558478
9831.000000;1.557340
9830.000000;1.557041
9829.000000;1.557666
9828.000000;1.558575
9827.000000;1.558509
9826.000000;1.556784
9825.000000;1.554214
9824.000000;1.552281
9823.000000;1.551618
9822.000000;1.551809
9821.000000;1.552395
9820.000000;1.553184
9819.000000;1.553517
9818.000000;1.552259
9817.000000;1.549173
9816.000000;1.545719
9815.000000;1.543766
9814.000000;1.543785
9813.000000;1.544748
9812.000000;1.545473
9811.000000;1.545552
9810.000000;1.545114
9809.000000;1.544366
9808.000000;1.543498
9807.000000;1.542677
9806.000000;1.541868
9805.000000;1.540856
9804.000000;1.539608
9803.000000;1.538411
9802.000000;1.537527
9801.000000;1.536891
9800.000000;1.536259
9799.000000;1.535596
9798.000000;1.535145
9797.000000;1.535020
9796.000000;1.534892
9795.000000;1.534244
9794.000000;1.532959
9793.000000;1.531579
9792.000000;1.530857
9791.000000;1.531054
9790.000000;1.531726
9789.000000;1.532118
9788.000000;1.531622
9787.000000;1.529951
9786.000000;1.527308
9785.000000;1.524559
9784.000000;1.522951
9783.000000;1.523259
9782.000000;1.525123
9781.000000;1.527250
9780.000000;1.528202
9779.000000;1.527142
9778.000000;1.524269
9777.000000;1.520807
9776.000000;1.518245
9775.000000;1.517209
9774.000000;1.517126
9773.000000;1.517107
9772.000000;1.516908
9771.000000;1.516793
9770.000000;1.516739
9769.000000;1.516312
9768.000000;1.515325
9767.000000;1.514159
9766.000000;1.513273
9765.000000;1.512665
9764.000000;1.511993
9763.000000;1.511084
9762.000000;1.510128
9761.000000;1.509431
9760.000000;1.509111
9759.000000;1.508906
9758.000000;1.508294
9757.000000;1.506997
9756.000000;1.505360
9755.000000;1.504084
9754.000000;1.503527
9753.000000;1.503424
9752.000000;1.503518
9751.000000;1.504132
9750.000000;1.505659
9749.000000;1.507636
9748.000000;1.508852
9747.000000;1.508525
9746.000000;1.507046
9745.000000;1.505306
9744.000000;1.503664
9743.000000;1.501982
9742.000000;1.500420
9741.000000;1.499558
9740.000000;1.499647
9739.000000;1.500157
9738.000000;1.500226
9737.000000;1.499284
9736.000000;1.497230
9735.000000;1.494458
9734.000000;1.491927
9733.000000;1.490622
9732.000000;1.490477
9731.000000;1.490190
9730.000000;1.488632
9729.000000;1.486174
9728.000000;1.484071
9727.000000;1.482841
9726.000000;1.482017
9725.000000;1.481336
9724.000000;1.481305
9723.000000;1.482268
9722.000000;1.483566
9721.000000;1.484062
9720.000000;1.483183
9719.000000;1.481283
9718.000000;1.479392
9717.000000;1.478742
9716.000000;1.479907
9715.000000;1.482025
9714.000000;1.483222
9713.000000;1.482305
9712.000000;1.479917
9711.000000;1.477770
9710.000000;1.476997
9709.000000;1.477484
9708.000000;1.478336
9707.000000;1.478556
9706.000000;1.477562
9705.000000;1.475492
9704.000000;1.472998
9703.000000;1.470658
9702.000000;1.468746
9701.000000;1.467487
9700.000000;1.467109
9699.000000;1.467432
9698.000000;1.467798
9697.000000;1.467671
9696.000000;1.466999
9695.000000;1.465868
9694.000000;1.464327
9693.000000;1.462845
9692.000000;1.462232
9691.000000;1.462598
9690.000000;1.462856
9689.000000;1.461904
9688.000000;1.460003
9687.000000;1.458411
9686.000000;1.457909
9685.000000;1.458279
9684.000000;1.458961
9683.000000;1.459552
9682.000000;1.459740
9681.000000;1.459374
9680.000000;1.458586
9679.000000;1.457438
9678.000000;1.455655
9677.000000;1.453226
9676.000000;1.451061
9675.000000;1.450413
9674.000000;1.451666
9673.000000;1.454095
9672.000000;1.456642
9671.000000;1.458348
9670.000000;1.458318
9669.000000;1.456154
9668.000000;1.452642
9667.000000;1.449326
9666.000000;1.447200
9665.000000;1.446179
9664.000000;1.445787
9663.000000;1.445751
9662.000000;1.445884
9661.000000;1.446027
9660.000000;1.446283
9659.000000;1.446773
9658.000000;1.447041
9657.000000;1.446303
9656.000000;1.444467
9655.000000;1.442289
9654.000000;1.440281
9653.000000;1.438118
9652.000000;1.435478
9651.000000;1.432813
9650.000000;1.430820
9649.000000;1.429587
9648.000000;1.428747
9647.000000;1.428218
9646.000000;1.428317
9645.000000;1.429203
9644.000000;1.430505
9643.000000;1.431526
9642.000000;1.431746
9641.000000;1.431236
9640.000000;1.430575
9639.000000;1.430215
9638.000000;1.430002
9637.000000;1.429548
9636.000000;1.428963
9635.000000;1.428767
9634.000000;1.429122
9633.000000;1.429637
9632.000000;1.429910
9631.000000;1.429690
9630.000000;1.428539
9629.000000;1.426102
9628.000000;1.422961
9627.000000;1.420460
9626.000000;1.419328
9625.000000;1.419103
9624.000000;1.419148
9623.000000;1.419436
9622.000000;1.419874
9621.000000;1.419683
9620.000000;1.418301
9619.000000;1.416352
9618.000000;1.414854
9617.000000;1.413907
9616.000000;1.413019
9615.000000;1.412295
9614.000000;1.412228
9613.000000;1.412337
9612.000000;1.411203
9611.000000;1.408317
9610.000000;1.405104
9609.000000;1.403517
9608.000000;1.404040
9607.000000;1.405448
9606.000000;1.406313
9605.000000;1.406324
9604.000000;1.406082
9603.000000;1.405971
9602.000000;1.405670
9601.000000;1.404807
9600.000000;1.403738
9599.000000;1.403227
9598.000000;1.403415
9597.000000;1.403598
9596.000000;1.403114
9595.000000;1.402026
9594.000000;1.400741
9593.000000;1.399454
9592.000000;1.398338
9591.000000;1.397746
9590.000000;1.397705
9589.000000;1.397597
9588.000000;1.396926
9587.000000;1.396097
9586.000000;1.395813
9585.000000;1.395975
9584.000000;1.395917
9583.000000;1.395539
9582.000000;1.395378
9581.000000;1.395546
9580.000000;1.395419
9579.000000;1.394617
9578.000000;1.393588
9577.000000;1.392922
9576.000000;1.392633
9575.000000;1.392359
9574.000000;1.391779
9573.000000;1.390553
9572.000000;1.388424
9571.000000;1.385836
9570.000000;1.383985
9569.000000;1.383723
9568.000000;1.384640
9567.000000;1.385559
9566.000000;1.385756
9565.000000;1.385362
9564.000000;1.384808
9563.000000;1.384278
9562.000000;1.383701
9561.000000;1.382949
9560.000000;1.382023
9559.000000;1.381174
9558.000000;1.380705
9557.000000;1.380492
9556.000000;1.379962
9555.000000;1.378838
9554.000000;1.377658
9553.000000;1.377174
9552.000000;1.377390
9551.000000;1.377644
9550.000000;1.377576
9549.000000;1.377515
9548.000000;1.377754
9547.000000;1.377937
9546.000000;1.377510
9545.000000;1.376483
9544.000000;1.375352
9543.000000;1.374314
9542.000000;1.372977
9541.000000;1.370926
9540.000000;1.368316
9539.000000;1.365770
9538.000000;1.363843
9537.000000;1.362722
9536.000000;1.362312
9535.000000;1.362413
9534.000000;1.362767
9533.000000;1.363030
9532.000000;1.362855
9531.000000;1.362013
9530.000000;1.360520
9529.000000;1.358707
9528.000000;1.357070
9527.000000;1.355937
9526.000000;1.355274
9525.000000;1.354901
9524.000000;1.354843
9523.000000;1.355272
9522.000000;1.356079
9521.000000;1.356758
9520.000000;1.356913
9519.000000;1.356735
9518.000000;1.356726
9517.000000;1.357056
9516.000000;1.357447
9515.000000;1.357621
9514.000000;1.357573
9513.000000;1.357397
9512.000000;1.357037
9511.000000;1.356277
9510.000000;1.354936
9509.000000;1.353089
9508.000000;1.351154
9507.000000;1.349622
9506.000000;1.348606
9505.000000;1.347838
9504.000000;1.347234
9503.000000;1.347091
9502.000000;1.347375
9501.000000;1.347220
9500.000000;1.345774
9499.000000;1.343448
9498.000000;1.341625
9497.000000;1.341143
9496.000000;1.341694
9495.000000;1.342760
9494.000000;1.344284
9493.000000;1.345953
9492.000000;1.346645
9491.000000;1.345511
9490.000000;1.343261
9489.000000;1.341456
9488.000000;1.340651
9487.000000;1.340007
9486.000000;1.338800
9485.000000;1.337511
9484.000000;1.337042
9483.000000;1.337397
9482.000000;1.337654
9481.000000;1.337079
9480.000000;1.335858
9479.000000;1.334690
9478.000000;1.333944
9477.000000;1.333357
9476.000000;1.332509
9475.000000;1.331479
9474.000000;1.330850
9473.000000;1.330996
9472.000000;1.331448
9471.000000;1.331241
9470.000000;1.329933
9469.000000;1.328109
9468.000000;1.326767
9467.000000;1.326369
9466.000000;1.326550
9465.000000;1.326662
9464.000000;1.326433
9463.000000;1.325997
9462.000000;1.325383
9461.000000;1.324266
9460.000000;1.322443
9459.000000;1.320452
9458.000000;1.319285
9457.000000;1.319340
9456.000000;1.319984
9455.000000;1.320432
9454.000000;1.320756
9453.000000;1.321541
9452.000000;1.322661
9451.000000;1.322984
9450.000000;1.321567
9449.000000;1.318849
9448.000000;1.316351
9447.000000;1.315277
9446.000000;1.315586
9445.000000;1.316276
9444.000000;1.316377
9443.000000;1.315677
9442.000000;1.314611
9441.000000;1.313646
9440.000000;1.313020
9439.000000;1.312993
9438.000000;1.313881
9437.000000;1.315441
9436.000000;1.316482
9435.000000;1.315695
9434.000000;1.312971
9433.000000;1.309515
9432.000000;1.306679
9431.000000;1.305062
9430.000000;1.304659
9429.000000;1.305237
9428.000000;1.306269
9427.000000;1.306911
9426.000000;1.306608
9425.000000;1.305688
9424.000000;1.305026
9423.000000;1.305094
9422.000000;1.305541
9421.000000;1.305655
9420.000000;1.305052
9419.000000;1.303960
9418.000000;1.302943
9417.000000;1.302391
9416.000000;1.302218
9415.000000;1.302018
9414.000000;1.301430
9413.000000;1.300321
9412.000000;1.298761
9411.000000;1.297045
9410.000000;1.295663
9409.000000;1.294994
9408.000000;1.295022
9407.000000;1.295533
9406.000000;1.296473
9405.000000;1.297782
9404.000000;1.298911
9403.000000;1.298978
9402.000000;1.297602
9401.000000;1.295289
9400.000000;1.292903
9399.000000;1.291108
9398.000000;1.290341
9397.000000;1.290716
9396.000000;1.291659
9395.000000;1.292118
9394.000000;1.291567
9393.000000;1.290488
9392.000000;1.289554
9391.000000;1.288787
9390.000000;1.287932
9389.000000;1.287135
9388.000000;1.286601
9387.000000;1.285903
9386.000000;1.284456
9385.000000;1.282611
9384.000000;1.281519
9383.000000;1.281807
9382.000000;1.282952
9381.000000;1.284038
9380.000000;1.284614
9379.000000;1.284613
9378.000000;1.283924
9377.000000;1.282488
9376.000000;1.280599
9375.000000;1.278791
9374.000000;1.277461
9373.000000;1.276688
9372.000000;1.276294
9371.000000;1.276036
9370.000000;1.275874
9369.000000;1.276048
9368.000000;1.276701
9367.000000;1.277451
9366.000000;1.277613
9365.000000;1.276941
9364.000000;1.275904
9363.000000;1.275128
9362.000000;1.274808
9361.000000;1.274670
9360.000000;1.274270
9359.000000;1.273301
9358.000000;1.271914
9357.000000;1.270739
9356.000000;1.270274
9355.000000;1.270215
9354.000000;1.269690
9353.000000;1.268266
9352.000000;1.266435
9351.000000;1.264982
9350.000000;1.264265
9349.000000;1.264291
9348.000000;1.265036
9347.000000;1.266246
9346.000000;1.267227
9345.000000;1.267302
9344.000000;1.266437
9343.000000;1.265129
9342.000000;1.263790
9341.000000;1.262617
9340.000000;1.261960
9339.000000;1.262288
9338.000000;1.263616
9337.000000;1.265219
9336.000000;1.266123
9335.000000;1.265826
9334.000000;1.264478
9333.000000;1.262536
9332.000000;1.260428
9331.000000;1.258520
9330.000000;1.257156
9329.000000;1.256510
9328.000000;1.256412
9327.000000;1.256423
9326.000000;1.256171
9325.000000;1.255601
9324.000000;1.254859
9323.000000;1.254046
9322.000000;1.253233
9321.000000;1.252683
9320.000000;1.252751
9319.000000;1.253401
9318.000000;1.254019
9317.000000;1.254000
9316.000000;1.253384
9315.000000;1.252689
9314.000000;1.252111
9313.000000;1.251246
9312.000000;1.249772
9311.000000;1.248202
9310.000000;1.247646
9309.000000;1.248676
9308.000000;1.250566
9307.000000;1.251833
9306.000000;1.251553
9305.000000;1.250097
9304.000000;1.248602
9303.000000;1.247893
9302.000000;1.247986
9301.000000;1.248359
9300.000000;1.248449
9299.000000;1.247950
9298.000000;1.246877
9297.000000;1.245527
9296.000000;1.244358
9295.000000;1.243765
9294.000000;1.243804
9293.000000;1.244031
9292.000000;1.243709
9291.000000;1.242488
9290.000000;1.240930
9289.000000;1.240080
9288.000000;1.240384
9287.000000;1.241252
9286.000000;1.241799
9285.000000;1.241742
9284.000000;1.241284
9283.000000;1.240479
9282.000000;1.239245
9281.000000;1.237888
9280.000000;1.237031
9279.000000;1.236866
9278.000000;1.236849
9277.000000;1.236357
9276.000000;1.235385
9275.000000;1.234467
9274.000000;1.234137
9273.000000;1.234535
9272.000000;1.235267
9271.000000;1.235586
9270.000000;1.235011
9269.000000;1.233891
9268.000000;1.233047
9267.000000;1.232727
9266.000000;1.232270
9265.000000;1.231034
9264.000000;1.229418
9263.000000;1.228573
9262.000000;1.229165
9261.000000;1.230683
9260.000000;1.231956
9259.000000;1.232192
9258.000000;1.231516
9257.000000;1.230622
9256.000000;1.230059
9255.000000;1.229926
9254.000000;1.230108
9253.000000;1.230478
9252.000000;1.230686
9251.000000;1.230100
9250.000000;1.228467
9249.000000;1.226520
9248.000000;1.225398
9247.000000;1.225395
9246.000000;1.225707
9245.000000;1.225480
9244.000000;1.224638
9243.000000;1.223549
9242.000000;1.222442
9241.000000;1.221525
9240.000000;1.221157
9239.000000;1.221428
9238.000000;1.221830
9237.000000;1.221805
9236.000000;1.221410
9235.000000;1.221032
9234.000000;1.220718
9233.000000;1.220211
9232.000000;1.219457
9231.000000;1.218602
9230.000000;1.217652
9229.000000;1.216575
9228.000000;1.215634
9227.000000;1.215111
9226.000000;1.214777
9225.000000;1.214181
9224.000000;1.213455
9223.000000;1.213265
9222.000000;1.213816
9221.000000;1.214512
9220.000000;1.214789
9219.000000;1.214757
9218.000000;1.214678
9217.000000;1.214324
9216.000000;1.213387
9215.000000;1.212231
9214.000000;1.211625
9213.000000;1.211771
9212.000000;1.212047
9211.000000;1.211811
9210.000000;1.211126
9209.000000;1.210537
9208.000000;1.210368
9207.000000;1.210464
9206.000000;1.210507
9205.000000;1.210405
9204.000000;1.210311
9203.000000;1.210327
9202.000000;1.210294
9201.000000;1.209968
9200.000000;1.209374
9199.000000;1.208814
9198.000000;1.208402
9197.000000;1.207846
9196.000000;1.206911
9195.000000;1.205955
9194.000000;1.205624
9193.000000;1.205962
9192.000000;1.206229
9191.000000;1.205850
9190.000000;1.205242
9189.000000;1.205235
9188.000000;1.205834
9187.000000;1.206109
9186.000000;1.205432
9185.000000;1.204335
9184.000000;1.203779
9183.000000;1.203938
9182.000000;1.204119
9181.000000;1.203715
9180.000000;1.202777
9179.000000;1.201651
9178.000000;1.200499
9177.000000;1.199358
9176.000000;1.198368
9175.000000;1.197736
9174.000000;1.197570
9173.000000;1.197866
9172.000000;1.198552
9171.000000;1.199462
9170.000000;1.200321
9169.000000;1.200793
9168.000000;1.200565
9167.000000;1.199517
9166.000000;1.197988
9165.000000;1.196711
9164.000000;1.196168
9163.000000;1.196070
9162.000000;1.195755
9161.000000;1.195083
9160.000000;1.194575
9159.000000;1.194656
9158.000000;1.195149
9157.000000;1.195625
9156.000000;1.195868
9155.000000;1.195791
9154.000000;1.195284
9153.000000;1.194420
9152.000000;1.193526
9151.000000;1.192791
9150.000000;1.192102
9149.000000;1.191440
9148.000000;1.191060
9147.000000;1.191032
9146.000000;1.190992
9145.000000;1.190705
9144.000000;1.190504
9143.000000;1.190636
9142.000000;1.190543
9141.000000;1.189498
9140.000000;1.187838
9139.000000;1.186800
9138.000000;1.187038
9137.000000;1.187867
9136.000000;1.188159
9135.000000;1.187564
9134.000000;1.186631
9133.000000;1.186071
9132.000000;1.186187
9131.000000;1.186828
9130.000000;1.187669
9129.000000;1.188500
9128.000000;1.189215
9127.000000;1.189483
9126.000000;1.188751
9125.000000;1.186885
9124.000000;1.184607
9123.000000;1.182853
9122.000000;1.181861
9121.000000;1.181329
9120.000000;1.181304
9119.000000;1.182185
9118.000000;1.183774
9117.000000;1.185001
9116.000000;1.185051
9115.000000;1.184284
9114.000000;1.183635
9113.000000;1.183521
9112.000000;1.183744
9111.000000;1.184080
9110.000000;1.184431
9109.000000;1.184578
9108.000000;1.184248
9107.000000;1.183488
9106.000000;1.182634
9105.000000;1.181916
9104.000000;1.181254
9103.000000;1.180424
9102.000000;1.179313
9101.000000;1.178174
9100.000000;1.177685
9099.000000;1.178417
9098.000000;1.179997
9097.000000;1.181067
9096.000000;1.180474
9095.000000;1.178446
9094.000000;1.176331
9093.000000;1.175338
9092.000000;1.175774
9091.000000;1.177127
9090.000000;1.178427
9089.000000;1.178685
9088.000000;1.177575
9087.000000;1.175761
9086.000000;1.174232
9085.000000;1.173292
9084.000000;1.172528
9083.000000;1.171639
9082.000000;1.170885
9081.000000;1.170683
9080.000000;1.171211
9079.000000;1.172461
9078.000000;1.174187
9077.000000;1.175588
9076.000000;1.175574
9075.000000;1.173835
9074.000000;1.171411
9073.000000;1.169777
9072.000000;1.169496
9071.000000;1.170007
9070.000000;1.170517
9069.000000;1.170738
9068.000000;1.170791
9067.000000;1.170759
9066.000000;1.170542
9065.000000;1.170022
9064.000000;1.169246
9063.000000;1.168447
9062.000000;1.167903
9061.000000;1.167730
9060.000000;1.167858
9059.000000;1.168144
9058.000000;1.168389
9057.000000;1.168244
9056.000000;1.167387
9055.000000;1.165928
9054.000000;1.164489
9053.000000;1.163646
