Criado como novo conjunto de dados;"1909daniel.spp","-4289925.3 Secs"
cm-1;Abs
10000.000000;1.271604
9999.000000;1.272294
9998.000000;1.272984
9997.000000;1.273676
9996.000000;1.274370
9995.000000;1.275063
9994.000000;1.275760
9993.000000;1.276454
9992.000000;1.277155
9991.000000;1.277845
9990.000000;1.278568
9989.000000;1.279061
9988.000000;1.278665
9987.000000;1.277199
9986.000000;1.275291
9985.000000;1.273779
9984.000000;1.272961
9983.000000;1.272574
9982.000000;1.272292
9981.000000;1.272016
9980.000000;1.271761
9979.000000;1.271525
9978.000000;1.271256
9977.000000;1.270848
9976.000000;1.270219
9975.000000;1.269466
9974.000000;1.268764
9973.000000;1.267973
9972.000000;1.266601
9971.000000;1.264487
9970.000000;1.262344
9969.000000;1.261203
9968.000000;1.261321
9967.000000;1.261949
9966.000000;1.262223
9965.000000;1.261944
9964.000000;1.261377
9963.000000;1.260648
9962.000000;1.259702
9961.000000;1.258703
9960.000000;1.258033
9959.000000;1.257791
9958.000000;1.257523
9957.000000;1.256653
9956.000000;1.255148
9955.000000;1.253603
9954.000000;1.252674
9953.000000;1.252501
9952.000000;1.252655
9951.000000;1.252580
9950.000000;1.252026
9949.000000;1.251105
9948.000000;1.250121
9947.000000;1.249397
9946.000000;1.249139
9945.000000;1.249287
9944.000000;1.249498
9943.000000;1.249354
9942.000000;1.248618
9941.000000;1.247310
9940.000000;1.245638
9939.000000;1.243955
9938.000000;1.242697
9937.000000;1.242153
9936.000000;1.242182
9935.000000;1.242217
9934.000000;1.241670
9933.000000;1.240370
9932.000000;1.238614
9931.000000;1.236846
9930.000000;1.235401
9929.000000;1.234495
9928.000000;1.234205
9927.000000;1.234320
9926.000000;1.234359
9925.000000;1.233982
9924.000000;1.233331
9923.000000;1.232717
9922.000000;1.232029
9921.000000;1.230859
9920.000000;1.229340
9919.000000;1.228380
9918.000000;1.228698
9917.000000;1.229839
9916.000000;1.230528
9915.000000;1.229903
9914.000000;1.228089
9913.000000;1.225745
9912.000000;1.223532
9911.000000;1.222048
9910.000000;1.221717
9909.000000;1.222418
9908.000000;1.223454
9907.000000;1.224082
9906.000000;1.223951
9905.000000;1.223060
9904.000000;1.221623
9903.000000;1.220049
9902.000000;1.218728
9901.000000;1.217673
9900.000000;1.216624
9899.000000;1.215588
9898.000000;1.214904
9897.000000;1.214632
9896.000000;1.214282
9895.000000;1.213454
9894.000000;1.212466
9893.000000;1.211954
9892.000000;1.211975
9891.000000;1.211845
9890.000000;1.210871
9889.000000;1.209061
9888.000000;1.207122
9887.000000;1.205833
9886.000000;1.205387
9885.000000;1.205255
9884.000000;1.204808
9883.000000;1.204097
9882.000000;1.203759
9881.000000;1.204079
9880.000000;1.204462
9879.000000;1.204074
9878.000000;1.202758
9877.000000;1.201059
9876.000000;1.199520
9875.000000;1.198277
9874.000000;1.197251
9873.000000;1.196424
9872.000000;1.195913
9871.000000;1.195884
9870.000000;1.196296
9869.000000;1.196686
9868.000000;1.196374
9867.000000;1.195045
9866.000000;1.193014
9865.000000;1.190846
9864.000000;1.188966
9863.000000;1.187703
9862.000000;1.187323
9861.000000;1.187688
9860.000000;1.188154
9859.000000;1.188122
9858.000000;1.187563
9857.000000;1.186731
9856.000000;1.185610
9855.000000;1.184087
9854.000000;1.182472
9853.000000;1.181344
9852.000000;1.180896
9851.000000;1.180870
9850.000000;1.181126
9849.000000;1.181754
9848.000000;1.182473
9847.000000;1.182444
9846.000000;1.181088
9845.000000;1.178879
9844.000000;1.176972
9843.000000;1.176151
9842.000000;1.176310
9841.000000;1.176805
9840.000000;1.177047
9839.000000;1.176754
9838.000000;1.175900
9837.000000;1.174615
9836.000000;1.173157
9835.000000;1.171881
9834.000000;1.171069
9833.000000;1.170700
9832.000000;1.170418
9831.000000;1.169866
9830.000000;1.169034
9829.000000;1.168171
9828.000000;1.167370
9827.000000;1.166423
9826.000000;1.165167
9825.000000;1.163875
9824.000000;1.163149
9823.000000;1.163344
9822.000000;1.164128
9821.000000;1.164664
9820.000000;1.164259
9819.000000;1.162894
9818.000000;1.161156
9817.000000;1.159687
9816.000000;1.158744
9815.000000;1.158246
9814.000000;1.158061
9813.000000;1.158114
9812.000000;1.158250
9811.000000;1.158159
9810.000000;1.157537
9809.000000;1.156322
9808.000000;1.154762
9807.000000;1.153214
9806.000000;1.151895
9805.000000;1.150779
9804.000000;1.149701
9803.000000;1.148527
9802.000000;1.147267
9801.000000;1.146143
9800.000000;1.145516
9799.000000;1.145559
9798.000000;1.145888
9797.000000;1.145725
9796.000000;1.144690
9795.000000;1.143399
9794.000000;1.142899
9793.000000;1.143448
9792.000000;1.144146
9791.000000;1.143954
9790.000000;1.142855
9789.000000;1.141749
9788.000000;1.141376
9787.000000;1.141610
9786.000000;1.141748
9785.000000;1.141204
9784.000000;1.139913
9783.000000;1.138272
9782.000000;1.136839
9781.000000;1.135973
9780.000000;1.135614
9779.000000;1.135334
9778.000000;1.134638
9777.000000;1.133296
9776.000000;1.131543
9775.000000;1.130009
9774.000000;1.129363
9773.000000;1.129784
9772.000000;1.130710
9771.000000;1.131199
9770.000000;1.130683
9769.000000;1.129379
9768.000000;1.127957
9767.000000;1.126874
9766.000000;1.126102
9765.000000;1.125407
9764.000000;1.124692
9763.000000;1.124029
9762.000000;1.123536
9761.000000;1.123315
9760.000000;1.123355
9759.000000;1.123294
9758.000000;1.122481
9757.000000;1.120622
9756.000000;1.118307
9755.000000;1.116509
9754.000000;1.115560
9753.000000;1.115010
9752.000000;1.114496
9751.000000;1.114173
9750.000000;1.114087
9749.000000;1.113710
9748.000000;1.112633
9747.000000;1.111295
9746.000000;1.110414
9745.000000;1.109969
9744.000000;1.109462
9743.000000;1.108966
9742.000000;1.109117
9741.000000;1.110002
9740.000000;1.110777
9739.000000;1.110650
9738.000000;1.109671
9737.000000;1.108302
9736.000000;1.106791
9735.000000;1.105359
9734.000000;1.104471
9733.000000;1.104359
9732.000000;1.104527
9731.000000;1.104141
9730.000000;1.102886
9729.000000;1.101149
9728.000000;1.099488
9727.000000;1.098186
9726.000000;1.097229
9725.000000;1.096470
9724.000000;1.095811
9723.000000;1.095296
9722.000000;1.094960
9721.000000;1.094660
9720.000000;1.094315
9719.000000;1.094218
9718.000000;1.094723
9717.000000;1.095536
9716.000000;1.095733
9715.000000;1.094726
9714.000000;1.092868
9713.000000;1.090899
9712.000000;1.089221
9711.000000;1.087961
9710.000000;1.087267
9709.000000;1.087069
9708.000000;1.086803
9707.000000;1.085897
9706.000000;1.084487
9705.000000;1.083279
9704.000000;1.082760
9703.000000;1.082776
9702.000000;1.082777
9701.000000;1.082275
9700.000000;1.081197
9699.000000;1.080045
9698.000000;1.079561
9697.000000;1.079932
9696.000000;1.080388
9695.000000;1.079892
9694.000000;1.078257
9693.000000;1.076362
9692.000000;1.075243
9691.000000;1.075169
9690.000000;1.075514
9689.000000;1.075361
9688.000000;1.074280
9687.000000;1.072671
9686.000000;1.071369
9685.000000;1.070839
9684.000000;1.070787
9683.000000;1.070588
9682.000000;1.069944
9681.000000;1.069055
9680.000000;1.068295
9679.000000;1.067848
9678.000000;1.067553
9677.000000;1.067032
9676.000000;1.066086
9675.000000;1.064975
9674.000000;1.064137
9673.000000;1.063619
9672.000000;1.063062
9671.000000;1.062253
9670.000000;1.061358
9669.000000;1.060491
9668.000000;1.059463
9667.000000;1.058174
9666.000000;1.056890
9665.000000;1.055867
9664.000000;1.055052
9663.000000;1.054475
9662.000000;1.054581
9661.000000;1.055709
9660.000000;1.057412
9659.000000;1.058725
9658.000000;1.059042
9657.000000;1.058385
9656.000000;1.056996
9655.000000;1.055116
9654.000000;1.053124
9653.000000;1.051463
9652.000000;1.050374
9651.000000;1.049840
9650.000000;1.049710
9649.000000;1.049668
9648.000000;1.049279
9647.000000;1.048387
9646.000000;1.047369
9645.000000;1.046669
9644.000000;1.046184
9643.000000;1.045410
9642.000000;1.044101
9641.000000;1.042522
9640.000000;1.041144
9639.000000;1.040375
9638.000000;1.040425
9637.000000;1.041067
9636.000000;1.041585
9635.000000;1.041346
9634.000000;1.040450
9633.000000;1.039499
9632.000000;1.038787
9631.000000;1.038061
9630.000000;1.037028
9629.000000;1.035766
9628.000000;1.034597
9627.000000;1.033815
9626.000000;1.033535
9625.000000;1.033508
9624.000000;1.033165
9623.000000;1.032169
9622.000000;1.030905
9621.000000;1.030093
9620.000000;1.029922
9619.000000;1.029904
9618.000000;1.029617
9617.000000;1.029161
9616.000000;1.028790
9615.000000;1.028502
9614.000000;1.028159
9613.000000;1.027720
9612.000000;1.027159
9611.000000;1.026369
9610.000000;1.025322
9609.000000;1.024140
9608.000000;1.022968
9607.000000;1.021895
9606.000000;1.021021
9605.000000;1.020382
9604.000000;1.019823
9603.000000;1.019214
9602.000000;1.018789
9601.000000;1.018905
9600.000000;1.019368
9599.000000;1.019385
9598.000000;1.018449
9597.000000;1.016960
9596.000000;1.015679
9595.000000;1.014834
9594.000000;1.014110
9593.000000;1.013374
9592.000000;1.012954
9591.000000;1.013114
9590.000000;1.013540
9589.000000;1.013583
9588.000000;1.012950
9587.000000;1.012002
9586.000000;1.011345
9585.000000;1.011198
9584.000000;1.011190
9583.000000;1.010723
9582.000000;1.009459
9581.000000;1.007547
9580.000000;1.005553
9579.000000;1.004165
9578.000000;1.003735
9577.000000;1.003943
9576.000000;1.004026
9575.000000;1.003496
9574.000000;1.002541
9573.000000;1.001620
9572.000000;1.000865
9571.000000;1.000112
9570.000000;0.999330
9569.000000;0.998692
9568.000000;0.998245
9567.000000;0.997816
9566.000000;0.997240
9565.000000;0.996456
9564.000000;0.995402
9563.000000;0.994123
9562.000000;0.993015
9561.000000;0.992644
9560.000000;0.993148
9559.000000;0.994002
9558.000000;0.994495
9557.000000;0.994319
9556.000000;0.993630
9555.000000;0.992733
9554.000000;0.991866
9553.000000;0.991156
9552.000000;0.990629
9551.000000;0.990220
9550.000000;0.989766
9549.000000;0.988976
9548.000000;0.987579
9547.000000;0.985721
9546.000000;0.984144
9545.000000;0.983619
9544.000000;0.984110
9543.000000;0.984692
9542.000000;0.984480
9541.000000;0.983462
9540.000000;0.982325
9539.000000;0.981609
9538.000000;0.981279
9537.000000;0.980990
9536.000000;0.980529
9535.000000;0.979971
9534.000000;0.979532
9533.000000;0.979310
9532.000000;0.979156
9531.000000;0.978778
9530.000000;0.978000
9529.000000;0.976883
9528.000000;0.975650
9527.000000;0.974563
9526.000000;0.973821
9525.000000;0.973415
9524.000000;0.973059
9523.000000;0.972408
9522.000000;0.971410
9521.000000;0.970364
9520.000000;0.969579
9519.000000;0.969079
9518.000000;0.968697
9517.000000;0.968319
9516.000000;0.967977
9515.000000;0.967809
9514.000000;0.967991
9513.000000;0.968571
9512.000000;0.969235
9511.000000;0.969378
9510.000000;0.968574
9509.000000;0.967014
9508.000000;0.965352
9507.000000;0.964135
9506.000000;0.963448
9505.000000;0.963083
9504.000000;0.962879
9503.000000;0.962833
9502.000000;0.962941
9501.000000;0.962988
9500.000000;0.962572
9499.000000;0.961407
9498.000000;0.959676
9497.000000;0.958008
9496.000000;0.956970
9495.000000;0.956580
9494.000000;0.956427
9493.000000;0.956241
9492.000000;0.956146
9491.000000;0.956252
9490.000000;0.956249
9489.000000;0.955715
9488.000000;0.954729
9487.000000;0.953829
9486.000000;0.953284
9485.000000;0.952751
9484.000000;0.951815
9483.000000;0.950584
9482.000000;0.949476
9481.000000;0.948676
9480.000000;0.948107
9479.000000;0.947751
9478.000000;0.947562
9477.000000;0.947143
9476.000000;0.946012
9475.000000;0.944305
9474.000000;0.942836
9473.000000;0.942264
9472.000000;0.942514
9471.000000;0.943098
9470.000000;0.943691
9469.000000;0.944130
9468.000000;0.944191
9467.000000;0.943713
9466.000000;0.942840
9465.000000;0.941873
9464.000000;0.940977
9463.000000;0.940248
9462.000000;0.939845
9461.000000;0.939768
9460.000000;0.939613
9459.000000;0.938887
9458.000000;0.937561
9457.000000;0.936103
9456.000000;0.934993
9455.000000;0.934389
9454.000000;0.934190
9453.000000;0.934163
9452.000000;0.934009
9451.000000;0.933539
9450.000000;0.932856
9449.000000;0.932211
9448.000000;0.931682
9447.000000;0.931161
9446.000000;0.930604
9445.000000;0.930093
9444.000000;0.929700
9443.000000;0.929475
9442.000000;0.929513
9441.000000;0.929765
9440.000000;0.929803
9439.000000;0.929084
9438.000000;0.927614
9437.000000;0.926135
9436.000000;0.925449
9435.000000;0.925637
9434.000000;0.926082
9433.000000;0.926142
9432.000000;0.925663
9431.000000;0.924924
9430.000000;0.924213
9429.000000;0.923557
9428.000000;0.922802
9427.000000;0.921908
9426.000000;0.921052
9425.000000;0.920438
9424.000000;0.920116
9423.000000;0.920018
9422.000000;0.920033
9421.000000;0.919953
9420.000000;0.919491
9419.000000;0.918511
9418.000000;0.917203
9417.000000;0.915892
9416.000000;0.914749
9415.000000;0.913775
9414.000000;0.912925
9413.000000;0.912111
9412.000000;0.911204
9411.000000;0.910253
9410.000000;0.909609
9409.000000;0.909619
9408.000000;0.910189
9407.000000;0.910867
9406.000000;0.911311
9405.000000;0.911480
9404.000000;0.911444
9403.000000;0.911238
9402.000000;0.910909
9401.000000;0.910461
9400.000000;0.909729
9399.000000;0.908536
9398.000000;0.907039
9397.000000;0.905704
9396.000000;0.904882
9395.000000;0.904540
9394.000000;0.904442
9393.000000;0.904335
9392.000000;0.903919
9391.000000;0.902951
9390.000000;0.901583
9389.000000;0.900411
9388.000000;0.899962
9387.000000;0.900157
9386.000000;0.900419
9385.000000;0.900253
9384.000000;0.899656
9383.000000;0.899042
9382.000000;0.898853
9381.000000;0.899149
9380.000000;0.899471
9379.000000;0.899215
9378.000000;0.898235
9377.000000;0.896997
9376.000000;0.896064
9375.000000;0.895547
9374.000000;0.895146
9373.000000;0.894615
9372.000000;0.893985
9371.000000;0.893401
9370.000000;0.892943
9369.000000;0.892618
9368.000000;0.892383
9367.000000;0.892092
9366.000000;0.891543
9365.000000;0.890637
9364.000000;0.889507
9363.000000;0.888443
9362.000000;0.887705
9361.000000;0.887376
9360.000000;0.887319
9359.000000;0.887252
9358.000000;0.886961
9357.000000;0.886501
9356.000000;0.886120
9355.000000;0.885959
9354.000000;0.885886
9353.000000;0.885658
9352.000000;0.885189
9351.000000;0.884590
9350.000000;0.884002
9349.000000;0.883482
9348.000000;0.883025
9347.000000;0.882601
9346.000000;0.882151
9345.000000;0.881608
9344.000000;0.880971
9343.000000;0.880303
9342.000000;0.879662
9341.000000;0.879099
9340.000000;0.878686
9339.000000;0.878435
9338.000000;0.878201
9337.000000;0.877828
9336.000000;0.877413
9335.000000;0.877200
9334.000000;0.877122
9333.000000;0.876706
9332.000000;0.875662
9331.000000;0.874382
9330.000000;0.873546
9329.000000;0.873345
9328.000000;0.873398
9327.000000;0.873387
9326.000000;0.873375
9325.000000;0.873452
9324.000000;0.873463
9323.000000;0.873256
9322.000000;0.872911
9321.000000;0.872512
9320.000000;0.871931
9319.000000;0.871066
9318.000000;0.870136
9317.000000;0.869489
9316.000000;0.869185
9315.000000;0.868947
9314.000000;0.868483
9313.000000;0.867719
9312.000000;0.866818
9311.000000;0.866078
9310.000000;0.865719
9309.000000;0.865643
9308.000000;0.865478
9307.000000;0.864969
9306.000000;0.864226
9305.000000;0.863528
9304.000000;0.863002
9303.000000;0.862620
9302.000000;0.862346
9301.000000;0.862145
9300.000000;0.861921
9299.000000;0.861612
9298.000000;0.861240
9297.000000;0.860767
9296.000000;0.860047
9295.000000;0.859109
9294.000000;0.858309
9293.000000;0.857970
9292.000000;0.857961
9291.000000;0.857865
9290.000000;0.857489
9289.000000;0.856962
9288.000000;0.856418
9287.000000;0.855878
9286.000000;0.855456
9285.000000;0.855389
9284.000000;0.855731
9283.000000;0.856178
9282.000000;0.856291
9281.000000;0.855855
9280.000000;0.855038
9279.000000;0.854278
9278.000000;0.853945
9277.000000;0.853931
9276.000000;0.853633
9275.000000;0.852560
9274.000000;0.850962
9273.000000;0.849672
9272.000000;0.849266
9271.000000;0.849515
9270.000000;0.849732
9269.000000;0.849509
9268.000000;0.848992
9267.000000;0.848528
9266.000000;0.848229
9265.000000;0.847938
9264.000000;0.847555
9263.000000;0.847241
9262.000000;0.847206
9261.000000;0.847349
9260.000000;0.847291
9259.000000;0.846782
9258.000000;0.845935
9257.000000;0.845002
9256.000000;0.844113
9255.000000;0.843348
9254.000000;0.842878
9253.000000;0.842797
9252.000000;0.842898
9251.000000;0.842825
9250.000000;0.842424
9249.000000;0.841835
9248.000000;0.841276
9247.000000;0.840861
9246.000000;0.840548
9245.000000;0.840161
9244.000000;0.839554
9243.000000;0.838887
9242.000000;0.838592
9241.000000;0.838853
9240.000000;0.839256
9239.000000;0.839204
9238.000000;0.838635
9237.000000;0.838046
9236.000000;0.837826
9235.000000;0.837850
9234.000000;0.837769
9233.000000;0.837400
9232.000000;0.836712
9231.000000;0.835697
9230.000000;0.834436
9229.000000;0.833201
9228.000000;0.832312
9227.000000;0.831912
9226.000000;0.831916
9225.000000;0.832127
9224.000000;0.832328
9223.000000;0.832331
9222.000000;0.832037
9221.000000;0.831514
9220.000000;0.831023
9219.000000;0.830883
9218.000000;0.831141
9217.000000;0.831372
9216.000000;0.830992
9215.000000;0.829896
9214.000000;0.828628
9213.000000;0.827783
9212.000000;0.827406
9211.000000;0.827179
9210.000000;0.826976
9209.000000;0.826930
9208.000000;0.827023
9207.000000;0.826989
9206.000000;0.826664
9205.000000;0.826196
9204.000000;0.825837
9203.000000;0.825723
9202.000000;0.825872
9201.000000;0.826174
9200.000000;0.826326
9199.000000;0.825994
9198.000000;0.825148
9197.000000;0.824134
9196.000000;0.823326
9195.000000;0.822823
9194.000000;0.822514
9193.000000;0.822278
9192.000000;0.822097
9191.000000;0.822033
9190.000000;0.822117
9189.000000;0.822209
9188.000000;0.822043
9187.000000;0.821546
9186.000000;0.821022
9185.000000;0.820824
9184.000000;0.820894
9183.000000;0.820856
9182.000000;0.820542
9181.000000;0.820174
9180.000000;0.819974
9179.000000;0.819850
9178.000000;0.819566
9177.000000;0.819020
9176.000000;0.818282
9175.000000;0.817482
9174.000000;0.816762
9173.000000;0.816218
9172.000000;0.815855
9171.000000;0.815674
9170.000000;0.815756
9169.000000;0.816053
9168.000000;0.816159
9167.000000;0.815607
9166.000000;0.814479
9165.000000;0.813451
9164.000000;0.813057
9163.000000;0.813132
9162.000000;0.813148
9161.000000;0.812893
9160.000000;0.812609
9159.000000;0.812565
9158.000000;0.812691
9157.000000;0.812648
9156.000000;0.812146
9155.000000;0.811229
9154.000000;0.810287
9153.000000;0.809712
9152.000000;0.809539
9151.000000;0.809502
9150.000000;0.809381
9149.000000;0.809161
9148.000000;0.808859
9147.000000;0.808469
9146.000000;0.808147
9145.000000;0.808164
9144.000000;0.808502
9143.000000;0.808710
9142.000000;0.808370
9141.000000;0.807573
9140.000000;0.806752
9139.000000;0.806200
9138.000000;0.805896
9137.000000;0.805693
9136.000000;0.805422
9135.000000;0.804894
9134.000000;0.804023
9133.000000;0.803009
9132.000000;0.802262
9131.000000;0.802116
9130.000000;0.802602
9129.000000;0.803406
9128.000000;0.804017
9127.000000;0.804048
9126.000000;0.803571
9125.000000;0.803050
9124.000000;0.802827
9123.000000;0.802732
9122.000000;0.802349
9121.000000;0.801585
9120.000000;0.800793
9119.000000;0.800384
9118.000000;0.800470
9117.000000;0.800862
9116.000000;0.801248
9115.000000;0.801358
9114.000000;0.801144
9113.000000;0.800861
9112.000000;0.800845
9111.000000;0.801101
9110.000000;0.801199
9109.000000;0.800708
9108.000000;0.799711
9107.000000;0.798790
9106.000000;0.798483
9105.000000;0.798801
9104.000000;0.799284
9103.000000;0.799419
9102.000000;0.798998
9101.000000;0.798159
9100.000000;0.797243
9099.000000;0.796623
9098.000000;0.796458
9097.000000;0.796487
9096.000000;0.796191
9095.000000;0.795354
9094.000000;0.794410
9093.000000;0.794004
9092.000000;0.794250
9091.000000;0.794639
9090.000000;0.794703
9089.000000;0.794491
9088.000000;0.794314
9087.000000;0.794253
9086.000000;0.794155
9085.000000;0.793942
9084.000000;0.793693
9083.000000;0.793494
9082.000000;0.793393
9081.000000;0.793437
9080.000000;0.793529
9079.000000;0.793316
9078.000000;0.792468
9077.000000;0.791127
9076.000000;0.789877
9075.000000;0.789179
9074.000000;0.788979
9073.000000;0.788934
9072.000000;0.788884
9071.000000;0.788961
9070.000000;0.789285
9069.000000;0.789693
9068.000000;0.789806
9067.000000;0.789363
9066.000000;0.788486
9065.000000;0.787611
9064.000000;0.787081
9063.000000;0.786806
9062.000000;0.786391
9061.000000;0.785650
9060.000000;0.784897
9059.000000;0.784615
9058.000000;0.784911
9057.000000;0.785408
9056.000000;0.785677
9055.000000;0.785650
9054.000000;0.785533
9053.000000;0.785434
