Criado como novo conjunto de dados;"1909daniel.spp","-4277324.6 Secs"
cm-1;Abs
10000.000000;1.335074
9999.000000;1.335576
9998.000000;1.336103
9997.000000;1.336587
9996.000000;1.337148
9995.000000;1.337558
9994.000000;1.338391
9993.000000;1.340257
9992.000000;1.341383
9991.000000;1.341132
9990.000000;1.339644
9989.000000;1.337614
9988.000000;1.335554
9987.000000;1.333781
9986.000000;1.332323
9985.000000;1.330911
9984.000000;1.329346
9983.000000;1.328057
9982.000000;1.327907
9981.000000;1.329152
9980.000000;1.330837
9979.000000;1.331581
9978.000000;1.330944
9977.000000;1.329731
9976.000000;1.328995
9975.000000;1.329019
9974.000000;1.329259
9973.000000;1.328993
9972.000000;1.327934
9971.000000;1.326423
9970.000000;1.325092
9969.000000;1.324240
9968.000000;1.323548
9967.000000;1.322529
9966.000000;1.321138
9965.000000;1.319730
9964.000000;1.318504
9963.000000;1.317342
9962.000000;1.316212
9961.000000;1.315370
9960.000000;1.314979
9959.000000;1.314799
9958.000000;1.314481
9957.000000;1.314012
9956.000000;1.313651
9955.000000;1.313550
9954.000000;1.313624
9953.000000;1.313725
9952.000000;1.313678
9951.000000;1.313210
9950.000000;1.312091
9949.000000;1.310421
9948.000000;1.308682
9947.000000;1.307394
9946.000000;1.306657
9945.000000;1.306063
9944.000000;1.305124
9943.000000;1.303875
9942.000000;1.302952
9941.000000;1.302946
9940.000000;1.303638
9939.000000;1.303980
9938.000000;1.303015
9937.000000;1.300888
9936.000000;1.298857
9935.000000;1.298191
9934.000000;1.299024
9933.000000;1.300250
9932.000000;1.300600
9931.000000;1.299836
9930.000000;1.298736
9929.000000;1.297923
9928.000000;1.297126
9927.000000;1.295784
9926.000000;1.293998
9925.000000;1.292397
9924.000000;1.291181
9923.000000;1.289913
9922.000000;1.288343
9921.000000;1.286941
9920.000000;1.286302
9919.000000;1.286339
9918.000000;1.286411
9917.000000;1.286079
9916.000000;1.285445
9915.000000;1.284886
9914.000000;1.284720
9913.000000;1.285034
9912.000000;1.285527
9911.000000;1.285592
9910.000000;1.284901
9909.000000;1.283895
9908.000000;1.283315
9907.000000;1.283213
9906.000000;1.282835
9905.000000;1.281642
9904.000000;1.280061
9903.000000;1.278926
9902.000000;1.278339
9901.000000;1.277544
9900.000000;1.275995
9899.000000;1.274177
9898.000000;1.273104
9897.000000;1.273158
9896.000000;1.273717
9895.000000;1.273894
9894.000000;1.273385
9893.000000;1.272486
9892.000000;1.271461
9891.000000;1.270217
9890.000000;1.268591
9889.000000;1.266748
9888.000000;1.265146
9887.000000;1.264119
9886.000000;1.263571
9885.000000;1.263180
9884.000000;1.262875
9883.000000;1.262920
9882.000000;1.263418
9881.000000;1.263881
9880.000000;1.263567
9879.000000;1.262276
9878.000000;1.260548
9877.000000;1.259003
9876.000000;1.257779
9875.000000;1.256774
9874.000000;1.256077
9873.000000;1.255725
9872.000000;1.255269
9871.000000;1.254154
9870.000000;1.252600
9869.000000;1.251578
9868.000000;1.251653
9867.000000;1.252200
9866.000000;1.252100
9865.000000;1.250992
9864.000000;1.249539
9863.000000;1.248598
9862.000000;1.248444
9861.000000;1.248773
9860.000000;1.249115
9859.000000;1.249138
9858.000000;1.248731
9857.000000;1.247949
9856.000000;1.246902
9855.000000;1.245702
9854.000000;1.244509
9853.000000;1.243507
9852.000000;1.242710
9851.000000;1.241898
9850.000000;1.240895
9849.000000;1.239860
9848.000000;1.239117
9847.000000;1.238694
9846.000000;1.238202
9845.000000;1.237246
9844.000000;1.235891
9843.000000;1.234650
9842.000000;1.234024
9841.000000;1.234044
9840.000000;1.234233
9839.000000;1.234054
9838.000000;1.233418
9837.000000;1.232713
9836.000000;1.232293
9835.000000;1.232082
9834.000000;1.231766
9833.000000;1.231220
9832.000000;1.230547
9831.000000;1.229767
9830.000000;1.228761
9829.000000;1.227574
9828.000000;1.226509
9827.000000;1.225800
9826.000000;1.225393
9825.000000;1.225161
9824.000000;1.225135
9823.000000;1.225267
9822.000000;1.225098
9821.000000;1.223982
9820.000000;1.221822
9819.000000;1.219386
9818.000000;1.217762
9817.000000;1.217499
9816.000000;1.218252
9815.000000;1.219132
9814.000000;1.219357
9813.000000;1.218692
9812.000000;1.217437
9811.000000;1.216059
9810.000000;1.214833
9809.000000;1.213770
9808.000000;1.212782
9807.000000;1.211783
9806.000000;1.210647
9805.000000;1.209242
9804.000000;1.207638
9803.000000;1.206194
9802.000000;1.205287
9801.000000;1.204946
9800.000000;1.204844
9799.000000;1.204661
9798.000000;1.204336
9797.000000;1.203969
9796.000000;1.203591
9795.000000;1.203087
9794.000000;1.202269
9793.000000;1.201027
9792.000000;1.199479
9791.000000;1.198017
9790.000000;1.197116
9789.000000;1.197001
9788.000000;1.197519
9787.000000;1.198282
9786.000000;1.198856
9785.000000;1.198912
9784.000000;1.198404
9783.000000;1.197678
9782.000000;1.197193
9781.000000;1.197038
9780.000000;1.196905
9779.000000;1.196573
9778.000000;1.196101
9777.000000;1.195423
9776.000000;1.194186
9775.000000;1.192386
9774.000000;1.190837
9773.000000;1.190384
9772.000000;1.190709
9771.000000;1.190539
9770.000000;1.189173
9769.000000;1.187282
9768.000000;1.185962
9767.000000;1.185534
9766.000000;1.185576
9765.000000;1.185643
9764.000000;1.185450
9763.000000;1.184683
9762.000000;1.183307
9761.000000;1.181976
9760.000000;1.181492
9759.000000;1.181753
9758.000000;1.181676
9757.000000;1.180388
9756.000000;1.178166
9755.000000;1.175977
9754.000000;1.174448
9753.000000;1.173600
9752.000000;1.173268
9751.000000;1.173306
9750.000000;1.173384
9749.000000;1.172999
9748.000000;1.171955
9747.000000;1.170683
9746.000000;1.169869
9745.000000;1.169755
9744.000000;1.169912
9743.000000;1.169719
9742.000000;1.168982
9741.000000;1.168041
9740.000000;1.167304
9739.000000;1.166766
9738.000000;1.166026
9737.000000;1.164781
9736.000000;1.163255
9735.000000;1.162118
9734.000000;1.161910
9733.000000;1.162501
9732.000000;1.163123
9731.000000;1.163017
9730.000000;1.162060
9729.000000;1.160746
9728.000000;1.159577
9727.000000;1.158595
9726.000000;1.157558
9725.000000;1.156437
9724.000000;1.155575
9723.000000;1.155298
9722.000000;1.155486
9721.000000;1.155628
9720.000000;1.155330
9719.000000;1.154681
9718.000000;1.154064
9717.000000;1.153672
9716.000000;1.153348
9715.000000;1.152868
9714.000000;1.152195
9713.000000;1.151376
9712.000000;1.150397
9711.000000;1.149315
9710.000000;1.148384
9709.000000;1.147740
9708.000000;1.147025
9707.000000;1.145694
9706.000000;1.143826
9705.000000;1.142274
9704.000000;1.141780
9703.000000;1.142104
9702.000000;1.142280
9701.000000;1.141646
9700.000000;1.140425
9699.000000;1.139307
9698.000000;1.138684
9697.000000;1.138351
9696.000000;1.137815
9695.000000;1.136861
9694.000000;1.135864
9693.000000;1.135517
9692.000000;1.136122
9691.000000;1.137134
9690.000000;1.137519
9689.000000;1.136644
9688.000000;1.134773
9687.000000;1.132742
9686.000000;1.131288
9685.000000;1.130685
9684.000000;1.130740
9683.000000;1.130945
9682.000000;1.130707
9681.000000;1.129701
9680.000000;1.128168
9679.000000;1.126772
9678.000000;1.125992
9677.000000;1.125632
9676.000000;1.125045
9675.000000;1.123892
9674.000000;1.122582
9673.000000;1.121823
9672.000000;1.121856
9671.000000;1.122283
9670.000000;1.122567
9669.000000;1.122461
9668.000000;1.121962
9667.000000;1.121135
9666.000000;1.120133
9665.000000;1.119189
9664.000000;1.118416
9663.000000;1.117737
9662.000000;1.117127
9661.000000;1.116734
9660.000000;1.116565
9659.000000;1.116206
9658.000000;1.115145
9657.000000;1.113378
9656.000000;1.111510
9655.000000;1.110194
9654.000000;1.109578
9653.000000;1.109297
9652.000000;1.108909
9651.000000;1.108296
9650.000000;1.107706
9649.000000;1.107428
9648.000000;1.107469
9647.000000;1.107583
9646.000000;1.107587
9645.000000;1.107461
9644.000000;1.107161
9643.000000;1.106571
9642.000000;1.105767
9641.000000;1.105044
9640.000000;1.104494
9639.000000;1.103759
9638.000000;1.102503
9637.000000;1.100956
9636.000000;1.099715
9635.000000;1.099132
9634.000000;1.099153
9633.000000;1.099597
9632.000000;1.100173
9631.000000;1.100290
9630.000000;1.099323
9629.000000;1.097249
9628.000000;1.094750
9627.000000;1.092553
9626.000000;1.090919
9625.000000;1.089844
9624.000000;1.089364
9623.000000;1.089465
9622.000000;1.089946
9621.000000;1.090588
9620.000000;1.091273
9619.000000;1.091727
9618.000000;1.091421
9617.000000;1.090111
9616.000000;1.088365
9615.000000;1.087196
9614.000000;1.087061
9613.000000;1.087391
9612.000000;1.087191
9611.000000;1.086041
9610.000000;1.084398
9609.000000;1.082970
9608.000000;1.081923
9607.000000;1.080786
9606.000000;1.079136
9605.000000;1.077223
9604.000000;1.075774
9603.000000;1.075243
9602.000000;1.075431
9601.000000;1.075785
9600.000000;1.075920
9599.000000;1.075831
9598.000000;1.075775
9597.000000;1.075997
9596.000000;1.076445
9595.000000;1.076734
9594.000000;1.076523
9593.000000;1.075910
9592.000000;1.075240
9591.000000;1.074562
9590.000000;1.073572
9589.000000;1.072115
9588.000000;1.070435
9587.000000;1.068865
9586.000000;1.067607
9585.000000;1.066913
9584.000000;1.067018
9583.000000;1.067604
9582.000000;1.067716
9581.000000;1.066669
9580.000000;1.064853
9579.000000;1.063235
9578.000000;1.062285
9577.000000;1.061808
9576.000000;1.061597
9575.000000;1.061662
9574.000000;1.061788
9573.000000;1.061458
9572.000000;1.060459
9571.000000;1.059197
9570.000000;1.058175
9569.000000;1.057463
9568.000000;1.056922
9567.000000;1.056681
9566.000000;1.056989
9565.000000;1.057678
9564.000000;1.058094
9563.000000;1.057671
9562.000000;1.056445
9561.000000;1.054892
9560.000000;1.053400
9559.000000;1.052071
9558.000000;1.051018
9557.000000;1.050558
9556.000000;1.050831
9555.000000;1.051349
9554.000000;1.051307
9553.000000;1.050472
9552.000000;1.049425
9551.000000;1.048713
9550.000000;1.048111
9549.000000;1.047112
9548.000000;1.045864
9547.000000;1.045080
9546.000000;1.045083
9545.000000;1.045445
9544.000000;1.045611
9543.000000;1.045427
9542.000000;1.044929
9541.000000;1.044089
9540.000000;1.043018
9539.000000;1.042065
9538.000000;1.041407
9537.000000;1.040791
9536.000000;1.039953
9535.000000;1.039061
9534.000000;1.038458
9533.000000;1.038138
9532.000000;1.037750
9531.000000;1.037013
9530.000000;1.035905
9529.000000;1.034575
9528.000000;1.033327
9527.000000;1.032573
9526.000000;1.032466
9525.000000;1.032623
9524.000000;1.032433
9523.000000;1.031660
9522.000000;1.030589
9521.000000;1.029610
9520.000000;1.028846
9519.000000;1.028131
9518.000000;1.027202
9517.000000;1.025992
9516.000000;1.024865
9515.000000;1.024430
9514.000000;1.024875
9513.000000;1.025558
9512.000000;1.025548
9511.000000;1.024550
9510.000000;1.023100
9509.000000;1.021919
9508.000000;1.021361
9507.000000;1.021383
9506.000000;1.021617
9505.000000;1.021438
9504.000000;1.020400
9503.000000;1.018840
9502.000000;1.017723
9501.000000;1.017648
9500.000000;1.018210
9499.000000;1.018538
9498.000000;1.018233
9497.000000;1.017543
9496.000000;1.016858
9495.000000;1.016389
9494.000000;1.016214
9493.000000;1.016210
9492.000000;1.015905
9491.000000;1.014801
9490.000000;1.013027
9489.000000;1.011407
9488.000000;1.010691
9487.000000;1.010831
9486.000000;1.011148
9485.000000;1.011086
9484.000000;1.010629
9483.000000;1.010012
9482.000000;1.009279
9481.000000;1.008247
9480.000000;1.006856
9479.000000;1.005395
9478.000000;1.004283
9477.000000;1.003661
9476.000000;1.003302
9475.000000;1.002966
9474.000000;1.002735
9473.000000;1.002875
9472.000000;1.003365
9471.000000;1.003741
9470.000000;1.003544
9469.000000;1.002828
9468.000000;1.002024
9467.000000;1.001354
9466.000000;1.000612
9465.000000;0.999607
9464.000000;0.998611
9463.000000;0.998086
9462.000000;0.998043
9461.000000;0.997921
9460.000000;0.997193
9459.000000;0.995905
9458.000000;0.994539
9457.000000;0.993544
9456.000000;0.993182
9455.000000;0.993555
9454.000000;0.994419
9453.000000;0.995025
9452.000000;0.994540
9451.000000;0.992868
9450.000000;0.990841
9449.000000;0.989415
9448.000000;0.988843
9447.000000;0.988759
9446.000000;0.988815
9445.000000;0.988914
9444.000000;0.988931
9443.000000;0.988634
9442.000000;0.987990
9441.000000;0.987301
9440.000000;0.986832
9439.000000;0.986442
9438.000000;0.985809
9437.000000;0.984954
9436.000000;0.984336
9435.000000;0.984363
9434.000000;0.984921
9433.000000;0.985426
9432.000000;0.985293
9431.000000;0.984328
9430.000000;0.982792
9429.000000;0.981182
9428.000000;0.979957
9427.000000;0.979313
9426.000000;0.979129
9425.000000;0.979066
9424.000000;0.978788
9423.000000;0.978128
9422.000000;0.977142
9421.000000;0.976016
9420.000000;0.974937
9419.000000;0.973993
9418.000000;0.973200
9417.000000;0.972634
9416.000000;0.972479
9415.000000;0.972842
9414.000000;0.973484
9413.000000;0.973853
9412.000000;0.973482
9411.000000;0.972377
9410.000000;0.970997
9409.000000;0.969915
9408.000000;0.969477
9407.000000;0.969675
9406.000000;0.970148
9405.000000;0.970368
9404.000000;0.969976
9403.000000;0.969019
9402.000000;0.967824
9401.000000;0.966651
9400.000000;0.965565
9399.000000;0.964581
9398.000000;0.963748
9397.000000;0.963072
9396.000000;0.962504
9395.000000;0.962058
9394.000000;0.961757
9393.000000;0.961415
9392.000000;0.960688
9391.000000;0.959539
9390.000000;0.958461
9389.000000;0.958021
9388.000000;0.958264
9387.000000;0.958739
9386.000000;0.959050
9385.000000;0.959141
9384.000000;0.959096
9383.000000;0.958945
9382.000000;0.958738
9381.000000;0.958581
9380.000000;0.958435
9379.000000;0.958035
9378.000000;0.957170
9377.000000;0.956010
9376.000000;0.955001
9375.000000;0.954449
9374.000000;0.954261
9373.000000;0.954106
9372.000000;0.953779
9371.000000;0.953350
9370.000000;0.952962
9369.000000;0.952565
9368.000000;0.951959
9367.000000;0.951107
9366.000000;0.950242
9365.000000;0.949538
9364.000000;0.948822
9363.000000;0.947801
9362.000000;0.946532
9361.000000;0.945420
9360.000000;0.944759
9359.000000;0.944502
9358.000000;0.944501
9357.000000;0.944723
9356.000000;0.945072
9355.000000;0.945213
9354.000000;0.944820
9353.000000;0.943940
9352.000000;0.942936
9351.000000;0.942121
9350.000000;0.941560
9349.000000;0.941168
9348.000000;0.940855
9347.000000;0.940582
9346.000000;0.940388
9345.000000;0.940326
9344.000000;0.940295
9343.000000;0.940002
9342.000000;0.939229
9341.000000;0.938158
9340.000000;0.937263
9339.000000;0.936847
9338.000000;0.936770
9337.000000;0.936676
9336.000000;0.936356
9335.000000;0.935827
9334.000000;0.935165
9333.000000;0.934434
9332.000000;0.933791
9331.000000;0.933485
9330.000000;0.933607
9329.000000;0.933830
9328.000000;0.933583
9327.000000;0.932575
9326.000000;0.931138
9325.000000;0.929957
9324.000000;0.929473
9323.000000;0.929557
9322.000000;0.929702
9321.000000;0.929451
9320.000000;0.928703
9319.000000;0.927786
9318.000000;0.927222
9317.000000;0.927314
9316.000000;0.927826
9315.000000;0.928138
9314.000000;0.927786
9313.000000;0.926831
9312.000000;0.925716
9311.000000;0.924860
9310.000000;0.924371
9309.000000;0.923993
9308.000000;0.923268
9307.000000;0.921945
9306.000000;0.920364
9305.000000;0.919319
9304.000000;0.919373
9303.000000;0.920305
9302.000000;0.921311
9301.000000;0.921642
9300.000000;0.921053
9299.000000;0.919844
9298.000000;0.918678
9297.000000;0.918237
9296.000000;0.918717
9295.000000;0.919593
9294.000000;0.920051
9293.000000;0.919739
9292.000000;0.918948
9291.000000;0.918098
9290.000000;0.917255
9289.000000;0.916223
9288.000000;0.914915
9287.000000;0.913558
9286.000000;0.912602
9285.000000;0.912463
9284.000000;0.913139
9283.000000;0.914010
9282.000000;0.914206
9281.000000;0.913370
9280.000000;0.911985
9279.000000;0.910844
9278.000000;0.910311
9277.000000;0.910182
9276.000000;0.910095
9275.000000;0.909873
9274.000000;0.909562
9273.000000;0.909345
9272.000000;0.909402
9271.000000;0.909704
9270.000000;0.909959
9269.000000;0.909896
9268.000000;0.909559
9267.000000;0.909162
9266.000000;0.908712
9265.000000;0.908016
9264.000000;0.907095
9263.000000;0.906306
9262.000000;0.905935
9261.000000;0.905844
9260.000000;0.905717
9259.000000;0.905474
9258.000000;0.905224
9257.000000;0.904883
9256.000000;0.904180
9255.000000;0.903092
9254.000000;0.902071
9253.000000;0.901632
9252.000000;0.901808
9251.000000;0.902206
9250.000000;0.902535
9249.000000;0.902860
9248.000000;0.903232
9247.000000;0.903272
9246.000000;0.902433
9245.000000;0.900715
9244.000000;0.898895
9243.000000;0.897826
9242.000000;0.897611
9241.000000;0.897653
9240.000000;0.897466
9239.000000;0.897175
9238.000000;0.897127
9237.000000;0.897301
9236.000000;0.897326
9235.000000;0.896969
9234.000000;0.896350
9233.000000;0.895706
9232.000000;0.895164
9231.000000;0.894789
9230.000000;0.894628
9229.000000;0.894589
9228.000000;0.894408
9227.000000;0.893886
9226.000000;0.893129
9225.000000;0.892464
9224.000000;0.892134
9223.000000;0.892100
9222.000000;0.892094
9221.000000;0.891877
9220.000000;0.891465
9219.000000;0.891094
9218.000000;0.890885
9217.000000;0.890638
9216.000000;0.890078
9215.000000;0.889253
9214.000000;0.888516
9213.000000;0.888091
9212.000000;0.887872
9211.000000;0.887703
9210.000000;0.887615
9209.000000;0.887641
9208.000000;0.887588
9207.000000;0.887223
9206.000000;0.886572
9205.000000;0.885879
9204.000000;0.885348
9203.000000;0.885060
9202.000000;0.885002
9201.000000;0.884990
9200.000000;0.884713
9199.000000;0.884076
9198.000000;0.883420
9197.000000;0.883127
9196.000000;0.883063
9195.000000;0.882732
9194.000000;0.881958
9193.000000;0.881116
9192.000000;0.880636
9191.000000;0.880572
9190.000000;0.880755
9189.000000;0.881069
9188.000000;0.881378
9187.000000;0.881428
9186.000000;0.881070
9185.000000;0.880454
9184.000000;0.879833
9183.000000;0.879271
9182.000000;0.878740
9181.000000;0.878363
9180.000000;0.878295
9179.000000;0.878383
9178.000000;0.878168
9177.000000;0.877343
9176.000000;0.876104
9175.000000;0.874978
9174.000000;0.874346
9173.000000;0.874164
9172.000000;0.874123
9171.000000;0.874020
9170.000000;0.873905
9169.000000;0.873870
9168.000000;0.873825
9167.000000;0.873597
9166.000000;0.873195
9165.000000;0.872808
9164.000000;0.872511
9163.000000;0.872185
9162.000000;0.871785
9161.000000;0.871508
9160.000000;0.871549
9159.000000;0.871785
9158.000000;0.871838
9157.000000;0.871423
9156.000000;0.870585
9155.000000;0.869651
9154.000000;0.869006
9153.000000;0.868818
9152.000000;0.868942
9151.000000;0.869104
9150.000000;0.869151
9149.000000;0.869043
9148.000000;0.868674
9147.000000;0.867938
9146.000000;0.866985
9145.000000;0.866145
9144.000000;0.865538
9143.000000;0.865004
9142.000000;0.864480
9141.000000;0.864163
9140.000000;0.864125
9139.000000;0.864125
9138.000000;0.864049
9137.000000;0.864263
9136.000000;0.865072
9135.000000;0.865994
9134.000000;0.866030
9133.000000;0.864766
9132.000000;0.862887
9131.000000;0.861528
9130.000000;0.861333
9129.000000;0.862138
9128.000000;0.863267
9127.000000;0.864011
9126.000000;0.864070
9125.000000;0.863681
9124.000000;0.863259
9123.000000;0.862896
9122.000000;0.862359
9121.000000;0.861539
9120.000000;0.860665
9119.000000;0.859992
9118.000000;0.859493
9117.000000;0.859003
9116.000000;0.858541
9115.000000;0.858311
9114.000000;0.858442
9113.000000;0.858819
9112.000000;0.859187
9111.000000;0.859359
9110.000000;0.859325
9109.000000;0.859176
9108.000000;0.858930
9107.000000;0.858530
9106.000000;0.858011
9105.000000;0.857540
9104.000000;0.857162
9103.000000;0.856636
9102.000000;0.855767
9101.000000;0.854840
9100.000000;0.854436
9099.000000;0.854745
9098.000000;0.855307
9097.000000;0.855528
9096.000000;0.855290
9095.000000;0.854928
9094.000000;0.854738
9093.000000;0.854655
9092.000000;0.854349
9091.000000;0.853555
9090.000000;0.852367
9089.000000;0.851242
9088.000000;0.850636
9087.000000;0.850575
9086.000000;0.850673
9085.000000;0.850562
9084.000000;0.850219
9083.000000;0.849863
9082.000000;0.849698
9081.000000;0.849785
9080.000000;0.849978
9079.000000;0.849918
9078.000000;0.849293
9077.000000;0.848262
9076.000000;0.847465
9075.000000;0.847428
9074.000000;0.848030
9073.000000;0.848698
9072.000000;0.849032
9071.000000;0.849077
9070.000000;0.849034
9069.000000;0.848941
9068.000000;0.848711
9067.000000;0.848305
9066.000000;0.847772
9065.000000;0.847138
9064.000000;0.846342
9063.000000;0.845341
9062.000000;0.844298
9061.000000;0.843616
9060.000000;0.843644
9059.000000;0.844290
9058.000000;0.845013
9057.000000;0.845303
9056.000000;0.845120
9055.000000;0.844785
9054.000000;0.844504
9053.000000;0.844177
