Criado como novo conjunto de dados;"1909daniel.spp","-4244562.4 Secs"
cm-1;Abs
10000.000000;1.753662
9999.000000;1.748784
9998.000000;1.745189
9997.000000;1.743540
9996.000000;1.744091
9995.000000;1.746330
9994.000000;1.749175
9993.000000;1.751620
9992.000000;1.753214
9991.000000;1.754047
9990.000000;1.754337
9989.000000;1.754061
9988.000000;1.753114
9987.000000;1.751825
9986.000000;1.750969
9985.000000;1.751036
9984.000000;1.751632
9983.000000;1.751828
9982.000000;1.750971
9981.000000;1.749048
9980.000000;1.746500
9979.000000;1.743992
9978.000000;1.742271
9977.000000;1.741658
9976.000000;1.741537
9975.000000;1.740805
9974.000000;1.739122
9973.000000;1.737498
9972.000000;1.737324
9971.000000;1.738873
9970.000000;1.740812
9969.000000;1.741274
9968.000000;1.739594
9967.000000;1.736940
9966.000000;1.735146
9965.000000;1.734984
9964.000000;1.735644
9963.000000;1.735685
9962.000000;1.734272
9961.000000;1.731757
9960.000000;1.729462
9959.000000;1.728835
9958.000000;1.730269
9957.000000;1.732602
9956.000000;1.734180
9955.000000;1.734526
9954.000000;1.734501
9953.000000;1.734710
9952.000000;1.734505
9951.000000;1.732993
9950.000000;1.730496
9949.000000;1.728397
9948.000000;1.727666
9947.000000;1.727900
9946.000000;1.727788
9945.000000;1.726332
9944.000000;1.723669
9943.000000;1.720918
9942.000000;1.719288
9941.000000;1.719225
9940.000000;1.720197
9939.000000;1.721129
9938.000000;1.721084
9937.000000;1.719768
9936.000000;1.717777
9935.000000;1.716352
9934.000000;1.716404
9933.000000;1.717443
9932.000000;1.717795
9931.000000;1.716234
9930.000000;1.713131
9929.000000;1.709612
9928.000000;1.706091
9927.000000;1.702461
9926.000000;1.699340
9925.000000;1.698033
9924.000000;1.698995
9923.000000;1.700949
9922.000000;1.702139
9921.000000;1.702326
9920.000000;1.702930
9919.000000;1.705136
9918.000000;1.708370
9917.000000;1.710726
9916.000000;1.710600
9915.000000;1.707836
9914.000000;1.703704
9913.000000;1.700081
9912.000000;1.698314
9911.000000;1.698287
9910.000000;1.698563
9909.000000;1.697875
9908.000000;1.696434
9907.000000;1.695312
9906.000000;1.694773
9905.000000;1.693964
9904.000000;1.692350
9903.000000;1.690605
9902.000000;1.689620
9901.000000;1.689220
9900.000000;1.688523
9899.000000;1.687288
9898.000000;1.686227
9897.000000;1.686025
9896.000000;1.686539
9895.000000;1.687029
9894.000000;1.686847
9893.000000;1.685891
9892.000000;1.684604
9891.000000;1.683518
9890.000000;1.682737
9889.000000;1.681963
9888.000000;1.681036
9887.000000;1.680122
9886.000000;1.679357
9885.000000;1.678805
9884.000000;1.678936
9883.000000;1.680413
9882.000000;1.682832
9881.000000;1.684359
9880.000000;1.683622
9879.000000;1.681503
9878.000000;1.680049
9877.000000;1.679930
9876.000000;1.679973
9875.000000;1.679150
9874.000000;1.677919
9873.000000;1.677303
9872.000000;1.677599
9871.000000;1.678230
9870.000000;1.678313
9869.000000;1.677228
9868.000000;1.674987
9867.000000;1.672292
9866.000000;1.669863
9865.000000;1.667520
9864.000000;1.664552
9863.000000;1.661130
9862.000000;1.658579
9861.000000;1.658059
9860.000000;1.659354
9859.000000;1.661109
9858.000000;1.662009
9857.000000;1.661602
9856.000000;1.660347
9855.000000;1.659060
9854.000000;1.658069
9853.000000;1.656949
9852.000000;1.655330
9851.000000;1.653622
9850.000000;1.652432
9849.000000;1.651540
9848.000000;1.650194
9847.000000;1.648366
9846.000000;1.647013
9845.000000;1.646970
9844.000000;1.648195
9843.000000;1.650121
9842.000000;1.652030
9841.000000;1.652972
9840.000000;1.652176
9839.000000;1.649920
9838.000000;1.647366
9837.000000;1.645360
9836.000000;1.644016
9835.000000;1.643442
9834.000000;1.643940
9833.000000;1.645147
9832.000000;1.645837
9831.000000;1.645214
9830.000000;1.643859
9829.000000;1.642823
9828.000000;1.642347
9827.000000;1.641939
9826.000000;1.641134
9825.000000;1.639628
9824.000000;1.637255
9823.000000;1.634427
9822.000000;1.632154
9821.000000;1.631064
9820.000000;1.630786
9819.000000;1.630694
9818.000000;1.630735
9817.000000;1.630993
9816.000000;1.631045
9815.000000;1.630510
9814.000000;1.629773
9813.000000;1.629370
9812.000000;1.628967
9811.000000;1.627753
9810.000000;1.625689
9809.000000;1.623633
9808.000000;1.622274
9807.000000;1.621662
9806.000000;1.621653
9805.000000;1.622136
9804.000000;1.622758
9803.000000;1.623028
9802.000000;1.622888
9801.000000;1.622803
9800.000000;1.623111
9799.000000;1.623603
9798.000000;1.623803
9797.000000;1.623344
9796.000000;1.622063
9795.000000;1.620065
9794.000000;1.617737
9793.000000;1.615564
9792.000000;1.613979
9791.000000;1.613267
9790.000000;1.613280
9789.000000;1.613083
9788.000000;1.611280
9787.000000;1.607374
9786.000000;1.602802
9785.000000;1.600041
9784.000000;1.600550
9783.000000;1.603721
9782.000000;1.607713
9781.000000;1.611090
9780.000000;1.613673
9779.000000;1.615930
9778.000000;1.617720
9777.000000;1.617964
9776.000000;1.615824
9775.000000;1.612008
9774.000000;1.608327
9773.000000;1.605767
9772.000000;1.603714
9771.000000;1.601390
9770.000000;1.599198
9769.000000;1.597885
9768.000000;1.596933
9767.000000;1.594985
9766.000000;1.591922
9765.000000;1.589517
9764.000000;1.589598
9763.000000;1.592124
9762.000000;1.595366
9761.000000;1.597455
9760.000000;1.597516
9759.000000;1.595791
9758.000000;1.593171
9757.000000;1.590581
9756.000000;1.588429
9755.000000;1.586512
9754.000000;1.584525
9753.000000;1.582570
9752.000000;1.581050
9751.000000;1.580158
9750.000000;1.579685
9749.000000;1.579361
9748.000000;1.579288
9747.000000;1.579843
9746.000000;1.581054
9745.000000;1.582148
9744.000000;1.582051
9743.000000;1.580374
9742.000000;1.577661
9741.000000;1.574724
9740.000000;1.572152
9739.000000;1.570516
9738.000000;1.570397
9737.000000;1.571620
9736.000000;1.572869
9735.000000;1.572887
9734.000000;1.571955
9733.000000;1.571395
9732.000000;1.571513
9731.000000;1.570988
9730.000000;1.568705
9729.000000;1.565452
9728.000000;1.563042
9727.000000;1.562256
9726.000000;1.562413
9725.000000;1.562718
9724.000000;1.563169
9723.000000;1.563906
9722.000000;1.564358
9721.000000;1.563681
9720.000000;1.561860
9719.000000;1.559896
9718.000000;1.558857
9717.000000;1.558796
9716.000000;1.558652
9715.000000;1.557528
9714.000000;1.555972
9713.000000;1.555627
9712.000000;1.557331
9711.000000;1.559712
9710.000000;1.560233
9709.000000;1.557889
9708.000000;1.554319
9707.000000;1.551912
9706.000000;1.551475
9705.000000;1.552134
9704.000000;1.552813
9703.000000;1.553012
9702.000000;1.552432
9701.000000;1.550875
9700.000000;1.548714
9699.000000;1.546769
9698.000000;1.545436
9697.000000;1.544486
9696.000000;1.543838
9695.000000;1.543862
9694.000000;1.544556
9693.000000;1.545208
9692.000000;1.545472
9691.000000;1.546060
9690.000000;1.547497
9689.000000;1.548781
9688.000000;1.548313
9687.000000;1.545945
9686.000000;1.543096
9685.000000;1.540816
9684.000000;1.538903
9683.000000;1.537137
9682.000000;1.536139
9681.000000;1.536344
9680.000000;1.536852
9679.000000;1.536185
9678.000000;1.534038
9677.000000;1.531687
9676.000000;1.530670
9675.000000;1.531400
9674.000000;1.532913
9673.000000;1.533674
9672.000000;1.532811
9671.000000;1.530816
9670.000000;1.528962
9669.000000;1.528063
9668.000000;1.527969
9667.000000;1.528211
9666.000000;1.528703
9665.000000;1.529496
9664.000000;1.530214
9663.000000;1.530230
9662.000000;1.529332
9661.000000;1.527941
9660.000000;1.526639
9659.000000;1.525650
9658.000000;1.524685
9657.000000;1.523221
9656.000000;1.521090
9655.000000;1.518874
9654.000000;1.517523
9653.000000;1.517405
9652.000000;1.517899
9651.000000;1.518010
9650.000000;1.517191
9649.000000;1.515648
9648.000000;1.514129
9647.000000;1.513555
9646.000000;1.514388
9645.000000;1.515985
9644.000000;1.516907
9643.000000;1.516205
9642.000000;1.514151
9641.000000;1.511508
9640.000000;1.508707
9639.000000;1.506189
9638.000000;1.504899
9637.000000;1.505585
9636.000000;1.507717
9635.000000;1.509784
9634.000000;1.510704
9633.000000;1.510420
9632.000000;1.509228
9631.000000;1.507264
9630.000000;1.504849
9629.000000;1.502723
9628.000000;1.501532
9627.000000;1.501322
9626.000000;1.501717
9625.000000;1.502267
9624.000000;1.502493
9623.000000;1.501968
9622.000000;1.500638
9621.000000;1.499024
9620.000000;1.497918
9619.000000;1.497743
9618.000000;1.498104
9617.000000;1.497930
9616.000000;1.496306
9615.000000;1.493454
9614.000000;1.490777
9613.000000;1.489569
9612.000000;1.489774
9611.000000;1.490369
9610.000000;1.490789
9609.000000;1.491301
9608.000000;1.492032
9607.000000;1.492507
9606.000000;1.492469
9605.000000;1.492354
9604.000000;1.492357
9603.000000;1.491694
9602.000000;1.489568
9601.000000;1.486560
9600.000000;1.484129
9599.000000;1.482794
9598.000000;1.481735
9597.000000;1.480276
9596.000000;1.478872
9595.000000;1.478334
9594.000000;1.478813
9593.000000;1.479953
9592.000000;1.481346
9591.000000;1.482287
9590.000000;1.481713
9589.000000;1.479267
9588.000000;1.476271
9587.000000;1.474804
9586.000000;1.475639
9585.000000;1.477562
9584.000000;1.478654
9583.000000;1.477790
9582.000000;1.475090
9581.000000;1.471638
9580.000000;1.468992
9579.000000;1.468368
9578.000000;1.469731
9577.000000;1.471828
9576.000000;1.473343
9575.000000;1.473849
9574.000000;1.473563
9573.000000;1.472768
9572.000000;1.471867
9571.000000;1.471393
9570.000000;1.471288
9569.000000;1.470503
9568.000000;1.468093
9567.000000;1.464623
9566.000000;1.461749
9565.000000;1.460369
9564.000000;1.459809
9563.000000;1.458964
9562.000000;1.457697
9561.000000;1.456779
9560.000000;1.456791
9559.000000;1.457531
9558.000000;1.458327
9557.000000;1.458605
9556.000000;1.458234
9555.000000;1.457517
9554.000000;1.456880
9553.000000;1.456454
9552.000000;1.455993
9551.000000;1.455199
9550.000000;1.454089
9549.000000;1.453041
9548.000000;1.452506
9547.000000;1.452541
9546.000000;1.452576
9545.000000;1.451902
9544.000000;1.450612
9543.000000;1.449747
9542.000000;1.450008
9541.000000;1.450504
9540.000000;1.449478
9539.000000;1.446503
9538.000000;1.443292
9537.000000;1.441822
9536.000000;1.442253
9535.000000;1.443206
9534.000000;1.443694
9533.000000;1.444087
9532.000000;1.445111
9531.000000;1.446544
9530.000000;1.447321
9529.000000;1.446657
9528.000000;1.444718
9527.000000;1.442283
9526.000000;1.440076
9525.000000;1.438463
9524.000000;1.437530
9523.000000;1.437200
9522.000000;1.437228
9521.000000;1.437206
9520.000000;1.436774
9519.000000;1.435916
9518.000000;1.434931
9517.000000;1.434060
9516.000000;1.433221
9515.000000;1.432180
9514.000000;1.430976
9513.000000;1.430095
9512.000000;1.430065
9511.000000;1.430853
9510.000000;1.431743
9509.000000;1.431898
9508.000000;1.431062
9507.000000;1.429725
9506.000000;1.428678
9505.000000;1.428447
9504.000000;1.429007
9503.000000;1.429830
9502.000000;1.430165
9501.000000;1.429490
9500.000000;1.427827
9499.000000;1.425664
9498.000000;1.423667
9497.000000;1.422434
9496.000000;1.422205
9495.000000;1.422509
9494.000000;1.422300
9493.000000;1.420970
9492.000000;1.419259
9491.000000;1.418561
9490.000000;1.419130
9489.000000;1.419562
9488.000000;1.418471
9487.000000;1.416295
9486.000000;1.414760
9485.000000;1.414792
9484.000000;1.415608
9483.000000;1.415813
9482.000000;1.414886
9481.000000;1.413454
9480.000000;1.412420
9479.000000;1.412006
9478.000000;1.411500
9477.000000;1.410004
9476.000000;1.407597
9475.000000;1.405501
9474.000000;1.404835
9473.000000;1.405428
9472.000000;1.406213
9471.000000;1.406570
9470.000000;1.406752
9469.000000;1.407102
9468.000000;1.407528
9467.000000;1.407870
9466.000000;1.408163
9465.000000;1.408252
9464.000000;1.407602
9463.000000;1.405895
9462.000000;1.403605
9461.000000;1.401723
9460.000000;1.400962
9459.000000;1.401171
9458.000000;1.401338
9457.000000;1.400316
9456.000000;1.397980
9455.000000;1.395575
9454.000000;1.394555
9453.000000;1.395167
9452.000000;1.396546
9451.000000;1.397954
9450.000000;1.399173
9449.000000;1.399706
9448.000000;1.398694
9447.000000;1.396198
9446.000000;1.393753
9445.000000;1.392831
9444.000000;1.393178
9443.000000;1.393335
9442.000000;1.392577
9441.000000;1.391635
9440.000000;1.391513
9439.000000;1.392197
9438.000000;1.392759
9437.000000;1.392427
9436.000000;1.391227
9435.000000;1.389687
9434.000000;1.388160
9433.000000;1.386598
9432.000000;1.384943
9431.000000;1.383461
9430.000000;1.382454
9429.000000;1.381863
9428.000000;1.381532
9427.000000;1.381671
9426.000000;1.382546
9425.000000;1.383751
9424.000000;1.384417
9423.000000;1.384261
9422.000000;1.383801
9421.000000;1.383352
9420.000000;1.382471
9419.000000;1.380696
9418.000000;1.378276
9417.000000;1.375819
9416.000000;1.373835
9415.000000;1.373002
9414.000000;1.374025
9413.000000;1.376491
9412.000000;1.378505
9411.000000;1.378410
9410.000000;1.376648
9409.000000;1.375051
9408.000000;1.374578
9407.000000;1.374644
9406.000000;1.374432
9405.000000;1.373869
9404.000000;1.373186
9403.000000;1.372366
9402.000000;1.371416
9401.000000;1.370631
9400.000000;1.370309
9399.000000;1.370469
9398.000000;1.370914
9397.000000;1.371217
9396.000000;1.370727
9395.000000;1.369140
9394.000000;1.367109
9393.000000;1.365749
9392.000000;1.365399
9391.000000;1.365325
9390.000000;1.364718
9389.000000;1.363555
9388.000000;1.362398
9387.000000;1.361863
9386.000000;1.362413
9385.000000;1.364096
9384.000000;1.366185
9383.000000;1.367483
9382.000000;1.367345
9381.000000;1.366101
9380.000000;1.364320
9379.000000;1.362124
9378.000000;1.359570
9377.000000;1.357230
9376.000000;1.355794
9375.000000;1.355266
9374.000000;1.355001
9373.000000;1.354497
9372.000000;1.353932
9371.000000;1.353896
9370.000000;1.354729
9369.000000;1.356048
9368.000000;1.356884
9367.000000;1.356494
9366.000000;1.355061
9365.000000;1.353372
9364.000000;1.351849
9363.000000;1.350284
9362.000000;1.348591
9361.000000;1.347232
9360.000000;1.346572
9359.000000;1.346285
9358.000000;1.345861
9357.000000;1.345376
9356.000000;1.345225
9355.000000;1.345317
9354.000000;1.345169
9353.000000;1.344768
9352.000000;1.344730
9351.000000;1.345396
9350.000000;1.346206
9349.000000;1.346276
9348.000000;1.345314
9347.000000;1.343719
9346.000000;1.341959
9345.000000;1.340154
9344.000000;1.338254
9343.000000;1.336448
9342.000000;1.335290
9341.000000;1.335314
9340.000000;1.336422
9339.000000;1.337717
9338.000000;1.338205
9337.000000;1.337754
9336.000000;1.337166
9335.000000;1.337197
9334.000000;1.337717
9333.000000;1.337949
9332.000000;1.337403
9331.000000;1.336364
9330.000000;1.335522
9329.000000;1.335343
9328.000000;1.335727
9327.000000;1.336027
9326.000000;1.335419
9325.000000;1.333620
9324.000000;1.331365
9323.000000;1.329877
9322.000000;1.329752
9321.000000;1.330514
9320.000000;1.331347
9319.000000;1.331922
9318.000000;1.332249
9317.000000;1.332100
9316.000000;1.331179
9315.000000;1.329726
9314.000000;1.328304
9313.000000;1.326946
9312.000000;1.325154
9311.000000;1.322966
9310.000000;1.321422
9309.000000;1.321454
9308.000000;1.322661
9307.000000;1.323667
9306.000000;1.323598
9305.000000;1.322811
9304.000000;1.322209
9303.000000;1.322204
9302.000000;1.322356
9301.000000;1.321804
9300.000000;1.320153
9299.000000;1.318159
9298.000000;1.317274
9297.000000;1.318174
9296.000000;1.319822
9295.000000;1.320408
9294.000000;1.319275
9293.000000;1.317498
9292.000000;1.316583
9291.000000;1.317083
9290.000000;1.318377
9289.000000;1.319276
9288.000000;1.318748
9287.000000;1.316678
9286.000000;1.314240
9285.000000;1.313129
9284.000000;1.314046
9283.000000;1.316002
9282.000000;1.317239
9281.000000;1.316701
9280.000000;1.314603
9279.000000;1.311995
9278.000000;1.310053
9277.000000;1.309470
9276.000000;1.310066
9275.000000;1.311034
9274.000000;1.311760
9273.000000;1.312212
9272.000000;1.312406
9271.000000;1.311904
9270.000000;1.310352
9269.000000;1.308320
9268.000000;1.306967
9267.000000;1.306770
9266.000000;1.307080
9265.000000;1.307077
9264.000000;1.306701
9263.000000;1.306394
9262.000000;1.306303
9261.000000;1.306155
9260.000000;1.305759
9259.000000;1.305277
9258.000000;1.304924
9257.000000;1.304639
9256.000000;1.304168
9255.000000;1.303422
9254.000000;1.302635
9253.000000;1.302117
9252.000000;1.301938
9251.000000;1.301931
9250.000000;1.301946
9249.000000;1.302007
9248.000000;1.302216
9247.000000;1.302590
9246.000000;1.302959
9245.000000;1.302940
9244.000000;1.302129
9243.000000;1.300630
9242.000000;1.299328
9241.000000;1.299180
9240.000000;1.300034
9239.000000;1.300570
9238.000000;1.299734
9237.000000;1.298003
9236.000000;1.296733
9235.000000;1.296468
9234.000000;1.296496
9233.000000;1.296050
9232.000000;1.295303
9231.000000;1.294898
9230.000000;1.294903
9229.000000;1.294762
9228.000000;1.294173
9227.000000;1.293593
9226.000000;1.293693
9225.000000;1.294503
9224.000000;1.295236
9223.000000;1.294976
9222.000000;1.293544
9221.000000;1.291634
9220.000000;1.290130
9219.000000;1.289415
9218.000000;1.289378
9217.000000;1.289820
9216.000000;1.290560
9215.000000;1.291197
9214.000000;1.291156
9213.000000;1.290212
9212.000000;1.288793
9211.000000;1.287596
9210.000000;1.286983
9209.000000;1.286831
9208.000000;1.286816
9207.000000;1.286675
9206.000000;1.286296
9205.000000;1.285739
9204.000000;1.285193
9203.000000;1.284777
9202.000000;1.284368
9201.000000;1.283731
9200.000000;1.282853
9199.000000;1.282042
9198.000000;1.281646
9197.000000;1.281710
9196.000000;1.281958
9195.000000;1.282106
9194.000000;1.282176
9193.000000;1.282421
9192.000000;1.282871
9191.000000;1.283113
9190.000000;1.282696
9189.000000;1.281694
9188.000000;1.280630
9187.000000;1.279827
9186.000000;1.279091
9185.000000;1.278153
9184.000000;1.277174
9183.000000;1.276586
9182.000000;1.276598
9181.000000;1.277028
9180.000000;1.277539
9179.000000;1.277829
9178.000000;1.277670
9177.000000;1.276998
9176.000000;1.276023
9175.000000;1.275113
9174.000000;1.274502
9173.000000;1.274146
9172.000000;1.273865
9171.000000;1.273552
9170.000000;1.273289
9169.000000;1.273249
9168.000000;1.273435
9167.000000;1.273521
9166.000000;1.273147
9165.000000;1.272450
9164.000000;1.272046
9163.000000;1.272257
9162.000000;1.272529
9161.000000;1.271938
9160.000000;1.270232
9159.000000;1.268089
9158.000000;1.266394
9157.000000;1.265566
9156.000000;1.265561
9155.000000;1.266120
9154.000000;1.266835
9153.000000;1.267238
9152.000000;1.267143
9151.000000;1.266836
9150.000000;1.266744
9149.000000;1.266905
9148.000000;1.266868
9147.000000;1.266144
9146.000000;1.264756
9145.000000;1.263349
9144.000000;1.262644
9143.000000;1.262692
9142.000000;1.262812
9141.000000;1.262458
9140.000000;1.261983
9139.000000;1.262173
9138.000000;1.263103
9137.000000;1.263957
9136.000000;1.264137
9135.000000;1.264047
9134.000000;1.264370
9133.000000;1.264920
9132.000000;1.264754
9131.000000;1.263394
9130.000000;1.261467
9129.000000;1.259997
9128.000000;1.259393
9127.000000;1.259256
9126.000000;1.259014
9125.000000;1.258559
9124.000000;1.258285
9123.000000;1.258560
9122.000000;1.259219
9121.000000;1.259647
9120.000000;1.259411
9119.000000;1.258742
9118.000000;1.258303
9117.000000;1.258525
9116.000000;1.259224
9115.000000;1.259791
9114.000000;1.259610
9113.000000;1.258389
9112.000000;1.256317
9111.000000;1.254021
9110.000000;1.252287
9109.000000;1.251639
9108.000000;1.252049
9107.000000;1.252976
9106.000000;1.253775
9105.000000;1.254136
9104.000000;1.254096
9103.000000;1.253669
9102.000000;1.252637
9101.000000;1.250950
9100.000000;1.249186
9099.000000;1.248199
9098.000000;1.248215
9097.000000;1.248627
9096.000000;1.248832
9095.000000;1.248955
9094.000000;1.249460
9093.000000;1.250295
9092.000000;1.250864
9091.000000;1.250734
9090.000000;1.250024
9089.000000;1.249015
9088.000000;1.247754
9087.000000;1.246244
9086.000000;1.244788
9085.000000;1.243922
9084.000000;1.243982
9083.000000;1.244806
9082.000000;1.245792
9081.000000;1.246303
9080.000000;1.246117
9079.000000;1.245523
9078.000000;1.245010
9077.000000;1.244922
9076.000000;1.245378
9075.000000;1.246253
9074.000000;1.247080
9073.000000;1.247165
9072.000000;1.246159
9071.000000;1.244507
9070.000000;1.243117
9069.000000;1.242498
9068.000000;1.242392
9067.000000;1.242296
9066.000000;1.242064
9065.000000;1.241843
9064.000000;1.241588
9063.000000;1.241000
9062.000000;1.240005
9061.000000;1.239036
9060.000000;1.238610
9059.000000;1.238659
9058.000000;1.238568
9057.000000;1.237935
9056.000000;1.237077
9055.000000;1.236628
9054.000000;1.236857
9053.000000;1.237666
