Criado como novo conjunto de dados;"1909daniel.spp","-4250502.9 Secs"
cm-1;Abs
10000.000000;1.569325
9999.000000;1.568899
9998.000000;1.567529
9997.000000;1.565294
9996.000000;1.563212
9995.000000;1.562099
9994.000000;1.561757
9993.000000;1.561350
9992.000000;1.560453
9991.000000;1.559494
9990.000000;1.559045
9989.000000;1.558960
9988.000000;1.558515
9987.000000;1.557344
9986.000000;1.555958
9985.000000;1.555203
9984.000000;1.555358
9983.000000;1.555842
9982.000000;1.555759
9981.000000;1.554789
9980.000000;1.553581
9979.000000;1.553072
9978.000000;1.553304
9977.000000;1.553225
9976.000000;1.552055
9975.000000;1.550537
9974.000000;1.550166
9973.000000;1.551195
9972.000000;1.552189
9971.000000;1.551718
9970.000000;1.549848
9969.000000;1.547640
9968.000000;1.545809
9967.000000;1.544309
9966.000000;1.542854
9965.000000;1.541362
9964.000000;1.540050
9963.000000;1.539367
9962.000000;1.539591
9961.000000;1.540285
9960.000000;1.540521
9959.000000;1.539965
9958.000000;1.539340
9957.000000;1.539379
9956.000000;1.539712
9955.000000;1.539313
9954.000000;1.537798
9953.000000;1.535675
9952.000000;1.533547
9951.000000;1.531828
9950.000000;1.531011
9949.000000;1.531378
9948.000000;1.532437
9947.000000;1.533228
9946.000000;1.533322
9945.000000;1.532969
9944.000000;1.532228
9943.000000;1.530687
9942.000000;1.528342
9941.000000;1.526055
9940.000000;1.524601
9939.000000;1.523729
9938.000000;1.522677
9937.000000;1.521339
9936.000000;1.520314
9935.000000;1.519903
9934.000000;1.519655
9933.000000;1.519057
9932.000000;1.518248
9931.000000;1.517801
9930.000000;1.518042
9929.000000;1.518791
9928.000000;1.519616
9927.000000;1.520070
9926.000000;1.519737
9925.000000;1.518382
9924.000000;1.516324
9923.000000;1.514571
9922.000000;1.514279
9921.000000;1.515793
9920.000000;1.518059
9919.000000;1.519105
9918.000000;1.517529
9917.000000;1.513785
9916.000000;1.509888
9915.000000;1.507697
9914.000000;1.507393
9913.000000;1.507663
9912.000000;1.507203
9911.000000;1.505746
9910.000000;1.503635
9909.000000;1.501083
9908.000000;1.498388
9907.000000;1.496436
9906.000000;1.496134
9905.000000;1.497315
9904.000000;1.498758
9903.000000;1.499441
9902.000000;1.499354
9901.000000;1.498993
9900.000000;1.498685
9899.000000;1.498724
9898.000000;1.499499
9897.000000;1.500907
9896.000000;1.502022
9895.000000;1.501934
9894.000000;1.500760
9893.000000;1.499346
9892.000000;1.498223
9891.000000;1.497341
9890.000000;1.496607
9889.000000;1.496097
9888.000000;1.495656
9887.000000;1.494711
9886.000000;1.492724
9885.000000;1.489756
9884.000000;1.486607
9883.000000;1.484379
9882.000000;1.483615
9881.000000;1.483734
9880.000000;1.483553
9879.000000;1.482573
9878.000000;1.481437
9877.000000;1.480863
9876.000000;1.480587
9875.000000;1.479862
9874.000000;1.478604
9873.000000;1.477437
9872.000000;1.476787
9871.000000;1.476433
9870.000000;1.475898
9869.000000;1.474957
9868.000000;1.473796
9867.000000;1.472901
9866.000000;1.472637
9865.000000;1.472733
9864.000000;1.472499
9863.000000;1.471756
9862.000000;1.471070
9861.000000;1.470771
9860.000000;1.470402
9859.000000;1.469639
9858.000000;1.468993
9857.000000;1.468793
9856.000000;1.468128
9855.000000;1.465966
9854.000000;1.462956
9853.000000;1.460776
9852.000000;1.459879
9851.000000;1.459214
9850.000000;1.458246
9849.000000;1.457949
9848.000000;1.459254
9847.000000;1.461547
9846.000000;1.463324
9845.000000;1.463650
9844.000000;1.462503
9843.000000;1.460391
9842.000000;1.458241
9841.000000;1.457024
9840.000000;1.456847
9839.000000;1.456789
9838.000000;1.456015
9837.000000;1.454661
9836.000000;1.453333
9835.000000;1.452315
9834.000000;1.451681
9833.000000;1.451570
9832.000000;1.451879
9831.000000;1.452187
9830.000000;1.452419
9829.000000;1.452991
9828.000000;1.453847
9827.000000;1.453972
9826.000000;1.452575
9825.000000;1.450294
9824.000000;1.448539
9823.000000;1.447937
9822.000000;1.448019
9821.000000;1.448055
9820.000000;1.447625
9819.000000;1.446611
9818.000000;1.445195
9817.000000;1.443754
9816.000000;1.442479
9815.000000;1.441391
9814.000000;1.440865
9813.000000;1.441500
9812.000000;1.443059
9811.000000;1.444185
9810.000000;1.443826
9809.000000;1.442368
9808.000000;1.440650
9807.000000;1.438631
9806.000000;1.436041
9805.000000;1.433692
9804.000000;1.432889
9803.000000;1.433668
9802.000000;1.434683
9801.000000;1.434843
9800.000000;1.434151
9799.000000;1.432940
9798.000000;1.431354
9797.000000;1.429793
9796.000000;1.428885
9795.000000;1.428609
9794.000000;1.428137
9793.000000;1.426860
9792.000000;1.425000
9791.000000;1.423077
9790.000000;1.421479
9789.000000;1.420720
9788.000000;1.421200
9787.000000;1.422300
9786.000000;1.422471
9785.000000;1.420857
9784.000000;1.418255
9783.000000;1.415944
9782.000000;1.414202
9781.000000;1.412680
9780.000000;1.411616
9779.000000;1.411721
9778.000000;1.412903
9777.000000;1.413898
9776.000000;1.413451
9775.000000;1.411606
9774.000000;1.409614
9773.000000;1.408778
9772.000000;1.409387
9771.000000;1.410529
9770.000000;1.410849
9769.000000;1.409713
9768.000000;1.407674
9767.000000;1.405791
9766.000000;1.404611
9765.000000;1.403889
9764.000000;1.403093
9763.000000;1.402013
9762.000000;1.400923
9761.000000;1.400342
9760.000000;1.400628
9759.000000;1.401676
9758.000000;1.402949
9757.000000;1.403785
9756.000000;1.403710
9755.000000;1.402615
9754.000000;1.400850
9753.000000;1.399091
9752.000000;1.397855
9751.000000;1.397053
9750.000000;1.396224
9749.000000;1.395185
9748.000000;1.394161
9747.000000;1.393206
9746.000000;1.391907
9745.000000;1.389990
9744.000000;1.387961
9743.000000;1.386758
9742.000000;1.386862
9741.000000;1.387924
9740.000000;1.389155
9739.000000;1.389874
9738.000000;1.389808
9737.000000;1.389144
9736.000000;1.388345
9735.000000;1.387763
9734.000000;1.387332
9733.000000;1.386660
9732.000000;1.385402
9731.000000;1.383538
9730.000000;1.381432
9729.000000;1.379685
9728.000000;1.378813
9727.000000;1.378875
9726.000000;1.379408
9725.000000;1.379774
9724.000000;1.379504
9723.000000;1.378363
9722.000000;1.376407
9721.000000;1.374186
9720.000000;1.372719
9719.000000;1.372815
9718.000000;1.374275
9717.000000;1.376018
9716.000000;1.377096
9715.000000;1.377388
9714.000000;1.377253
9713.000000;1.376818
9712.000000;1.375939
9711.000000;1.374645
9710.000000;1.373207
9709.000000;1.371771
9708.000000;1.370223
9707.000000;1.368467
9706.000000;1.366677
9705.000000;1.365148
9704.000000;1.364067
9703.000000;1.363533
9702.000000;1.363606
9701.000000;1.364068
9700.000000;1.364286
9699.000000;1.363626
9698.000000;1.362069
9697.000000;1.360201
9696.000000;1.358562
9695.000000;1.357217
9694.000000;1.356055
9693.000000;1.355195
9692.000000;1.354836
9691.000000;1.354741
9690.000000;1.354135
9689.000000;1.352390
9688.000000;1.349844
9687.000000;1.347701
9686.000000;1.347036
9685.000000;1.347898
9684.000000;1.349389
9683.000000;1.350566
9682.000000;1.351089
9681.000000;1.350999
9680.000000;1.350275
9679.000000;1.348886
9678.000000;1.347054
9677.000000;1.345139
9676.000000;1.343343
9675.000000;1.341783
9674.000000;1.340730
9673.000000;1.340402
9672.000000;1.340584
9671.000000;1.340802
9670.000000;1.340814
9669.000000;1.340550
9668.000000;1.339793
9667.000000;1.338517
9666.000000;1.337458
9665.000000;1.337528
9664.000000;1.338405
9663.000000;1.338455
9662.000000;1.336655
9661.000000;1.334049
9660.000000;1.332596
9659.000000;1.332978
9658.000000;1.334213
9657.000000;1.335050
9656.000000;1.334998
9655.000000;1.334094
9654.000000;1.332498
9653.000000;1.330569
9652.000000;1.328844
9651.000000;1.327690
9650.000000;1.327210
9649.000000;1.327415
9648.000000;1.328106
9647.000000;1.328610
9646.000000;1.328193
9645.000000;1.326936
9644.000000;1.325804
9643.000000;1.325605
9642.000000;1.326098
9641.000000;1.326234
9640.000000;1.325122
9639.000000;1.322844
9638.000000;1.320566
9637.000000;1.319744
9636.000000;1.320787
9635.000000;1.322419
9634.000000;1.322764
9633.000000;1.321253
9632.000000;1.319082
9631.000000;1.317609
9630.000000;1.316888
9629.000000;1.316124
9628.000000;1.315068
9627.000000;1.314332
9626.000000;1.314420
9625.000000;1.314911
9624.000000;1.314729
9623.000000;1.313148
9622.000000;1.310549
9621.000000;1.308226
9620.000000;1.307297
9619.000000;1.307725
9618.000000;1.308502
9617.000000;1.308738
9616.000000;1.308254
9615.000000;1.307118
9614.000000;1.305239
9613.000000;1.302897
9612.000000;1.301171
9611.000000;1.301053
9610.000000;1.302227
9609.000000;1.303348
9608.000000;1.303647
9607.000000;1.303707
9606.000000;1.304318
9605.000000;1.305151
9604.000000;1.305121
9603.000000;1.303782
9602.000000;1.301783
9601.000000;1.299946
9600.000000;1.298461
9599.000000;1.297164
9598.000000;1.296087
9597.000000;1.295322
9596.000000;1.294648
9595.000000;1.293839
9594.000000;1.293194
9593.000000;1.293272
9592.000000;1.294021
9591.000000;1.294574
9590.000000;1.294164
9589.000000;1.293007
9588.000000;1.292021
9587.000000;1.291816
9586.000000;1.292207
9585.000000;1.292543
9584.000000;1.292186
9583.000000;1.290820
9582.000000;1.288704
9581.000000;1.286691
9580.000000;1.285723
9579.000000;1.286038
9578.000000;1.286884
9577.000000;1.287105
9576.000000;1.286066
9575.000000;1.284106
9574.000000;1.282143
9573.000000;1.280844
9572.000000;1.280125
9571.000000;1.279433
9570.000000;1.278444
9569.000000;1.277356
9568.000000;1.276544
9567.000000;1.276168
9566.000000;1.276176
9565.000000;1.276407
9564.000000;1.276518
9563.000000;1.276132
9562.000000;1.275333
9561.000000;1.274767
9560.000000;1.274931
9559.000000;1.275528
9558.000000;1.275790
9557.000000;1.275219
9556.000000;1.273710
9555.000000;1.271294
9554.000000;1.268373
9553.000000;1.266001
9552.000000;1.265145
9551.000000;1.265504
9550.000000;1.265613
9549.000000;1.264501
9548.000000;1.262893
9547.000000;1.262419
9546.000000;1.263882
9545.000000;1.266524
9544.000000;1.268713
9543.000000;1.269158
9542.000000;1.267692
9541.000000;1.265122
9540.000000;1.262337
9539.000000;1.259647
9538.000000;1.257073
9537.000000;1.255039
9536.000000;1.254233
9535.000000;1.254725
9534.000000;1.255685
9533.000000;1.256258
9532.000000;1.256382
9531.000000;1.256494
9530.000000;1.256777
9529.000000;1.257032
9528.000000;1.257016
9527.000000;1.256537
9526.000000;1.255473
9525.000000;1.254014
9524.000000;1.252613
9523.000000;1.251398
9522.000000;1.249959
9521.000000;1.248076
9520.000000;1.246391
9519.000000;1.245819
9518.000000;1.246375
9517.000000;1.247069
9516.000000;1.247024
9515.000000;1.246278
9514.000000;1.245372
9513.000000;1.244592
9512.000000;1.243890
9511.000000;1.243272
9510.000000;1.242914
9509.000000;1.242911
9508.000000;1.243090
9507.000000;1.243115
9506.000000;1.242720
9505.000000;1.241915
9504.000000;1.241013
9503.000000;1.240423
9502.000000;1.240357
9501.000000;1.240692
9500.000000;1.241053
9499.000000;1.241021
9498.000000;1.240339
9497.000000;1.239036
9496.000000;1.237400
9495.000000;1.235836
9494.000000;1.234704
9493.000000;1.234134
9492.000000;1.233891
9491.000000;1.233524
9490.000000;1.232859
9489.000000;1.232291
9488.000000;1.232321
9487.000000;1.232788
9486.000000;1.232894
9485.000000;1.232136
9484.000000;1.230872
9483.000000;1.229712
9482.000000;1.228691
9481.000000;1.227481
9480.000000;1.226226
9479.000000;1.225587
9478.000000;1.225865
9477.000000;1.226502
9476.000000;1.226706
9475.000000;1.226338
9474.000000;1.225862
9473.000000;1.225580
9472.000000;1.225239
9471.000000;1.224454
9470.000000;1.223206
9469.000000;1.221742
9468.000000;1.220141
9467.000000;1.218299
9466.000000;1.216365
9465.000000;1.214921
9464.000000;1.214501
9463.000000;1.215044
9462.000000;1.215954
9461.000000;1.216617
9460.000000;1.216724
9459.000000;1.216244
9458.000000;1.215428
9457.000000;1.214763
9456.000000;1.214566
9455.000000;1.214561
9454.000000;1.214189
9453.000000;1.213414
9452.000000;1.212870
9451.000000;1.213019
9450.000000;1.213474
9449.000000;1.213393
9448.000000;1.212351
9447.000000;1.210638
9446.000000;1.208859
9445.000000;1.207490
9444.000000;1.206661
9443.000000;1.206107
9442.000000;1.205400
9441.000000;1.204380
9440.000000;1.203278
9439.000000;1.202356
9438.000000;1.201677
9437.000000;1.201377
9436.000000;1.201831
9435.000000;1.203161
9434.000000;1.204709
9433.000000;1.205391
9432.000000;1.204655
9431.000000;1.202897
9430.000000;1.200969
9429.000000;1.199483
9428.000000;1.198603
9427.000000;1.198252
9426.000000;1.198350
9425.000000;1.198824
9424.000000;1.199432
9423.000000;1.199719
9422.000000;1.199343
9421.000000;1.198476
9420.000000;1.197674
9419.000000;1.197172
9418.000000;1.196609
9417.000000;1.195646
9416.000000;1.194518
9415.000000;1.193693
9414.000000;1.193264
9413.000000;1.192978
9412.000000;1.192656
9411.000000;1.192180
9410.000000;1.191299
9409.000000;1.189908
9408.000000;1.188443
9407.000000;1.187540
9406.000000;1.187294
9405.000000;1.187228
9404.000000;1.186991
9403.000000;1.186696
9402.000000;1.186529
9401.000000;1.186391
9400.000000;1.186095
9399.000000;1.185628
9398.000000;1.185089
9397.000000;1.184561
9396.000000;1.184146
9395.000000;1.183925
9394.000000;1.183849
9393.000000;1.183820
9392.000000;1.183823
9391.000000;1.183781
9390.000000;1.183368
9389.000000;1.182312
9388.000000;1.180865
9387.000000;1.179623
9386.000000;1.178912
9385.000000;1.178638
9384.000000;1.178662
9383.000000;1.178816
9382.000000;1.178579
9381.000000;1.177353
9380.000000;1.175357
9379.000000;1.173670
9378.000000;1.173014
9377.000000;1.172954
9376.000000;1.172649
9375.000000;1.171988
9374.000000;1.171458
9373.000000;1.171205
9372.000000;1.170888
9371.000000;1.170364
9370.000000;1.169928
9369.000000;1.169780
9368.000000;1.169732
9367.000000;1.169585
9366.000000;1.169459
9365.000000;1.169540
9364.000000;1.169700
9363.000000;1.169590
9362.000000;1.169050
9361.000000;1.168325
9360.000000;1.167863
9359.000000;1.167920
9358.000000;1.168292
9357.000000;1.168442
9356.000000;1.167929
9355.000000;1.166705
9354.000000;1.165022
9353.000000;1.163209
9352.000000;1.161611
9351.000000;1.160472
9350.000000;1.159701
9349.000000;1.158897
9348.000000;1.157832
9347.000000;1.156794
9346.000000;1.156240
9345.000000;1.156228
9344.000000;1.156418
9343.000000;1.156532
9342.000000;1.156470
9341.000000;1.156089
9340.000000;1.155319
9339.000000;1.154596
9338.000000;1.154701
9337.000000;1.155902
9336.000000;1.157508
9335.000000;1.158475
9334.000000;1.158292
9333.000000;1.157146
9332.000000;1.155544
9331.000000;1.154044
9330.000000;1.153097
9329.000000;1.152713
9328.000000;1.152353
9327.000000;1.151494
9326.000000;1.150332
9325.000000;1.149588
9324.000000;1.149537
9323.000000;1.149550
9322.000000;1.148830
9321.000000;1.147460
9320.000000;1.146423
9319.000000;1.146546
9318.000000;1.147596
9317.000000;1.148509
9316.000000;1.148462
9315.000000;1.147635
9314.000000;1.146851
9313.000000;1.146608
9312.000000;1.146615
9311.000000;1.146233
9310.000000;1.145177
9309.000000;1.143675
9308.000000;1.142083
9307.000000;1.140574
9306.000000;1.139204
9305.000000;1.138138
9304.000000;1.137682
9303.000000;1.138042
9302.000000;1.139011
9301.000000;1.139982
9300.000000;1.140441
9299.000000;1.140481
9298.000000;1.140622
9297.000000;1.141005
9296.000000;1.141063
9295.000000;1.140234
9294.000000;1.138807
9293.000000;1.137660
9292.000000;1.137253
9291.000000;1.137233
9290.000000;1.136994
9289.000000;1.136217
9288.000000;1.134814
9287.000000;1.132912
9286.000000;1.131133
9285.000000;1.130425
9284.000000;1.131106
9283.000000;1.132315
9282.000000;1.132856
9281.000000;1.132485
9280.000000;1.131960
9279.000000;1.131936
9278.000000;1.132280
9277.000000;1.132429
9276.000000;1.131964
9275.000000;1.130734
9274.000000;1.128901
9273.000000;1.127100
9272.000000;1.126153
9271.000000;1.126270
9270.000000;1.126762
9269.000000;1.126838
9268.000000;1.126495
9267.000000;1.126321
9266.000000;1.126648
9265.000000;1.127234
9264.000000;1.127639
9263.000000;1.127532
9262.000000;1.126721
9261.000000;1.125296
9260.000000;1.123809
9259.000000;1.122954
9258.000000;1.122892
9257.000000;1.123087
9256.000000;1.122945
9255.000000;1.122450
9254.000000;1.122035
9253.000000;1.121985
9252.000000;1.122117
9251.000000;1.121964
9250.000000;1.121231
9249.000000;1.120138
9248.000000;1.119284
9247.000000;1.119050
9246.000000;1.119178
9245.000000;1.119108
9244.000000;1.118716
9243.000000;1.118431
9242.000000;1.118558
9241.000000;1.118794
9240.000000;1.118658
9239.000000;1.118176
9238.000000;1.117817
9237.000000;1.117838
9236.000000;1.117967
9235.000000;1.117755
9234.000000;1.117072
9233.000000;1.116209
9232.000000;1.115646
9231.000000;1.115674
9230.000000;1.116066
9229.000000;1.116129
9228.000000;1.115319
9227.000000;1.113905
9226.000000;1.112818
9225.000000;1.112706
9224.000000;1.113231
9223.000000;1.113396
9222.000000;1.112539
9221.000000;1.110966
9220.000000;1.109609
9219.000000;1.109130
9218.000000;1.109330
9217.000000;1.109409
9216.000000;1.108818
9215.000000;1.107802
9214.000000;1.107057
9213.000000;1.106943
9212.000000;1.107171
9211.000000;1.107213
9210.000000;1.106818
9209.000000;1.106054
9208.000000;1.105057
9207.000000;1.103957
9206.000000;1.102953
9205.000000;1.102277
9204.000000;1.102022
9203.000000;1.102080
9202.000000;1.102266
9201.000000;1.102464
9200.000000;1.102698
9199.000000;1.103071
9198.000000;1.103587
9197.000000;1.103974
9196.000000;1.103821
9195.000000;1.102988
9194.000000;1.101769
9193.000000;1.100577
9192.000000;1.099620
9191.000000;1.099007
9190.000000;1.098969
9189.000000;1.099615
9188.000000;1.100492
9187.000000;1.100762
9186.000000;1.100025
9185.000000;1.098733
9184.000000;1.097620
9183.000000;1.096950
9182.000000;1.096536
9181.000000;1.096295
9180.000000;1.096385
9179.000000;1.096784
9178.000000;1.097055
9177.000000;1.096756
9176.000000;1.095952
9175.000000;1.095116
9174.000000;1.094520
9173.000000;1.093936
9172.000000;1.093066
9171.000000;1.092144
9170.000000;1.091832
9169.000000;1.092449
9168.000000;1.093476
9167.000000;1.093996
9166.000000;1.093592
9165.000000;1.092642
9164.000000;1.091727
9163.000000;1.090989
9162.000000;1.090243
9161.000000;1.089522
9160.000000;1.089228
9159.000000;1.089683
9158.000000;1.090658
9157.000000;1.091469
9156.000000;1.091506
9155.000000;1.090686
9154.000000;1.089430
9153.000000;1.088226
9152.000000;1.087230
9151.000000;1.086307
9150.000000;1.085365
9149.000000;1.084546
9148.000000;1.084053
9147.000000;1.083927
9146.000000;1.084025
9145.000000;1.084150
9144.000000;1.084137
9143.000000;1.083923
9142.000000;1.083629
9141.000000;1.083471
9140.000000;1.083436
9139.000000;1.083146
9138.000000;1.082289
9137.000000;1.081193
9136.000000;1.080703
9135.000000;1.081324
9134.000000;1.082561
9133.000000;1.083277
9132.000000;1.082735
9131.000000;1.081267
9130.000000;1.079915
9129.000000;1.079508
9128.000000;1.080091
9127.000000;1.081082
9126.000000;1.081822
9125.000000;1.081971
9124.000000;1.081530
9123.000000;1.080667
9122.000000;1.079599
9121.000000;1.078532
9120.000000;1.077611
9119.000000;1.076887
9118.000000;1.076352
9117.000000;1.076008
9116.000000;1.075906
9115.000000;1.076105
9114.000000;1.076585
9113.000000;1.077147
9112.000000;1.077473
9111.000000;1.077381
9110.000000;1.077015
9109.000000;1.076653
9108.000000;1.076343
9107.000000;1.075882
9106.000000;1.075177
9105.000000;1.074448
9104.000000;1.073957
9103.000000;1.073689
9102.000000;1.073465
9101.000000;1.073265
9100.000000;1.073263
9099.000000;1.073560
9098.000000;1.074003
9097.000000;1.074265
9096.000000;1.074076
9095.000000;1.073484
9094.000000;1.072913
9093.000000;1.072759
9092.000000;1.072835
9091.000000;1.072457
9090.000000;1.071290
9089.000000;1.069853
9088.000000;1.068937
9087.000000;1.068718
9086.000000;1.068820
9085.000000;1.068993
9084.000000;1.069240
9083.000000;1.069345
9082.000000;1.068896
9081.000000;1.067909
9080.000000;1.066915
9079.000000;1.066202
9078.000000;1.065438
9077.000000;1.064362
9076.000000;1.063414
9075.000000;1.063254
9074.000000;1.063856
9073.000000;1.064543
9072.000000;1.064793
9071.000000;1.064676
9070.000000;1.064563
9069.000000;1.064729
9068.000000;1.065199
9067.000000;1.065727
9066.000000;1.065941
9065.000000;1.065728
9064.000000;1.065379
9063.000000;1.065153
9062.000000;1.064841
9061.000000;1.064083
9060.000000;1.062996
9059.000000;1.062120
9058.000000;1.061737
9057.000000;1.061630
9056.000000;1.061520
9055.000000;1.061343
9054.000000;1.061031
9053.000000;1.060380
