Criado como novo conjunto de dados;"1909daniel.spp","-4233582.1 Secs"
cm-1;Abs
10000.000000;1.501272
9999.000000;1.500686
9998.000000;1.499225
9997.000000;1.496962
9996.000000;1.494250
9995.000000;1.491341
9994.000000;1.488389
9993.000000;1.485917
9992.000000;1.484932
9991.000000;1.486059
9990.000000;1.488574
9989.000000;1.490642
9988.000000;1.490806
9987.000000;1.489180
9986.000000;1.487094
9985.000000;1.485749
9984.000000;1.485332
9983.000000;1.485308
9982.000000;1.485365
9981.000000;1.485861
9980.000000;1.487252
9979.000000;1.489195
9978.000000;1.490497
9977.000000;1.490115
9976.000000;1.488038
9975.000000;1.485118
9974.000000;1.482331
9973.000000;1.480361
9972.000000;1.479497
9971.000000;1.479436
9970.000000;1.479362
9969.000000;1.478670
9968.000000;1.477590
9967.000000;1.476766
9966.000000;1.476269
9965.000000;1.475435
9964.000000;1.473774
9963.000000;1.471633
9962.000000;1.469781
9961.000000;1.468683
9960.000000;1.468290
9959.000000;1.468166
9958.000000;1.467748
9957.000000;1.466845
9956.000000;1.465972
9955.000000;1.465755
9954.000000;1.465948
9953.000000;1.465497
9952.000000;1.463843
9951.000000;1.461701
9950.000000;1.460112
9949.000000;1.459225
9948.000000;1.458531
9947.000000;1.457863
9946.000000;1.457514
9945.000000;1.457524
9944.000000;1.457537
9943.000000;1.457432
9942.000000;1.457527
9941.000000;1.457995
9940.000000;1.458530
9939.000000;1.458773
9938.000000;1.458651
9937.000000;1.458102
9936.000000;1.456948
9935.000000;1.455402
9934.000000;1.454278
9933.000000;1.454246
9932.000000;1.455039
9931.000000;1.455684
9930.000000;1.455434
9929.000000;1.454273
9928.000000;1.452631
9927.000000;1.450977
9926.000000;1.449660
9925.000000;1.448715
9924.000000;1.447693
9923.000000;1.446062
9922.000000;1.443984
9921.000000;1.442413
9920.000000;1.442171
9919.000000;1.442968
9918.000000;1.443471
9917.000000;1.442437
9916.000000;1.439817
9915.000000;1.436882
9914.000000;1.435249
9913.000000;1.435570
9912.000000;1.436896
9911.000000;1.437385
9910.000000;1.435950
9909.000000;1.433294
9908.000000;1.431191
9907.000000;1.430836
9906.000000;1.432055
9905.000000;1.433858
9904.000000;1.435293
9903.000000;1.435678
9902.000000;1.434585
9901.000000;1.432142
9900.000000;1.429219
9899.000000;1.426936
9898.000000;1.425878
9897.000000;1.425804
9896.000000;1.425992
9895.000000;1.425818
9894.000000;1.425215
9893.000000;1.424789
9892.000000;1.425328
9891.000000;1.426980
9890.000000;1.428917
9889.000000;1.429920
9888.000000;1.429285
9887.000000;1.427114
9886.000000;1.424102
9885.000000;1.421349
9884.000000;1.419966
9883.000000;1.420140
9882.000000;1.420602
9881.000000;1.419605
9880.000000;1.416779
9879.000000;1.413701
9878.000000;1.412402
9877.000000;1.413564
9876.000000;1.416181
9875.000000;1.418596
9874.000000;1.419717
9873.000000;1.419530
9872.000000;1.418753
9871.000000;1.418049
9870.000000;1.417450
9869.000000;1.416454
9868.000000;1.414630
9867.000000;1.412075
9866.000000;1.409405
9865.000000;1.407475
9864.000000;1.406939
9863.000000;1.407710
9862.000000;1.408818
9861.000000;1.409072
9860.000000;1.407981
9859.000000;1.405869
9858.000000;1.403255
9857.000000;1.400567
9856.000000;1.398376
9855.000000;1.397282
9854.000000;1.397299
9853.000000;1.397746
9852.000000;1.398049
9851.000000;1.398295
9850.000000;1.398695
9849.000000;1.398867
9848.000000;1.398176
9847.000000;1.396652
9846.000000;1.395058
9845.000000;1.393978
9844.000000;1.393200
9843.000000;1.392096
9842.000000;1.390457
9841.000000;1.388851
9840.000000;1.388105
9839.000000;1.388423
9838.000000;1.389060
9837.000000;1.389039
9836.000000;1.388151
9835.000000;1.387034
9834.000000;1.386308
9833.000000;1.386028
9832.000000;1.386047
9831.000000;1.386395
9830.000000;1.386938
9829.000000;1.387086
9828.000000;1.386290
9827.000000;1.384595
9826.000000;1.382412
9825.000000;1.380075
9824.000000;1.377977
9823.000000;1.376696
9822.000000;1.376438
9821.000000;1.376496
9820.000000;1.375836
9819.000000;1.374280
9818.000000;1.372615
9817.000000;1.371539
9816.000000;1.371021
9815.000000;1.370769
9814.000000;1.370796
9813.000000;1.371201
9812.000000;1.371763
9811.000000;1.372055
9810.000000;1.371841
9809.000000;1.371138
9808.000000;1.370031
9807.000000;1.368659
9806.000000;1.367345
9805.000000;1.366515
9804.000000;1.366373
9803.000000;1.366650
9802.000000;1.366719
9801.000000;1.366036
9800.000000;1.364588
9799.000000;1.362970
9798.000000;1.361962
9797.000000;1.361903
9796.000000;1.362357
9795.000000;1.362395
9794.000000;1.361362
9793.000000;1.359566
9792.000000;1.358111
9791.000000;1.357801
9790.000000;1.358239
9789.000000;1.358279
9788.000000;1.357400
9787.000000;1.356227
9786.000000;1.355514
9785.000000;1.355118
9784.000000;1.354463
9783.000000;1.353634
9782.000000;1.353293
9781.000000;1.353526
9780.000000;1.353434
9779.000000;1.352172
9778.000000;1.350074
9777.000000;1.348376
9776.000000;1.347911
9775.000000;1.348224
9774.000000;1.348020
9773.000000;1.346551
9772.000000;1.344518
9771.000000;1.343322
9770.000000;1.343401
9769.000000;1.343693
9768.000000;1.343026
9767.000000;1.341684
9766.000000;1.340944
9765.000000;1.341279
9764.000000;1.341780
9763.000000;1.341483
9762.000000;1.340551
9761.000000;1.339749
9760.000000;1.339274
9759.000000;1.338701
9758.000000;1.337883
9757.000000;1.337338
9756.000000;1.337604
9755.000000;1.338437
9754.000000;1.338848
9753.000000;1.337966
9752.000000;1.335880
9751.000000;1.333580
9750.000000;1.332065
9749.000000;1.331535
9748.000000;1.331395
9747.000000;1.330846
9746.000000;1.329513
9745.000000;1.327746
9744.000000;1.326388
9743.000000;1.326023
9742.000000;1.326249
9741.000000;1.325998
9740.000000;1.324846
9739.000000;1.323630
9738.000000;1.323254
9737.000000;1.323235
9736.000000;1.322196
9735.000000;1.319792
9734.000000;1.317360
9733.000000;1.316442
9732.000000;1.317310
9731.000000;1.319194
9730.000000;1.321239
9729.000000;1.322733
9728.000000;1.322936
9727.000000;1.321540
9726.000000;1.319282
9725.000000;1.317553
9724.000000;1.317206
9723.000000;1.317866
9722.000000;1.318360
9721.000000;1.317745
9720.000000;1.316049
9719.000000;1.314172
9718.000000;1.313024
9717.000000;1.312689
9716.000000;1.312504
9715.000000;1.311960
9714.000000;1.311221
9713.000000;1.310592
9712.000000;1.309861
9711.000000;1.308543
9710.000000;1.306643
9709.000000;1.304809
9708.000000;1.303749
9707.000000;1.303696
9706.000000;1.304378
9705.000000;1.305250
9704.000000;1.305711
9703.000000;1.305329
9702.000000;1.304033
9701.000000;1.302102
9700.000000;1.299963
9699.000000;1.297982
9698.000000;1.296339
9697.000000;1.295070
9696.000000;1.294282
9695.000000;1.294212
9694.000000;1.294862
9693.000000;1.295669
9692.000000;1.295906
9691.000000;1.295514
9690.000000;1.295156
9689.000000;1.295236
9688.000000;1.295215
9687.000000;1.294223
9686.000000;1.292111
9685.000000;1.289633
9684.000000;1.287708
9683.000000;1.286789
9682.000000;1.286737
9681.000000;1.287039
9680.000000;1.287215
9679.000000;1.287276
9678.000000;1.287640
9677.000000;1.288331
9676.000000;1.288536
9675.000000;1.287422
9674.000000;1.285270
9673.000000;1.283256
9672.000000;1.282067
9671.000000;1.281232
9670.000000;1.280032
9669.000000;1.278646
9668.000000;1.277975
9667.000000;1.278448
9666.000000;1.279332
9665.000000;1.279364
9664.000000;1.277952
9663.000000;1.275700
9662.000000;1.273833
9661.000000;1.273262
9660.000000;1.274160
9659.000000;1.276095
9658.000000;1.278261
9657.000000;1.279640
9656.000000;1.279460
9655.000000;1.277846
9654.000000;1.275718
9653.000000;1.273838
9652.000000;1.272205
9651.000000;1.270574
9650.000000;1.269224
9649.000000;1.268739
9648.000000;1.269131
9647.000000;1.269590
9646.000000;1.269249
9645.000000;1.267967
9644.000000;1.266323
9643.000000;1.265009
9642.000000;1.264267
9641.000000;1.263752
9640.000000;1.262929
9639.000000;1.261691
9638.000000;1.260479
9637.000000;1.259666
9636.000000;1.259088
9635.000000;1.258456
9634.000000;1.258018
9633.000000;1.258353
9632.000000;1.259504
9631.000000;1.260729
9630.000000;1.261204
9629.000000;1.260640
9628.000000;1.259126
9627.000000;1.256857
9626.000000;1.254295
9625.000000;1.252222
9624.000000;1.251164
9623.000000;1.250837
9622.000000;1.250477
9621.000000;1.249741
9620.000000;1.249061
9619.000000;1.249018
9618.000000;1.249541
9617.000000;1.249866
9616.000000;1.249293
9615.000000;1.247908
9614.000000;1.246500
9613.000000;1.245746
9612.000000;1.245525
9611.000000;1.245119
9610.000000;1.244067
9609.000000;1.242702
9608.000000;1.241822
9607.000000;1.241849
9606.000000;1.242366
9605.000000;1.242518
9604.000000;1.241911
9603.000000;1.241011
9602.000000;1.240552
9601.000000;1.240641
9600.000000;1.240685
9599.000000;1.240208
9598.000000;1.239405
9597.000000;1.238735
9596.000000;1.238300
9595.000000;1.237905
9594.000000;1.237456
9593.000000;1.236949
9592.000000;1.236224
9591.000000;1.235121
9590.000000;1.233861
9589.000000;1.232882
9588.000000;1.232223
9587.000000;1.231436
9586.000000;1.230239
9585.000000;1.228969
9584.000000;1.228210
9583.000000;1.228128
9582.000000;1.228298
9581.000000;1.228114
9580.000000;1.227298
9579.000000;1.226110
9578.000000;1.225125
9577.000000;1.224648
9576.000000;1.224381
9575.000000;1.223807
9574.000000;1.222848
9573.000000;1.221916
9572.000000;1.221351
9571.000000;1.221061
9570.000000;1.220764
9569.000000;1.220362
9568.000000;1.219994
9567.000000;1.219847
9566.000000;1.219977
9565.000000;1.220176
9564.000000;1.220058
9563.000000;1.219467
9562.000000;1.218673
9561.000000;1.217982
9560.000000;1.217310
9559.000000;1.216476
9558.000000;1.215692
9557.000000;1.215354
9556.000000;1.215382
9555.000000;1.215254
9554.000000;1.214785
9553.000000;1.214316
9552.000000;1.213983
9551.000000;1.213409
9550.000000;1.212311
9549.000000;1.210958
9548.000000;1.209759
9547.000000;1.208869
9546.000000;1.208448
9545.000000;1.208748
9544.000000;1.209526
9543.000000;1.209791
9542.000000;1.208732
9541.000000;1.206695
9540.000000;1.204759
9539.000000;1.203524
9538.000000;1.202782
9537.000000;1.202180
9536.000000;1.201711
9535.000000;1.201558
9534.000000;1.201799
9533.000000;1.202276
9532.000000;1.202475
9531.000000;1.201729
9530.000000;1.199873
9529.000000;1.197609
9528.000000;1.195881
9527.000000;1.195039
9526.000000;1.194874
9525.000000;1.195160
9524.000000;1.195630
9523.000000;1.195588
9522.000000;1.194297
9521.000000;1.191954
9520.000000;1.189769
9519.000000;1.188822
9518.000000;1.189160
9517.000000;1.190118
9516.000000;1.191104
9515.000000;1.191826
9514.000000;1.192108
9513.000000;1.191885
9512.000000;1.191305
9511.000000;1.190608
9510.000000;1.189958
9509.000000;1.189444
9508.000000;1.189111
9507.000000;1.188860
9506.000000;1.188466
9505.000000;1.187817
9504.000000;1.187047
9503.000000;1.186368
9502.000000;1.185840
9501.000000;1.185356
9500.000000;1.184761
9499.000000;1.183966
9498.000000;1.183080
9497.000000;1.182425
9496.000000;1.182250
9495.000000;1.182386
9494.000000;1.182333
9493.000000;1.181749
9492.000000;1.180756
9491.000000;1.179733
9490.000000;1.178952
9489.000000;1.178427
9488.000000;1.177987
9487.000000;1.177417
9486.000000;1.176593
9485.000000;1.175489
9484.000000;1.174059
9483.000000;1.172284
9482.000000;1.170449
9481.000000;1.169150
9480.000000;1.168708
9479.000000;1.168720
9478.000000;1.168508
9477.000000;1.167955
9476.000000;1.167523
9475.000000;1.167463
9474.000000;1.167499
9473.000000;1.167385
9472.000000;1.167266
9471.000000;1.167191
9470.000000;1.166732
9469.000000;1.165530
9468.000000;1.163953
9467.000000;1.162794
9466.000000;1.162456
9465.000000;1.162733
9464.000000;1.163218
9463.000000;1.163630
9462.000000;1.163786
9461.000000;1.163588
9460.000000;1.163047
9459.000000;1.162194
9458.000000;1.161044
9457.000000;1.159794
9456.000000;1.158867
9455.000000;1.158462
9454.000000;1.158179
9453.000000;1.157404
9452.000000;1.156063
9451.000000;1.154769
9450.000000;1.154216
9449.000000;1.154586
9448.000000;1.155525
9447.000000;1.156474
9446.000000;1.156927
9445.000000;1.156542
9444.000000;1.155183
9443.000000;1.152984
9442.000000;1.150492
9441.000000;1.148673
9440.000000;1.148429
9439.000000;1.149738
9438.000000;1.151411
9437.000000;1.152067
9436.000000;1.151422
9435.000000;1.150339
9434.000000;1.149617
9433.000000;1.149133
9432.000000;1.148231
9431.000000;1.146593
9430.000000;1.144514
9429.000000;1.142587
9428.000000;1.141379
9427.000000;1.141250
9426.000000;1.142142
9425.000000;1.143521
9424.000000;1.144680
9423.000000;1.145153
9422.000000;1.144818
9421.000000;1.143794
9420.000000;1.142377
9419.000000;1.141012
9418.000000;1.140120
9417.000000;1.139902
9416.000000;1.140323
9415.000000;1.141157
9414.000000;1.141931
9413.000000;1.141962
9412.000000;1.140773
9411.000000;1.138518
9410.000000;1.135904
9409.000000;1.133716
9408.000000;1.132445
9407.000000;1.132198
9406.000000;1.132723
9405.000000;1.133478
9404.000000;1.133848
9403.000000;1.133511
9402.000000;1.132601
9401.000000;1.131507
9400.000000;1.130563
9399.000000;1.129938
9398.000000;1.129684
9397.000000;1.129726
9396.000000;1.129795
9395.000000;1.129487
9394.000000;1.128504
9393.000000;1.126922
9392.000000;1.125248
9391.000000;1.124169
9390.000000;1.124097
9389.000000;1.124894
9388.000000;1.126032
9387.000000;1.127014
9386.000000;1.127587
9385.000000;1.127616
9384.000000;1.127026
9383.000000;1.126046
9382.000000;1.125269
9381.000000;1.125121
9380.000000;1.125283
9379.000000;1.124931
9378.000000;1.123690
9377.000000;1.122099
9376.000000;1.120976
9375.000000;1.120554
9374.000000;1.120399
9373.000000;1.120024
9372.000000;1.119298
9371.000000;1.118343
9370.000000;1.117346
9369.000000;1.116568
9368.000000;1.116304
9367.000000;1.116658
9366.000000;1.117357
9365.000000;1.117815
9364.000000;1.117419
9363.000000;1.115917
9362.000000;1.113731
9361.000000;1.111798
9360.000000;1.110881
9359.000000;1.110941
9358.000000;1.111362
9357.000000;1.111745
9356.000000;1.112219
9355.000000;1.112871
9354.000000;1.113242
9353.000000;1.112712
9352.000000;1.111261
9351.000000;1.109528
9350.000000;1.108087
9349.000000;1.106959
9348.000000;1.105879
9347.000000;1.104818
9346.000000;1.104101
9345.000000;1.104061
9344.000000;1.104625
9343.000000;1.105217
9342.000000;1.105131
9341.000000;1.104143
9340.000000;1.102755
9339.000000;1.101721
9338.000000;1.101359
9337.000000;1.101412
9336.000000;1.101495
9335.000000;1.101374
9334.000000;1.100809
9333.000000;1.099510
9332.000000;1.097601
9331.000000;1.095954
9330.000000;1.095618
9329.000000;1.096722
9328.000000;1.098152
9327.000000;1.098515
9326.000000;1.097433
9325.000000;1.095804
9324.000000;1.094832
9323.000000;1.094948
9322.000000;1.095660
9321.000000;1.096233
9320.000000;1.096378
9319.000000;1.096305
9318.000000;1.096267
9317.000000;1.096207
9316.000000;1.095840
9315.000000;1.094969
9314.000000;1.093693
9313.000000;1.092336
9312.000000;1.091215
9311.000000;1.090447
9310.000000;1.089934
9309.000000;1.089530
9308.000000;1.089214
9307.000000;1.089053
9306.000000;1.089035
9305.000000;1.089037
9304.000000;1.089000
9303.000000;1.089041
9302.000000;1.089278
9301.000000;1.089594
9300.000000;1.089627
9299.000000;1.089022
9298.000000;1.087699
9297.000000;1.085975
9296.000000;1.084482
9295.000000;1.083853
9294.000000;1.084292
9293.000000;1.085355
9292.000000;1.086219
9291.000000;1.086237
9290.000000;1.085274
9289.000000;1.083660
9288.000000;1.081977
9287.000000;1.080822
9286.000000;1.080512
9285.000000;1.080863
9284.000000;1.081347
9283.000000;1.081530
9282.000000;1.081281
9281.000000;1.080644
9280.000000;1.079765
9279.000000;1.079002
9278.000000;1.078798
9277.000000;1.079171
9276.000000;1.079492
9275.000000;1.079030
9274.000000;1.077702
9273.000000;1.076092
9272.000000;1.074838
9271.000000;1.074221
9270.000000;1.074258
9269.000000;1.074828
9268.000000;1.075580
9267.000000;1.076002
9266.000000;1.075807
9265.000000;1.075181
9264.000000;1.074568
9263.000000;1.074278
9262.000000;1.074293
9261.000000;1.074323
9260.000000;1.074013
9259.000000;1.073275
9258.000000;1.072450
9257.000000;1.071932
9256.000000;1.071615
9255.000000;1.070982
9254.000000;1.069871
9253.000000;1.068864
9252.000000;1.068647
9251.000000;1.069193
9250.000000;1.069879
9249.000000;1.070267
9248.000000;1.070385
9247.000000;1.070289
9246.000000;1.069806
9245.000000;1.068878
9244.000000;1.067808
9243.000000;1.066927
9242.000000;1.066155
9241.000000;1.065182
9240.000000;1.064051
9239.000000;1.063315
9238.000000;1.063477
9237.000000;1.064339
9236.000000;1.065051
9235.000000;1.064902
9234.000000;1.064022
9233.000000;1.063179
9232.000000;1.062895
9231.000000;1.062931
9230.000000;1.062780
9229.000000;1.062441
9228.000000;1.062376
9227.000000;1.062725
9226.000000;1.062948
9225.000000;1.062458
9224.000000;1.061346
9223.000000;1.060208
9222.000000;1.059416
9221.000000;1.058925
9220.000000;1.058733
9219.000000;1.059070
9218.000000;1.059884
9217.000000;1.060435
9216.000000;1.059858
9215.000000;1.058171
9214.000000;1.056392
9213.000000;1.055502
9212.000000;1.055517
9211.000000;1.055741
9210.000000;1.055730
9209.000000;1.055665
9208.000000;1.055786
9207.000000;1.055837
9206.000000;1.055323
9205.000000;1.054187
9204.000000;1.052974
9203.000000;1.052298
9202.000000;1.052288
9201.000000;1.052591
9200.000000;1.052785
9199.000000;1.052748
9198.000000;1.052656
9197.000000;1.052664
9196.000000;1.052645
9195.000000;1.052304
9194.000000;1.051543
9193.000000;1.050660
9192.000000;1.050086
9191.000000;1.049971
9190.000000;1.050088
9189.000000;1.050094
9188.000000;1.049811
9187.000000;1.049299
9186.000000;1.048796
9185.000000;1.048568
9184.000000;1.048688
9183.000000;1.048873
9182.000000;1.048654
9181.000000;1.047846
9180.000000;1.046798
9179.000000;1.046072
9178.000000;1.045843
9177.000000;1.045726
9176.000000;1.045254
9175.000000;1.044445
9174.000000;1.043757
9173.000000;1.043484
9172.000000;1.043404
9171.000000;1.043185
9170.000000;1.042950
9169.000000;1.043142
9168.000000;1.043821
9167.000000;1.044415
9166.000000;1.044335
9165.000000;1.043629
9164.000000;1.042779
9163.000000;1.041995
9162.000000;1.041063
9161.000000;1.039896
9160.000000;1.038858
9159.000000;1.038322
9158.000000;1.038103
9157.000000;1.037630
9156.000000;1.036653
9155.000000;1.035574
9154.000000;1.035002
9153.000000;1.035097
9152.000000;1.035475
9151.000000;1.035749
9150.000000;1.036000
9149.000000;1.036572
9148.000000;1.037480
9147.000000;1.038236
9146.000000;1.038330
9145.000000;1.037748
9144.000000;1.036915
9143.000000;1.036234
9142.000000;1.035838
9141.000000;1.035681
9140.000000;1.035626
9139.000000;1.035445
9138.000000;1.034976
9137.000000;1.034382
9136.000000;1.034073
9135.000000;1.034202
9134.000000;1.034321
9133.000000;1.033734
9132.000000;1.032249
9131.000000;1.030505
9130.000000;1.029485
9129.000000;1.029688
9128.000000;1.030719
9127.000000;1.031648
9126.000000;1.031832
9125.000000;1.031439
9124.000000;1.031164
9123.000000;1.031383
9122.000000;1.031706
9121.000000;1.031458
9120.000000;1.030513
9119.000000;1.029486
9118.000000;1.029068
9117.000000;1.029336
9116.000000;1.029789
9115.000000;1.029896
9114.000000;1.029464
9113.000000;1.028635
9112.000000;1.027788
9111.000000;1.027417
9110.000000;1.027806
9109.000000;1.028687
9108.000000;1.029389
9107.000000;1.029474
9106.000000;1.029098
9105.000000;1.028593
9104.000000;1.027890
9103.000000;1.026667
9102.000000;1.025043
9101.000000;1.023748
9100.000000;1.023418
9099.000000;1.023897
9098.000000;1.024405
9097.000000;1.024342
9096.000000;1.023794
9095.000000;1.023296
9094.000000;1.023201
9093.000000;1.023343
9092.000000;1.023273
9091.000000;1.022772
9090.000000;1.022060
9089.000000;1.021460
9088.000000;1.021009
9087.000000;1.020536
9086.000000;1.020027
9085.000000;1.019643
9084.000000;1.019405
9083.000000;1.019112
9082.000000;1.018698
9081.000000;1.018404
9080.000000;1.018420
9079.000000;1.018563
9078.000000;1.018516
9077.000000;1.018261
9076.000000;1.018062
9075.000000;1.018076
9074.000000;1.018203
9073.000000;1.018316
9072.000000;1.018444
9071.000000;1.018687
9070.000000;1.019072
9069.000000;1.019515
9068.000000;1.019826
9067.000000;1.019755
9066.000000;1.019132
9065.000000;1.018012
9064.000000;1.016665
9063.000000;1.015435
9062.000000;1.014597
9061.000000;1.014254
9060.000000;1.014289
9059.000000;1.014480
9058.000000;1.014680
9057.000000;1.014809
9056.000000;1.014692
9055.000000;1.014150
9054.000000;1.013367
9053.000000;1.012903
