Criado como novo conjunto de dados;"1909daniel.spp","-4261123.5 Secs"
cm-1;Abs
10000.000000;1.821210
9999.000000;1.817713
9998.000000;1.814273
9997.000000;1.810791
9996.000000;1.807786
9995.000000;1.805595
9994.000000;1.802852
9993.000000;1.798596
9992.000000;1.793978
9991.000000;1.790998
9990.000000;1.790638
9989.000000;1.792678
9988.000000;1.796420
9987.000000;1.800493
9986.000000;1.802807
9985.000000;1.802156
9984.000000;1.799680
9983.000000;1.797486
9982.000000;1.796235
9981.000000;1.795291
9980.000000;1.794663
9979.000000;1.795083
9978.000000;1.796245
9977.000000;1.796645
9976.000000;1.795689
9975.000000;1.794483
9974.000000;1.793844
9973.000000;1.793011
9972.000000;1.791166
9971.000000;1.788924
9970.000000;1.787234
9969.000000;1.785929
9968.000000;1.784597
9967.000000;1.783941
9966.000000;1.784733
9965.000000;1.785900
9964.000000;1.785278
9963.000000;1.782475
9962.000000;1.779591
9961.000000;1.778637
9960.000000;1.779390
9959.000000;1.780207
9958.000000;1.780063
9957.000000;1.779168
9956.000000;1.777996
9955.000000;1.776501
9954.000000;1.774418
9953.000000;1.771849
9952.000000;1.769368
9951.000000;1.767759
9950.000000;1.767546
9949.000000;1.768589
9948.000000;1.770005
9947.000000;1.770606
9946.000000;1.769798
9945.000000;1.768245
9944.000000;1.767280
9943.000000;1.767329
9942.000000;1.767278
9941.000000;1.766026
9940.000000;1.764427
9939.000000;1.764666
9938.000000;1.767495
9937.000000;1.770995
9936.000000;1.772566
9935.000000;1.771494
9934.000000;1.768727
9933.000000;1.765014
9932.000000;1.760803
9931.000000;1.757402
9930.000000;1.756257
9929.000000;1.756826
9928.000000;1.756665
9927.000000;1.754429
9926.000000;1.751697
9925.000000;1.750798
9924.000000;1.751777
9923.000000;1.752635
9922.000000;1.752100
9921.000000;1.750831
9920.000000;1.749907
9919.000000;1.749508
9918.000000;1.749381
9917.000000;1.749521
9916.000000;1.749778
9915.000000;1.749460
9914.000000;1.748254
9913.000000;1.747210
9912.000000;1.747805
9911.000000;1.750101
9910.000000;1.752568
9909.000000;1.753801
9908.000000;1.753768
9907.000000;1.753093
9906.000000;1.752007
9905.000000;1.750592
9904.000000;1.749277
9903.000000;1.748284
9902.000000;1.746953
9901.000000;1.744460
9900.000000;1.741221
9899.000000;1.738855
9898.000000;1.738491
9897.000000;1.739548
9896.000000;1.740457
9895.000000;1.740394
9894.000000;1.740038
9893.000000;1.740691
9892.000000;1.742784
9891.000000;1.744914
9890.000000;1.744358
9889.000000;1.739398
9888.000000;1.731556
9887.000000;1.724834
9886.000000;1.722506
9885.000000;1.724841
9884.000000;1.729570
9883.000000;1.733947
9882.000000;1.736296
9881.000000;1.736187
9880.000000;1.733952
9879.000000;1.730508
9878.000000;1.727366
9877.000000;1.725965
9876.000000;1.726479
9875.000000;1.727417
9874.000000;1.726772
9873.000000;1.723998
9872.000000;1.720701
9871.000000;1.719022
9870.000000;1.719503
9869.000000;1.720822
9868.000000;1.721415
9867.000000;1.720759
9866.000000;1.719014
9865.000000;1.716331
9864.000000;1.713171
9863.000000;1.710645
9862.000000;1.709593
9861.000000;1.709525
9860.000000;1.709067
9859.000000;1.707445
9858.000000;1.705140
9857.000000;1.703164
9856.000000;1.702151
9855.000000;1.702088
9854.000000;1.702439
9853.000000;1.702464
9852.000000;1.701839
9851.000000;1.701065
9850.000000;1.701036
9849.000000;1.702263
9848.000000;1.704681
9847.000000;1.707934
9846.000000;1.711390
9845.000000;1.713876
9844.000000;1.713951
9843.000000;1.710910
9842.000000;1.705473
9841.000000;1.699513
9840.000000;1.695110
9839.000000;1.693494
9838.000000;1.694331
9837.000000;1.695952
9836.000000;1.696694
9835.000000;1.696183
9834.000000;1.695093
9833.000000;1.693876
9832.000000;1.692375
9831.000000;1.690622
9830.000000;1.689108
9829.000000;1.687963
9828.000000;1.686638
9827.000000;1.684810
9826.000000;1.683046
9825.000000;1.682130
9824.000000;1.682172
9823.000000;1.682799
9822.000000;1.683778
9821.000000;1.684813
9820.000000;1.685125
9819.000000;1.683969
9818.000000;1.681530
9817.000000;1.678904
9816.000000;1.677276
9815.000000;1.677325
9814.000000;1.679110
9813.000000;1.681920
9812.000000;1.684340
9811.000000;1.685180
9810.000000;1.684465
9809.000000;1.683059
9808.000000;1.681452
9807.000000;1.679510
9806.000000;1.677241
9805.000000;1.674994
9804.000000;1.672879
9803.000000;1.670854
9802.000000;1.669552
9801.000000;1.670046
9800.000000;1.672207
9799.000000;1.674085
9798.000000;1.673813
9797.000000;1.671718
9796.000000;1.669631
9795.000000;1.668568
9794.000000;1.668092
9793.000000;1.667537
9792.000000;1.666748
9791.000000;1.665611
9790.000000;1.663907
9789.000000;1.661959
9788.000000;1.660599
9787.000000;1.660047
9786.000000;1.659425
9785.000000;1.657876
9784.000000;1.655779
9783.000000;1.654415
9782.000000;1.654699
9781.000000;1.656480
9780.000000;1.658712
9779.000000;1.660040
9778.000000;1.659689
9777.000000;1.658237
9776.000000;1.657241
9775.000000;1.657595
9774.000000;1.658388
9773.000000;1.657741
9772.000000;1.654733
9771.000000;1.650261
9770.000000;1.646113
9769.000000;1.643548
9768.000000;1.642665
9767.000000;1.642743
9766.000000;1.643066
9765.000000;1.643534
9764.000000;1.644314
9763.000000;1.644950
9762.000000;1.644512
9761.000000;1.642841
9760.000000;1.640991
9759.000000;1.639998
9758.000000;1.639675
9757.000000;1.639068
9756.000000;1.637761
9755.000000;1.636168
9754.000000;1.634777
9753.000000;1.633746
9752.000000;1.633176
9751.000000;1.633066
9750.000000;1.632998
9749.000000;1.632594
9748.000000;1.632248
9747.000000;1.632719
9746.000000;1.633924
9745.000000;1.634766
9744.000000;1.634320
9743.000000;1.632527
9742.000000;1.629779
9741.000000;1.626711
9740.000000;1.624492
9739.000000;1.624368
9738.000000;1.626305
9737.000000;1.628549
9736.000000;1.629215
9735.000000;1.628014
9734.000000;1.625964
9733.000000;1.623938
9732.000000;1.622309
9731.000000;1.621624
9730.000000;1.622520
9729.000000;1.624734
9728.000000;1.626888
9727.000000;1.627718
9726.000000;1.627167
9725.000000;1.625979
9724.000000;1.624631
9723.000000;1.623010
9722.000000;1.620926
9721.000000;1.618575
9720.000000;1.616442
9719.000000;1.614953
9718.000000;1.614375
9717.000000;1.614918
9716.000000;1.616645
9715.000000;1.618986
9714.000000;1.620426
9713.000000;1.619252
9712.000000;1.615194
9711.000000;1.610167
9710.000000;1.606900
9709.000000;1.606718
9708.000000;1.608732
9707.000000;1.611162
9706.000000;1.613059
9705.000000;1.614371
9704.000000;1.614760
9703.000000;1.613398
9702.000000;1.610231
9701.000000;1.606671
9700.000000;1.604330
9699.000000;1.603458
9698.000000;1.603274
9697.000000;1.603462
9696.000000;1.604293
9695.000000;1.605216
9694.000000;1.604621
9693.000000;1.601809
9692.000000;1.598334
9691.000000;1.596308
9690.000000;1.595887
9689.000000;1.595475
9688.000000;1.594220
9687.000000;1.593152
9686.000000;1.593545
9685.000000;1.595175
9684.000000;1.596715
9683.000000;1.597227
9682.000000;1.596682
9681.000000;1.595444
9680.000000;1.593924
9679.000000;1.592579
9678.000000;1.591749
9677.000000;1.591423
9676.000000;1.591323
9675.000000;1.591213
9674.000000;1.591078
9673.000000;1.590901
9672.000000;1.590320
9671.000000;1.588873
9670.000000;1.586704
9669.000000;1.584792
9668.000000;1.584130
9667.000000;1.584534
9666.000000;1.584666
9665.000000;1.583608
9664.000000;1.581998
9663.000000;1.581012
9662.000000;1.580649
9661.000000;1.579915
9660.000000;1.578535
9659.000000;1.577425
9658.000000;1.577305
9657.000000;1.577894
9656.000000;1.578775
9655.000000;1.580033
9654.000000;1.581411
9653.000000;1.581769
9652.000000;1.580389
9651.000000;1.578231
9650.000000;1.576845
9649.000000;1.576396
9648.000000;1.575718
9647.000000;1.574146
9646.000000;1.572313
9645.000000;1.571051
9644.000000;1.570335
9643.000000;1.569624
9642.000000;1.568643
9641.000000;1.567536
9640.000000;1.566543
9639.000000;1.565750
9638.000000;1.564953
9637.000000;1.563748
9636.000000;1.562063
9635.000000;1.560604
9634.000000;1.560348
9633.000000;1.561433
9632.000000;1.562760
9631.000000;1.562864
9630.000000;1.561110
9629.000000;1.558047
9628.000000;1.554856
9627.000000;1.552630
9626.000000;1.551948
9625.000000;1.552692
9624.000000;1.554039
9623.000000;1.554800
9622.000000;1.554229
9621.000000;1.552793
9620.000000;1.551856
9619.000000;1.552185
9618.000000;1.552953
9617.000000;1.552677
9616.000000;1.551102
9615.000000;1.549584
9614.000000;1.549426
9613.000000;1.550375
9612.000000;1.551047
9611.000000;1.550450
9610.000000;1.548751
9609.000000;1.546915
9608.000000;1.545899
9607.000000;1.545867
9606.000000;1.545913
9605.000000;1.544973
9604.000000;1.543222
9603.000000;1.542030
9602.000000;1.542263
9601.000000;1.543259
9600.000000;1.543892
9599.000000;1.543958
9598.000000;1.543805
9597.000000;1.543207
9596.000000;1.541598
9595.000000;1.539330
9594.000000;1.537742
9593.000000;1.537597
9592.000000;1.538128
9591.000000;1.537959
9590.000000;1.536619
9589.000000;1.534964
9588.000000;1.534292
9587.000000;1.534993
9586.000000;1.535886
9585.000000;1.535167
9584.000000;1.532396
9583.000000;1.529179
9582.000000;1.527463
9581.000000;1.527607
9580.000000;1.528508
9579.000000;1.529105
9578.000000;1.529056
9577.000000;1.528327
9576.000000;1.527125
9575.000000;1.526170
9574.000000;1.526062
9573.000000;1.526248
9572.000000;1.525411
9571.000000;1.523140
9570.000000;1.520467
9569.000000;1.518531
9568.000000;1.517479
9567.000000;1.517004
9566.000000;1.517208
9565.000000;1.518370
9564.000000;1.520236
9563.000000;1.522022
9562.000000;1.522957
9561.000000;1.522602
9560.000000;1.520966
9559.000000;1.518605
9558.000000;1.516396
9557.000000;1.514886
9556.000000;1.513928
9555.000000;1.513015
9554.000000;1.511796
9553.000000;1.510261
9552.000000;1.508696
9551.000000;1.507477
9550.000000;1.506744
9549.000000;1.506355
9548.000000;1.506339
9547.000000;1.507070
9546.000000;1.508555
9545.000000;1.509867
9544.000000;1.509949
9543.000000;1.508833
9542.000000;1.507292
9541.000000;1.505431
9540.000000;1.502673
9539.000000;1.499373
9538.000000;1.497256
9537.000000;1.497586
9536.000000;1.499644
9535.000000;1.501622
9534.000000;1.502519
9533.000000;1.502466
9532.000000;1.501660
9531.000000;1.499959
9530.000000;1.497550
9529.000000;1.495298
9528.000000;1.494114
9527.000000;1.494123
9526.000000;1.494491
9525.000000;1.494141
9524.000000;1.492926
9523.000000;1.491994
9522.000000;1.492524
9521.000000;1.494046
9520.000000;1.494591
9519.000000;1.492876
9518.000000;1.489793
9517.000000;1.487285
9516.000000;1.486410
9515.000000;1.487055
9514.000000;1.488840
9513.000000;1.491352
9512.000000;1.493665
9511.000000;1.494471
9510.000000;1.493121
9509.000000;1.490308
9508.000000;1.487551
9507.000000;1.486060
9506.000000;1.485864
9505.000000;1.485803
9504.000000;1.484633
9503.000000;1.482335
9502.000000;1.480036
9501.000000;1.478619
9500.000000;1.477889
9499.000000;1.477346
9498.000000;1.477231
9497.000000;1.478058
9496.000000;1.479410
9495.000000;1.480071
9494.000000;1.479342
9493.000000;1.477553
9492.000000;1.475300
9491.000000;1.472868
9490.000000;1.470526
9489.000000;1.468836
9488.000000;1.468378
9487.000000;1.469352
9486.000000;1.471442
9485.000000;1.473770
9484.000000;1.475040
9483.000000;1.474271
9482.000000;1.471710
9481.000000;1.468784
9480.000000;1.466964
9479.000000;1.466687
9478.000000;1.467239
9477.000000;1.467481
9476.000000;1.466796
9475.000000;1.465568
9474.000000;1.464794
9473.000000;1.465141
9472.000000;1.466362
9471.000000;1.467539
9470.000000;1.467788
9469.000000;1.466866
9468.000000;1.465437
9467.000000;1.464773
9466.000000;1.465722
9465.000000;1.467671
9464.000000;1.468944
9463.000000;1.468568
9462.000000;1.467174
9461.000000;1.465804
9460.000000;1.464528
9459.000000;1.462800
9458.000000;1.460605
9457.000000;1.458463
9456.000000;1.456633
9455.000000;1.455111
9454.000000;1.454251
9453.000000;1.454551
9452.000000;1.455772
9451.000000;1.456912
9450.000000;1.457167
9449.000000;1.456414
9448.000000;1.454824
9447.000000;1.452723
9446.000000;1.450849
9445.000000;1.449956
9444.000000;1.449999
9443.000000;1.450337
9442.000000;1.450823
9441.000000;1.451831
9440.000000;1.452933
9439.000000;1.452686
9438.000000;1.450546
9437.000000;1.448070
9436.000000;1.447211
9435.000000;1.447948
9434.000000;1.448450
9433.000000;1.447333
9432.000000;1.444947
9431.000000;1.442487
9430.000000;1.440756
9429.000000;1.440039
9428.000000;1.440456
9427.000000;1.441923
9426.000000;1.444023
9425.000000;1.446165
9424.000000;1.447725
9423.000000;1.448005
9422.000000;1.446494
9421.000000;1.443464
9420.000000;1.440182
9419.000000;1.438212
9418.000000;1.438309
9417.000000;1.439864
9416.000000;1.441369
9415.000000;1.441487
9414.000000;1.439939
9413.000000;1.437616
9412.000000;1.435836
9411.000000;1.435408
9410.000000;1.436190
9409.000000;1.437137
9408.000000;1.436945
9407.000000;1.435110
9406.000000;1.432406
9405.000000;1.430246
9404.000000;1.429568
9403.000000;1.430238
9402.000000;1.431317
9401.000000;1.431845
9400.000000;1.431540
9399.000000;1.430881
9398.000000;1.430516
9397.000000;1.430554
9396.000000;1.430520
9395.000000;1.429991
9394.000000;1.428975
9393.000000;1.427573
9392.000000;1.425698
9391.000000;1.423520
9390.000000;1.421888
9389.000000;1.421715
9388.000000;1.422928
9387.000000;1.424542
9386.000000;1.425824
9385.000000;1.426809
9384.000000;1.427561
9383.000000;1.427595
9382.000000;1.426400
9381.000000;1.424120
9380.000000;1.421342
9379.000000;1.418585
9378.000000;1.416306
9377.000000;1.414934
9376.000000;1.414461
9375.000000;1.414372
9374.000000;1.414424
9373.000000;1.415113
9372.000000;1.416800
9371.000000;1.418701
9370.000000;1.419500
9369.000000;1.418917
9368.000000;1.417940
9367.000000;1.417397
9366.000000;1.417048
9365.000000;1.416228
9364.000000;1.414689
9363.000000;1.412539
9362.000000;1.409882
9361.000000;1.406937
9360.000000;1.404225
9359.000000;1.402345
9358.000000;1.401721
9357.000000;1.402582
9356.000000;1.404782
9355.000000;1.407442
9354.000000;1.409205
9353.000000;1.409223
9352.000000;1.407732
9351.000000;1.405480
9350.000000;1.402955
9349.000000;1.400460
9348.000000;1.398477
9347.000000;1.397361
9346.000000;1.396881
9345.000000;1.396601
9344.000000;1.396568
9343.000000;1.397184
9342.000000;1.398481
9341.000000;1.400015
9340.000000;1.401410
9339.000000;1.402518
9338.000000;1.403025
9337.000000;1.402546
9336.000000;1.401365
9335.000000;1.400445
9334.000000;1.400219
9333.000000;1.399815
9332.000000;1.398092
9331.000000;1.395296
9330.000000;1.393022
9329.000000;1.392590
9328.000000;1.393902
9327.000000;1.395783
9326.000000;1.396953
9325.000000;1.396749
9324.000000;1.395458
9323.000000;1.394119
9322.000000;1.393669
9321.000000;1.394121
9320.000000;1.394761
9319.000000;1.395105
9318.000000;1.395262
9317.000000;1.395312
9316.000000;1.394858
9315.000000;1.393565
9314.000000;1.391782
9313.000000;1.390212
9312.000000;1.389167
9311.000000;1.388477
9310.000000;1.387945
9309.000000;1.387523
9308.000000;1.387189
9307.000000;1.386998
9306.000000;1.387162
9305.000000;1.387772
9304.000000;1.388546
9303.000000;1.389133
9302.000000;1.389502
9301.000000;1.389725
9300.000000;1.389638
9299.000000;1.389114
9298.000000;1.388486
9297.000000;1.388182
9296.000000;1.388073
9295.000000;1.387727
9294.000000;1.387172
9293.000000;1.386768
9292.000000;1.386323
9291.000000;1.385078
9290.000000;1.382874
9289.000000;1.380600
9288.000000;1.379023
9287.000000;1.377844
9286.000000;1.376545
9285.000000;1.375588
9284.000000;1.375876
9283.000000;1.377188
9282.000000;1.378040
9281.000000;1.377299
9280.000000;1.375374
9279.000000;1.373571
9278.000000;1.372791
9277.000000;1.373165
9276.000000;1.374392
9275.000000;1.375889
9274.000000;1.376844
9273.000000;1.376642
9272.000000;1.375394
9271.000000;1.373854
9270.000000;1.372827
9269.000000;1.372745
9268.000000;1.373579
9267.000000;1.374770
9266.000000;1.375294
9265.000000;1.374264
9264.000000;1.371764
9263.000000;1.368983
9262.000000;1.367291
9261.000000;1.367110
9260.000000;1.367635
9259.000000;1.367589
9258.000000;1.366309
9257.000000;1.364298
9256.000000;1.362772
9255.000000;1.362600
9254.000000;1.363565
9253.000000;1.364656
9252.000000;1.365127
9251.000000;1.365193
9250.000000;1.365599
9249.000000;1.366614
9248.000000;1.367595
9247.000000;1.367498
9246.000000;1.365708
9245.000000;1.362523
9244.000000;1.359136
9243.000000;1.357074
9242.000000;1.357214
9241.000000;1.359037
9240.000000;1.360957
9239.000000;1.361606
9238.000000;1.360786
9237.000000;1.359151
9236.000000;1.357341
9235.000000;1.355749
9234.000000;1.354804
9233.000000;1.354831
9232.000000;1.355507
9231.000000;1.355894
9230.000000;1.355366
9229.000000;1.354297
9228.000000;1.353566
9227.000000;1.353561
9226.000000;1.353892
9225.000000;1.353978
9224.000000;1.353665
9223.000000;1.353239
9222.000000;1.352969
9221.000000;1.352793
9220.000000;1.352462
9219.000000;1.351950
9218.000000;1.351640
9217.000000;1.351981
9216.000000;1.352990
9215.000000;1.354125
9214.000000;1.354680
9213.000000;1.354237
9212.000000;1.352835
9211.000000;1.350855
9210.000000;1.348835
9209.000000;1.347292
9208.000000;1.346564
9207.000000;1.346673
9206.000000;1.347301
9205.000000;1.347948
9204.000000;1.348286
9203.000000;1.348462
9202.000000;1.348903
9201.000000;1.349721
9200.000000;1.350436
9199.000000;1.350426
9198.000000;1.349568
9197.000000;1.348254
9196.000000;1.346876
9195.000000;1.345577
9194.000000;1.344454
9193.000000;1.343574
9192.000000;1.342720
9191.000000;1.341540
9190.000000;1.340174
9189.000000;1.339389
9188.000000;1.339757
9187.000000;1.340876
9186.000000;1.341699
9185.000000;1.341489
9184.000000;1.340237
9183.000000;1.338404
9182.000000;1.336660
9181.000000;1.335753
9180.000000;1.336111
9179.000000;1.337417
9178.000000;1.338788
9177.000000;1.339540
9176.000000;1.339637
9175.000000;1.339381
9174.000000;1.339009
9173.000000;1.338719
9172.000000;1.338740
9171.000000;1.339100
9170.000000;1.339443
9169.000000;1.339332
9168.000000;1.338747
9167.000000;1.338165
9166.000000;1.338119
9165.000000;1.338731
9164.000000;1.339606
9163.000000;1.340087
9162.000000;1.339713
9161.000000;1.338552
9160.000000;1.337072
9159.000000;1.335675
9158.000000;1.334550
9157.000000;1.333981
9156.000000;1.334465
9155.000000;1.336103
9154.000000;1.337869
9153.000000;1.338003
9152.000000;1.335573
9151.000000;1.331579
9150.000000;1.328157
9149.000000;1.326732
9148.000000;1.327032
9147.000000;1.327746
9146.000000;1.327894
9145.000000;1.327481
9144.000000;1.327058
9143.000000;1.326984
9142.000000;1.327252
9141.000000;1.327795
9140.000000;1.328664
9139.000000;1.329787
9138.000000;1.330697
9137.000000;1.330728
9136.000000;1.329623
9135.000000;1.327848
9134.000000;1.326179
9133.000000;1.325035
9132.000000;1.324368
9131.000000;1.324131
9130.000000;1.324595
9129.000000;1.325965
9128.000000;1.327767
9127.000000;1.328884
9126.000000;1.328374
9125.000000;1.326318
9124.000000;1.323832
9123.000000;1.322153
9122.000000;1.321647
9121.000000;1.321740
9120.000000;1.321804
9119.000000;1.321909
9118.000000;1.322406
9117.000000;1.322927
9116.000000;1.322391
9115.000000;1.320313
9114.000000;1.317688
9113.000000;1.316134
9112.000000;1.316336
9111.000000;1.317715
9110.000000;1.319442
9109.000000;1.321189
9108.000000;1.322818
9107.000000;1.323951
9106.000000;1.324160
9105.000000;1.323308
9104.000000;1.321544
9103.000000;1.319237
9102.000000;1.317077
9101.000000;1.315848
9100.000000;1.315769
9099.000000;1.316236
9098.000000;1.316530
9097.000000;1.316614
9096.000000;1.316979
9095.000000;1.317869
9094.000000;1.318989
9093.000000;1.319838
9092.000000;1.319989
9091.000000;1.319102
9090.000000;1.317088
9089.000000;1.314441
9088.000000;1.312190
9087.000000;1.311209
9086.000000;1.311512
9085.000000;1.312338
9084.000000;1.312916
9083.000000;1.313101
9082.000000;1.313265
9081.000000;1.313654
9080.000000;1.313983
9079.000000;1.313809
9078.000000;1.313182
9077.000000;1.312635
9076.000000;1.312484
9075.000000;1.312434
9074.000000;1.312108
9073.000000;1.311701
9072.000000;1.311716
9071.000000;1.312233
9070.000000;1.312875
9069.000000;1.313454
9068.000000;1.314142
9067.000000;1.314825
9066.000000;1.314734
9065.000000;1.313152
9064.000000;1.310396
9063.000000;1.307769
9062.000000;1.306453
9061.000000;1.306607
9060.000000;1.307426
9059.000000;1.307948
9058.000000;1.307890
9057.000000;1.307853
9056.000000;1.308634
9055.000000;1.310230
9054.000000;1.311534
9053.000000;1.311233
