Criado como novo conjunto de dados;"1909daniel.spp","-4222061.5 Secs"
cm-1;Abs
10000.000000;1.466979
9999.000000;1.465640
9998.000000;1.465050
9997.000000;1.465105
9996.000000;1.465314
9995.000000;1.465231
9994.000000;1.464957
9993.000000;1.464980
9992.000000;1.465459
9991.000000;1.465946
9990.000000;1.465939
9989.000000;1.465437
9988.000000;1.464697
9987.000000;1.463696
9986.000000;1.462211
9985.000000;1.460319
9984.000000;1.458580
9983.000000;1.457710
9982.000000;1.458114
9981.000000;1.459557
9980.000000;1.461083
9979.000000;1.461489
9978.000000;1.460283
9977.000000;1.458121
9976.000000;1.456083
9975.000000;1.454614
9974.000000;1.453483
9973.000000;1.452631
9972.000000;1.452450
9971.000000;1.453071
9970.000000;1.453886
9969.000000;1.454139
9968.000000;1.453661
9967.000000;1.452680
9966.000000;1.451245
9965.000000;1.449397
9964.000000;1.447700
9963.000000;1.446904
9962.000000;1.446918
9961.000000;1.446661
9960.000000;1.445321
9959.000000;1.443363
9958.000000;1.441896
9957.000000;1.441342
9956.000000;1.441201
9955.000000;1.440947
9954.000000;1.440586
9953.000000;1.440245
9952.000000;1.439714
9951.000000;1.438712
9950.000000;1.437324
9949.000000;1.435930
9948.000000;1.434892
9947.000000;1.434515
9946.000000;1.435060
9945.000000;1.436368
9944.000000;1.437548
9943.000000;1.437514
9942.000000;1.436104
9941.000000;1.434376
9940.000000;1.433541
9939.000000;1.433766
9938.000000;1.434257
9937.000000;1.434378
9936.000000;1.434245
9935.000000;1.434095
9934.000000;1.433536
9933.000000;1.431919
9932.000000;1.429335
9931.000000;1.426746
9930.000000;1.424982
9929.000000;1.423939
9928.000000;1.422974
9927.000000;1.421817
9926.000000;1.420861
9925.000000;1.420661
9924.000000;1.421413
9923.000000;1.422820
9922.000000;1.424204
9921.000000;1.424819
9920.000000;1.424447
9919.000000;1.423802
9918.000000;1.423959
9917.000000;1.425101
9916.000000;1.425990
9915.000000;1.425065
9914.000000;1.422119
9913.000000;1.418573
9912.000000;1.416060
9911.000000;1.414977
9910.000000;1.414466
9909.000000;1.413572
9908.000000;1.412111
9907.000000;1.410460
9906.000000;1.408918
9905.000000;1.407573
9904.000000;1.406544
9903.000000;1.405998
9902.000000;1.405974
9901.000000;1.406442
9900.000000;1.407426
9899.000000;1.408732
9898.000000;1.409626
9897.000000;1.409323
9896.000000;1.407981
9895.000000;1.406740
9894.000000;1.406449
9893.000000;1.406704
9892.000000;1.406456
9891.000000;1.405306
9890.000000;1.403719
9889.000000;1.402152
9888.000000;1.400525
9887.000000;1.398644
9886.000000;1.396773
9885.000000;1.395521
9884.000000;1.395239
9883.000000;1.395682
9882.000000;1.396208
9881.000000;1.396237
9880.000000;1.395593
9879.000000;1.394456
9878.000000;1.393099
9877.000000;1.391791
9876.000000;1.390910
9875.000000;1.390753
9874.000000;1.391062
9873.000000;1.391094
9872.000000;1.390453
9871.000000;1.389583
9870.000000;1.389090
9869.000000;1.388832
9868.000000;1.388166
9867.000000;1.386975
9866.000000;1.385899
9865.000000;1.385590
9864.000000;1.386160
9863.000000;1.387278
9862.000000;1.388309
9861.000000;1.388388
9860.000000;1.386997
9859.000000;1.384672
9858.000000;1.382610
9857.000000;1.381354
9856.000000;1.380288
9855.000000;1.378684
9854.000000;1.376768
9853.000000;1.375311
9852.000000;1.374548
9851.000000;1.373977
9850.000000;1.373117
9849.000000;1.372139
9848.000000;1.371718
9847.000000;1.372382
9846.000000;1.373844
9845.000000;1.374856
9844.000000;1.374115
9843.000000;1.371635
9842.000000;1.368927
9841.000000;1.367577
9840.000000;1.367815
9839.000000;1.368566
9838.000000;1.368632
9837.000000;1.367640
9836.000000;1.366104
9835.000000;1.364865
9834.000000;1.364353
9833.000000;1.364081
9832.000000;1.363037
9831.000000;1.360901
9830.000000;1.358739
9829.000000;1.358065
9828.000000;1.359244
9827.000000;1.361114
9826.000000;1.362169
9825.000000;1.361826
9824.000000;1.360500
9823.000000;1.358871
9822.000000;1.357388
9821.000000;1.356275
9820.000000;1.355624
9819.000000;1.355388
9818.000000;1.355373
9817.000000;1.355353
9816.000000;1.355233
9815.000000;1.355103
9814.000000;1.355148
9813.000000;1.355437
9812.000000;1.355804
9811.000000;1.355994
9810.000000;1.355815
9809.000000;1.355018
9808.000000;1.353203
9807.000000;1.350185
9806.000000;1.346559
9805.000000;1.343646
9804.000000;1.342635
9803.000000;1.343701
9802.000000;1.345869
9801.000000;1.347633
9800.000000;1.347788
9799.000000;1.346028
9798.000000;1.343093
9797.000000;1.340356
9796.000000;1.338976
9795.000000;1.339099
9794.000000;1.339856
9793.000000;1.340287
9792.000000;1.340276
9791.000000;1.340426
9790.000000;1.341082
9789.000000;1.341741
9788.000000;1.341553
9787.000000;1.340261
9786.000000;1.338431
9785.000000;1.336805
9784.000000;1.335597
9783.000000;1.334502
9782.000000;1.333289
9781.000000;1.332258
9780.000000;1.331979
9779.000000;1.332535
9778.000000;1.333171
9777.000000;1.332915
9776.000000;1.331577
9775.000000;1.329894
9774.000000;1.328638
9773.000000;1.327896
9772.000000;1.327327
9771.000000;1.326784
9770.000000;1.326350
9769.000000;1.325991
9768.000000;1.325569
9767.000000;1.325145
9766.000000;1.324969
9765.000000;1.325167
9764.000000;1.325626
9763.000000;1.326113
9762.000000;1.326234
9761.000000;1.325446
9760.000000;1.323553
9759.000000;1.321244
9758.000000;1.319678
9757.000000;1.319342
9756.000000;1.319555
9755.000000;1.319258
9754.000000;1.318161
9753.000000;1.316942
9752.000000;1.316394
9751.000000;1.316578
9750.000000;1.316756
9749.000000;1.316105
9748.000000;1.314589
9747.000000;1.313083
9746.000000;1.312512
9745.000000;1.312942
9744.000000;1.313705
9743.000000;1.314212
9742.000000;1.314206
9741.000000;1.313332
9740.000000;1.311229
9739.000000;1.308309
9738.000000;1.305838
9737.000000;1.304723
9736.000000;1.304510
9735.000000;1.304027
9734.000000;1.302848
9733.000000;1.301673
9732.000000;1.301324
9731.000000;1.301806
9730.000000;1.302362
9729.000000;1.302180
9728.000000;1.301113
9727.000000;1.299947
9726.000000;1.299781
9725.000000;1.300832
9724.000000;1.301928
9723.000000;1.301574
9722.000000;1.299603
9721.000000;1.297332
9720.000000;1.296074
9719.000000;1.295973
9718.000000;1.296358
9717.000000;1.296636
9716.000000;1.296485
9715.000000;1.295580
9714.000000;1.293762
9713.000000;1.291422
9712.000000;1.289304
9711.000000;1.287816
9710.000000;1.286801
9709.000000;1.286055
9708.000000;1.285813
9707.000000;1.286449
9706.000000;1.287861
9705.000000;1.289335
9704.000000;1.290018
9703.000000;1.289499
9702.000000;1.288062
9701.000000;1.286418
9700.000000;1.285145
9699.000000;1.284283
9698.000000;1.283419
9697.000000;1.282250
9696.000000;1.280970
9695.000000;1.280019
9694.000000;1.279574
9693.000000;1.279392
9692.000000;1.279170
9691.000000;1.278922
9690.000000;1.278907
9689.000000;1.279206
9688.000000;1.279507
9687.000000;1.279338
9686.000000;1.278498
9685.000000;1.277236
9684.000000;1.275961
9683.000000;1.274819
9682.000000;1.273622
9681.000000;1.272210
9680.000000;1.270756
9679.000000;1.269606
9678.000000;1.268891
9677.000000;1.268420
9676.000000;1.267951
9675.000000;1.267429
9674.000000;1.266931
9673.000000;1.266517
9672.000000;1.266192
9671.000000;1.265967
9670.000000;1.265912
9669.000000;1.266100
9668.000000;1.266401
9667.000000;1.266305
9666.000000;1.265213
9665.000000;1.263115
9664.000000;1.260808
9663.000000;1.259216
9662.000000;1.258569
9661.000000;1.258488
9660.000000;1.258748
9659.000000;1.259442
9658.000000;1.260293
9657.000000;1.260394
9656.000000;1.259052
9655.000000;1.256594
9654.000000;1.253994
9653.000000;1.251987
9652.000000;1.250885
9651.000000;1.250894
9650.000000;1.252018
9649.000000;1.253630
9648.000000;1.254638
9647.000000;1.254316
9646.000000;1.252840
9645.000000;1.251007
9644.000000;1.249588
9643.000000;1.248925
9642.000000;1.248852
9641.000000;1.248918
9640.000000;1.248795
9639.000000;1.248483
9638.000000;1.248025
9637.000000;1.247245
9636.000000;1.246003
9635.000000;1.244536
9634.000000;1.243269
9633.000000;1.242368
9632.000000;1.241748
9631.000000;1.241391
9630.000000;1.241272
9629.000000;1.241049
9628.000000;1.240261
9627.000000;1.238993
9626.000000;1.237919
9625.000000;1.237501
9624.000000;1.237496
9623.000000;1.237408
9622.000000;1.237129
9621.000000;1.236906
9620.000000;1.236894
9619.000000;1.237001
9618.000000;1.237022
9617.000000;1.236704
9616.000000;1.235870
9615.000000;1.234727
9614.000000;1.233952
9613.000000;1.234102
9612.000000;1.234849
9611.000000;1.235066
9610.000000;1.233884
9609.000000;1.231586
9608.000000;1.229296
9607.000000;1.227899
9606.000000;1.227430
9605.000000;1.227419
9604.000000;1.227495
9603.000000;1.227448
9602.000000;1.226983
9601.000000;1.225896
9600.000000;1.224517
9599.000000;1.223568
9598.000000;1.223357
9597.000000;1.223380
9596.000000;1.222931
9595.000000;1.221886
9594.000000;1.220665
9593.000000;1.219654
9592.000000;1.218991
9591.000000;1.218677
9590.000000;1.218533
9589.000000;1.218184
9588.000000;1.217472
9587.000000;1.216758
9586.000000;1.216478
9585.000000;1.216494
9584.000000;1.216323
9583.000000;1.215923
9582.000000;1.215744
9581.000000;1.215975
9580.000000;1.216244
9579.000000;1.216156
9578.000000;1.215655
9577.000000;1.214725
9576.000000;1.213258
9575.000000;1.211516
9574.000000;1.210227
9573.000000;1.209773
9572.000000;1.209542
9571.000000;1.208557
9570.000000;1.206675
9569.000000;1.204846
9568.000000;1.204182
9567.000000;1.204932
9566.000000;1.206229
9565.000000;1.206695
9564.000000;1.205539
9563.000000;1.203351
9562.000000;1.201670
9561.000000;1.201568
9560.000000;1.202724
9559.000000;1.203988
9558.000000;1.204668
9557.000000;1.204940
9556.000000;1.205090
9555.000000;1.204828
9554.000000;1.203634
9553.000000;1.201568
9552.000000;1.199407
9551.000000;1.197930
9550.000000;1.197233
9549.000000;1.196884
9548.000000;1.196631
9547.000000;1.196701
9546.000000;1.197252
9545.000000;1.197835
9544.000000;1.197719
9543.000000;1.196719
9542.000000;1.195346
9541.000000;1.194110
9540.000000;1.193020
9539.000000;1.191858
9538.000000;1.190598
9537.000000;1.189342
9536.000000;1.188144
9535.000000;1.187190
9534.000000;1.186935
9533.000000;1.187658
9532.000000;1.188869
9531.000000;1.189419
9530.000000;1.188331
9529.000000;1.185559
9528.000000;1.182076
9527.000000;1.179410
9526.000000;1.178878
9525.000000;1.180739
9524.000000;1.183780
9523.000000;1.185920
9522.000000;1.185676
9521.000000;1.183255
9520.000000;1.180219
9519.000000;1.178102
9518.000000;1.177353
9517.000000;1.177407
9516.000000;1.177532
9515.000000;1.177463
9514.000000;1.177281
9513.000000;1.176998
9512.000000;1.176514
9511.000000;1.175906
9510.000000;1.175461
9509.000000;1.175324
9508.000000;1.175279
9507.000000;1.174982
9506.000000;1.174278
9505.000000;1.173191
9504.000000;1.171801
9503.000000;1.170300
9502.000000;1.169074
9501.000000;1.168482
9500.000000;1.168517
9499.000000;1.168796
9498.000000;1.168926
9497.000000;1.168812
9496.000000;1.168630
9495.000000;1.168616
9494.000000;1.168887
9493.000000;1.169370
9492.000000;1.169803
9491.000000;1.169837
9490.000000;1.169232
9489.000000;1.168002
9488.000000;1.166389
9487.000000;1.164689
9486.000000;1.163135
9485.000000;1.161926
9484.000000;1.161205
9483.000000;1.160910
9482.000000;1.160700
9481.000000;1.160193
9480.000000;1.159360
9479.000000;1.158593
9478.000000;1.158326
9477.000000;1.158609
9476.000000;1.159058
9475.000000;1.159138
9474.000000;1.158480
9473.000000;1.157092
9472.000000;1.155343
9471.000000;1.153749
9470.000000;1.152716
9469.000000;1.152429
9468.000000;1.152823
9467.000000;1.153572
9466.000000;1.154198
9465.000000;1.154383
9464.000000;1.154113
9463.000000;1.153411
9462.000000;1.152114
9461.000000;1.150274
9460.000000;1.148644
9459.000000;1.148209
9458.000000;1.149061
9457.000000;1.150142
9456.000000;1.150307
9455.000000;1.149304
9454.000000;1.147527
9453.000000;1.145338
9452.000000;1.143152
9451.000000;1.141691
9450.000000;1.141447
9449.000000;1.141995
9448.000000;1.142412
9447.000000;1.142425
9446.000000;1.142669
9445.000000;1.143715
9444.000000;1.145233
9443.000000;1.146246
9442.000000;1.145967
9441.000000;1.144356
9440.000000;1.142133
9439.000000;1.140272
9438.000000;1.139233
9437.000000;1.138670
9436.000000;1.138038
9435.000000;1.137379
9434.000000;1.137201
9433.000000;1.137697
9432.000000;1.138484
9431.000000;1.139063
9430.000000;1.139126
9429.000000;1.138440
9428.000000;1.136908
9427.000000;1.134892
9426.000000;1.133147
9425.000000;1.132256
9424.000000;1.132262
9423.000000;1.132834
9422.000000;1.133516
9421.000000;1.133836
9420.000000;1.133526
9419.000000;1.132730
9418.000000;1.131790
9417.000000;1.130883
9416.000000;1.130121
9415.000000;1.129781
9414.000000;1.129997
9413.000000;1.130332
9412.000000;1.130179
9411.000000;1.129554
9410.000000;1.128960
9409.000000;1.128464
9408.000000;1.127583
9407.000000;1.126177
9406.000000;1.124818
9405.000000;1.123999
9404.000000;1.123568
9403.000000;1.123199
9402.000000;1.122899
9401.000000;1.122716
9400.000000;1.122445
9399.000000;1.122021
9398.000000;1.121752
9397.000000;1.121727
9396.000000;1.121368
9395.000000;1.120072
9394.000000;1.118029
9393.000000;1.116000
9392.000000;1.114532
9391.000000;1.113784
9390.000000;1.113834
9389.000000;1.114665
9388.000000;1.115902
9387.000000;1.116957
9386.000000;1.117433
9385.000000;1.117243
9384.000000;1.116482
9383.000000;1.115426
9382.000000;1.114471
9381.000000;1.113842
9380.000000;1.113489
9379.000000;1.113355
9378.000000;1.113477
9377.000000;1.113689
9376.000000;1.113611
9375.000000;1.113171
9374.000000;1.112737
9373.000000;1.112449
9372.000000;1.111885
9371.000000;1.110794
9370.000000;1.109745
9369.000000;1.109425
9368.000000;1.109608
9367.000000;1.109437
9366.000000;1.108597
9365.000000;1.107587
9364.000000;1.106889
9363.000000;1.106419
9362.000000;1.105878
9361.000000;1.105162
9360.000000;1.104312
9359.000000;1.103416
9358.000000;1.102685
9357.000000;1.102335
9356.000000;1.102290
9355.000000;1.102200
9354.000000;1.101788
9353.000000;1.101018
9352.000000;1.099998
9351.000000;1.099000
9350.000000;1.098456
9349.000000;1.098607
9348.000000;1.099168
9347.000000;1.099625
9346.000000;1.099789
9345.000000;1.099782
9344.000000;1.099583
9343.000000;1.099021
9342.000000;1.098183
9341.000000;1.097392
9340.000000;1.096724
9339.000000;1.095940
9338.000000;1.095010
9337.000000;1.094308
9336.000000;1.094049
9335.000000;1.093840
9334.000000;1.093055
9333.000000;1.091533
9332.000000;1.089769
9331.000000;1.088474
9330.000000;1.088024
9329.000000;1.088271
9328.000000;1.088804
9327.000000;1.089399
9326.000000;1.090147
9325.000000;1.091076
9324.000000;1.091835
9323.000000;1.091999
9322.000000;1.091607
9321.000000;1.091058
9320.000000;1.090486
9319.000000;1.089563
9318.000000;1.088069
9317.000000;1.086425
9316.000000;1.085425
9315.000000;1.085472
9314.000000;1.086140
9313.000000;1.086489
9312.000000;1.085875
9311.000000;1.084502
9310.000000;1.083115
9309.000000;1.082156
9308.000000;1.081431
9307.000000;1.080671
9306.000000;1.080066
9305.000000;1.079967
9304.000000;1.080305
9303.000000;1.080669
9302.000000;1.080838
9301.000000;1.080854
9300.000000;1.080627
9299.000000;1.079943
9298.000000;1.078936
9297.000000;1.078165
9296.000000;1.078005
9295.000000;1.078191
9294.000000;1.078101
9293.000000;1.077388
9292.000000;1.076330
9291.000000;1.075659
9290.000000;1.075953
9289.000000;1.076980
9288.000000;1.077732
9287.000000;1.077423
9286.000000;1.076414
9285.000000;1.075768
9284.000000;1.075909
9283.000000;1.076142
9282.000000;1.075593
9281.000000;1.074225
9280.000000;1.072713
9279.000000;1.071676
9278.000000;1.071312
9277.000000;1.071500
9276.000000;1.071932
9275.000000;1.072225
9274.000000;1.072131
9273.000000;1.071621
9272.000000;1.070735
9271.000000;1.069549
9270.000000;1.068390
9269.000000;1.067775
9268.000000;1.067929
9267.000000;1.068487
9266.000000;1.068868
9265.000000;1.068775
9264.000000;1.068174
9263.000000;1.067028
9262.000000;1.065400
9261.000000;1.063752
9260.000000;1.062772
9259.000000;1.062759
9258.000000;1.063332
9257.000000;1.063787
9256.000000;1.063683
9255.000000;1.063068
9254.000000;1.062331
9253.000000;1.061929
9252.000000;1.062127
9251.000000;1.062808
9250.000000;1.063497
9249.000000;1.063671
9248.000000;1.063178
9247.000000;1.062358
9246.000000;1.061672
9245.000000;1.061220
9244.000000;1.060735
9243.000000;1.060011
9242.000000;1.059134
9241.000000;1.058237
9240.000000;1.057264
9239.000000;1.056192
9238.000000;1.055287
9237.000000;1.054829
9236.000000;1.054683
9235.000000;1.054519
9234.000000;1.054415
9233.000000;1.054791
9232.000000;1.055639
9231.000000;1.056250
9230.000000;1.055989
9229.000000;1.055074
9228.000000;1.054213
9227.000000;1.053698
9226.000000;1.053263
9225.000000;1.052697
9224.000000;1.052162
9223.000000;1.051872
9222.000000;1.051832
9221.000000;1.052041
9220.000000;1.052626
9219.000000;1.053535
9218.000000;1.054223
9217.000000;1.053950
9216.000000;1.052537
9215.000000;1.050716
9214.000000;1.049582
9213.000000;1.049608
9212.000000;1.050229
9211.000000;1.050477
9210.000000;1.050021
9209.000000;1.049423
9208.000000;1.049306
9207.000000;1.049535
9206.000000;1.049441
9205.000000;1.048741
9204.000000;1.047902
9203.000000;1.047535
9202.000000;1.047696
9201.000000;1.047962
9200.000000;1.048057
9199.000000;1.048147
9198.000000;1.048487
9197.000000;1.048927
9196.000000;1.048893
9195.000000;1.047876
9194.000000;1.045940
9193.000000;1.043764
9192.000000;1.042163
9191.000000;1.041523
9190.000000;1.041658
9189.000000;1.042169
9188.000000;1.042836
9187.000000;1.043626
9186.000000;1.044402
9185.000000;1.044837
9184.000000;1.044693
9183.000000;1.044140
9182.000000;1.043667
9181.000000;1.043653
9180.000000;1.044032
9179.000000;1.044347
9178.000000;1.044099
9177.000000;1.043098
9176.000000;1.041566
9175.000000;1.039974
9174.000000;1.038729
9173.000000;1.037973
9172.000000;1.037658
9171.000000;1.037740
9170.000000;1.038207
9169.000000;1.038890
9168.000000;1.039365
9167.000000;1.039164
9166.000000;1.038135
9165.000000;1.036618
9164.000000;1.035259
9163.000000;1.034617
9162.000000;1.034806
9161.000000;1.035422
9160.000000;1.035807
9159.000000;1.035471
9158.000000;1.034355
9157.000000;1.032842
9156.000000;1.031589
9155.000000;1.031196
9154.000000;1.031784
9153.000000;1.032848
9152.000000;1.033642
9151.000000;1.033788
9150.000000;1.033424
9149.000000;1.032822
9148.000000;1.032125
9147.000000;1.031513
9146.000000;1.031258
9145.000000;1.031378
9144.000000;1.031444
9143.000000;1.031044
9142.000000;1.030320
9141.000000;1.029731
9140.000000;1.029411
9139.000000;1.029120
9138.000000;1.028804
9137.000000;1.028756
9136.000000;1.029077
9135.000000;1.029318
9134.000000;1.028959
9133.000000;1.028060
9132.000000;1.027183
9131.000000;1.026745
9130.000000;1.026654
9129.000000;1.026509
9128.000000;1.025999
9127.000000;1.025130
9126.000000;1.024229
9125.000000;1.023714
9124.000000;1.023762
9123.000000;1.024158
9122.000000;1.024515
9121.000000;1.024608
9120.000000;1.024440
9119.000000;1.024066
9118.000000;1.023515
9117.000000;1.022874
9116.000000;1.022305
9115.000000;1.021926
9114.000000;1.021739
9113.000000;1.021732
9112.000000;1.021976
9111.000000;1.022541
9110.000000;1.023294
9109.000000;1.023837
9108.000000;1.023773
9107.000000;1.023068
9106.000000;1.022147
9105.000000;1.021561
9104.000000;1.021557
9103.000000;1.021951
9102.000000;1.022372
9101.000000;1.022567
9100.000000;1.022521
9099.000000;1.022378
9098.000000;1.022271
9097.000000;1.022168
9096.000000;1.021884
9095.000000;1.021281
9094.000000;1.020448
9093.000000;1.019596
9092.000000;1.018810
9091.000000;1.018026
9090.000000;1.017264
9089.000000;1.016737
9088.000000;1.016615
9087.000000;1.016777
9086.000000;1.016854
9085.000000;1.016522
9084.000000;1.015723
9083.000000;1.014721
9082.000000;1.014018
9081.000000;1.014067
9080.000000;1.014889
9079.000000;1.015940
9078.000000;1.016516
9077.000000;1.016339
9076.000000;1.015715
9075.000000;1.015112
9074.000000;1.014724
9073.000000;1.014480
9072.000000;1.014349
9071.000000;1.014481
9070.000000;1.014974
9069.000000;1.015559
9068.000000;1.015609
9067.000000;1.014593
9066.000000;1.012594
9065.000000;1.010328
9064.000000;1.008598
9063.000000;1.007737
9062.000000;1.007597
9061.000000;1.007942
9060.000000;1.008683
9059.000000;1.009730
9058.000000;1.010863
9057.000000;1.011822
9056.000000;1.012451
9055.000000;1.012661
9054.000000;1.012382
9053.000000;1.011690
