Criado como novo conjunto de dados;"1909daniel.spp","-4210181.1 Secs"
cm-1;Abs
10000.000000;1.150715
9999.000000;1.151731
9998.000000;1.152750
9997.000000;1.153770
9996.000000;1.154795
9995.000000;1.155818
9994.000000;1.156851
9993.000000;1.157874
9992.000000;1.158921
9991.000000;1.159930
9990.000000;1.161028
9989.000000;1.161726
9988.000000;1.161690
9987.000000;1.161010
9986.000000;1.159601
9985.000000;1.157787
9984.000000;1.156010
9983.000000;1.154443
9982.000000;1.152999
9981.000000;1.151771
9980.000000;1.151009
9979.000000;1.150673
9978.000000;1.150334
9977.000000;1.149603
9976.000000;1.148501
9975.000000;1.147392
9974.000000;1.146615
9973.000000;1.146142
9972.000000;1.145577
9971.000000;1.144611
9970.000000;1.143495
9969.000000;1.142808
9968.000000;1.142722
9967.000000;1.142761
9966.000000;1.142411
9965.000000;1.141704
9964.000000;1.140995
9963.000000;1.140394
9962.000000;1.139594
9961.000000;1.138175
9960.000000;1.136057
9959.000000;1.133810
9958.000000;1.132436
9957.000000;1.132521
9956.000000;1.133585
9955.000000;1.134493
9954.000000;1.134486
9953.000000;1.133499
9952.000000;1.131681
9951.000000;1.129313
9950.000000;1.127227
9949.000000;1.126480
9948.000000;1.127210
9947.000000;1.128283
9946.000000;1.128468
9945.000000;1.127635
9944.000000;1.126498
9943.000000;1.125590
9942.000000;1.124894
9941.000000;1.124167
9940.000000;1.123217
9939.000000;1.122030
9938.000000;1.120902
9937.000000;1.120260
9936.000000;1.120170
9935.000000;1.120172
9934.000000;1.119720
9933.000000;1.118617
9932.000000;1.117005
9931.000000;1.115267
9930.000000;1.113964
9929.000000;1.113447
9928.000000;1.113393
9927.000000;1.113087
9926.000000;1.112261
9925.000000;1.111282
9924.000000;1.110441
9923.000000;1.109581
9922.000000;1.108592
9921.000000;1.107750
9920.000000;1.107255
9919.000000;1.106899
9918.000000;1.106495
9917.000000;1.106242
9916.000000;1.106307
9915.000000;1.106366
9914.000000;1.105950
9913.000000;1.105010
9912.000000;1.103887
9911.000000;1.102903
9910.000000;1.102190
9909.000000;1.101684
9908.000000;1.101119
9907.000000;1.100243
9906.000000;1.099137
9905.000000;1.098093
9904.000000;1.097140
9903.000000;1.096073
9902.000000;1.094967
9901.000000;1.094189
9900.000000;1.093787
9899.000000;1.093375
9898.000000;1.092748
9897.000000;1.092125
9896.000000;1.091581
9895.000000;1.090773
9894.000000;1.089496
9893.000000;1.088064
9892.000000;1.086847
9891.000000;1.085859
9890.000000;1.085083
9889.000000;1.084713
9888.000000;1.084665
9887.000000;1.084293
9886.000000;1.083095
9885.000000;1.081411
9884.000000;1.080002
9883.000000;1.079207
9882.000000;1.078897
9881.000000;1.078984
9880.000000;1.079501
9879.000000;1.080234
9878.000000;1.080635
9877.000000;1.080141
9876.000000;1.078527
9875.000000;1.076150
9874.000000;1.073910
9873.000000;1.072647
9872.000000;1.072367
9871.000000;1.072311
9870.000000;1.071913
9869.000000;1.071370
9868.000000;1.071064
9867.000000;1.070867
9866.000000;1.070390
9865.000000;1.069633
9864.000000;1.068967
9863.000000;1.068667
9862.000000;1.068694
9861.000000;1.068742
9860.000000;1.068268
9859.000000;1.066792
9858.000000;1.064500
9857.000000;1.062321
9856.000000;1.061066
9855.000000;1.060592
9854.000000;1.060048
9853.000000;1.058864
9852.000000;1.057321
9851.000000;1.056209
9850.000000;1.056089
9849.000000;1.056780
9848.000000;1.057439
9847.000000;1.057242
9846.000000;1.056127
9845.000000;1.054775
9844.000000;1.053822
9843.000000;1.053299
9842.000000;1.052823
9841.000000;1.052098
9840.000000;1.051173
9839.000000;1.050435
9838.000000;1.050323
9837.000000;1.050760
9836.000000;1.050943
9835.000000;1.050086
9834.000000;1.048382
9833.000000;1.046787
9832.000000;1.045845
9831.000000;1.045223
9830.000000;1.044466
9829.000000;1.043620
9828.000000;1.042908
9827.000000;1.042316
9826.000000;1.041800
9825.000000;1.041472
9824.000000;1.041229
9823.000000;1.040597
9822.000000;1.039300
9821.000000;1.037691
9820.000000;1.036329
9819.000000;1.035427
9818.000000;1.034924
9817.000000;1.034728
9816.000000;1.034587
9815.000000;1.034082
9814.000000;1.033098
9813.000000;1.032052
9812.000000;1.031374
9811.000000;1.030997
9810.000000;1.030614
9809.000000;1.030110
9808.000000;1.029445
9807.000000;1.028449
9806.000000;1.027117
9805.000000;1.025856
9804.000000;1.025079
9803.000000;1.024691
9802.000000;1.024321
9801.000000;1.023888
9800.000000;1.023587
9799.000000;1.023452
9798.000000;1.023234
9797.000000;1.022694
9796.000000;1.021810
9795.000000;1.020732
9794.000000;1.019667
9793.000000;1.018706
9792.000000;1.017667
9791.000000;1.016285
9790.000000;1.014679
9789.000000;1.013431
9788.000000;1.013004
9787.000000;1.013219
9786.000000;1.013471
9785.000000;1.013308
9784.000000;1.012656
9783.000000;1.011648
9782.000000;1.010456
9781.000000;1.009282
9780.000000;1.008332
9779.000000;1.007730
9778.000000;1.007393
9777.000000;1.006967
9776.000000;1.006050
9775.000000;1.004650
9774.000000;1.003306
9773.000000;1.002549
9772.000000;1.002336
9771.000000;1.002256
9770.000000;1.002090
9769.000000;1.001832
9768.000000;1.001294
9767.000000;1.000253
9766.000000;0.998977
9765.000000;0.998095
9764.000000;0.997816
9763.000000;0.997712
9762.000000;0.997379
9761.000000;0.996872
9760.000000;0.996342
9759.000000;0.995675
9758.000000;0.994727
9757.000000;0.993579
9756.000000;0.992373
9755.000000;0.991207
9754.000000;0.990307
9753.000000;0.989924
9752.000000;0.989872
9751.000000;0.989507
9750.000000;0.988429
9749.000000;0.986941
9748.000000;0.985651
9747.000000;0.984891
9746.000000;0.984629
9745.000000;0.984625
9744.000000;0.984500
9743.000000;0.983965
9742.000000;0.983135
9741.000000;0.982370
9740.000000;0.981723
9739.000000;0.980900
9738.000000;0.979836
9737.000000;0.978925
9736.000000;0.978503
9735.000000;0.978430
9734.000000;0.978316
9733.000000;0.977829
9732.000000;0.976751
9731.000000;0.975148
9730.000000;0.973616
9729.000000;0.972896
9728.000000;0.973007
9727.000000;0.973135
9726.000000;0.972584
9725.000000;0.971508
9724.000000;0.970492
9723.000000;0.969821
9722.000000;0.969397
9721.000000;0.968977
9720.000000;0.968261
9719.000000;0.967059
9718.000000;0.965646
9717.000000;0.964652
9716.000000;0.964399
9715.000000;0.964583
9714.000000;0.964688
9713.000000;0.964393
9712.000000;0.963492
9711.000000;0.961900
9710.000000;0.959968
9709.000000;0.958352
9708.000000;0.957330
9707.000000;0.956620
9706.000000;0.956035
9705.000000;0.955820
9704.000000;0.956056
9703.000000;0.956217
9702.000000;0.955750
9701.000000;0.954791
9700.000000;0.953911
9699.000000;0.953431
9698.000000;0.953270
9697.000000;0.953194
9696.000000;0.952920
9695.000000;0.952254
9694.000000;0.951366
9693.000000;0.950671
9692.000000;0.950229
9691.000000;0.949581
9690.000000;0.948383
9689.000000;0.946840
9688.000000;0.945311
9687.000000;0.943877
9686.000000;0.942572
9685.000000;0.941631
9684.000000;0.941152
9683.000000;0.940861
9682.000000;0.940516
9681.000000;0.940229
9680.000000;0.940103
9679.000000;0.939870
9678.000000;0.939246
9677.000000;0.938361
9676.000000;0.937512
9675.000000;0.936752
9674.000000;0.936019
9673.000000;0.935385
9672.000000;0.934879
9671.000000;0.934317
9670.000000;0.933583
9669.000000;0.932842
9668.000000;0.932225
9667.000000;0.931580
9666.000000;0.930782
9665.000000;0.929972
9664.000000;0.929253
9663.000000;0.928490
9662.000000;0.927663
9661.000000;0.927067
9660.000000;0.926834
9659.000000;0.926605
9658.000000;0.926018
9657.000000;0.925205
9656.000000;0.924506
9655.000000;0.924029
9654.000000;0.923739
9653.000000;0.923585
9652.000000;0.923242
9651.000000;0.922203
9650.000000;0.920514
9649.000000;0.918977
9648.000000;0.918194
9647.000000;0.917857
9646.000000;0.917424
9645.000000;0.917012
9644.000000;0.917015
9643.000000;0.917226
9642.000000;0.917036
9641.000000;0.916289
9640.000000;0.915312
9639.000000;0.914257
9638.000000;0.913091
9637.000000;0.912068
9636.000000;0.911537
9635.000000;0.911282
9634.000000;0.910657
9633.000000;0.909485
9632.000000;0.908303
9631.000000;0.907604
9630.000000;0.907295
9629.000000;0.906969
9628.000000;0.906347
9627.000000;0.905377
9626.000000;0.904231
9625.000000;0.903229
9624.000000;0.902522
9623.000000;0.901857
9622.000000;0.900976
9621.000000;0.900140
9620.000000;0.899881
9619.000000;0.900216
9618.000000;0.900490
9617.000000;0.900107
9616.000000;0.899102
9615.000000;0.897945
9614.000000;0.897032
9613.000000;0.896442
9612.000000;0.895969
9611.000000;0.895320
9610.000000;0.894403
9609.000000;0.893416
9608.000000;0.892547
9607.000000;0.891721
9606.000000;0.890849
9605.000000;0.890160
9604.000000;0.889944
9603.000000;0.890056
9602.000000;0.890021
9601.000000;0.889622
9600.000000;0.889098
9599.000000;0.888703
9598.000000;0.888388
9597.000000;0.887987
9596.000000;0.887455
9595.000000;0.886779
9594.000000;0.885865
9593.000000;0.884673
9592.000000;0.883373
9591.000000;0.882267
9590.000000;0.881548
9589.000000;0.881109
9588.000000;0.880595
9587.000000;0.879694
9586.000000;0.878451
9585.000000;0.877195
9584.000000;0.876182
9583.000000;0.875456
9582.000000;0.875065
9581.000000;0.875130
9580.000000;0.875504
9579.000000;0.875609
9578.000000;0.874893
9577.000000;0.873426
9576.000000;0.871851
9575.000000;0.870797
9574.000000;0.870433
9573.000000;0.870407
9572.000000;0.870136
9571.000000;0.869315
9570.000000;0.868274
9569.000000;0.867656
9568.000000;0.867658
9567.000000;0.867805
9566.000000;0.867594
9565.000000;0.867029
9564.000000;0.866339
9563.000000;0.865510
9562.000000;0.864481
9561.000000;0.863492
9560.000000;0.862817
9559.000000;0.862282
9558.000000;0.861503
9557.000000;0.860517
9556.000000;0.859763
9555.000000;0.859438
9554.000000;0.859233
9553.000000;0.858742
9552.000000;0.857874
9551.000000;0.856836
9550.000000;0.855948
9549.000000;0.855487
9548.000000;0.855468
9547.000000;0.855535
9546.000000;0.855266
9545.000000;0.854566
9544.000000;0.853586
9543.000000;0.852408
9542.000000;0.851068
9541.000000;0.849817
9540.000000;0.848987
9539.000000;0.848546
9538.000000;0.848096
9537.000000;0.847409
9536.000000;0.846697
9535.000000;0.846240
9534.000000;0.845975
9533.000000;0.845622
9532.000000;0.845014
9531.000000;0.844147
9530.000000;0.843063
9529.000000;0.841863
9528.000000;0.840784
9527.000000;0.840074
9526.000000;0.839770
9525.000000;0.839687
9524.000000;0.839617
9523.000000;0.839472
9522.000000;0.839178
9521.000000;0.838563
9520.000000;0.837474
9519.000000;0.836046
9518.000000;0.834717
9517.000000;0.833900
9516.000000;0.833676
9515.000000;0.833884
9514.000000;0.834344
9513.000000;0.834839
9512.000000;0.834973
9511.000000;0.834361
9510.000000;0.833044
9509.000000;0.831506
9508.000000;0.830207
9507.000000;0.829281
9506.000000;0.828695
9505.000000;0.828420
9504.000000;0.828291
9503.000000;0.827978
9502.000000;0.827344
9501.000000;0.826670
9500.000000;0.826277
9499.000000;0.826030
9498.000000;0.825454
9497.000000;0.824310
9496.000000;0.822899
9495.000000;0.821778
9494.000000;0.821305
9493.000000;0.821409
9492.000000;0.821652
9491.000000;0.821545
9490.000000;0.820924
9489.000000;0.820044
9488.000000;0.819278
9487.000000;0.818765
9486.000000;0.818314
9485.000000;0.817594
9484.000000;0.816410
9483.000000;0.814923
9482.000000;0.813585
9481.000000;0.812764
9480.000000;0.812402
9479.000000;0.812183
9478.000000;0.811968
9477.000000;0.811837
9476.000000;0.811709
9475.000000;0.811244
9474.000000;0.810264
9473.000000;0.809038
9472.000000;0.807969
9471.000000;0.807202
9470.000000;0.806677
9469.000000;0.806355
9468.000000;0.806157
9467.000000;0.805851
9466.000000;0.805260
9465.000000;0.804512
9464.000000;0.803876
9463.000000;0.803405
9462.000000;0.802928
9461.000000;0.802327
9460.000000;0.801646
9459.000000;0.800930
9458.000000;0.800139
9457.000000;0.799266
9456.000000;0.798454
9455.000000;0.797926
9454.000000;0.797798
9453.000000;0.797916
9452.000000;0.797935
9451.000000;0.797663
9450.000000;0.797279
9449.000000;0.797046
9448.000000;0.796855
9447.000000;0.796301
9446.000000;0.795277
9445.000000;0.794207
9444.000000;0.793531
9443.000000;0.793186
9442.000000;0.792777
9441.000000;0.792089
9440.000000;0.791233
9439.000000;0.790437
9438.000000;0.789892
9437.000000;0.789712
9436.000000;0.789811
9435.000000;0.789864
9434.000000;0.789551
9433.000000;0.788825
9432.000000;0.787812
9431.000000;0.786570
9430.000000;0.785126
9429.000000;0.783688
9428.000000;0.782666
9427.000000;0.782404
9426.000000;0.782920
9425.000000;0.783866
9424.000000;0.784669
9423.000000;0.784822
9422.000000;0.784180
9421.000000;0.783040
9420.000000;0.781891
9419.000000;0.781063
9418.000000;0.780574
9417.000000;0.780223
9416.000000;0.779792
9415.000000;0.779210
9414.000000;0.778556
9413.000000;0.777891
9412.000000;0.777173
9411.000000;0.776411
9410.000000;0.775782
9409.000000;0.775447
9408.000000;0.775277
9407.000000;0.774956
9406.000000;0.774366
9405.000000;0.773670
9404.000000;0.773020
9403.000000;0.772402
9402.000000;0.771803
9401.000000;0.771284
9400.000000;0.770842
9399.000000;0.770378
9398.000000;0.769901
9397.000000;0.769559
9396.000000;0.769368
9395.000000;0.769058
9394.000000;0.768314
9393.000000;0.767082
9392.000000;0.765588
9391.000000;0.764185
9390.000000;0.763206
9389.000000;0.762800
9388.000000;0.762825
9387.000000;0.763013
9386.000000;0.763225
9385.000000;0.763426
9384.000000;0.763454
9383.000000;0.763103
9382.000000;0.762449
9381.000000;0.761852
9380.000000;0.761552
9379.000000;0.761440
9378.000000;0.761254
9377.000000;0.760766
9376.000000;0.759775
9375.000000;0.758233
9374.000000;0.756488
9373.000000;0.755103
9372.000000;0.754329
9371.000000;0.753988
9370.000000;0.753927
9369.000000;0.754189
9368.000000;0.754600
9367.000000;0.754601
9366.000000;0.753833
9365.000000;0.752651
9364.000000;0.751742
9363.000000;0.751395
9362.000000;0.751406
9361.000000;0.751477
9360.000000;0.751401
9359.000000;0.751004
9358.000000;0.750267
9357.000000;0.749435
9356.000000;0.748737
9355.000000;0.748052
9354.000000;0.747116
9353.000000;0.746002
9352.000000;0.745111
9351.000000;0.744642
9350.000000;0.744338
9349.000000;0.743817
9348.000000;0.742990
9347.000000;0.742077
9346.000000;0.741329
9345.000000;0.740832
9344.000000;0.740531
9343.000000;0.740363
9342.000000;0.740343
9341.000000;0.740503
9340.000000;0.740764
9339.000000;0.740959
9338.000000;0.741002
9337.000000;0.740956
9336.000000;0.740842
9335.000000;0.740508
9334.000000;0.739781
9333.000000;0.738682
9332.000000;0.737425
9331.000000;0.736248
9330.000000;0.735317
9329.000000;0.734698
9328.000000;0.734328
9327.000000;0.734064
9326.000000;0.733792
9325.000000;0.733487
9324.000000;0.733149
9323.000000;0.732743
9322.000000;0.732244
9321.000000;0.731667
9320.000000;0.731023
9319.000000;0.730315
9318.000000;0.729614
9317.000000;0.729053
9316.000000;0.728718
9315.000000;0.728550
9314.000000;0.728344
9313.000000;0.727833
9312.000000;0.726866
9311.000000;0.725598
9310.000000;0.724436
9309.000000;0.723683
9308.000000;0.723316
9307.000000;0.723205
9306.000000;0.723358
9305.000000;0.723761
9304.000000;0.724106
9303.000000;0.724019
9302.000000;0.723524
9301.000000;0.722997
9300.000000;0.722700
9299.000000;0.722588
9298.000000;0.722527
9297.000000;0.722363
9296.000000;0.721834
9295.000000;0.720781
9294.000000;0.719517
9293.000000;0.718611
9292.000000;0.718227
9291.000000;0.717986
9290.000000;0.717599
9289.000000;0.717220
9288.000000;0.717041
9287.000000;0.716915
9286.000000;0.716636
9285.000000;0.716270
9284.000000;0.715935
9283.000000;0.715501
9282.000000;0.714786
9281.000000;0.713859
9280.000000;0.712930
9279.000000;0.712097
9278.000000;0.711413
9277.000000;0.710986
9276.000000;0.710773
9275.000000;0.710468
9274.000000;0.709873
9273.000000;0.709224
9272.000000;0.708887
9271.000000;0.708877
9270.000000;0.708934
9269.000000;0.708963
9268.000000;0.709068
9267.000000;0.709183
9266.000000;0.709004
9265.000000;0.708347
9264.000000;0.707400
9263.000000;0.706536
9262.000000;0.705984
9261.000000;0.705706
9260.000000;0.705514
9259.000000;0.705279
9258.000000;0.705033
9257.000000;0.704829
9256.000000;0.704546
9255.000000;0.703981
9254.000000;0.703158
9253.000000;0.702363
9252.000000;0.701811
9251.000000;0.701467
9250.000000;0.701297
9249.000000;0.701438
9248.000000;0.701916
9247.000000;0.702339
9246.000000;0.702126
9245.000000;0.701060
9244.000000;0.699523
9243.000000;0.698196
9242.000000;0.697562
9241.000000;0.697577
9240.000000;0.697750
9239.000000;0.697609
9238.000000;0.697150
9237.000000;0.696704
9236.000000;0.696411
9235.000000;0.696050
9234.000000;0.695471
9233.000000;0.694881
9232.000000;0.694506
9231.000000;0.694182
9230.000000;0.693557
9229.000000;0.692612
9228.000000;0.691726
9227.000000;0.691246
9226.000000;0.691157
9225.000000;0.691132
9224.000000;0.690798
9223.000000;0.690028
9222.000000;0.689100
9221.000000;0.688529
9220.000000;0.688594
9219.000000;0.689073
9218.000000;0.689465
9217.000000;0.689433
9216.000000;0.688968
9215.000000;0.688237
9214.000000;0.687418
9213.000000;0.686627
9212.000000;0.685930
9211.000000;0.685428
9210.000000;0.685310
9209.000000;0.685662
9208.000000;0.686179
9207.000000;0.686254
9206.000000;0.685525
9205.000000;0.684277
9204.000000;0.683198
9203.000000;0.682755
9202.000000;0.682857
9201.000000;0.683016
9200.000000;0.682829
9199.000000;0.682348
9198.000000;0.681988
9197.000000;0.681966
9196.000000;0.681947
9195.000000;0.681435
9194.000000;0.680445
9193.000000;0.679493
9192.000000;0.678892
9191.000000;0.678435
9190.000000;0.677875
9189.000000;0.677388
9188.000000;0.677293
9187.000000;0.677581
9186.000000;0.677996
9185.000000;0.678385
9184.000000;0.678680
9183.000000;0.678685
9182.000000;0.678192
9181.000000;0.677311
9180.000000;0.676439
9179.000000;0.675881
9178.000000;0.675627
9177.000000;0.675444
9176.000000;0.675069
9175.000000;0.674373
9174.000000;0.673517
9173.000000;0.672909
9172.000000;0.672889
9171.000000;0.673406
9170.000000;0.674026
9169.000000;0.674209
9168.000000;0.673634
9167.000000;0.672404
9166.000000;0.671028
9165.000000;0.670045
9164.000000;0.669545
9163.000000;0.669145
9162.000000;0.668521
9161.000000;0.667808
9160.000000;0.667375
9159.000000;0.667347
9158.000000;0.667497
9157.000000;0.667538
9156.000000;0.667363
9155.000000;0.667044
9154.000000;0.666718
9153.000000;0.666446
9152.000000;0.666150
9151.000000;0.665753
9150.000000;0.665339
9149.000000;0.665042
9148.000000;0.664788
9147.000000;0.664343
9146.000000;0.663678
9145.000000;0.663062
9144.000000;0.662716
9143.000000;0.662569
9142.000000;0.662483
9141.000000;0.662468
9140.000000;0.662522
9139.000000;0.662468
9138.000000;0.662185
9137.000000;0.661855
9136.000000;0.661739
9135.000000;0.661783
9134.000000;0.661678
9133.000000;0.661258
9132.000000;0.660679
9131.000000;0.660215
9130.000000;0.659995
9129.000000;0.659915
9128.000000;0.659700
9127.000000;0.659139
9126.000000;0.658391
9125.000000;0.657979
9124.000000;0.658316
9123.000000;0.659191
9122.000000;0.659851
9121.000000;0.659631
9120.000000;0.658523
9119.000000;0.657172
9118.000000;0.656329
9117.000000;0.656203
9116.000000;0.656300
9115.000000;0.655968
9114.000000;0.655103
9113.000000;0.654206
9112.000000;0.653765
9111.000000;0.653765
9110.000000;0.653856
9109.000000;0.653831
9108.000000;0.653781
9107.000000;0.653895
9106.000000;0.654195
9105.000000;0.654442
9104.000000;0.654269
9103.000000;0.653557
9102.000000;0.652664
9101.000000;0.652111
9100.000000;0.651964
9099.000000;0.651750
9098.000000;0.651057
9097.000000;0.650043
9096.000000;0.649204
9095.000000;0.648840
9094.000000;0.648855
9093.000000;0.648944
9092.000000;0.648816
9091.000000;0.648349
9090.000000;0.647666
9089.000000;0.647020
9088.000000;0.646582
9087.000000;0.646412
9086.000000;0.646580
9085.000000;0.647035
9084.000000;0.647349
9083.000000;0.646959
9082.000000;0.645837
9081.000000;0.644646
9080.000000;0.644004
9079.000000;0.643850
9078.000000;0.643747
9077.000000;0.643537
9076.000000;0.643388
9075.000000;0.643381
9074.000000;0.643420
9073.000000;0.643487
9072.000000;0.643674
9071.000000;0.643964
9070.000000;0.644226
9069.000000;0.644415
9068.000000;0.644565
9067.000000;0.644598
9066.000000;0.644328
9065.000000;0.643664
9064.000000;0.642658
9063.000000;0.641415
9062.000000;0.640135
9061.000000;0.639179
9060.000000;0.638860
9059.000000;0.639112
9058.000000;0.639535
9057.000000;0.639787
9056.000000;0.639826
9055.000000;0.639781
9054.000000;0.639708
9053.000000;0.639515
