Criado como novo conjunto de dados;"1909daniel.spp","-4254463.1 Secs"
cm-1;Abs
10000.000000;1.831646
9999.000000;1.834574
9998.000000;1.834986
9997.000000;1.834014
9996.000000;1.833896
9995.000000;1.834360
9994.000000;1.834086
9993.000000;1.832973
9992.000000;1.832482
9991.000000;1.832718
9990.000000;1.831929
9989.000000;1.828946
9988.000000;1.824835
9987.000000;1.821298
9986.000000;1.819128
9985.000000;1.818692
9984.000000;1.820310
9983.000000;1.823429
9982.000000;1.826527
9981.000000;1.828668
9980.000000;1.830329
9979.000000;1.832021
9978.000000;1.833062
9977.000000;1.832478
9976.000000;1.830282
9975.000000;1.827131
9974.000000;1.823591
9973.000000;1.820502
9972.000000;1.819131
9971.000000;1.819922
9970.000000;1.821587
9969.000000;1.822279
9968.000000;1.821251
9967.000000;1.818787
9966.000000;1.815281
9965.000000;1.811380
9964.000000;1.808470
9963.000000;1.807803
9962.000000;1.809124
9961.000000;1.810938
9960.000000;1.811972
9959.000000;1.811708
9958.000000;1.810064
9957.000000;1.807540
9956.000000;1.805509
9955.000000;1.805494
9954.000000;1.807763
9953.000000;1.810783
9952.000000;1.812191
9951.000000;1.810379
9950.000000;1.805312
9949.000000;1.798561
9948.000000;1.792755
9947.000000;1.790110
9946.000000;1.790954
9945.000000;1.793674
9944.000000;1.796214
9943.000000;1.797665
9942.000000;1.798410
9941.000000;1.799028
9940.000000;1.799377
9939.000000;1.798768
9938.000000;1.796843
9937.000000;1.794093
9936.000000;1.791402
9935.000000;1.789242
9934.000000;1.787543
9933.000000;1.786250
9932.000000;1.785593
9931.000000;1.785788
9930.000000;1.786775
9929.000000;1.788266
9928.000000;1.789607
9927.000000;1.789721
9926.000000;1.787943
9925.000000;1.785152
9924.000000;1.783278
9923.000000;1.783164
9922.000000;1.783587
9921.000000;1.782975
9920.000000;1.781552
9919.000000;1.780778
9918.000000;1.780892
9917.000000;1.780123
9916.000000;1.776745
9915.000000;1.771338
9914.000000;1.766514
9913.000000;1.764622
9912.000000;1.765901
9911.000000;1.768636
9910.000000;1.770970
9909.000000;1.772588
9908.000000;1.774464
9907.000000;1.777093
9906.000000;1.779554
9905.000000;1.780479
9904.000000;1.779428
9903.000000;1.776988
9902.000000;1.774139
9901.000000;1.771946
9900.000000;1.771173
9899.000000;1.771621
9898.000000;1.772109
9897.000000;1.771704
9896.000000;1.770771
9895.000000;1.770246
9894.000000;1.770371
9893.000000;1.770618
9892.000000;1.770570
9891.000000;1.770212
9890.000000;1.769126
9889.000000;1.766435
9888.000000;1.762082
9887.000000;1.757347
9886.000000;1.753747
9885.000000;1.751749
9884.000000;1.750647
9883.000000;1.749537
9882.000000;1.748308
9881.000000;1.747705
9880.000000;1.748340
9879.000000;1.749702
9878.000000;1.750579
9877.000000;1.750626
9876.000000;1.750933
9875.000000;1.752385
9874.000000;1.753776
9873.000000;1.752545
9872.000000;1.747634
9871.000000;1.740961
9870.000000;1.735904
9869.000000;1.734766
9868.000000;1.737314
9867.000000;1.740935
9866.000000;1.742542
9865.000000;1.741298
9864.000000;1.739317
9863.000000;1.738995
9862.000000;1.740123
9861.000000;1.740687
9860.000000;1.740177
9859.000000;1.740325
9858.000000;1.742125
9857.000000;1.743913
9856.000000;1.743626
9855.000000;1.741740
9854.000000;1.740275
9853.000000;1.739763
9852.000000;1.738933
9851.000000;1.736988
9850.000000;1.734561
9849.000000;1.732371
9848.000000;1.730449
9847.000000;1.728902
9846.000000;1.728079
9845.000000;1.727728
9844.000000;1.727109
9843.000000;1.726333
9842.000000;1.726531
9841.000000;1.728205
9840.000000;1.730315
9839.000000;1.731515
9838.000000;1.731594
9837.000000;1.730952
9836.000000;1.729504
9835.000000;1.727135
9834.000000;1.724668
9833.000000;1.723323
9832.000000;1.723424
9831.000000;1.724389
9830.000000;1.725613
9829.000000;1.726546
9828.000000;1.726257
9827.000000;1.724059
9826.000000;1.720555
9825.000000;1.716982
9824.000000;1.713529
9823.000000;1.709492
9822.000000;1.705205
9821.000000;1.702513
9820.000000;1.702771
9819.000000;1.705338
9818.000000;1.708661
9817.000000;1.711958
9816.000000;1.714869
9815.000000;1.716296
9814.000000;1.715160
9813.000000;1.712106
9812.000000;1.709116
9811.000000;1.707275
9810.000000;1.705951
9809.000000;1.704337
9808.000000;1.702730
9807.000000;1.701774
9806.000000;1.701294
9805.000000;1.700624
9804.000000;1.699720
9803.000000;1.699298
9802.000000;1.699937
9801.000000;1.701330
9800.000000;1.702297
9799.000000;1.701364
9798.000000;1.697925
9797.000000;1.693368
9796.000000;1.690560
9795.000000;1.691510
9794.000000;1.695388
9793.000000;1.699076
9792.000000;1.699982
9791.000000;1.698314
9790.000000;1.696480
9789.000000;1.696532
9788.000000;1.698391
9787.000000;1.700267
9786.000000;1.700620
9785.000000;1.699549
9784.000000;1.698120
9783.000000;1.696762
9782.000000;1.694828
9781.000000;1.691746
9780.000000;1.688065
9779.000000;1.684820
9778.000000;1.682382
9777.000000;1.680608
9776.000000;1.679777
9775.000000;1.680460
9774.000000;1.682316
9773.000000;1.683755
9772.000000;1.683333
9771.000000;1.681280
9770.000000;1.679150
9769.000000;1.678022
9768.000000;1.677536
9767.000000;1.676740
9766.000000;1.675496
9765.000000;1.674847
9764.000000;1.675984
9763.000000;1.678921
9762.000000;1.682210
9761.000000;1.683949
9760.000000;1.683110
9759.000000;1.680085
9758.000000;1.676016
9757.000000;1.671759
9756.000000;1.667740
9755.000000;1.664477
9754.000000;1.662531
9753.000000;1.661808
9752.000000;1.661397
9751.000000;1.660620
9750.000000;1.659995
9749.000000;1.660548
9748.000000;1.662291
9747.000000;1.664077
9746.000000;1.665073
9745.000000;1.665572
9744.000000;1.665904
9743.000000;1.665392
9742.000000;1.663330
9741.000000;1.660475
9740.000000;1.658412
9739.000000;1.657607
9738.000000;1.656997
9737.000000;1.655588
9736.000000;1.653638
9735.000000;1.651941
9734.000000;1.650636
9733.000000;1.649217
9732.000000;1.647416
9731.000000;1.645716
9730.000000;1.645178
9729.000000;1.646831
9728.000000;1.650748
9727.000000;1.655425
9726.000000;1.658459
9725.000000;1.658341
9724.000000;1.655517
9723.000000;1.651675
9722.000000;1.648463
9721.000000;1.646951
9720.000000;1.647511
9719.000000;1.649599
9718.000000;1.652027
9717.000000;1.653941
9716.000000;1.655211
9715.000000;1.655625
9714.000000;1.654400
9713.000000;1.651139
9712.000000;1.646796
9711.000000;1.642998
9710.000000;1.640653
9709.000000;1.639647
9708.000000;1.639492
9707.000000;1.639643
9706.000000;1.639408
9705.000000;1.638226
9704.000000;1.636124
9703.000000;1.633570
9702.000000;1.631053
9701.000000;1.629127
9700.000000;1.628482
9699.000000;1.629335
9698.000000;1.630939
9697.000000;1.632304
9696.000000;1.633213
9695.000000;1.633813
9694.000000;1.633473
9693.000000;1.631247
9692.000000;1.627677
9691.000000;1.624996
9690.000000;1.624893
9689.000000;1.626676
9688.000000;1.628141
9687.000000;1.627950
9686.000000;1.626659
9685.000000;1.625643
9684.000000;1.625744
9683.000000;1.627046
9682.000000;1.629215
9681.000000;1.631463
9680.000000;1.632328
9679.000000;1.630193
9678.000000;1.624660
9677.000000;1.617528
9676.000000;1.611966
9675.000000;1.610342
9674.000000;1.612619
9673.000000;1.616574
9672.000000;1.619426
9671.000000;1.619497
9670.000000;1.616874
9669.000000;1.613052
9668.000000;1.609925
9667.000000;1.608522
9666.000000;1.608414
9665.000000;1.608456
9664.000000;1.608112
9663.000000;1.607791
9662.000000;1.607939
9661.000000;1.608243
9660.000000;1.607944
9659.000000;1.606728
9658.000000;1.605142
9657.000000;1.604291
9656.000000;1.605101
9655.000000;1.607542
9654.000000;1.610392
9653.000000;1.612009
9652.000000;1.611571
9651.000000;1.609521
9650.000000;1.606887
9649.000000;1.604417
9648.000000;1.602357
9647.000000;1.600702
9646.000000;1.599449
9645.000000;1.598640
9644.000000;1.598152
9643.000000;1.597407
9642.000000;1.595643
9641.000000;1.592761
9640.000000;1.589767
9639.000000;1.587969
9638.000000;1.587605
9637.000000;1.587663
9636.000000;1.587156
9635.000000;1.586164
9634.000000;1.585456
9633.000000;1.585610
9632.000000;1.586710
9631.000000;1.588335
9630.000000;1.589590
9629.000000;1.589597
9628.000000;1.588351
9627.000000;1.586750
9626.000000;1.585491
9625.000000;1.584321
9624.000000;1.582689
9623.000000;1.580773
9622.000000;1.579290
9621.000000;1.578469
9620.000000;1.577847
9619.000000;1.577221
9618.000000;1.577136
9617.000000;1.578008
9616.000000;1.579063
9615.000000;1.578655
9614.000000;1.575932
9613.000000;1.572029
9612.000000;1.569244
9611.000000;1.568981
9610.000000;1.570652
9609.000000;1.572424
9608.000000;1.572893
9607.000000;1.572042
9606.000000;1.570831
9605.000000;1.570172
9604.000000;1.570272
9603.000000;1.570669
9602.000000;1.570853
9601.000000;1.570887
9600.000000;1.571209
9599.000000;1.571732
9598.000000;1.571583
9597.000000;1.570171
9596.000000;1.568180
9595.000000;1.566817
9594.000000;1.566307
9593.000000;1.565834
9592.000000;1.564905
9591.000000;1.563912
9590.000000;1.563175
9589.000000;1.562337
9588.000000;1.561260
9587.000000;1.560786
9586.000000;1.561728
9585.000000;1.563416
9584.000000;1.564137
9583.000000;1.563015
9582.000000;1.560727
9581.000000;1.558321
9580.000000;1.556110
9579.000000;1.553993
9578.000000;1.552196
9577.000000;1.551131
9576.000000;1.550753
9575.000000;1.550536
9574.000000;1.550172
9573.000000;1.550031
9572.000000;1.550698
9571.000000;1.552103
9570.000000;1.553300
9569.000000;1.553283
9568.000000;1.551992
9567.000000;1.550316
9566.000000;1.549091
9565.000000;1.548421
9564.000000;1.548032
9563.000000;1.547867
9562.000000;1.547968
9561.000000;1.548021
9560.000000;1.547529
9559.000000;1.546438
9558.000000;1.545173
9557.000000;1.543918
9556.000000;1.542266
9555.000000;1.539925
9554.000000;1.537537
9553.000000;1.536273
9552.000000;1.536545
9551.000000;1.537370
9550.000000;1.537228
9549.000000;1.535547
9548.000000;1.533280
9547.000000;1.532074
9546.000000;1.532944
9545.000000;1.535558
9544.000000;1.538476
9543.000000;1.540101
9542.000000;1.539734
9541.000000;1.537953
9540.000000;1.535883
9539.000000;1.534094
9538.000000;1.532373
9537.000000;1.530504
9536.000000;1.528830
9535.000000;1.527733
9534.000000;1.526968
9533.000000;1.526017
9532.000000;1.525008
9531.000000;1.524688
9530.000000;1.525407
9529.000000;1.526545
9528.000000;1.527142
9527.000000;1.526818
9526.000000;1.525814
9525.000000;1.524446
9524.000000;1.522930
9523.000000;1.521604
9522.000000;1.520959
9521.000000;1.521310
9520.000000;1.522442
9519.000000;1.523571
9518.000000;1.523771
9517.000000;1.522628
9516.000000;1.520579
9515.000000;1.518419
9514.000000;1.516513
9513.000000;1.514711
9512.000000;1.512964
9511.000000;1.511569
9510.000000;1.510726
9509.000000;1.510275
9508.000000;1.510059
9507.000000;1.510122
9506.000000;1.510313
9505.000000;1.510054
9504.000000;1.508974
9503.000000;1.507536
9502.000000;1.506558
9501.000000;1.506117
9500.000000;1.505401
9499.000000;1.503783
9498.000000;1.501756
9497.000000;1.500579
9496.000000;1.501090
9495.000000;1.503001
9494.000000;1.505283
9493.000000;1.507145
9492.000000;1.508428
9491.000000;1.509007
9490.000000;1.508279
9489.000000;1.505910
9488.000000;1.503022
9487.000000;1.501679
9486.000000;1.502658
9485.000000;1.504227
9484.000000;1.503824
9483.000000;1.500882
9482.000000;1.497314
9481.000000;1.495173
9480.000000;1.494655
9479.000000;1.494587
9478.000000;1.494219
9477.000000;1.493983
9476.000000;1.494611
9475.000000;1.496037
9474.000000;1.497299
9473.000000;1.497382
9472.000000;1.496105
9471.000000;1.494217
9470.000000;1.492714
9469.000000;1.492167
9468.000000;1.492528
9467.000000;1.493256
9466.000000;1.493648
9465.000000;1.493389
9464.000000;1.493009
9463.000000;1.493471
9462.000000;1.494971
9461.000000;1.496324
9460.000000;1.495923
9459.000000;1.493285
9458.000000;1.489422
9457.000000;1.485887
9456.000000;1.483806
9455.000000;1.483512
9454.000000;1.484427
9453.000000;1.485133
9452.000000;1.484134
9451.000000;1.481203
9450.000000;1.477859
9449.000000;1.476129
9448.000000;1.476801
9447.000000;1.478951
9446.000000;1.480959
9445.000000;1.481803
9444.000000;1.481493
9443.000000;1.480609
9442.000000;1.479688
9441.000000;1.479022
9440.000000;1.478749
9439.000000;1.478728
9438.000000;1.478308
9437.000000;1.476787
9436.000000;1.474480
9435.000000;1.472991
9434.000000;1.473781
9433.000000;1.476376
9432.000000;1.478426
9431.000000;1.477941
9430.000000;1.475268
9429.000000;1.472531
9428.000000;1.471468
9427.000000;1.472090
9426.000000;1.473050
9425.000000;1.472942
9424.000000;1.471409
9423.000000;1.469309
9422.000000;1.467868
9421.000000;1.467590
9420.000000;1.467994
9419.000000;1.468364
9418.000000;1.468408
9417.000000;1.468025
9416.000000;1.466900
9415.000000;1.464961
9414.000000;1.463015
9413.000000;1.462182
9412.000000;1.462536
9411.000000;1.462841
9410.000000;1.462007
9409.000000;1.460483
9408.000000;1.459726
9407.000000;1.460444
9406.000000;1.461775
9405.000000;1.462217
9404.000000;1.461130
9403.000000;1.459183
9402.000000;1.457464
9401.000000;1.456447
9400.000000;1.455881
9399.000000;1.455435
9398.000000;1.455173
9397.000000;1.455282
9396.000000;1.455519
9395.000000;1.455293
9394.000000;1.454376
9393.000000;1.453343
9392.000000;1.453021
9391.000000;1.453486
9390.000000;1.453802
9389.000000;1.452922
9388.000000;1.450797
9387.000000;1.448440
9386.000000;1.446856
9385.000000;1.446052
9384.000000;1.445366
9383.000000;1.444542
9382.000000;1.444010
9381.000000;1.444092
9380.000000;1.444305
9379.000000;1.443695
9378.000000;1.441776
9377.000000;1.438970
9376.000000;1.436263
9375.000000;1.434637
9374.000000;1.434607
9373.000000;1.435892
9372.000000;1.437533
9371.000000;1.438644
9370.000000;1.439084
9369.000000;1.439216
9368.000000;1.439161
9367.000000;1.438609
9366.000000;1.437343
9365.000000;1.435654
9364.000000;1.434187
9363.000000;1.433560
9362.000000;1.433980
9361.000000;1.434873
9360.000000;1.435031
9359.000000;1.433714
9358.000000;1.431786
9357.000000;1.431167
9356.000000;1.432742
9355.000000;1.435153
9354.000000;1.436076
9353.000000;1.434607
9352.000000;1.431995
9351.000000;1.430168
9350.000000;1.430080
9349.000000;1.431378
9348.000000;1.433042
9347.000000;1.434165
9346.000000;1.434463
9345.000000;1.434223
9344.000000;1.433707
9343.000000;1.432724
9342.000000;1.431033
9341.000000;1.429017
9340.000000;1.427551
9339.000000;1.427101
9338.000000;1.427260
9337.000000;1.427243
9336.000000;1.426575
9335.000000;1.425153
9334.000000;1.422968
9333.000000;1.420122
9332.000000;1.417093
9331.000000;1.414724
9330.000000;1.413713
9329.000000;1.414090
9328.000000;1.415213
9327.000000;1.416380
9326.000000;1.417396
9325.000000;1.418432
9324.000000;1.419406
9323.000000;1.419856
9322.000000;1.419597
9321.000000;1.419117
9320.000000;1.418970
9319.000000;1.419061
9318.000000;1.418959
9317.000000;1.418617
9316.000000;1.418275
9315.000000;1.417837
9314.000000;1.416917
9313.000000;1.415480
9312.000000;1.413963
9311.000000;1.412745
9310.000000;1.411950
9309.000000;1.411638
9308.000000;1.411621
9307.000000;1.411202
9306.000000;1.409804
9305.000000;1.407938
9304.000000;1.406781
9303.000000;1.406671
9302.000000;1.406854
9301.000000;1.406918
9300.000000;1.407495
9299.000000;1.408945
9298.000000;1.410237
9297.000000;1.410074
9296.000000;1.408638
9295.000000;1.407255
9294.000000;1.406711
9293.000000;1.406819
9292.000000;1.407316
9291.000000;1.408152
9290.000000;1.408866
9289.000000;1.408646
9288.000000;1.407242
9287.000000;1.405162
9286.000000;1.402915
9285.000000;1.400753
9284.000000;1.399119
9283.000000;1.398522
9282.000000;1.398762
9281.000000;1.398975
9280.000000;1.398711
9279.000000;1.398437
9278.000000;1.398685
9277.000000;1.399354
9276.000000;1.400141
9275.000000;1.400981
9274.000000;1.401627
9273.000000;1.401414
9272.000000;1.400049
9271.000000;1.398258
9270.000000;1.397053
9269.000000;1.396664
9268.000000;1.396681
9267.000000;1.396879
9266.000000;1.397304
9265.000000;1.397776
9264.000000;1.397934
9263.000000;1.397737
9262.000000;1.397428
9261.000000;1.397058
9260.000000;1.396450
9259.000000;1.395556
9258.000000;1.394492
9257.000000;1.393281
9256.000000;1.391948
9255.000000;1.390804
9254.000000;1.390245
9253.000000;1.390335
9252.000000;1.390884
9251.000000;1.391781
9250.000000;1.392803
9249.000000;1.393243
9248.000000;1.392407
9247.000000;1.390609
9246.000000;1.389082
9245.000000;1.388632
9244.000000;1.388820
9243.000000;1.388722
9242.000000;1.388095
9241.000000;1.387384
9240.000000;1.386916
9239.000000;1.386640
9238.000000;1.386526
9237.000000;1.386650
9236.000000;1.386829
9235.000000;1.386654
9234.000000;1.386060
9233.000000;1.385489
9232.000000;1.385249
9231.000000;1.384999
9230.000000;1.384248
9229.000000;1.383228
9228.000000;1.382830
9227.000000;1.383446
9226.000000;1.384217
9225.000000;1.383877
9224.000000;1.382278
9223.000000;1.380582
9222.000000;1.379819
9221.000000;1.379732
9220.000000;1.379230
9219.000000;1.377666
9218.000000;1.375393
9217.000000;1.373249
9216.000000;1.371898
9215.000000;1.371559
9214.000000;1.371965
9213.000000;1.372541
9212.000000;1.372945
9211.000000;1.373515
9210.000000;1.374838
9209.000000;1.376762
9208.000000;1.378163
9207.000000;1.377964
9206.000000;1.376207
9205.000000;1.373873
9204.000000;1.371903
9203.000000;1.370716
9202.000000;1.370447
9201.000000;1.371152
9200.000000;1.372624
9199.000000;1.374283
9198.000000;1.375417
9197.000000;1.375459
9196.000000;1.374087
9195.000000;1.371389
9194.000000;1.368132
9193.000000;1.365620
9192.000000;1.364902
9191.000000;1.365992
9190.000000;1.367905
9189.000000;1.369454
9188.000000;1.370014
9187.000000;1.369670
9186.000000;1.368933
9185.000000;1.368350
9184.000000;1.368159
9183.000000;1.368164
9182.000000;1.367991
9181.000000;1.367521
9180.000000;1.367013
9179.000000;1.366710
9178.000000;1.366405
9177.000000;1.365565
9176.000000;1.363942
9175.000000;1.361947
9174.000000;1.360363
9173.000000;1.359754
9172.000000;1.360139
9171.000000;1.361058
9170.000000;1.361887
9169.000000;1.362199
9168.000000;1.362042
9167.000000;1.361946
9166.000000;1.362519
9165.000000;1.363790
9164.000000;1.364979
9163.000000;1.365134
9162.000000;1.364072
9161.000000;1.362552
9160.000000;1.361399
9159.000000;1.360554
9158.000000;1.359198
9157.000000;1.356865
9156.000000;1.354243
9155.000000;1.352664
9154.000000;1.352780
9153.000000;1.353863
9152.000000;1.354464
9151.000000;1.353804
9150.000000;1.352481
9149.000000;1.351811
9148.000000;1.352557
9147.000000;1.354273
9146.000000;1.355784
9145.000000;1.356188
9144.000000;1.355403
9143.000000;1.353890
9142.000000;1.352097
9141.000000;1.350314
9140.000000;1.348911
9139.000000;1.348381
9138.000000;1.348950
9137.000000;1.350151
9136.000000;1.350958
9135.000000;1.350571
9134.000000;1.349187
9133.000000;1.347884
9132.000000;1.347647
9131.000000;1.348495
9130.000000;1.349626
9129.000000;1.350351
9128.000000;1.350653
9127.000000;1.350806
9126.000000;1.350782
9125.000000;1.350303
9124.000000;1.349456
9123.000000;1.348911
9122.000000;1.349264
9121.000000;1.350321
9120.000000;1.351193
9119.000000;1.351034
9118.000000;1.349685
9117.000000;1.347765
9116.000000;1.346198
9115.000000;1.345540
9114.000000;1.345573
9113.000000;1.345575
9112.000000;1.345120
9111.000000;1.344556
9110.000000;1.344531
9109.000000;1.345142
9108.000000;1.345788
9107.000000;1.345822
9106.000000;1.345086
9105.000000;1.343785
9104.000000;1.342214
9103.000000;1.340848
9102.000000;1.340293
9101.000000;1.340695
9100.000000;1.341315
9099.000000;1.341109
9098.000000;1.339864
9097.000000;1.338478
9096.000000;1.337948
9095.000000;1.338344
9094.000000;1.338950
9093.000000;1.339236
9092.000000;1.339349
9091.000000;1.339609
9090.000000;1.339840
9089.000000;1.339485
9088.000000;1.338366
9087.000000;1.337009
9086.000000;1.336028
9085.000000;1.335382
9084.000000;1.334597
9083.000000;1.333694
9082.000000;1.333471
9081.000000;1.334591
9080.000000;1.336658
9079.000000;1.338566
9078.000000;1.339628
9077.000000;1.339910
9076.000000;1.339556
9075.000000;1.338406
9074.000000;1.336536
9073.000000;1.334703
9072.000000;1.333809
9071.000000;1.334068
9070.000000;1.334976
9069.000000;1.335960
9068.000000;1.336829
9067.000000;1.337601
9066.000000;1.338113
9065.000000;1.337887
9064.000000;1.336494
9063.000000;1.334170
9062.000000;1.331948
9061.000000;1.330813
9060.000000;1.330669
9059.000000;1.330583
9058.000000;1.330184
9057.000000;1.330213
9056.000000;1.331236
9055.000000;1.332420
9054.000000;1.332414
9053.000000;1.331261
