Criado como novo conjunto de dados;"1909daniel.spp","-4258783.8 Secs"
cm-1;Abs
10000.000000;1.903968
9999.000000;1.901895
9998.000000;1.902189
9997.000000;1.903770
9996.000000;1.905517
9995.000000;1.906942
9994.000000;1.907646
9993.000000;1.907205
9992.000000;1.905970
9991.000000;1.905393
9990.000000;1.906816
9989.000000;1.909853
9988.000000;1.912327
9987.000000;1.912119
9986.000000;1.908962
9985.000000;1.904452
9984.000000;1.900564
9983.000000;1.898348
9982.000000;1.897985
9981.000000;1.899211
9980.000000;1.901055
9979.000000;1.901760
9978.000000;1.899968
9977.000000;1.896371
9976.000000;1.893514
9975.000000;1.893402
9974.000000;1.895629
9973.000000;1.898050
9972.000000;1.898761
9971.000000;1.897159
9970.000000;1.893846
9969.000000;1.890464
9968.000000;1.889168
9967.000000;1.890970
9966.000000;1.894360
9965.000000;1.896386
9964.000000;1.895466
9963.000000;1.892361
9962.000000;1.888214
9961.000000;1.883239
9960.000000;1.878088
9959.000000;1.874797
9958.000000;1.874954
9957.000000;1.877654
9956.000000;1.880227
9955.000000;1.880895
9954.000000;1.880246
9953.000000;1.880208
9952.000000;1.882010
9951.000000;1.885023
9950.000000;1.887188
9949.000000;1.886813
9948.000000;1.884133
9947.000000;1.880584
9946.000000;1.876689
9945.000000;1.871854
9944.000000;1.866585
9943.000000;1.863364
9942.000000;1.864127
9941.000000;1.867634
9940.000000;1.870488
9939.000000;1.870728
9938.000000;1.869316
9937.000000;1.867962
9936.000000;1.867170
9935.000000;1.866960
9934.000000;1.867880
9933.000000;1.869903
9932.000000;1.871130
9931.000000;1.869268
9930.000000;1.864472
9929.000000;1.859435
9928.000000;1.856285
9927.000000;1.854349
9926.000000;1.851739
9925.000000;1.848784
9924.000000;1.848490
9923.000000;1.852968
9922.000000;1.860382
9921.000000;1.866433
9920.000000;1.868751
9919.000000;1.868459
9918.000000;1.867128
9917.000000;1.864077
9916.000000;1.857862
9915.000000;1.849338
9914.000000;1.841704
9913.000000;1.837790
9912.000000;1.838191
9911.000000;1.841448
9910.000000;1.845003
9909.000000;1.846432
9908.000000;1.845060
9907.000000;1.842719
9906.000000;1.842213
9905.000000;1.844519
9904.000000;1.847586
9903.000000;1.848135
9902.000000;1.844789
9901.000000;1.839326
9900.000000;1.834901
9899.000000;1.833388
9898.000000;1.834323
9897.000000;1.835944
9896.000000;1.837007
9895.000000;1.837462
9894.000000;1.837567
9893.000000;1.837051
9892.000000;1.835511
9891.000000;1.833060
9890.000000;1.830257
9889.000000;1.827804
9888.000000;1.826567
9887.000000;1.827344
9886.000000;1.829977
9885.000000;1.832822
9884.000000;1.833657
9883.000000;1.831289
9882.000000;1.826221
9881.000000;1.820173
9880.000000;1.815199
9879.000000;1.812668
9878.000000;1.812398
9877.000000;1.812966
9876.000000;1.813430
9875.000000;1.814508
9874.000000;1.817337
9873.000000;1.821437
9872.000000;1.824921
9871.000000;1.826704
9870.000000;1.827385
9869.000000;1.827632
9868.000000;1.826978
9867.000000;1.825001
9866.000000;1.822674
9865.000000;1.821301
9864.000000;1.820535
9863.000000;1.818732
9862.000000;1.815576
9861.000000;1.813321
9860.000000;1.814538
9859.000000;1.818938
9858.000000;1.823016
9857.000000;1.823075
9856.000000;1.818584
9855.000000;1.812181
9854.000000;1.806845
9853.000000;1.803900
9852.000000;1.803287
9851.000000;1.804449
9850.000000;1.806530
9849.000000;1.808538
9848.000000;1.809939
9847.000000;1.810856
9846.000000;1.811401
9845.000000;1.811016
9844.000000;1.808947
9843.000000;1.805390
9842.000000;1.801631
9841.000000;1.799081
9840.000000;1.798452
9839.000000;1.799462
9838.000000;1.800846
9837.000000;1.801053
9836.000000;1.799701
9835.000000;1.798168
9834.000000;1.798057
9833.000000;1.799225
9832.000000;1.799901
9831.000000;1.798740
9830.000000;1.796066
9829.000000;1.793037
9828.000000;1.790470
9827.000000;1.788840
9826.000000;1.788564
9825.000000;1.789508
9824.000000;1.790527
9823.000000;1.790214
9822.000000;1.788166
9821.000000;1.785249
9820.000000;1.782792
9819.000000;1.781717
9818.000000;1.782057
9817.000000;1.782955
9816.000000;1.783400
9815.000000;1.783376
9814.000000;1.783876
9813.000000;1.785345
9812.000000;1.786677
9811.000000;1.786598
9810.000000;1.785695
9809.000000;1.785827
9808.000000;1.787333
9807.000000;1.787822
9806.000000;1.784635
9805.000000;1.778137
9804.000000;1.771417
9803.000000;1.767143
9802.000000;1.765871
9801.000000;1.767019
9800.000000;1.770013
9799.000000;1.773772
9798.000000;1.775873
9797.000000;1.773908
9796.000000;1.768247
9795.000000;1.762321
9794.000000;1.759615
9793.000000;1.760982
9792.000000;1.764821
9791.000000;1.768932
9790.000000;1.771634
9789.000000;1.771856
9788.000000;1.769452
9787.000000;1.765742
9786.000000;1.762865
9785.000000;1.761854
9784.000000;1.761645
9783.000000;1.760505
9782.000000;1.758264
9781.000000;1.756354
9780.000000;1.755710
9779.000000;1.755624
9778.000000;1.754907
9777.000000;1.753482
9776.000000;1.752274
9775.000000;1.751862
9774.000000;1.751967
9773.000000;1.752256
9772.000000;1.752916
9771.000000;1.754032
9770.000000;1.754839
9769.000000;1.754205
9768.000000;1.751838
9767.000000;1.748652
9766.000000;1.745896
9765.000000;1.744283
9764.000000;1.743859
9763.000000;1.744258
9762.000000;1.745020
9761.000000;1.745985
9760.000000;1.747441
9759.000000;1.749550
9758.000000;1.751575
9757.000000;1.752122
9756.000000;1.750517
9755.000000;1.747581
9754.000000;1.744640
9753.000000;1.742180
9752.000000;1.739998
9751.000000;1.738357
9750.000000;1.738129
9749.000000;1.739397
9748.000000;1.740632
9747.000000;1.740135
9746.000000;1.738115
9745.000000;1.736517
9744.000000;1.736652
9743.000000;1.737845
9742.000000;1.738663
9741.000000;1.738441
9740.000000;1.737027
9739.000000;1.734030
9738.000000;1.729484
9737.000000;1.724959
9736.000000;1.722756
9735.000000;1.723667
9734.000000;1.726190
9733.000000;1.728222
9732.000000;1.729055
9731.000000;1.729321
9730.000000;1.729695
9729.000000;1.730408
9728.000000;1.731460
9727.000000;1.732294
9726.000000;1.731578
9725.000000;1.728389
9724.000000;1.723673
9723.000000;1.719540
9722.000000;1.716999
9721.000000;1.715292
9720.000000;1.713604
9719.000000;1.712386
9718.000000;1.712488
9717.000000;1.713653
9716.000000;1.714451
9715.000000;1.713619
9714.000000;1.711353
9713.000000;1.709179
9712.000000;1.708512
9711.000000;1.709246
9710.000000;1.709700
9709.000000;1.708211
9708.000000;1.704909
9707.000000;1.701662
9706.000000;1.700341
9705.000000;1.701472
9704.000000;1.704211
9703.000000;1.706938
9702.000000;1.707917
9701.000000;1.706263
9700.000000;1.702907
9699.000000;1.700108
9698.000000;1.699415
9697.000000;1.700226
9696.000000;1.700553
9695.000000;1.699024
9694.000000;1.696028
9693.000000;1.693276
9692.000000;1.692539
9691.000000;1.694347
9690.000000;1.697424
9689.000000;1.699548
9688.000000;1.699301
9687.000000;1.696934
9686.000000;1.693536
9685.000000;1.689990
9684.000000;1.687174
9683.000000;1.686406
9682.000000;1.688612
9681.000000;1.693003
9680.000000;1.697254
9679.000000;1.699360
9678.000000;1.699100
9677.000000;1.697582
9676.000000;1.695737
9675.000000;1.693461
9674.000000;1.690143
9673.000000;1.686063
9672.000000;1.682939
9671.000000;1.682523
9670.000000;1.684501
9669.000000;1.686383
9668.000000;1.686159
9667.000000;1.684661
9666.000000;1.684270
9665.000000;1.685768
9664.000000;1.687726
9663.000000;1.688737
9662.000000;1.688794
9661.000000;1.688068
9660.000000;1.685834
9659.000000;1.681747
9658.000000;1.677320
9657.000000;1.674820
9656.000000;1.674939
9655.000000;1.676283
9654.000000;1.677055
9653.000000;1.676756
9652.000000;1.676230
9651.000000;1.676496
9650.000000;1.677640
9649.000000;1.678577
9648.000000;1.678073
9647.000000;1.676199
9646.000000;1.674344
9645.000000;1.673440
9644.000000;1.672785
9643.000000;1.671184
9642.000000;1.668797
9641.000000;1.666979
9640.000000;1.666369
9639.000000;1.666139
9638.000000;1.665422
9637.000000;1.664586
9636.000000;1.664417
9635.000000;1.664650
9634.000000;1.664161
9633.000000;1.662428
9632.000000;1.660147
9631.000000;1.658356
9630.000000;1.657509
9629.000000;1.657468
9628.000000;1.657950
9627.000000;1.658760
9626.000000;1.659710
9625.000000;1.660343
9624.000000;1.659803
9623.000000;1.657367
9622.000000;1.653463
9621.000000;1.649968
9620.000000;1.648874
9619.000000;1.650384
9618.000000;1.652613
9617.000000;1.653471
9616.000000;1.652693
9615.000000;1.651615
9614.000000;1.651196
9613.000000;1.650967
9612.000000;1.650020
9611.000000;1.648453
9610.000000;1.647323
9609.000000;1.647264
9608.000000;1.647610
9607.000000;1.647184
9606.000000;1.645792
9605.000000;1.644471
9604.000000;1.644133
9603.000000;1.644422
9602.000000;1.644213
9601.000000;1.642985
9600.000000;1.641277
9599.000000;1.639908
9598.000000;1.639263
9597.000000;1.639356
9596.000000;1.639976
9595.000000;1.640577
9594.000000;1.640491
9593.000000;1.639571
9592.000000;1.638198
9591.000000;1.636399
9590.000000;1.633618
9589.000000;1.629887
9588.000000;1.626668
9587.000000;1.625803
9586.000000;1.627641
9585.000000;1.630595
9584.000000;1.632636
9583.000000;1.632859
9582.000000;1.631607
9581.000000;1.629768
9580.000000;1.628153
9579.000000;1.627100
9578.000000;1.626376
9577.000000;1.625714
9576.000000;1.625302
9575.000000;1.625213
9574.000000;1.624759
9573.000000;1.623330
9572.000000;1.621818
9571.000000;1.622141
9570.000000;1.624648
9569.000000;1.627074
9568.000000;1.627061
9567.000000;1.624832
9566.000000;1.622379
9565.000000;1.620874
9564.000000;1.620020
9563.000000;1.619446
9562.000000;1.619380
9561.000000;1.619801
9560.000000;1.620015
9559.000000;1.619511
9558.000000;1.618573
9557.000000;1.617667
9556.000000;1.616828
9555.000000;1.616048
9554.000000;1.615631
9553.000000;1.615674
9552.000000;1.615679
9551.000000;1.615223
9550.000000;1.614672
9549.000000;1.614632
9548.000000;1.614854
9547.000000;1.614242
9546.000000;1.612113
9545.000000;1.609126
9544.000000;1.606742
9543.000000;1.605863
9542.000000;1.606046
9541.000000;1.605882
9540.000000;1.604280
9539.000000;1.601422
9538.000000;1.598366
9537.000000;1.595942
9536.000000;1.594327
9535.000000;1.593469
9534.000000;1.593371
9533.000000;1.593884
9532.000000;1.594705
9531.000000;1.595733
9530.000000;1.597004
9529.000000;1.598008
9528.000000;1.597664
9527.000000;1.595635
9526.000000;1.593325
9525.000000;1.592725
9524.000000;1.594333
9523.000000;1.596696
9522.000000;1.597933
9521.000000;1.597326
9520.000000;1.595438
9519.000000;1.593296
9518.000000;1.591794
9517.000000;1.591331
9516.000000;1.591484
9515.000000;1.591257
9514.000000;1.590111
9513.000000;1.588621
9512.000000;1.587721
9511.000000;1.587458
9510.000000;1.586991
9509.000000;1.585832
9508.000000;1.584529
9507.000000;1.583770
9506.000000;1.583221
9505.000000;1.581927
9504.000000;1.579910
9503.000000;1.578653
9502.000000;1.579589
9501.000000;1.582478
9500.000000;1.585646
9499.000000;1.587572
9498.000000;1.587797
9497.000000;1.586530
9496.000000;1.584223
9495.000000;1.581681
9494.000000;1.579808
9493.000000;1.578747
9492.000000;1.577686
9491.000000;1.575967
9490.000000;1.574014
9489.000000;1.572764
9488.000000;1.572579
9487.000000;1.573253
9486.000000;1.574654
9485.000000;1.576593
9484.000000;1.578235
9483.000000;1.578581
9482.000000;1.577751
9481.000000;1.576972
9480.000000;1.576976
9479.000000;1.577047
9478.000000;1.575996
9477.000000;1.573583
9476.000000;1.570558
9475.000000;1.567784
9474.000000;1.565857
9473.000000;1.565142
9472.000000;1.565493
9471.000000;1.566030
9470.000000;1.565687
9469.000000;1.564070
9468.000000;1.561659
9467.000000;1.559366
9466.000000;1.558083
9465.000000;1.558250
9464.000000;1.559316
9463.000000;1.559940
9462.000000;1.559425
9461.000000;1.558685
9460.000000;1.559043
9459.000000;1.560281
9458.000000;1.560589
9457.000000;1.558698
9456.000000;1.555518
9455.000000;1.553216
9454.000000;1.553164
9453.000000;1.555094
9452.000000;1.557753
9451.000000;1.559865
9450.000000;1.560597
9449.000000;1.559618
9448.000000;1.557059
9447.000000;1.553520
9446.000000;1.550148
9445.000000;1.548404
9444.000000;1.549099
9443.000000;1.551482
9442.000000;1.553705
9441.000000;1.554571
9440.000000;1.554656
9439.000000;1.555292
9438.000000;1.556706
9437.000000;1.557669
9436.000000;1.556934
9435.000000;1.554523
9434.000000;1.551527
9433.000000;1.549083
9432.000000;1.547772
9431.000000;1.547524
9430.000000;1.547680
9429.000000;1.547274
9428.000000;1.545621
9427.000000;1.542760
9426.000000;1.539331
9425.000000;1.536197
9424.000000;1.534249
9423.000000;1.534185
9422.000000;1.535893
9421.000000;1.538001
9420.000000;1.538695
9419.000000;1.537483
9418.000000;1.535841
9417.000000;1.535583
9416.000000;1.536753
9415.000000;1.537532
9414.000000;1.536290
9413.000000;1.533374
9412.000000;1.530578
9411.000000;1.529303
9410.000000;1.529591
9409.000000;1.530539
9408.000000;1.531177
9407.000000;1.531043
9406.000000;1.530302
9405.000000;1.529437
9404.000000;1.528653
9403.000000;1.527639
9402.000000;1.526104
9401.000000;1.524394
9400.000000;1.523269
9399.000000;1.523087
9398.000000;1.523561
9397.000000;1.524343
9396.000000;1.525462
9395.000000;1.526981
9394.000000;1.528450
9393.000000;1.528914
9392.000000;1.527548
9391.000000;1.524419
9390.000000;1.520709
9389.000000;1.517966
9388.000000;1.516896
9387.000000;1.516950
9386.000000;1.517211
9385.000000;1.517456
9384.000000;1.517942
9383.000000;1.518461
9382.000000;1.518340
9381.000000;1.517521
9380.000000;1.516920
9379.000000;1.517363
9378.000000;1.518567
9377.000000;1.519569
9376.000000;1.519906
9375.000000;1.520002
9374.000000;1.520521
9373.000000;1.521606
9372.000000;1.522661
9371.000000;1.522686
9370.000000;1.521046
9369.000000;1.518194
9368.000000;1.515451
9367.000000;1.513821
9366.000000;1.513165
9365.000000;1.512660
9364.000000;1.511770
9363.000000;1.510553
9362.000000;1.509338
9361.000000;1.508507
9360.000000;1.508369
9359.000000;1.508812
9358.000000;1.509213
9357.000000;1.509034
9356.000000;1.508356
9355.000000;1.507508
9354.000000;1.506404
9353.000000;1.504795
9352.000000;1.503020
9351.000000;1.501852
9350.000000;1.501541
9349.000000;1.501653
9348.000000;1.501923
9347.000000;1.502634
9346.000000;1.503784
9345.000000;1.504441
9344.000000;1.503616
9343.000000;1.501655
9342.000000;1.500153
9341.000000;1.500359
9340.000000;1.501957
9339.000000;1.503523
9338.000000;1.503943
9337.000000;1.503220
9336.000000;1.502040
9335.000000;1.500911
9334.000000;1.499911
9333.000000;1.499053
9332.000000;1.498473
9331.000000;1.498105
9330.000000;1.497455
9329.000000;1.496034
9328.000000;1.494021
9327.000000;1.492191
9326.000000;1.491111
9325.000000;1.490633
9324.000000;1.490329
9323.000000;1.490201
9322.000000;1.490650
9321.000000;1.491834
9320.000000;1.493255
9319.000000;1.494099
9318.000000;1.493929
9317.000000;1.492908
9316.000000;1.491252
9315.000000;1.488694
9314.000000;1.484912
9313.000000;1.480541
9312.000000;1.477263
9311.000000;1.476506
9310.000000;1.478091
9309.000000;1.480304
9308.000000;1.481377
9307.000000;1.480868
9306.000000;1.479698
9305.000000;1.479100
9304.000000;1.479562
9303.000000;1.480570
9302.000000;1.481220
9301.000000;1.481107
9300.000000;1.480664
9299.000000;1.480581
9298.000000;1.480951
9297.000000;1.481129
9296.000000;1.480457
9295.000000;1.479003
9294.000000;1.477544
9293.000000;1.476942
9292.000000;1.477508
9291.000000;1.478769
9290.000000;1.479759
9289.000000;1.479697
9288.000000;1.478539
9287.000000;1.476835
9286.000000;1.475137
9285.000000;1.473685
9284.000000;1.472682
9283.000000;1.472511
9282.000000;1.473316
9281.000000;1.474408
9280.000000;1.474470
9279.000000;1.472770
9278.000000;1.470274
9277.000000;1.469140
9276.000000;1.470699
9275.000000;1.473878
9274.000000;1.475910
9273.000000;1.474925
9272.000000;1.471764
9271.000000;1.468896
9270.000000;1.467903
9269.000000;1.468480
9268.000000;1.469486
9267.000000;1.470217
9266.000000;1.470527
9265.000000;1.470327
9264.000000;1.469549
9263.000000;1.468494
9262.000000;1.467700
9261.000000;1.467343
9260.000000;1.467046
9259.000000;1.466411
9258.000000;1.465494
9257.000000;1.464710
9256.000000;1.464424
9255.000000;1.464720
9254.000000;1.465349
9253.000000;1.465735
9252.000000;1.465219
9251.000000;1.463714
9250.000000;1.462206
9249.000000;1.462214
9248.000000;1.464322
9247.000000;1.467299
9246.000000;1.468917
9245.000000;1.467915
9244.000000;1.465068
9243.000000;1.462215
9242.000000;1.460466
9241.000000;1.459518
9240.000000;1.458517
9239.000000;1.457275
9238.000000;1.456467
9237.000000;1.456789
9236.000000;1.458074
9235.000000;1.459209
9234.000000;1.459078
9233.000000;1.457567
9232.000000;1.455456
9231.000000;1.453475
9230.000000;1.451833
9229.000000;1.450598
9228.000000;1.450005
9227.000000;1.450071
9226.000000;1.450336
9225.000000;1.450478
9224.000000;1.451018
9223.000000;1.452840
9222.000000;1.455954
9221.000000;1.459067
9220.000000;1.460555
9219.000000;1.459699
9218.000000;1.456949
9217.000000;1.453385
9216.000000;1.450173
9215.000000;1.448125
9214.000000;1.447417
9213.000000;1.447675
9212.000000;1.448329
9211.000000;1.448782
9210.000000;1.448424
9209.000000;1.446987
9208.000000;1.445066
9207.000000;1.443796
9206.000000;1.443711
9205.000000;1.444169
9204.000000;1.444183
9203.000000;1.443594
9202.000000;1.442986
9201.000000;1.442598
9200.000000;1.441878
9199.000000;1.440376
9198.000000;1.438702
9197.000000;1.438167
9196.000000;1.439568
9195.000000;1.442414
9194.000000;1.445185
9193.000000;1.446340
9192.000000;1.445335
9191.000000;1.442946
9190.000000;1.440666
9189.000000;1.439648
9188.000000;1.439954
9187.000000;1.440678
9186.000000;1.440846
9185.000000;1.440242
9184.000000;1.439322
9183.000000;1.438433
9182.000000;1.437446
9181.000000;1.436243
9180.000000;1.435180
9179.000000;1.434622
9178.000000;1.434259
9177.000000;1.433478
9176.000000;1.432425
9175.000000;1.432098
9174.000000;1.433096
9173.000000;1.434839
9172.000000;1.436477
9171.000000;1.438037
9170.000000;1.439933
9169.000000;1.441590
9168.000000;1.441518
9167.000000;1.439044
9166.000000;1.435299
9165.000000;1.432080
9164.000000;1.430255
9163.000000;1.429662
9162.000000;1.429989
9161.000000;1.431033
9160.000000;1.432261
9159.000000;1.432830
9158.000000;1.432370
9157.000000;1.431407
9156.000000;1.430732
9155.000000;1.430549
9154.000000;1.430429
9153.000000;1.429958
9152.000000;1.429226
9151.000000;1.428664
9150.000000;1.428516
9149.000000;1.428480
9148.000000;1.427883
9147.000000;1.426284
9146.000000;1.424005
9145.000000;1.422081
9144.000000;1.421540
9143.000000;1.422625
9142.000000;1.424609
9141.000000;1.426331
9140.000000;1.427048
9139.000000;1.426916
9138.000000;1.426679
9137.000000;1.426909
9136.000000;1.427540
9135.000000;1.428028
9134.000000;1.427849
9133.000000;1.426921
9132.000000;1.425789
9131.000000;1.425363
9130.000000;1.426127
9129.000000;1.427402
9128.000000;1.427645
9127.000000;1.425847
9126.000000;1.422623
9125.000000;1.419635
9124.000000;1.418089
9123.000000;1.418021
9122.000000;1.418782
9121.000000;1.419661
9120.000000;1.420132
9119.000000;1.420095
9118.000000;1.420073
9117.000000;1.420721
9116.000000;1.421797
9115.000000;1.422070
9114.000000;1.420769
9113.000000;1.418755
9112.000000;1.417612
9111.000000;1.417786
9110.000000;1.418169
9109.000000;1.417509
9108.000000;1.415700
9107.000000;1.413564
9106.000000;1.411874
9105.000000;1.410878
9104.000000;1.410400
9103.000000;1.410132
9102.000000;1.410003
9101.000000;1.410366
9100.000000;1.411555
9099.000000;1.413230
9098.000000;1.414477
9097.000000;1.414591
9096.000000;1.413532
9095.000000;1.411723
9094.000000;1.409757
9093.000000;1.408398
9092.000000;1.408341
9091.000000;1.409575
9090.000000;1.411189
9089.000000;1.412151
9088.000000;1.412182
9087.000000;1.411704
9086.000000;1.411176
9085.000000;1.410749
9084.000000;1.410389
9083.000000;1.410065
9082.000000;1.409917
9081.000000;1.410312
9080.000000;1.411479
9079.000000;1.412971
9078.000000;1.413807
9077.000000;1.413366
9076.000000;1.411828
9075.000000;1.409568
9074.000000;1.406678
9073.000000;1.403638
9072.000000;1.401885
9071.000000;1.402716
9070.000000;1.405539
9069.000000;1.408025
9068.000000;1.408458
9067.000000;1.407404
9066.000000;1.406557
9065.000000;1.406507
9064.000000;1.406330
9063.000000;1.405246
9062.000000;1.403872
9061.000000;1.403440
9060.000000;1.404216
9059.000000;1.405056
9058.000000;1.404527
9057.000000;1.402382
9056.000000;1.399860
9055.000000;1.398604
9054.000000;1.399374
9053.000000;1.401603
