Criado como novo conjunto de dados;"1909daniel.spp","-4223861.2 Secs"
cm-1;Abs
10000.000000;1.532204
9999.000000;1.530737
9998.000000;1.529274
9997.000000;1.527816
9996.000000;1.526362
9995.000000;1.524915
9994.000000;1.523468
9993.000000;1.522037
9992.000000;1.520591
9991.000000;1.519185
9990.000000;1.517708
9989.000000;1.516616
9988.000000;1.516344
9987.000000;1.516634
9986.000000;1.516927
9985.000000;1.516536
9984.000000;1.515175
9983.000000;1.513028
9982.000000;1.510761
9981.000000;1.509337
9980.000000;1.509340
9979.000000;1.510157
9978.000000;1.510275
9977.000000;1.508864
9976.000000;1.506830
9975.000000;1.505776
9974.000000;1.506149
9973.000000;1.506869
9972.000000;1.506686
9971.000000;1.505409
9970.000000;1.503821
9969.000000;1.502866
9968.000000;1.503053
9967.000000;1.504122
9966.000000;1.505009
9965.000000;1.504619
9964.000000;1.502968
9963.000000;1.501185
9962.000000;1.500132
9961.000000;1.499471
9960.000000;1.498392
9959.000000;1.496816
9958.000000;1.495301
9957.000000;1.494039
9956.000000;1.492695
9955.000000;1.491230
9954.000000;1.490188
9953.000000;1.489874
9952.000000;1.489737
9951.000000;1.488971
9950.000000;1.487476
9949.000000;1.485863
9948.000000;1.484731
9947.000000;1.484312
9946.000000;1.484661
9945.000000;1.485682
9944.000000;1.486871
9943.000000;1.487388
9942.000000;1.486680
9941.000000;1.484967
9940.000000;1.483068
9939.000000;1.481875
9938.000000;1.481907
9937.000000;1.483053
9936.000000;1.484543
9935.000000;1.485330
9934.000000;1.484795
9933.000000;1.483175
9932.000000;1.481266
9931.000000;1.479742
9930.000000;1.478757
9929.000000;1.478029
9928.000000;1.477213
9927.000000;1.476245
9926.000000;1.475412
9925.000000;1.474996
9924.000000;1.474775
9923.000000;1.474087
9922.000000;1.472627
9921.000000;1.471079
9920.000000;1.470579
9919.000000;1.471458
9918.000000;1.472791
9917.000000;1.473335
9916.000000;1.472735
9915.000000;1.471570
9914.000000;1.470486
9913.000000;1.469644
9912.000000;1.468906
9911.000000;1.468135
9910.000000;1.467315
9909.000000;1.466665
9908.000000;1.466621
9907.000000;1.467308
9906.000000;1.468012
9905.000000;1.467682
9904.000000;1.466197
9903.000000;1.464636
9902.000000;1.463971
9901.000000;1.463939
9900.000000;1.463616
9899.000000;1.462707
9898.000000;1.461631
9897.000000;1.460593
9896.000000;1.459379
9895.000000;1.458111
9894.000000;1.457476
9893.000000;1.457816
9892.000000;1.458480
9891.000000;1.458525
9890.000000;1.457685
9889.000000;1.456302
9888.000000;1.454701
9887.000000;1.453071
9886.000000;1.451683
9885.000000;1.450739
9884.000000;1.450097
9883.000000;1.449476
9882.000000;1.448814
9881.000000;1.448139
9880.000000;1.447291
9879.000000;1.446159
9878.000000;1.445071
9877.000000;1.444486
9876.000000;1.444277
9875.000000;1.443808
9874.000000;1.442844
9873.000000;1.441929
9872.000000;1.441657
9871.000000;1.441943
9870.000000;1.442264
9869.000000;1.442415
9868.000000;1.442586
9867.000000;1.442746
9866.000000;1.442337
9865.000000;1.440857
9864.000000;1.438602
9863.000000;1.436476
9862.000000;1.435028
9861.000000;1.433996
9860.000000;1.433007
9859.000000;1.432442
9858.000000;1.433114
9857.000000;1.435079
9856.000000;1.437231
9855.000000;1.438307
9854.000000;1.437945
9853.000000;1.436537
9852.000000;1.434486
9851.000000;1.432083
9850.000000;1.429821
9849.000000;1.428130
9848.000000;1.426812
9847.000000;1.425298
9846.000000;1.423506
9845.000000;1.422012
9844.000000;1.421354
9843.000000;1.421564
9842.000000;1.422386
9841.000000;1.423422
9840.000000;1.423964
9839.000000;1.423280
9838.000000;1.421411
9837.000000;1.419310
9836.000000;1.417881
9835.000000;1.417224
9834.000000;1.417012
9833.000000;1.417132
9832.000000;1.417527
9831.000000;1.417774
9830.000000;1.417408
9829.000000;1.416606
9828.000000;1.415995
9827.000000;1.415754
9826.000000;1.415353
9825.000000;1.414319
9824.000000;1.412897
9823.000000;1.411748
9822.000000;1.411173
9821.000000;1.410863
9820.000000;1.410318
9819.000000;1.409339
9818.000000;1.408082
9817.000000;1.406803
9816.000000;1.405717
9815.000000;1.405041
9814.000000;1.404945
9813.000000;1.405316
9812.000000;1.405673
9811.000000;1.405555
9810.000000;1.405004
9809.000000;1.404461
9808.000000;1.404141
9807.000000;1.403720
9806.000000;1.402727
9805.000000;1.401167
9804.000000;1.399633
9803.000000;1.398823
9802.000000;1.398935
9801.000000;1.399497
9800.000000;1.399801
9799.000000;1.399554
9798.000000;1.398989
9797.000000;1.398270
9796.000000;1.397100
9795.000000;1.395231
9794.000000;1.393126
9793.000000;1.391620
9792.000000;1.390967
9791.000000;1.390746
9790.000000;1.390652
9789.000000;1.390767
9788.000000;1.390947
9787.000000;1.390672
9786.000000;1.389871
9785.000000;1.389250
9784.000000;1.389219
9783.000000;1.389071
9782.000000;1.387994
9781.000000;1.386532
9780.000000;1.386060
9779.000000;1.386814
9778.000000;1.387363
9777.000000;1.386346
9776.000000;1.384066
9775.000000;1.381929
9774.000000;1.380813
9773.000000;1.380464
9772.000000;1.380156
9771.000000;1.379498
9770.000000;1.378667
9769.000000;1.378189
9768.000000;1.378548
9767.000000;1.379781
9766.000000;1.381371
9765.000000;1.382610
9764.000000;1.383032
9763.000000;1.382485
9762.000000;1.380916
9761.000000;1.378387
9760.000000;1.375424
9759.000000;1.373100
9758.000000;1.372438
9757.000000;1.373505
9756.000000;1.375124
9755.000000;1.375652
9754.000000;1.374226
9753.000000;1.371309
9752.000000;1.368118
9751.000000;1.365666
9750.000000;1.364266
9749.000000;1.363636
9748.000000;1.363310
9747.000000;1.363095
9746.000000;1.363229
9745.000000;1.364026
9744.000000;1.365298
9743.000000;1.366275
9742.000000;1.366247
9741.000000;1.365217
9740.000000;1.363763
9739.000000;1.362430
9738.000000;1.361399
9737.000000;1.360612
9736.000000;1.359952
9735.000000;1.359257
9734.000000;1.358304
9733.000000;1.356878
9732.000000;1.354951
9731.000000;1.352844
9730.000000;1.351157
9729.000000;1.350319
9728.000000;1.350160
9727.000000;1.350147
9726.000000;1.350124
9725.000000;1.350527
9724.000000;1.351676
9723.000000;1.353121
9722.000000;1.354032
9721.000000;1.354082
9720.000000;1.353604
9719.000000;1.352955
9718.000000;1.352136
9717.000000;1.351083
9716.000000;1.349989
9715.000000;1.349167
9714.000000;1.348769
9713.000000;1.348701
9712.000000;1.348697
9711.000000;1.348401
9710.000000;1.347471
9709.000000;1.345687
9708.000000;1.343102
9707.000000;1.340237
9706.000000;1.338089
9705.000000;1.337610
9704.000000;1.338808
9703.000000;1.340462
9702.000000;1.341108
9701.000000;1.340393
9700.000000;1.339169
9699.000000;1.338264
9698.000000;1.337489
9697.000000;1.335996
9696.000000;1.333424
9695.000000;1.330508
9694.000000;1.328579
9693.000000;1.328479
9692.000000;1.329863
9691.000000;1.331549
9690.000000;1.332542
9689.000000;1.332659
9688.000000;1.332135
9687.000000;1.330993
9686.000000;1.329199
9685.000000;1.327205
9684.000000;1.325801
9683.000000;1.325358
9682.000000;1.325496
9681.000000;1.325616
9680.000000;1.325568
9679.000000;1.325622
9678.000000;1.325904
9677.000000;1.326012
9676.000000;1.325256
9675.000000;1.323312
9674.000000;1.320678
9673.000000;1.318367
9672.000000;1.317024
9671.000000;1.316354
9670.000000;1.315506
9669.000000;1.314020
9668.000000;1.312302
9667.000000;1.311277
9666.000000;1.311650
9665.000000;1.313320
9664.000000;1.315236
9663.000000;1.315957
9662.000000;1.314824
9661.000000;1.312713
9660.000000;1.311353
9659.000000;1.311757
9658.000000;1.313352
9657.000000;1.314534
9656.000000;1.313971
9655.000000;1.311571
9654.000000;1.308494
9653.000000;1.306277
9652.000000;1.305700
9651.000000;1.306327
9650.000000;1.307129
9649.000000;1.307448
9648.000000;1.307245
9647.000000;1.306663
9646.000000;1.305789
9645.000000;1.304814
9644.000000;1.303962
9643.000000;1.303147
9642.000000;1.302061
9641.000000;1.300734
9640.000000;1.299668
9639.000000;1.299210
9638.000000;1.299075
9637.000000;1.298775
9636.000000;1.298324
9635.000000;1.298233
9634.000000;1.298797
9633.000000;1.299557
9632.000000;1.299573
9631.000000;1.298313
9630.000000;1.296250
9629.000000;1.294481
9628.000000;1.293663
9627.000000;1.293494
9626.000000;1.293368
9625.000000;1.293262
9624.000000;1.293572
9623.000000;1.294245
9622.000000;1.294667
9621.000000;1.294482
9620.000000;1.293978
9619.000000;1.293470
9618.000000;1.292788
9617.000000;1.291631
9616.000000;1.290032
9615.000000;1.288230
9614.000000;1.286488
9613.000000;1.285237
9612.000000;1.284892
9611.000000;1.285194
9610.000000;1.285161
9609.000000;1.284195
9608.000000;1.282910
9607.000000;1.282286
9606.000000;1.282343
9605.000000;1.282261
9604.000000;1.281562
9603.000000;1.280534
9602.000000;1.279544
9601.000000;1.278596
9600.000000;1.277686
9599.000000;1.277056
9598.000000;1.276860
9597.000000;1.276911
9596.000000;1.276894
9595.000000;1.276599
9594.000000;1.275916
9593.000000;1.274922
9592.000000;1.273965
9591.000000;1.273318
9590.000000;1.272738
9589.000000;1.271795
9588.000000;1.270705
9587.000000;1.270310
9586.000000;1.271004
9585.000000;1.272086
9584.000000;1.272463
9583.000000;1.271754
9582.000000;1.270426
9581.000000;1.269097
9580.000000;1.268064
9579.000000;1.267318
9578.000000;1.266628
9577.000000;1.265689
9576.000000;1.264464
9575.000000;1.263318
9574.000000;1.262595
9573.000000;1.262158
9572.000000;1.261599
9571.000000;1.260847
9570.000000;1.260304
9569.000000;1.260320
9568.000000;1.260721
9567.000000;1.260893
9566.000000;1.260287
9565.000000;1.258881
9564.000000;1.257252
9563.000000;1.256087
9562.000000;1.255523
9561.000000;1.255067
9560.000000;1.254318
9559.000000;1.253552
9558.000000;1.253336
9557.000000;1.253732
9556.000000;1.254270
9555.000000;1.254671
9554.000000;1.255077
9553.000000;1.255407
9552.000000;1.255003
9551.000000;1.253314
9550.000000;1.250764
9549.000000;1.248511
9548.000000;1.247423
9547.000000;1.247531
9546.000000;1.248313
9545.000000;1.249154
9544.000000;1.249540
9543.000000;1.249230
9542.000000;1.248406
9541.000000;1.247463
9540.000000;1.246542
9539.000000;1.245412
9538.000000;1.243914
9537.000000;1.242293
9536.000000;1.240968
9535.000000;1.240106
9534.000000;1.239561
9533.000000;1.239087
9532.000000;1.238482
9531.000000;1.237639
9530.000000;1.236690
9529.000000;1.236020
9528.000000;1.235957
9527.000000;1.236485
9526.000000;1.237302
9525.000000;1.238088
9524.000000;1.238607
9523.000000;1.238597
9522.000000;1.237843
9521.000000;1.236515
9520.000000;1.235260
9519.000000;1.234679
9518.000000;1.234774
9517.000000;1.235090
9516.000000;1.235320
9515.000000;1.235513
9514.000000;1.235619
9513.000000;1.235148
9512.000000;1.233628
9511.000000;1.231268
9510.000000;1.228851
9509.000000;1.226910
9508.000000;1.225295
9507.000000;1.223684
9506.000000;1.222254
9505.000000;1.221603
9504.000000;1.222171
9503.000000;1.223928
9502.000000;1.226414
9501.000000;1.228830
9500.000000;1.230253
9499.000000;1.230253
9498.000000;1.229352
9497.000000;1.228485
9496.000000;1.227903
9495.000000;1.226994
9494.000000;1.225294
9493.000000;1.223250
9492.000000;1.221593
9491.000000;1.220374
9490.000000;1.219142
9489.000000;1.217852
9488.000000;1.217002
9487.000000;1.216805
9486.000000;1.216786
9485.000000;1.216431
9484.000000;1.215840
9483.000000;1.215468
9482.000000;1.215447
9481.000000;1.215501
9480.000000;1.215421
9479.000000;1.215278
9478.000000;1.215108
9477.000000;1.214647
9476.000000;1.213564
9475.000000;1.211926
9474.000000;1.210340
9473.000000;1.209526
9472.000000;1.209690
9471.000000;1.210321
9470.000000;1.210668
9469.000000;1.210399
9468.000000;1.209725
9467.000000;1.208980
9466.000000;1.208296
9465.000000;1.207698
9464.000000;1.207250
9463.000000;1.206930
9462.000000;1.206530
9461.000000;1.205896
9460.000000;1.205205
9459.000000;1.204778
9458.000000;1.204623
9457.000000;1.204358
9456.000000;1.203646
9455.000000;1.202580
9454.000000;1.201500
9453.000000;1.200594
9452.000000;1.199838
9451.000000;1.199268
9450.000000;1.199065
9449.000000;1.199291
9448.000000;1.199659
9447.000000;1.199721
9446.000000;1.199292
9445.000000;1.198592
9444.000000;1.197985
9443.000000;1.197681
9442.000000;1.197635
9441.000000;1.197596
9440.000000;1.197247
9439.000000;1.196462
9438.000000;1.195474
9437.000000;1.194666
9436.000000;1.194123
9435.000000;1.193579
9434.000000;1.192867
9433.000000;1.192208
9432.000000;1.191856
9431.000000;1.191659
9430.000000;1.191222
9429.000000;1.190413
9428.000000;1.189431
9427.000000;1.188447
9426.000000;1.187520
9425.000000;1.186914
9424.000000;1.187036
9423.000000;1.187829
9422.000000;1.188505
9421.000000;1.188234
9420.000000;1.187010
9419.000000;1.185526
9418.000000;1.184265
9417.000000;1.183086
9416.000000;1.181758
9415.000000;1.180547
9414.000000;1.180014
9413.000000;1.180319
9412.000000;1.180963
9411.000000;1.181219
9410.000000;1.180732
9409.000000;1.179678
9408.000000;1.178554
9407.000000;1.177847
9406.000000;1.177760
9405.000000;1.178172
9404.000000;1.178847
9403.000000;1.179633
9402.000000;1.180396
9401.000000;1.180745
9400.000000;1.180037
9399.000000;1.177965
9398.000000;1.175164
9397.000000;1.172939
9396.000000;1.172175
9395.000000;1.172575
9394.000000;1.173097
9393.000000;1.173015
9392.000000;1.172413
9391.000000;1.171735
9390.000000;1.171216
9389.000000;1.170845
9388.000000;1.170626
9387.000000;1.170588
9386.000000;1.170586
9385.000000;1.170304
9384.000000;1.169599
9383.000000;1.168770
9382.000000;1.168356
9381.000000;1.168547
9380.000000;1.168852
9379.000000;1.168520
9378.000000;1.167385
9377.000000;1.166112
9376.000000;1.165475
9375.000000;1.165509
9374.000000;1.165534
9373.000000;1.164909
9372.000000;1.163561
9371.000000;1.161850
9370.000000;1.160245
9369.000000;1.159213
9368.000000;1.159061
9367.000000;1.159634
9366.000000;1.160291
9365.000000;1.160404
9364.000000;1.159850
9363.000000;1.158901
9362.000000;1.157763
9361.000000;1.156470
9360.000000;1.155150
9359.000000;1.154136
9358.000000;1.153724
9357.000000;1.153998
9356.000000;1.154866
9355.000000;1.156079
9354.000000;1.157139
9353.000000;1.157454
9352.000000;1.156822
9351.000000;1.155656
9350.000000;1.154536
9349.000000;1.153604
9348.000000;1.152624
9347.000000;1.151562
9346.000000;1.150782
9345.000000;1.150547
9344.000000;1.150602
9343.000000;1.150445
9342.000000;1.149883
9341.000000;1.149150
9340.000000;1.148622
9339.000000;1.148652
9338.000000;1.149519
9337.000000;1.151147
9336.000000;1.152810
9335.000000;1.153438
9334.000000;1.152486
9333.000000;1.150406
9332.000000;1.148188
9331.000000;1.146585
9330.000000;1.145801
9329.000000;1.145611
9328.000000;1.145578
9327.000000;1.145280
9326.000000;1.144575
9325.000000;1.143682
9324.000000;1.142950
9323.000000;1.142623
9322.000000;1.142823
9321.000000;1.143512
9320.000000;1.144306
9319.000000;1.144515
9318.000000;1.143717
9317.000000;1.142245
9316.000000;1.140888
9315.000000;1.140112
9314.000000;1.139759
9313.000000;1.139411
9312.000000;1.138821
9311.000000;1.137994
9310.000000;1.137104
9309.000000;1.136382
9308.000000;1.135911
9307.000000;1.135455
9306.000000;1.134694
9305.000000;1.133703
9304.000000;1.133048
9303.000000;1.133231
9302.000000;1.134145
9301.000000;1.135197
9300.000000;1.135924
9299.000000;1.136339
9298.000000;1.136658
9297.000000;1.136823
9296.000000;1.136479
9295.000000;1.135458
9294.000000;1.134102
9293.000000;1.132956
9292.000000;1.132197
9291.000000;1.131595
9290.000000;1.131001
9289.000000;1.130582
9288.000000;1.130459
9287.000000;1.130416
9286.000000;1.130225
9285.000000;1.130071
9284.000000;1.130330
9283.000000;1.130977
9282.000000;1.131448
9281.000000;1.131100
9280.000000;1.129730
9279.000000;1.127768
9278.000000;1.126098
9277.000000;1.125479
9276.000000;1.125842
9275.000000;1.126266
9274.000000;1.125950
9273.000000;1.125088
9272.000000;1.124439
9271.000000;1.124202
9270.000000;1.123859
9269.000000;1.123098
9268.000000;1.122286
9267.000000;1.121807
9266.000000;1.121467
9265.000000;1.120862
9264.000000;1.119985
9263.000000;1.119097
9262.000000;1.118296
9261.000000;1.117563
9260.000000;1.116997
9259.000000;1.116642
9258.000000;1.116304
9257.000000;1.115869
9256.000000;1.115682
9255.000000;1.116192
9254.000000;1.117267
9253.000000;1.118204
9252.000000;1.118508
9251.000000;1.118370
9250.000000;1.118278
9249.000000;1.118365
9248.000000;1.118298
9247.000000;1.117677
9246.000000;1.116474
9245.000000;1.115101
9244.000000;1.114068
9243.000000;1.113537
9242.000000;1.113248
9241.000000;1.112891
9240.000000;1.112443
9239.000000;1.112104
9238.000000;1.112048
9237.000000;1.112340
9236.000000;1.112932
9235.000000;1.113558
9234.000000;1.113740
9233.000000;1.113088
9232.000000;1.111615
9231.000000;1.109681
9230.000000;1.107707
9229.000000;1.106046
9228.000000;1.104966
9227.000000;1.104506
9226.000000;1.104457
9225.000000;1.104664
9224.000000;1.105260
9223.000000;1.106386
9222.000000;1.107774
9221.000000;1.108901
9220.000000;1.109511
9219.000000;1.109668
9218.000000;1.109342
9217.000000;1.108343
9216.000000;1.106822
9215.000000;1.105472
9214.000000;1.104904
9213.000000;1.105009
9212.000000;1.105154
9211.000000;1.104939
9210.000000;1.104550
9209.000000;1.104396
9208.000000;1.104622
9207.000000;1.105011
9206.000000;1.105177
9205.000000;1.104819
9204.000000;1.103924
9203.000000;1.102856
9202.000000;1.102120
9201.000000;1.101954
9200.000000;1.102110
9199.000000;1.102127
9198.000000;1.101793
9197.000000;1.101244
9196.000000;1.100642
9195.000000;1.099927
9194.000000;1.098955
9193.000000;1.097753
9192.000000;1.096480
9191.000000;1.095244
9190.000000;1.094172
9189.000000;1.093607
9188.000000;1.093901
9187.000000;1.094928
9186.000000;1.096053
9185.000000;1.096763
9184.000000;1.097161
9183.000000;1.097588
9182.000000;1.097936
9181.000000;1.097721
9180.000000;1.096835
9179.000000;1.095854
9178.000000;1.095451
9177.000000;1.095713
9176.000000;1.096176
9175.000000;1.096295
9174.000000;1.095770
9173.000000;1.094637
9172.000000;1.093315
9171.000000;1.092430
9170.000000;1.092269
9169.000000;1.092420
9168.000000;1.092193
9167.000000;1.091442
9166.000000;1.090731
9165.000000;1.090612
9164.000000;1.090977
9163.000000;1.091273
9162.000000;1.091135
9161.000000;1.090591
9160.000000;1.089784
9159.000000;1.088797
9158.000000;1.087751
9157.000000;1.086798
9156.000000;1.085924
9155.000000;1.084961
9154.000000;1.083917
9153.000000;1.083140
9152.000000;1.082992
9151.000000;1.083449
9150.000000;1.084173
9149.000000;1.084897
9148.000000;1.085570
9147.000000;1.086144
9146.000000;1.086440
9145.000000;1.086290
9144.000000;1.085704
9143.000000;1.084797
9142.000000;1.083677
9141.000000;1.082501
9140.000000;1.081575
9139.000000;1.081285
9138.000000;1.081871
9137.000000;1.083232
9136.000000;1.084822
9135.000000;1.085738
9134.000000;1.085167
9133.000000;1.083049
9132.000000;1.080374
9131.000000;1.078607
9130.000000;1.078572
9129.000000;1.079781
9128.000000;1.080882
9127.000000;1.080887
9126.000000;1.079992
9125.000000;1.079189
9124.000000;1.079160
9123.000000;1.079632
9122.000000;1.079823
9121.000000;1.079348
9120.000000;1.078570
9119.000000;1.078122
9118.000000;1.078255
9117.000000;1.078688
9116.000000;1.078954
9115.000000;1.078783
9114.000000;1.078197
9113.000000;1.077400
9112.000000;1.076652
9111.000000;1.076171
9110.000000;1.076032
9109.000000;1.076105
9108.000000;1.076168
9107.000000;1.076175
9106.000000;1.076315
9105.000000;1.076663
9104.000000;1.076863
9103.000000;1.076422
9102.000000;1.075402
9101.000000;1.074521
9100.000000;1.074369
9099.000000;1.074686
9098.000000;1.074663
9097.000000;1.073890
9096.000000;1.072781
9095.000000;1.072054
9094.000000;1.072007
9093.000000;1.072365
9092.000000;1.072650
9091.000000;1.072616
9090.000000;1.072381
9089.000000;1.072191
9088.000000;1.072097
9087.000000;1.071945
9086.000000;1.071672
9085.000000;1.071398
9084.000000;1.071100
9083.000000;1.070427
9082.000000;1.069150
9081.000000;1.067649
9080.000000;1.066598
9079.000000;1.066167
9078.000000;1.065866
9077.000000;1.065229
9076.000000;1.064358
9075.000000;1.063716
9074.000000;1.063675
9073.000000;1.064394
9072.000000;1.065780
9071.000000;1.067367
9070.000000;1.068494
9069.000000;1.068903
9068.000000;1.068981
9067.000000;1.069172
9066.000000;1.069360
9065.000000;1.069093
9064.000000;1.068251
9063.000000;1.067176
9062.000000;1.066239
9061.000000;1.065571
9060.000000;1.065177
9059.000000;1.065021
9058.000000;1.064981
9057.000000;1.064948
9056.000000;1.064952
9055.000000;1.065015
9054.000000;1.064930
9053.000000;1.064440
