Criado como novo conjunto de dados;"1909daniel.spp","-4217741.5 Secs"
cm-1;Abs
10000.000000;1.384814
9999.000000;1.384033
9998.000000;1.381556
9997.000000;1.378208
9996.000000;1.375822
9995.000000;1.375053
9994.000000;1.375462
9993.000000;1.376070
9992.000000;1.376579
9991.000000;1.377025
9990.000000;1.377291
9989.000000;1.376955
9988.000000;1.375786
9987.000000;1.374000
9986.000000;1.372061
9985.000000;1.370392
9984.000000;1.369271
9983.000000;1.368839
9982.000000;1.369051
9981.000000;1.369611
9980.000000;1.369994
9979.000000;1.369658
9978.000000;1.368436
9977.000000;1.366794
9976.000000;1.365550
9975.000000;1.365230
9974.000000;1.365721
9973.000000;1.366601
9972.000000;1.367646
9971.000000;1.368724
9970.000000;1.369327
9969.000000;1.368715
9968.000000;1.366773
9967.000000;1.364403
9966.000000;1.362745
9965.000000;1.362086
9964.000000;1.361705
9963.000000;1.360721
9962.000000;1.358908
9961.000000;1.356800
9960.000000;1.355207
9959.000000;1.354624
9958.000000;1.354855
9957.000000;1.355152
9956.000000;1.354894
9955.000000;1.354196
9954.000000;1.353738
9953.000000;1.353993
9952.000000;1.354747
9951.000000;1.355306
9950.000000;1.355028
9949.000000;1.353667
9948.000000;1.351408
9947.000000;1.348818
9946.000000;1.346685
9945.000000;1.345665
9944.000000;1.345827
9943.000000;1.346512
9942.000000;1.346771
9941.000000;1.346137
9940.000000;1.344969
9939.000000;1.343983
9938.000000;1.343464
9937.000000;1.343068
9936.000000;1.342350
9935.000000;1.341309
9934.000000;1.340318
9933.000000;1.339661
9932.000000;1.339320
9931.000000;1.339078
9930.000000;1.338683
9929.000000;1.337984
9928.000000;1.337038
9927.000000;1.336014
9926.000000;1.334984
9925.000000;1.333938
9924.000000;1.332994
9923.000000;1.332294
9922.000000;1.331645
9921.000000;1.330624
9920.000000;1.329288
9919.000000;1.328497
9918.000000;1.329113
9917.000000;1.330913
9916.000000;1.332636
9915.000000;1.333087
9914.000000;1.332072
9913.000000;1.330300
9912.000000;1.328681
9911.000000;1.327821
9910.000000;1.327768
9909.000000;1.327981
9908.000000;1.327763
9907.000000;1.326847
9906.000000;1.325493
9905.000000;1.324049
9904.000000;1.322656
9903.000000;1.321405
9902.000000;1.320533
9901.000000;1.320278
9900.000000;1.320579
9899.000000;1.321003
9898.000000;1.320981
9897.000000;1.320186
9896.000000;1.318813
9895.000000;1.317457
9894.000000;1.316660
9893.000000;1.316543
9892.000000;1.316782
9891.000000;1.316815
9890.000000;1.316118
9889.000000;1.314630
9888.000000;1.313020
9887.000000;1.312190
9886.000000;1.312252
9885.000000;1.312260
9884.000000;1.311299
9883.000000;1.309605
9882.000000;1.308134
9881.000000;1.307271
9880.000000;1.306504
9879.000000;1.305284
9878.000000;1.303663
9877.000000;1.302032
9876.000000;1.300769
9875.000000;1.300304
9874.000000;1.300991
9873.000000;1.302568
9872.000000;1.304042
9871.000000;1.304421
9870.000000;1.303476
9869.000000;1.301725
9868.000000;1.299923
9867.000000;1.298613
9866.000000;1.297832
9865.000000;1.297106
9864.000000;1.296047
9863.000000;1.295061
9862.000000;1.294999
9861.000000;1.295934
9860.000000;1.296786
9859.000000;1.296478
9858.000000;1.295094
9857.000000;1.293510
9856.000000;1.292248
9855.000000;1.291226
9854.000000;1.290311
9853.000000;1.289475
9852.000000;1.288498
9851.000000;1.287105
9850.000000;1.285484
9849.000000;1.284226
9848.000000;1.283585
9847.000000;1.283171
9846.000000;1.282511
9845.000000;1.281633
9844.000000;1.280880
9843.000000;1.280367
9842.000000;1.279905
9841.000000;1.279395
9840.000000;1.279056
9839.000000;1.279147
9838.000000;1.279533
9837.000000;1.279670
9836.000000;1.279165
9835.000000;1.278287
9834.000000;1.277682
9833.000000;1.277494
9832.000000;1.277061
9831.000000;1.275716
9830.000000;1.273709
9829.000000;1.272030
9828.000000;1.271381
9827.000000;1.271622
9826.000000;1.272179
9825.000000;1.272611
9824.000000;1.272617
9823.000000;1.271857
9822.000000;1.270174
9821.000000;1.267949
9820.000000;1.265950
9819.000000;1.264734
9818.000000;1.264291
9817.000000;1.264251
9816.000000;1.264282
9815.000000;1.264227
9814.000000;1.264034
9813.000000;1.263762
9812.000000;1.263585
9811.000000;1.263601
9810.000000;1.263627
9809.000000;1.263271
9808.000000;1.262277
9807.000000;1.260751
9806.000000;1.259063
9805.000000;1.257671
9804.000000;1.256980
9803.000000;1.257096
9802.000000;1.257561
9801.000000;1.257554
9800.000000;1.256621
9799.000000;1.255141
9798.000000;1.253839
9797.000000;1.252967
9796.000000;1.252261
9795.000000;1.251638
9794.000000;1.251421
9793.000000;1.251698
9792.000000;1.251891
9791.000000;1.251341
9790.000000;1.250132
9789.000000;1.248914
9788.000000;1.247996
9787.000000;1.247022
9786.000000;1.245604
9785.000000;1.243933
9784.000000;1.242574
9783.000000;1.241828
9782.000000;1.241513
9781.000000;1.241321
9780.000000;1.241116
9779.000000;1.240844
9778.000000;1.240472
9777.000000;1.240168
9776.000000;1.240254
9775.000000;1.240717
9774.000000;1.240849
9773.000000;1.239786
9772.000000;1.237589
9771.000000;1.235497
9770.000000;1.234817
9769.000000;1.235635
9768.000000;1.236774
9767.000000;1.237018
9766.000000;1.236176
9765.000000;1.234932
9764.000000;1.233986
9763.000000;1.233587
9762.000000;1.233675
9761.000000;1.234088
9760.000000;1.234489
9759.000000;1.234333
9758.000000;1.233199
9757.000000;1.231174
9756.000000;1.228820
9755.000000;1.226775
9754.000000;1.225452
9753.000000;1.224968
9752.000000;1.225091
9751.000000;1.225200
9750.000000;1.224587
9749.000000;1.223164
9748.000000;1.221689
9747.000000;1.220949
9746.000000;1.220817
9745.000000;1.220545
9744.000000;1.219921
9743.000000;1.219569
9742.000000;1.219907
9741.000000;1.220398
9740.000000;1.220231
9739.000000;1.219263
9738.000000;1.217800
9737.000000;1.215846
9736.000000;1.213346
9735.000000;1.210999
9734.000000;1.209966
9733.000000;1.210565
9732.000000;1.211788
9731.000000;1.212419
9730.000000;1.212219
9729.000000;1.211765
9728.000000;1.211512
9727.000000;1.211434
9726.000000;1.211307
9725.000000;1.210930
9724.000000;1.210102
9723.000000;1.208709
9722.000000;1.206885
9721.000000;1.204983
9720.000000;1.203408
9719.000000;1.202489
9718.000000;1.202316
9717.000000;1.202577
9716.000000;1.202688
9715.000000;1.202264
9714.000000;1.201398
9713.000000;1.200456
9712.000000;1.199744
9711.000000;1.199426
9710.000000;1.199519
9709.000000;1.199790
9708.000000;1.199853
9707.000000;1.199585
9706.000000;1.199314
9705.000000;1.199349
9704.000000;1.199412
9703.000000;1.198810
9702.000000;1.197225
9701.000000;1.195180
9700.000000;1.193625
9699.000000;1.193124
9698.000000;1.193415
9697.000000;1.193673
9696.000000;1.193178
9695.000000;1.191815
9694.000000;1.189989
9693.000000;1.188198
9692.000000;1.186777
9691.000000;1.185894
9690.000000;1.185509
9689.000000;1.185262
9688.000000;1.184751
9687.000000;1.184121
9686.000000;1.184080
9685.000000;1.185004
9684.000000;1.186232
9683.000000;1.186614
9682.000000;1.185731
9681.000000;1.184185
9680.000000;1.182700
9679.000000;1.181470
9678.000000;1.180485
9677.000000;1.179882
9676.000000;1.179580
9675.000000;1.178961
9674.000000;1.177528
9673.000000;1.175731
9672.000000;1.174579
9671.000000;1.174429
9670.000000;1.174673
9669.000000;1.174676
9668.000000;1.174474
9667.000000;1.174293
9666.000000;1.173907
9665.000000;1.173030
9664.000000;1.171951
9663.000000;1.171167
9662.000000;1.170615
9661.000000;1.169881
9660.000000;1.169057
9659.000000;1.168712
9658.000000;1.168964
9657.000000;1.169190
9656.000000;1.168820
9655.000000;1.167848
9654.000000;1.166410
9653.000000;1.164479
9652.000000;1.162422
9651.000000;1.161266
9650.000000;1.161711
9649.000000;1.163091
9648.000000;1.163918
9647.000000;1.163386
9646.000000;1.161921
9645.000000;1.160344
9644.000000;1.159057
9643.000000;1.158063
9642.000000;1.157247
9641.000000;1.156506
9640.000000;1.155899
9639.000000;1.155696
9638.000000;1.155986
9637.000000;1.156265
9636.000000;1.155790
9635.000000;1.154370
9634.000000;1.152523
9633.000000;1.150914
9632.000000;1.150039
9631.000000;1.150320
9630.000000;1.151840
9629.000000;1.153745
9628.000000;1.154472
9627.000000;1.153140
9626.000000;1.150510
9625.000000;1.148141
9624.000000;1.146851
9623.000000;1.146310
9622.000000;1.145844
9621.000000;1.145209
9620.000000;1.144580
9619.000000;1.144135
9618.000000;1.143818
9617.000000;1.143446
9616.000000;1.142921
9615.000000;1.142348
9614.000000;1.141906
9613.000000;1.141606
9612.000000;1.141225
9611.000000;1.140504
9610.000000;1.139373
9609.000000;1.138018
9608.000000;1.136792
9607.000000;1.136029
9606.000000;1.135812
9605.000000;1.135933
9604.000000;1.136142
9603.000000;1.136328
9602.000000;1.136372
9601.000000;1.136024
9600.000000;1.135230
9599.000000;1.134429
9598.000000;1.134114
9597.000000;1.134118
9596.000000;1.133783
9595.000000;1.132920
9594.000000;1.132155
9593.000000;1.132070
9592.000000;1.132397
9591.000000;1.132403
9590.000000;1.131773
9589.000000;1.130726
9588.000000;1.129461
9587.000000;1.127946
9586.000000;1.126217
9585.000000;1.124549
9584.000000;1.123243
9583.000000;1.122432
9582.000000;1.122042
9581.000000;1.121800
9580.000000;1.121369
9579.000000;1.120703
9578.000000;1.120181
9577.000000;1.120144
9576.000000;1.120383
9575.000000;1.120328
9574.000000;1.119785
9573.000000;1.119176
9572.000000;1.118991
9571.000000;1.119267
9570.000000;1.119727
9569.000000;1.120154
9568.000000;1.120406
9567.000000;1.120217
9566.000000;1.119260
9565.000000;1.117481
9564.000000;1.115268
9563.000000;1.113258
9562.000000;1.111982
9561.000000;1.111571
9560.000000;1.111675
9559.000000;1.111695
9558.000000;1.111222
9557.000000;1.110287
9556.000000;1.109195
9555.000000;1.108218
9554.000000;1.107529
9553.000000;1.107264
9552.000000;1.107371
9551.000000;1.107381
9550.000000;1.106652
9549.000000;1.105043
9548.000000;1.103187
9547.000000;1.101931
9546.000000;1.101603
9545.000000;1.101948
9544.000000;1.102538
9543.000000;1.102947
9542.000000;1.102654
9541.000000;1.101299
9540.000000;1.099240
9539.000000;1.097567
9538.000000;1.097225
9537.000000;1.098178
9536.000000;1.099464
9535.000000;1.100005
9534.000000;1.099340
9533.000000;1.097794
9532.000000;1.096101
9531.000000;1.094791
9530.000000;1.093821
9529.000000;1.092811
9528.000000;1.091668
9527.000000;1.090796
9526.000000;1.090590
9525.000000;1.090913
9524.000000;1.091196
9523.000000;1.090941
9522.000000;1.090028
9521.000000;1.088755
9520.000000;1.087748
9519.000000;1.087586
9518.000000;1.088237
9517.000000;1.088977
9516.000000;1.089098
9515.000000;1.088583
9514.000000;1.087832
9513.000000;1.086943
9512.000000;1.085657
9511.000000;1.083967
9510.000000;1.082336
9509.000000;1.081200
9508.000000;1.080617
9507.000000;1.080488
9506.000000;1.080833
9505.000000;1.081595
9504.000000;1.082377
9503.000000;1.082635
9502.000000;1.082142
9501.000000;1.081152
9500.000000;1.080119
9499.000000;1.079322
9498.000000;1.078726
9497.000000;1.078126
9496.000000;1.077381
9495.000000;1.076515
9494.000000;1.075669
9493.000000;1.075030
9492.000000;1.074756
9491.000000;1.074782
9490.000000;1.074702
9489.000000;1.074038
9488.000000;1.072742
9487.000000;1.071223
9486.000000;1.069826
9485.000000;1.068563
9484.000000;1.067530
9483.000000;1.067191
9482.000000;1.067830
9481.000000;1.068912
9480.000000;1.069438
9479.000000;1.068929
9478.000000;1.067715
9477.000000;1.066317
9476.000000;1.064983
9475.000000;1.063858
9474.000000;1.063116
9473.000000;1.062684
9472.000000;1.062183
9471.000000;1.061361
9470.000000;1.060410
9469.000000;1.059672
9468.000000;1.059234
9467.000000;1.058961
9466.000000;1.058749
9465.000000;1.058559
9464.000000;1.058313
9463.000000;1.057944
9462.000000;1.057492
9461.000000;1.057076
9460.000000;1.056801
9459.000000;1.056722
9458.000000;1.056834
9457.000000;1.057057
9456.000000;1.057277
9455.000000;1.057380
9454.000000;1.057207
9453.000000;1.056566
9452.000000;1.055462
9451.000000;1.054290
9450.000000;1.053547
9449.000000;1.053311
9448.000000;1.053174
9447.000000;1.052713
9446.000000;1.051892
9445.000000;1.050971
9444.000000;1.050229
9443.000000;1.049832
9442.000000;1.049805
9441.000000;1.049972
9440.000000;1.049977
9439.000000;1.049492
9438.000000;1.048463
9437.000000;1.047219
9436.000000;1.046310
9435.000000;1.046109
9434.000000;1.046422
9433.000000;1.046607
9432.000000;1.046162
9431.000000;1.045116
9430.000000;1.043771
9429.000000;1.042334
9428.000000;1.040991
9427.000000;1.040088
9426.000000;1.039865
9425.000000;1.040128
9424.000000;1.040497
9423.000000;1.040852
9422.000000;1.041213
9421.000000;1.041299
9420.000000;1.040657
9419.000000;1.039294
9418.000000;1.037811
9417.000000;1.036831
9416.000000;1.036545
9415.000000;1.036779
9414.000000;1.037139
9413.000000;1.037098
9412.000000;1.036353
9411.000000;1.035183
9410.000000;1.034140
9409.000000;1.033390
9408.000000;1.032708
9407.000000;1.032126
9406.000000;1.032025
9405.000000;1.032451
9404.000000;1.032853
9403.000000;1.032754
9402.000000;1.032275
9401.000000;1.031665
9400.000000;1.030761
9399.000000;1.029359
9398.000000;1.027819
9397.000000;1.026797
9396.000000;1.026460
9395.000000;1.026348
9394.000000;1.026001
9393.000000;1.025407
9392.000000;1.024796
9391.000000;1.024229
9390.000000;1.023508
9389.000000;1.022444
9388.000000;1.021172
9387.000000;1.020203
9386.000000;1.020006
9385.000000;1.020521
9384.000000;1.021205
9383.000000;1.021582
9382.000000;1.021596
9381.000000;1.021408
9380.000000;1.021140
9379.000000;1.020895
9378.000000;1.020760
9377.000000;1.020605
9376.000000;1.020104
9375.000000;1.019171
9374.000000;1.018166
9373.000000;1.017452
9372.000000;1.016910
9371.000000;1.016167
9370.000000;1.015193
9369.000000;1.014405
9368.000000;1.014184
9367.000000;1.014452
9366.000000;1.014725
9365.000000;1.014525
9364.000000;1.013785
9363.000000;1.012860
9362.000000;1.012083
9361.000000;1.011398
9360.000000;1.010603
9359.000000;1.009912
9358.000000;1.009906
9357.000000;1.010726
9356.000000;1.011616
9355.000000;1.011607
9354.000000;1.010544
9353.000000;1.009157
9352.000000;1.008213
9351.000000;1.007851
9350.000000;1.007700
9349.000000;1.007402
9348.000000;1.006898
9347.000000;1.006298
9346.000000;1.005621
9345.000000;1.004783
9344.000000;1.003866
9343.000000;1.003260
9342.000000;1.003277
9341.000000;1.003666
9340.000000;1.003785
9339.000000;1.003348
9338.000000;1.002736
9337.000000;1.002458
9336.000000;1.002555
9335.000000;1.002658
9334.000000;1.002375
9333.000000;1.001454
9332.000000;0.999864
9331.000000;0.998050
9330.000000;0.996861
9329.000000;0.996834
9328.000000;0.997582
9327.000000;0.998160
9326.000000;0.998024
9325.000000;0.997430
9324.000000;0.996904
9323.000000;0.996622
9322.000000;0.996395
9321.000000;0.996071
9320.000000;0.995759
9319.000000;0.995629
9318.000000;0.995605
9317.000000;0.995419
9316.000000;0.995031
9315.000000;0.994776
9314.000000;0.994837
9313.000000;0.994715
9312.000000;0.993645
9311.000000;0.991647
9310.000000;0.989707
9309.000000;0.988685
9308.000000;0.988406
9307.000000;0.988133
9306.000000;0.987607
9305.000000;0.987248
9304.000000;0.987440
9303.000000;0.988014
9302.000000;0.988468
9301.000000;0.988450
9300.000000;0.988000
9299.000000;0.987488
9298.000000;0.987263
9297.000000;0.987259
9296.000000;0.987058
9295.000000;0.986438
9294.000000;0.985681
9293.000000;0.985156
9292.000000;0.984823
9291.000000;0.984400
9290.000000;0.983831
9289.000000;0.983296
9288.000000;0.982852
9287.000000;0.982413
9286.000000;0.982066
9285.000000;0.982053
9284.000000;0.982406
9283.000000;0.982809
9282.000000;0.982854
9281.000000;0.982290
9280.000000;0.981143
9279.000000;0.979841
9278.000000;0.979106
9277.000000;0.979316
9276.000000;0.979931
9275.000000;0.979923
9274.000000;0.978898
9273.000000;0.977515
9272.000000;0.976617
9271.000000;0.976270
9270.000000;0.975907
9269.000000;0.975200
9268.000000;0.974414
9267.000000;0.973937
9266.000000;0.973807
9265.000000;0.973850
9264.000000;0.974074
9263.000000;0.974639
9262.000000;0.975376
9261.000000;0.975597
9260.000000;0.974685
9259.000000;0.972918
9258.000000;0.971395
9257.000000;0.970971
9256.000000;0.971380
9255.000000;0.971593
9254.000000;0.970955
9253.000000;0.969723
9252.000000;0.968536
9251.000000;0.967718
9250.000000;0.967244
9249.000000;0.967089
9248.000000;0.967258
9247.000000;0.967551
9246.000000;0.967571
9245.000000;0.967105
9244.000000;0.966401
9243.000000;0.965903
9242.000000;0.965721
9241.000000;0.965487
9240.000000;0.964850
9239.000000;0.964009
9238.000000;0.963562
9237.000000;0.963825
9236.000000;0.964511
9235.000000;0.965141
9234.000000;0.965516
9233.000000;0.965611
9232.000000;0.965233
9231.000000;0.964188
9230.000000;0.962742
9229.000000;0.961584
9228.000000;0.961213
9227.000000;0.961536
9226.000000;0.962067
9225.000000;0.962294
9224.000000;0.961841
9223.000000;0.960625
9222.000000;0.959105
9221.000000;0.958173
9220.000000;0.958394
9219.000000;0.959338
9218.000000;0.959864
9217.000000;0.959210
9216.000000;0.957710
9215.000000;0.956358
9214.000000;0.955793
9213.000000;0.955840
9212.000000;0.955905
9211.000000;0.955652
9210.000000;0.955205
9209.000000;0.954858
9208.000000;0.954731
9207.000000;0.954771
9206.000000;0.954919
9205.000000;0.955162
9204.000000;0.955425
9203.000000;0.955477
9202.000000;0.955008
9201.000000;0.953853
9200.000000;0.952263
9199.000000;0.950963
9198.000000;0.950703
9197.000000;0.951540
9196.000000;0.952533
9195.000000;0.952418
9194.000000;0.950760
9193.000000;0.948380
9192.000000;0.946591
9191.000000;0.946104
9190.000000;0.946711
9189.000000;0.947760
9188.000000;0.948662
9187.000000;0.949040
9186.000000;0.948775
9185.000000;0.948129
9184.000000;0.947616
9183.000000;0.947501
9182.000000;0.947492
9181.000000;0.947135
9180.000000;0.946450
9179.000000;0.945900
9178.000000;0.945743
9177.000000;0.945685
9176.000000;0.945318
9175.000000;0.944652
9174.000000;0.944031
9173.000000;0.943702
9172.000000;0.943691
9171.000000;0.943955
9170.000000;0.944346
9169.000000;0.944516
9168.000000;0.944166
9167.000000;0.943447
9166.000000;0.942862
9165.000000;0.942665
9164.000000;0.942581
9163.000000;0.942200
9162.000000;0.941520
9161.000000;0.940945
9160.000000;0.940818
9159.000000;0.941049
9158.000000;0.941179
9157.000000;0.940775
9156.000000;0.939802
9155.000000;0.938616
9154.000000;0.937581
9153.000000;0.936748
9152.000000;0.935992
9151.000000;0.935350
9150.000000;0.935024
9149.000000;0.935076
9148.000000;0.935333
9147.000000;0.935658
9146.000000;0.936088
9145.000000;0.936601
9144.000000;0.936939
9143.000000;0.936838
9142.000000;0.936347
9141.000000;0.935842
9140.000000;0.935743
9139.000000;0.936219
9138.000000;0.936962
9137.000000;0.937241
9136.000000;0.936443
9135.000000;0.934709
9134.000000;0.932862
9133.000000;0.931606
9132.000000;0.930988
9131.000000;0.930729
9130.000000;0.930781
9129.000000;0.931254
9128.000000;0.931969
9127.000000;0.932430
9126.000000;0.932338
9125.000000;0.931889
9124.000000;0.931504
9123.000000;0.931392
9122.000000;0.931415
9121.000000;0.931258
9120.000000;0.930685
9119.000000;0.929715
9118.000000;0.928650
9117.000000;0.927878
9116.000000;0.927645
9115.000000;0.927954
9114.000000;0.928558
9113.000000;0.929004
9112.000000;0.928863
9111.000000;0.928112
9110.000000;0.927269
9109.000000;0.926984
9108.000000;0.927459
9107.000000;0.928315
9106.000000;0.928965
9105.000000;0.929016
9104.000000;0.928401
9103.000000;0.927347
9102.000000;0.926262
9101.000000;0.925486
9100.000000;0.925016
9099.000000;0.924543
9098.000000;0.923833
9097.000000;0.923019
9096.000000;0.922433
9095.000000;0.922222
9094.000000;0.922250
9093.000000;0.922341
9092.000000;0.922529
9091.000000;0.922968
9090.000000;0.923640
9089.000000;0.924216
9088.000000;0.924276
9087.000000;0.923679
9086.000000;0.922673
9085.000000;0.921630
9084.000000;0.920766
9083.000000;0.920162
9082.000000;0.919937
9081.000000;0.920218
9080.000000;0.920837
9079.000000;0.921213
9078.000000;0.920782
9077.000000;0.919604
9076.000000;0.918405
9075.000000;0.917899
9074.000000;0.918114
9073.000000;0.918487
9072.000000;0.918544
9071.000000;0.918296
9070.000000;0.918017
9069.000000;0.917867
9068.000000;0.917828
9067.000000;0.917800
9066.000000;0.917617
9065.000000;0.917118
9064.000000;0.916381
9063.000000;0.915751
9062.000000;0.915486
9061.000000;0.915491
9060.000000;0.915536
9059.000000;0.915596
9058.000000;0.915729
9057.000000;0.915733
9056.000000;0.915261
9055.000000;0.914286
9054.000000;0.913214
9053.000000;0.912494
