Criado como novo conjunto de dados;"1909daniel.spp","-4215761.2 Secs"
cm-1;Abs
10000.000000;1.353335
9999.000000;1.353162
9998.000000;1.351499
9997.000000;1.348858
9996.000000;1.346627
9995.000000;1.345325
9994.000000;1.344739
9993.000000;1.344304
9992.000000;1.343776
9991.000000;1.343017
9990.000000;1.342044
9989.000000;1.341100
9988.000000;1.340495
9987.000000;1.340236
9986.000000;1.340087
9985.000000;1.339962
9984.000000;1.339925
9983.000000;1.339787
9982.000000;1.339054
9981.000000;1.337430
9980.000000;1.335186
9979.000000;1.332952
9978.000000;1.331272
9977.000000;1.330314
9976.000000;1.329763
9975.000000;1.329089
9974.000000;1.328186
9973.000000;1.327632
9972.000000;1.327967
9971.000000;1.328776
9970.000000;1.328978
9969.000000;1.328056
9968.000000;1.326527
9967.000000;1.325130
9966.000000;1.324093
9965.000000;1.323347
9964.000000;1.322949
9963.000000;1.322922
9962.000000;1.322991
9961.000000;1.322818
9960.000000;1.322296
9959.000000;1.321406
9958.000000;1.320091
9957.000000;1.318546
9956.000000;1.317317
9955.000000;1.316758
9954.000000;1.316608
9953.000000;1.316410
9952.000000;1.316100
9951.000000;1.315866
9950.000000;1.315629
9949.000000;1.315075
9948.000000;1.314113
9947.000000;1.312972
9946.000000;1.311893
9945.000000;1.311005
9944.000000;1.310465
9943.000000;1.310411
9942.000000;1.310737
9941.000000;1.311034
9940.000000;1.310745
9939.000000;1.309447
9938.000000;1.307237
9937.000000;1.304931
9936.000000;1.303574
9935.000000;1.303492
9934.000000;1.303991
9933.000000;1.304133
9932.000000;1.303590
9931.000000;1.302593
9930.000000;1.301370
9929.000000;1.300002
9928.000000;1.298613
9927.000000;1.297314
9926.000000;1.296069
9925.000000;1.294838
9924.000000;1.293718
9923.000000;1.292768
9922.000000;1.291837
9921.000000;1.290802
9920.000000;1.289788
9919.000000;1.288975
9918.000000;1.288385
9917.000000;1.288091
9916.000000;1.288327
9915.000000;1.289073
9914.000000;1.289696
9913.000000;1.289386
9912.000000;1.287875
9911.000000;1.285498
9910.000000;1.282776
9909.000000;1.280299
9908.000000;1.278746
9907.000000;1.278450
9906.000000;1.278964
9905.000000;1.279453
9904.000000;1.279531
9903.000000;1.279382
9902.000000;1.279166
9901.000000;1.278811
9900.000000;1.278384
9899.000000;1.278160
9898.000000;1.278105
9897.000000;1.277640
9896.000000;1.276183
9895.000000;1.273865
9894.000000;1.271624
9893.000000;1.270564
9892.000000;1.271056
9891.000000;1.272291
9890.000000;1.272907
9889.000000;1.272334
9888.000000;1.271274
9887.000000;1.270619
9886.000000;1.270311
9885.000000;1.269693
9884.000000;1.268650
9883.000000;1.267726
9882.000000;1.267180
9881.000000;1.266569
9880.000000;1.265375
9879.000000;1.263629
9878.000000;1.261819
9877.000000;1.260498
9876.000000;1.259959
9875.000000;1.259967
9874.000000;1.259820
9873.000000;1.259065
9872.000000;1.258132
9871.000000;1.257859
9870.000000;1.258387
9869.000000;1.258930
9868.000000;1.258668
9867.000000;1.257491
9866.000000;1.255835
9865.000000;1.254236
9864.000000;1.253140
9863.000000;1.252689
9862.000000;1.252576
9861.000000;1.252389
9860.000000;1.252126
9859.000000;1.251997
9858.000000;1.251763
9857.000000;1.250805
9856.000000;1.248965
9855.000000;1.246809
9854.000000;1.244927
9853.000000;1.243485
9852.000000;1.242616
9851.000000;1.242623
9850.000000;1.243421
9849.000000;1.244227
9848.000000;1.244258
9847.000000;1.243469
9846.000000;1.242268
9845.000000;1.240901
9844.000000;1.239478
9843.000000;1.238271
9842.000000;1.237421
9841.000000;1.236538
9840.000000;1.235117
9839.000000;1.233347
9838.000000;1.232086
9837.000000;1.231981
9836.000000;1.232858
9835.000000;1.233981
9834.000000;1.234684
9833.000000;1.234699
9832.000000;1.234058
9831.000000;1.232893
9830.000000;1.231391
9829.000000;1.229842
9828.000000;1.228536
9827.000000;1.227480
9826.000000;1.226349
9825.000000;1.224947
9824.000000;1.223670
9823.000000;1.223170
9822.000000;1.223472
9821.000000;1.223742
9820.000000;1.223140
9819.000000;1.221724
9818.000000;1.220319
9817.000000;1.219649
9816.000000;1.219796
9815.000000;1.220317
9814.000000;1.220663
9813.000000;1.220534
9812.000000;1.219979
9811.000000;1.219115
9810.000000;1.217805
9809.000000;1.215854
9808.000000;1.213577
9807.000000;1.211879
9806.000000;1.211436
9805.000000;1.211863
9804.000000;1.211998
9803.000000;1.211049
9802.000000;1.209310
9801.000000;1.207701
9800.000000;1.206800
9799.000000;1.206415
9798.000000;1.205978
9797.000000;1.205185
9796.000000;1.204238
9795.000000;1.203488
9794.000000;1.202970
9793.000000;1.202388
9792.000000;1.201581
9791.000000;1.200852
9790.000000;1.200684
9789.000000;1.201121
9788.000000;1.201523
9787.000000;1.201024
9786.000000;1.199347
9785.000000;1.197121
9784.000000;1.195314
9783.000000;1.194353
9782.000000;1.193869
9781.000000;1.193282
9780.000000;1.192433
9779.000000;1.191581
9778.000000;1.190994
9777.000000;1.190805
9776.000000;1.191079
9775.000000;1.191705
9774.000000;1.192208
9773.000000;1.191960
9772.000000;1.190709
9771.000000;1.188837
9770.000000;1.187052
9769.000000;1.185935
9768.000000;1.185668
9767.000000;1.185937
9766.000000;1.186081
9765.000000;1.185610
9764.000000;1.184646
9763.000000;1.183750
9762.000000;1.183300
9761.000000;1.183203
9760.000000;1.183172
9759.000000;1.183012
9758.000000;1.182575
9757.000000;1.181691
9756.000000;1.180320
9755.000000;1.178625
9754.000000;1.176805
9753.000000;1.174984
9752.000000;1.173330
9751.000000;1.172086
9750.000000;1.171364
9749.000000;1.170977
9748.000000;1.170593
9747.000000;1.170027
9746.000000;1.169356
9745.000000;1.168794
9744.000000;1.168491
9743.000000;1.168359
9742.000000;1.168127
9741.000000;1.167634
9740.000000;1.166991
9739.000000;1.166347
9738.000000;1.165644
9737.000000;1.164795
9736.000000;1.163964
9735.000000;1.163417
9734.000000;1.163109
9733.000000;1.162718
9732.000000;1.162061
9731.000000;1.161206
9730.000000;1.160192
9729.000000;1.158966
9728.000000;1.157660
9727.000000;1.156603
9726.000000;1.155968
9725.000000;1.155663
9724.000000;1.155604
9723.000000;1.155719
9722.000000;1.155611
9721.000000;1.154654
9720.000000;1.152735
9719.000000;1.150604
9718.000000;1.149172
9717.000000;1.148669
9716.000000;1.148700
9715.000000;1.148908
9714.000000;1.149217
9713.000000;1.149567
9712.000000;1.149741
9711.000000;1.149500
9710.000000;1.148699
9709.000000;1.147281
9708.000000;1.145345
9707.000000;1.143229
9706.000000;1.141399
9705.000000;1.140223
9704.000000;1.139832
9703.000000;1.140056
9702.000000;1.140484
9701.000000;1.140780
9700.000000;1.141009
9699.000000;1.141421
9698.000000;1.141788
9697.000000;1.141308
9696.000000;1.139430
9695.000000;1.136568
9694.000000;1.133725
9693.000000;1.131588
9692.000000;1.130242
9691.000000;1.129513
9690.000000;1.129161
9689.000000;1.128823
9688.000000;1.128262
9687.000000;1.127717
9686.000000;1.127610
9685.000000;1.127847
9684.000000;1.127805
9683.000000;1.127197
9682.000000;1.126536
9681.000000;1.126406
9680.000000;1.126504
9679.000000;1.125797
9678.000000;1.123673
9677.000000;1.120725
9676.000000;1.118343
9675.000000;1.117599
9674.000000;1.118408
9673.000000;1.119599
9672.000000;1.119894
9671.000000;1.119025
9670.000000;1.117853
9669.000000;1.117337
9668.000000;1.117527
9667.000000;1.117679
9666.000000;1.117140
9665.000000;1.115908
9664.000000;1.114410
9663.000000;1.113091
9662.000000;1.112287
9661.000000;1.112162
9660.000000;1.112536
9659.000000;1.112933
9658.000000;1.112976
9657.000000;1.112638
9656.000000;1.112004
9655.000000;1.110972
9654.000000;1.109431
9653.000000;1.107618
9652.000000;1.106004
9651.000000;1.104826
9650.000000;1.103962
9649.000000;1.103294
9648.000000;1.102913
9647.000000;1.102826
9646.000000;1.102686
9645.000000;1.102070
9644.000000;1.100951
9643.000000;1.099697
9642.000000;1.098639
9641.000000;1.097821
9640.000000;1.097172
9639.000000;1.096768
9638.000000;1.096773
9637.000000;1.097155
9636.000000;1.097523
9635.000000;1.097333
9634.000000;1.096329
9633.000000;1.094772
9632.000000;1.093212
9631.000000;1.092042
9630.000000;1.091349
9629.000000;1.091057
9628.000000;1.090996
9627.000000;1.090796
9626.000000;1.090043
9625.000000;1.088741
9624.000000;1.087421
9623.000000;1.086571
9622.000000;1.086106
9621.000000;1.085587
9620.000000;1.084895
9619.000000;1.084378
9618.000000;1.084309
9617.000000;1.084447
9616.000000;1.084277
9615.000000;1.083490
9614.000000;1.082117
9613.000000;1.080380
9612.000000;1.078620
9611.000000;1.077292
9610.000000;1.076734
9609.000000;1.076845
9608.000000;1.077102
9607.000000;1.077019
9606.000000;1.076531
9605.000000;1.075846
9604.000000;1.075040
9603.000000;1.074027
9602.000000;1.072967
9601.000000;1.072419
9600.000000;1.072809
9599.000000;1.073823
9598.000000;1.074588
9597.000000;1.074468
9596.000000;1.073502
9595.000000;1.072100
9594.000000;1.070623
9593.000000;1.069392
9592.000000;1.068682
9591.000000;1.068404
9590.000000;1.067992
9589.000000;1.067012
9588.000000;1.065762
9587.000000;1.064921
9586.000000;1.064626
9585.000000;1.064300
9584.000000;1.063450
9583.000000;1.062260
9582.000000;1.061230
9581.000000;1.060550
9580.000000;1.060059
9579.000000;1.059573
9578.000000;1.058973
9577.000000;1.058117
9576.000000;1.056963
9575.000000;1.055719
9574.000000;1.054665
9573.000000;1.053845
9572.000000;1.053131
9571.000000;1.052513
9570.000000;1.052084
9569.000000;1.051760
9568.000000;1.051289
9567.000000;1.050613
9566.000000;1.050033
9565.000000;1.049862
9564.000000;1.050078
9563.000000;1.050418
9562.000000;1.050651
9561.000000;1.050607
9560.000000;1.050086
9559.000000;1.049022
9558.000000;1.047717
9557.000000;1.046700
9556.000000;1.046225
9555.000000;1.046001
9554.000000;1.045496
9553.000000;1.044482
9552.000000;1.043260
9551.000000;1.042389
9550.000000;1.042217
9549.000000;1.042561
9548.000000;1.042805
9547.000000;1.042397
9546.000000;1.041296
9545.000000;1.039891
9544.000000;1.038511
9543.000000;1.037181
9542.000000;1.035855
9541.000000;1.034667
9540.000000;1.033804
9539.000000;1.033265
9538.000000;1.032919
9537.000000;1.032652
9536.000000;1.032269
9535.000000;1.031434
9534.000000;1.030050
9533.000000;1.028659
9532.000000;1.028073
9531.000000;1.028457
9530.000000;1.029039
9529.000000;1.028934
9528.000000;1.028062
9527.000000;1.027043
9526.000000;1.026351
9525.000000;1.025879
9524.000000;1.025274
9523.000000;1.024414
9522.000000;1.023459
9521.000000;1.022592
9520.000000;1.021890
9519.000000;1.021355
9518.000000;1.020964
9517.000000;1.020628
9516.000000;1.020196
9515.000000;1.019611
9514.000000;1.019054
9513.000000;1.018798
9512.000000;1.018833
9511.000000;1.018788
9510.000000;1.018367
9509.000000;1.017743
9508.000000;1.017269
9507.000000;1.016859
9506.000000;1.016031
9505.000000;1.014641
9504.000000;1.013235
9503.000000;1.012443
9502.000000;1.012239
9501.000000;1.012033
9500.000000;1.011345
9499.000000;1.010185
9498.000000;1.008917
9497.000000;1.008014
9496.000000;1.007830
9495.000000;1.008298
9494.000000;1.008851
9493.000000;1.008867
9492.000000;1.008235
9491.000000;1.007322
9490.000000;1.006459
9489.000000;1.005675
9488.000000;1.004928
9487.000000;1.004286
9486.000000;1.003769
9485.000000;1.003224
9484.000000;1.002475
9483.000000;1.001484
9482.000000;1.000324
9481.000000;0.999155
9480.000000;0.998265
9479.000000;0.997960
9478.000000;0.998246
9477.000000;0.998697
9476.000000;0.998765
9475.000000;0.998184
9474.000000;0.997039
9473.000000;0.995595
9472.000000;0.994172
9471.000000;0.993055
9470.000000;0.992274
9469.000000;0.991518
9468.000000;0.990464
9467.000000;0.989252
9466.000000;0.988471
9465.000000;0.988576
9464.000000;0.989358
9463.000000;0.990051
9462.000000;0.989971
9461.000000;0.989045
9460.000000;0.987814
9459.000000;0.986996
9458.000000;0.986998
9457.000000;0.987672
9456.000000;0.988426
9455.000000;0.988607
9454.000000;0.987912
9453.000000;0.986537
9452.000000;0.984967
9451.000000;0.983624
9450.000000;0.982700
9449.000000;0.982188
9448.000000;0.981985
9447.000000;0.981914
9446.000000;0.981731
9445.000000;0.981189
9444.000000;0.980161
9443.000000;0.978726
9442.000000;0.977175
9441.000000;0.975931
9440.000000;0.975326
9439.000000;0.975359
9438.000000;0.975683
9437.000000;0.975912
9436.000000;0.975930
9435.000000;0.975857
9434.000000;0.975779
9433.000000;0.975617
9432.000000;0.975252
9431.000000;0.974633
9430.000000;0.973768
9429.000000;0.972734
9428.000000;0.971741
9427.000000;0.971004
9426.000000;0.970473
9425.000000;0.969831
9424.000000;0.968961
9423.000000;0.968239
9422.000000;0.968098
9421.000000;0.968332
9420.000000;0.968149
9419.000000;0.967094
9418.000000;0.965694
9417.000000;0.964938
9416.000000;0.965203
9415.000000;0.965890
9414.000000;0.966029
9413.000000;0.965120
9412.000000;0.963434
9411.000000;0.961693
9410.000000;0.960530
9409.000000;0.960083
9408.000000;0.960012
9407.000000;0.959945
9406.000000;0.959851
9405.000000;0.959862
9404.000000;0.959819
9403.000000;0.959322
9402.000000;0.958311
9401.000000;0.957291
9400.000000;0.956759
9399.000000;0.956549
9398.000000;0.956012
9397.000000;0.954793
9396.000000;0.953229
9395.000000;0.951959
9394.000000;0.951333
9393.000000;0.951251
9392.000000;0.951425
9391.000000;0.951671
9390.000000;0.951938
9389.000000;0.952115
9388.000000;0.951966
9387.000000;0.951354
9386.000000;0.950471
9385.000000;0.949682
9384.000000;0.949098
9383.000000;0.948477
9382.000000;0.947605
9381.000000;0.946621
9380.000000;0.945862
9379.000000;0.945502
9378.000000;0.945473
9377.000000;0.945622
9376.000000;0.945811
9375.000000;0.945925
9374.000000;0.945940
9373.000000;0.945923
9372.000000;0.945840
9371.000000;0.945446
9370.000000;0.944528
9369.000000;0.943203
9368.000000;0.941821
9367.000000;0.940576
9366.000000;0.939384
9365.000000;0.938152
9364.000000;0.937036
9363.000000;0.936350
9362.000000;0.936217
9361.000000;0.936361
9360.000000;0.936271
9359.000000;0.935686
9358.000000;0.934890
9357.000000;0.934394
9356.000000;0.934303
9355.000000;0.934191
9354.000000;0.933662
9353.000000;0.932828
9352.000000;0.932041
9351.000000;0.931362
9350.000000;0.930551
9349.000000;0.929514
9348.000000;0.928492
9347.000000;0.927833
9346.000000;0.927695
9345.000000;0.927924
9344.000000;0.928081
9343.000000;0.927687
9342.000000;0.926650
9341.000000;0.925432
9340.000000;0.924584
9339.000000;0.924184
9338.000000;0.923875
9337.000000;0.923410
9336.000000;0.922914
9335.000000;0.922584
9334.000000;0.922343
9333.000000;0.921922
9332.000000;0.921220
9331.000000;0.920491
9330.000000;0.920136
9329.000000;0.920252
9328.000000;0.920435
9327.000000;0.920173
9326.000000;0.919450
9325.000000;0.918727
9324.000000;0.918306
9323.000000;0.917995
9322.000000;0.917560
9321.000000;0.917164
9320.000000;0.917070
9319.000000;0.917184
9318.000000;0.917253
9317.000000;0.917284
9316.000000;0.917396
9315.000000;0.917349
9314.000000;0.916703
9313.000000;0.915411
9312.000000;0.913922
9311.000000;0.912705
9310.000000;0.911962
9309.000000;0.911695
9308.000000;0.911650
9307.000000;0.911267
9306.000000;0.910176
9305.000000;0.908802
9304.000000;0.908030
9303.000000;0.908129
9302.000000;0.908400
9301.000000;0.908016
9300.000000;0.906865
9299.000000;0.905458
9298.000000;0.904362
9297.000000;0.903942
9296.000000;0.904297
9295.000000;0.905176
9294.000000;0.906102
9293.000000;0.906716
9292.000000;0.906884
9291.000000;0.906499
9290.000000;0.905501
9289.000000;0.904155
9288.000000;0.902954
9287.000000;0.902090
9286.000000;0.901335
9285.000000;0.900553
9284.000000;0.900003
9283.000000;0.899940
9282.000000;0.900256
9281.000000;0.900700
9280.000000;0.901134
9279.000000;0.901360
9278.000000;0.901032
9277.000000;0.900066
9276.000000;0.898901
9275.000000;0.898058
9274.000000;0.897604
9273.000000;0.897278
9272.000000;0.896924
9271.000000;0.896571
9270.000000;0.896242
9269.000000;0.895935
9268.000000;0.895616
9267.000000;0.895058
9266.000000;0.893969
9265.000000;0.892542
9264.000000;0.891592
9263.000000;0.891769
9262.000000;0.892762
9261.000000;0.893582
9260.000000;0.893542
9259.000000;0.892695
9258.000000;0.891453
9257.000000;0.890179
9256.000000;0.889100
9255.000000;0.888268
9254.000000;0.887543
9253.000000;0.886810
9252.000000;0.886204
9251.000000;0.885947
9250.000000;0.886033
9249.000000;0.886307
9248.000000;0.886736
9247.000000;0.887278
9246.000000;0.887558
9245.000000;0.887049
9244.000000;0.885707
9243.000000;0.884178
9242.000000;0.883215
9241.000000;0.883025
9240.000000;0.883232
9239.000000;0.883300
9238.000000;0.882967
9237.000000;0.882424
9236.000000;0.882118
9235.000000;0.882245
9234.000000;0.882431
9233.000000;0.882052
9232.000000;0.880873
9231.000000;0.879253
9230.000000;0.877738
9229.000000;0.876694
9228.000000;0.876290
9227.000000;0.876512
9226.000000;0.877024
9225.000000;0.877243
9224.000000;0.876836
9223.000000;0.876061
9222.000000;0.875461
9221.000000;0.875306
9220.000000;0.875490
9219.000000;0.875859
9218.000000;0.876397
9217.000000;0.877026
9216.000000;0.877429
9215.000000;0.877227
9214.000000;0.876327
9213.000000;0.875048
9212.000000;0.873918
9211.000000;0.873330
9210.000000;0.873274
9209.000000;0.873341
9208.000000;0.873037
9207.000000;0.872209
9206.000000;0.871145
9205.000000;0.870198
9204.000000;0.869405
9203.000000;0.868584
9202.000000;0.867745
9201.000000;0.867208
9200.000000;0.867273
9199.000000;0.867909
9198.000000;0.868806
9197.000000;0.869583
9196.000000;0.869879
9195.000000;0.869451
9194.000000;0.868380
9193.000000;0.867103
9192.000000;0.866073
9191.000000;0.865390
9190.000000;0.864858
9189.000000;0.864278
9188.000000;0.863583
9187.000000;0.862808
9186.000000;0.862156
9185.000000;0.861990
9184.000000;0.862498
9183.000000;0.863337
9182.000000;0.863825
9181.000000;0.863544
9180.000000;0.862633
9179.000000;0.861505
9178.000000;0.860508
9177.000000;0.859852
9176.000000;0.859601
9175.000000;0.859598
9174.000000;0.859558
9173.000000;0.859351
9172.000000;0.859087
9171.000000;0.858888
9170.000000;0.858690
9169.000000;0.858346
9168.000000;0.857833
9167.000000;0.857327
9166.000000;0.857110
9165.000000;0.857339
9164.000000;0.857773
9163.000000;0.857832
9162.000000;0.857154
9161.000000;0.856098
9160.000000;0.855425
9159.000000;0.855433
9158.000000;0.855645
9157.000000;0.855427
9156.000000;0.854645
9155.000000;0.853621
9154.000000;0.852693
9153.000000;0.852038
9152.000000;0.851737
9151.000000;0.851744
9150.000000;0.851844
9149.000000;0.851811
9148.000000;0.851598
9147.000000;0.851303
9146.000000;0.851002
9145.000000;0.850686
9144.000000;0.850294
9143.000000;0.849715
9142.000000;0.848860
9141.000000;0.847820
9140.000000;0.846893
9139.000000;0.846372
9138.000000;0.846319
9137.000000;0.846568
9136.000000;0.846860
9135.000000;0.846950
9134.000000;0.846688
9133.000000;0.846100
9132.000000;0.845382
9131.000000;0.844771
9130.000000;0.844424
9129.000000;0.844353
9128.000000;0.844399
9127.000000;0.844311
9126.000000;0.843950
9125.000000;0.843427
9124.000000;0.842954
9123.000000;0.842634
9122.000000;0.842469
9121.000000;0.842468
9120.000000;0.842546
9119.000000;0.842418
9118.000000;0.841882
9117.000000;0.841153
9116.000000;0.840643
9115.000000;0.840426
9114.000000;0.840234
9113.000000;0.839990
9112.000000;0.839984
9111.000000;0.840388
9110.000000;0.840917
9109.000000;0.841177
9108.000000;0.841141
9107.000000;0.841059
9106.000000;0.841068
9105.000000;0.841071
9104.000000;0.840884
9103.000000;0.840343
9102.000000;0.839404
9101.000000;0.838289
9100.000000;0.837410
9099.000000;0.837025
9098.000000;0.837038
9097.000000;0.837184
9096.000000;0.837268
9095.000000;0.837168
9094.000000;0.836793
9093.000000;0.836179
9092.000000;0.835507
9091.000000;0.834903
9090.000000;0.834364
9089.000000;0.833913
9088.000000;0.833640
9087.000000;0.833495
9086.000000;0.833199
9085.000000;0.832513
9084.000000;0.831491
9083.000000;0.830411
9082.000000;0.829614
9081.000000;0.829414
9080.000000;0.829873
9079.000000;0.830541
9078.000000;0.830734
9077.000000;0.830259
9076.000000;0.829686
9075.000000;0.829657
9074.000000;0.830153
9073.000000;0.830654
9072.000000;0.830821
9071.000000;0.830729
9070.000000;0.830588
9069.000000;0.830529
9068.000000;0.830616
9067.000000;0.830774
9066.000000;0.830714
9065.000000;0.830165
9064.000000;0.829201
9063.000000;0.828189
9062.000000;0.827411
9061.000000;0.826887
9060.000000;0.826533
9059.000000;0.826324
9058.000000;0.826300
9057.000000;0.826486
9056.000000;0.826788
9055.000000;0.826941
9054.000000;0.826643
9053.000000;0.825859
