Criado como novo conjunto de dados;"1909daniel.spp","-4231602.2 Secs"
cm-1;Abs
10000.000000;1.306848
9999.000000;1.306195
9998.000000;1.305543
9997.000000;1.304892
9996.000000;1.304239
9995.000000;1.303595
9994.000000;1.302938
9993.000000;1.302307
9992.000000;1.301632
9991.000000;1.301039
9990.000000;1.300277
9989.000000;1.300308
9988.000000;1.301597
9987.000000;1.302849
9986.000000;1.302867
9985.000000;1.301223
9984.000000;1.298869
9983.000000;1.297226
9982.000000;1.297030
9981.000000;1.297713
9980.000000;1.298049
9979.000000;1.297397
9978.000000;1.296198
9977.000000;1.295224
9976.000000;1.294662
9975.000000;1.294151
9974.000000;1.293440
9973.000000;1.292643
9972.000000;1.291851
9971.000000;1.290853
9970.000000;1.289419
9969.000000;1.287705
9968.000000;1.286208
9967.000000;1.285342
9966.000000;1.285109
9965.000000;1.285153
9964.000000;1.285108
9963.000000;1.284840
9962.000000;1.284379
9961.000000;1.283704
9960.000000;1.282757
9959.000000;1.281639
9958.000000;1.280657
9957.000000;1.280111
9956.000000;1.280090
9955.000000;1.280454
9954.000000;1.280904
9953.000000;1.281060
9952.000000;1.280673
9951.000000;1.279846
9950.000000;1.278872
9949.000000;1.277817
9948.000000;1.276486
9947.000000;1.274917
9946.000000;1.273667
9945.000000;1.273307
9944.000000;1.273737
9943.000000;1.274253
9942.000000;1.274285
9941.000000;1.273812
9940.000000;1.273009
9939.000000;1.271813
9938.000000;1.270114
9937.000000;1.268229
9936.000000;1.266865
9935.000000;1.266492
9934.000000;1.266889
9933.000000;1.267367
9932.000000;1.267388
9931.000000;1.266876
9930.000000;1.266010
9929.000000;1.264922
9928.000000;1.263654
9927.000000;1.262280
9926.000000;1.260938
9925.000000;1.259809
9924.000000;1.259114
9923.000000;1.258998
9922.000000;1.259330
9921.000000;1.259721
9920.000000;1.259860
9919.000000;1.259725
9918.000000;1.259290
9917.000000;1.258264
9916.000000;1.256466
9915.000000;1.254359
9914.000000;1.252747
9913.000000;1.251877
9912.000000;1.251224
9911.000000;1.250308
9910.000000;1.249352
9909.000000;1.248856
9908.000000;1.248789
9907.000000;1.248634
9906.000000;1.248113
9905.000000;1.247466
9904.000000;1.246949
9903.000000;1.246375
9902.000000;1.245379
9901.000000;1.243979
9900.000000;1.242667
9899.000000;1.241897
9898.000000;1.241634
9897.000000;1.241522
9896.000000;1.241454
9895.000000;1.241663
9894.000000;1.242098
9893.000000;1.241986
9892.000000;1.240509
9891.000000;1.237898
9890.000000;1.235407
9889.000000;1.234048
9888.000000;1.233737
9887.000000;1.233831
9886.000000;1.234046
9885.000000;1.234426
9884.000000;1.234694
9883.000000;1.234279
9882.000000;1.233060
9881.000000;1.231622
9880.000000;1.230647
9879.000000;1.230315
9878.000000;1.230345
9877.000000;1.230269
9876.000000;1.229563
9875.000000;1.227906
9874.000000;1.225655
9873.000000;1.223859
9872.000000;1.223431
9871.000000;1.224234
9870.000000;1.225143
9869.000000;1.225111
9868.000000;1.224129
9867.000000;1.223086
9866.000000;1.222773
9865.000000;1.223170
9864.000000;1.223682
9863.000000;1.223865
9862.000000;1.223724
9861.000000;1.223297
9860.000000;1.222287
9859.000000;1.220397
9858.000000;1.217887
9857.000000;1.215479
9856.000000;1.213710
9855.000000;1.212658
9854.000000;1.212317
9853.000000;1.212831
9852.000000;1.214103
9851.000000;1.215427
9850.000000;1.215901
9849.000000;1.215250
9848.000000;1.213975
9847.000000;1.212720
9846.000000;1.211724
9845.000000;1.210861
9844.000000;1.209884
9843.000000;1.208534
9842.000000;1.206687
9841.000000;1.204662
9840.000000;1.203202
9839.000000;1.202837
9838.000000;1.203214
9837.000000;1.203317
9836.000000;1.202515
9835.000000;1.201255
9834.000000;1.200528
9833.000000;1.200712
9832.000000;1.201174
9831.000000;1.201031
9830.000000;1.200140
9829.000000;1.199162
9828.000000;1.198763
9827.000000;1.198955
9826.000000;1.199224
9825.000000;1.199098
9824.000000;1.198479
9823.000000;1.197541
9822.000000;1.196456
9821.000000;1.195301
9820.000000;1.194135
9819.000000;1.193123
9818.000000;1.192512
9817.000000;1.192425
9816.000000;1.192605
9815.000000;1.192450
9814.000000;1.191430
9813.000000;1.189516
9812.000000;1.187203
9811.000000;1.185167
9810.000000;1.183940
9809.000000;1.183730
9808.000000;1.184304
9807.000000;1.184999
9806.000000;1.185108
9805.000000;1.184464
9804.000000;1.183538
9803.000000;1.182850
9802.000000;1.182350
9801.000000;1.181558
9800.000000;1.180256
9799.000000;1.178852
9798.000000;1.177960
9797.000000;1.177738
9796.000000;1.177735
9795.000000;1.177379
9794.000000;1.176566
9793.000000;1.175748
9792.000000;1.175454
9791.000000;1.175787
9790.000000;1.176366
9789.000000;1.176654
9788.000000;1.176292
9787.000000;1.175191
9786.000000;1.173488
9785.000000;1.171500
9784.000000;1.169656
9783.000000;1.168369
9782.000000;1.167914
9781.000000;1.168298
9780.000000;1.169104
9779.000000;1.169530
9778.000000;1.168865
9777.000000;1.167135
9776.000000;1.165144
9775.000000;1.163762
9774.000000;1.163208
9773.000000;1.163091
9772.000000;1.162951
9771.000000;1.162605
9770.000000;1.162057
9769.000000;1.161321
9768.000000;1.160361
9767.000000;1.159130
9766.000000;1.157704
9765.000000;1.156431
9764.000000;1.155774
9763.000000;1.155805
9762.000000;1.155982
9761.000000;1.155701
9760.000000;1.154954
9759.000000;1.154160
9758.000000;1.153424
9757.000000;1.152410
9756.000000;1.151023
9755.000000;1.149813
9754.000000;1.149408
9753.000000;1.149754
9752.000000;1.150140
9751.000000;1.149884
9750.000000;1.148908
9749.000000;1.147744
9748.000000;1.147072
9747.000000;1.147072
9746.000000;1.147156
9745.000000;1.146553
9744.000000;1.145260
9743.000000;1.144085
9742.000000;1.143591
9741.000000;1.143333
9740.000000;1.142470
9739.000000;1.140873
9738.000000;1.139217
9737.000000;1.138151
9736.000000;1.137798
9735.000000;1.138014
9734.000000;1.138606
9733.000000;1.139160
9732.000000;1.139131
9731.000000;1.138416
9730.000000;1.137592
9729.000000;1.137284
9728.000000;1.137423
9727.000000;1.137357
9726.000000;1.136635
9725.000000;1.135447
9724.000000;1.134278
9723.000000;1.133345
9722.000000;1.132525
9721.000000;1.131694
9720.000000;1.130914
9719.000000;1.130232
9718.000000;1.129487
9717.000000;1.128519
9716.000000;1.127556
9715.000000;1.127121
9714.000000;1.127407
9713.000000;1.127890
9712.000000;1.127727
9711.000000;1.126492
9710.000000;1.124435
9709.000000;1.122138
9708.000000;1.120137
9707.000000;1.118785
9706.000000;1.118184
9705.000000;1.118127
9704.000000;1.118252
9703.000000;1.118332
9702.000000;1.118343
9701.000000;1.118304
9700.000000;1.118255
9699.000000;1.118362
9698.000000;1.118762
9697.000000;1.119165
9696.000000;1.118872
9695.000000;1.117413
9694.000000;1.115139
9693.000000;1.113020
9692.000000;1.111863
9691.000000;1.111773
9690.000000;1.112227
9689.000000;1.112487
9688.000000;1.111989
9687.000000;1.110575
9686.000000;1.108533
9685.000000;1.106445
9684.000000;1.104913
9683.000000;1.104313
9682.000000;1.104634
9681.000000;1.105444
9680.000000;1.106119
9679.000000;1.106295
9678.000000;1.106130
9677.000000;1.105999
9676.000000;1.105951
9675.000000;1.105624
9674.000000;1.104747
9673.000000;1.103501
9672.000000;1.102249
9671.000000;1.101086
9670.000000;1.099899
9669.000000;1.098799
9668.000000;1.098149
9667.000000;1.098097
9666.000000;1.098285
9665.000000;1.098180
9664.000000;1.097533
9663.000000;1.096466
9662.000000;1.095323
9661.000000;1.094589
9660.000000;1.094624
9659.000000;1.095182
9658.000000;1.095369
9657.000000;1.094445
9656.000000;1.092614
9655.000000;1.090728
9654.000000;1.089340
9653.000000;1.088455
9652.000000;1.088105
9651.000000;1.088530
9650.000000;1.089571
9649.000000;1.090387
9648.000000;1.090240
9647.000000;1.089307
9646.000000;1.088340
9645.000000;1.087693
9644.000000;1.087051
9643.000000;1.085999
9642.000000;1.084492
9641.000000;1.082825
9640.000000;1.081464
9639.000000;1.080876
9638.000000;1.081181
9637.000000;1.081886
9636.000000;1.082180
9635.000000;1.081573
9634.000000;1.080147
9633.000000;1.078228
9632.000000;1.076096
9631.000000;1.074063
9630.000000;1.072563
9629.000000;1.071923
9628.000000;1.072062
9627.000000;1.072475
9626.000000;1.072516
9625.000000;1.071761
9624.000000;1.070281
9623.000000;1.068678
9622.000000;1.067760
9621.000000;1.068004
9620.000000;1.069153
9619.000000;1.070325
9618.000000;1.070611
9617.000000;1.069782
9616.000000;1.068433
9615.000000;1.067379
9614.000000;1.066894
9613.000000;1.066627
9612.000000;1.066175
9611.000000;1.065544
9610.000000;1.065005
9609.000000;1.064709
9608.000000;1.064530
9607.000000;1.064152
9606.000000;1.063235
9605.000000;1.061747
9604.000000;1.060228
9603.000000;1.059417
9602.000000;1.059418
9601.000000;1.059500
9600.000000;1.058998
9599.000000;1.058101
9598.000000;1.057402
9597.000000;1.056944
9596.000000;1.056195
9595.000000;1.054864
9594.000000;1.053237
9593.000000;1.051745
9592.000000;1.050647
9591.000000;1.050158
9590.000000;1.050398
9589.000000;1.051085
9588.000000;1.051654
9587.000000;1.051845
9586.000000;1.051860
9585.000000;1.051808
9584.000000;1.051381
9583.000000;1.050274
9582.000000;1.048643
9581.000000;1.046927
9580.000000;1.045448
9579.000000;1.044382
9578.000000;1.043847
9577.000000;1.043749
9576.000000;1.043713
9575.000000;1.043414
9574.000000;1.042921
9573.000000;1.042523
9572.000000;1.042308
9571.000000;1.042097
9570.000000;1.041750
9569.000000;1.041353
9568.000000;1.041096
9567.000000;1.040981
9566.000000;1.040679
9565.000000;1.039803
9564.000000;1.038437
9563.000000;1.037266
9562.000000;1.036891
9561.000000;1.037024
9560.000000;1.036687
9559.000000;1.035309
9558.000000;1.033369
9557.000000;1.031790
9556.000000;1.031032
9555.000000;1.030902
9554.000000;1.030954
9553.000000;1.030836
9552.000000;1.030437
9551.000000;1.029948
9550.000000;1.029697
9549.000000;1.029788
9548.000000;1.030026
9547.000000;1.030260
9546.000000;1.030513
9545.000000;1.030607
9544.000000;1.030027
9543.000000;1.028496
9542.000000;1.026500
9541.000000;1.024902
9540.000000;1.024117
9539.000000;1.023902
9538.000000;1.023791
9537.000000;1.023411
9536.000000;1.022538
9535.000000;1.021229
9534.000000;1.019927
9533.000000;1.019158
9532.000000;1.019058
9531.000000;1.019330
9530.000000;1.019567
9529.000000;1.019447
9528.000000;1.018740
9527.000000;1.017486
9526.000000;1.016152
9525.000000;1.015310
9524.000000;1.015085
9523.000000;1.015122
9522.000000;1.015048
9521.000000;1.014718
9520.000000;1.014056
9519.000000;1.013031
9518.000000;1.011915
9517.000000;1.011231
9516.000000;1.011237
9515.000000;1.011622
9514.000000;1.011867
9513.000000;1.011738
9512.000000;1.011275
9511.000000;1.010470
9510.000000;1.009190
9509.000000;1.007412
9508.000000;1.005423
9507.000000;1.003753
9506.000000;1.002914
9505.000000;1.003064
9504.000000;1.003849
9503.000000;1.004672
9502.000000;1.005188
9501.000000;1.005454
9500.000000;1.005553
9499.000000;1.005264
9498.000000;1.004288
9497.000000;1.002702
9496.000000;1.001035
9495.000000;0.999877
9494.000000;0.999517
9493.000000;0.999812
9492.000000;1.000222
9491.000000;1.000013
9490.000000;0.998733
9489.000000;0.996708
9488.000000;0.994937
9487.000000;0.994306
9486.000000;0.994830
9485.000000;0.995714
9484.000000;0.996127
9483.000000;0.995806
9482.000000;0.994995
9481.000000;0.994078
9480.000000;0.993415
9479.000000;0.993302
9478.000000;0.993716
9477.000000;0.994150
9476.000000;0.993965
9475.000000;0.993006
9474.000000;0.991662
9473.000000;0.990332
9472.000000;0.989117
9471.000000;0.988100
9470.000000;0.987537
9469.000000;0.987483
9468.000000;0.987508
9467.000000;0.987135
9466.000000;0.986464
9465.000000;0.986013
9464.000000;0.985971
9463.000000;0.985932
9462.000000;0.985425
9461.000000;0.984426
9460.000000;0.983251
9459.000000;0.982199
9458.000000;0.981419
9457.000000;0.980966
9456.000000;0.980800
9455.000000;0.980779
9454.000000;0.980727
9453.000000;0.980501
9452.000000;0.980006
9451.000000;0.979238
9450.000000;0.978337
9449.000000;0.977505
9448.000000;0.976879
9447.000000;0.976500
9446.000000;0.976328
9445.000000;0.976177
9444.000000;0.975782
9443.000000;0.975114
9442.000000;0.974506
9441.000000;0.974230
9440.000000;0.974044
9439.000000;0.973499
9438.000000;0.972695
9437.000000;0.972336
9436.000000;0.972869
9435.000000;0.973898
9434.000000;0.974610
9433.000000;0.974512
9432.000000;0.973563
9431.000000;0.971919
9430.000000;0.969937
9429.000000;0.968229
9428.000000;0.967299
9427.000000;0.967080
9426.000000;0.967061
9425.000000;0.966875
9424.000000;0.966533
9423.000000;0.966098
9422.000000;0.965436
9421.000000;0.964416
9420.000000;0.963160
9419.000000;0.961961
9418.000000;0.961046
9417.000000;0.960512
9416.000000;0.960391
9415.000000;0.960625
9414.000000;0.960939
9413.000000;0.960910
9412.000000;0.960292
9411.000000;0.959326
9410.000000;0.958607
9409.000000;0.958541
9408.000000;0.958945
9407.000000;0.959313
9406.000000;0.959400
9405.000000;0.959317
9404.000000;0.959090
9403.000000;0.958491
9402.000000;0.957511
9401.000000;0.956658
9400.000000;0.956382
9399.000000;0.956401
9398.000000;0.955981
9397.000000;0.954894
9396.000000;0.953690
9395.000000;0.952977
9394.000000;0.952765
9393.000000;0.952623
9392.000000;0.952149
9391.000000;0.951156
9390.000000;0.949725
9389.000000;0.948312
9388.000000;0.947556
9387.000000;0.947721
9386.000000;0.948416
9385.000000;0.949053
9384.000000;0.949367
9383.000000;0.949316
9382.000000;0.948744
9381.000000;0.947564
9380.000000;0.946135
9379.000000;0.945034
9378.000000;0.944416
9377.000000;0.943936
9376.000000;0.943343
9375.000000;0.942784
9374.000000;0.942436
9373.000000;0.942200
9372.000000;0.941979
9371.000000;0.941942
9370.000000;0.942218
9369.000000;0.942537
9368.000000;0.942479
9367.000000;0.941950
9366.000000;0.941145
9365.000000;0.940175
9364.000000;0.939042
9363.000000;0.937922
9362.000000;0.937141
9361.000000;0.936810
9360.000000;0.936709
9359.000000;0.936578
9358.000000;0.936334
9357.000000;0.935969
9356.000000;0.935469
9355.000000;0.934913
9354.000000;0.934460
9353.000000;0.934154
9352.000000;0.933868
9351.000000;0.933508
9350.000000;0.933123
9349.000000;0.932750
9348.000000;0.932324
9347.000000;0.931845
9346.000000;0.931462
9345.000000;0.931256
9344.000000;0.931094
9343.000000;0.930839
9342.000000;0.930548
9341.000000;0.930312
9340.000000;0.929993
9339.000000;0.929353
9338.000000;0.928419
9337.000000;0.927557
9336.000000;0.927119
9335.000000;0.927054
9334.000000;0.926863
9333.000000;0.925990
9332.000000;0.924433
9331.000000;0.922980
9330.000000;0.922620
9329.000000;0.923554
9328.000000;0.924940
9327.000000;0.925733
9326.000000;0.925610
9325.000000;0.924883
9324.000000;0.923811
9323.000000;0.922432
9322.000000;0.920996
9321.000000;0.920049
9320.000000;0.919918
9319.000000;0.920333
9318.000000;0.920729
9317.000000;0.920728
9316.000000;0.920220
9315.000000;0.919255
9314.000000;0.918073
9313.000000;0.917131
9312.000000;0.916780
9311.000000;0.916877
9310.000000;0.916825
9309.000000;0.916117
9308.000000;0.914827
9307.000000;0.913565
9306.000000;0.912937
9305.000000;0.913025
9304.000000;0.913382
9303.000000;0.913550
9302.000000;0.913488
9301.000000;0.913383
9300.000000;0.913193
9299.000000;0.912642
9298.000000;0.911680
9297.000000;0.910676
9296.000000;0.909963
9295.000000;0.909384
9294.000000;0.908490
9293.000000;0.907148
9292.000000;0.905802
9291.000000;0.905113
9290.000000;0.905388
9289.000000;0.906312
9288.000000;0.907186
9287.000000;0.907486
9286.000000;0.907293
9285.000000;0.907114
9284.000000;0.907279
9283.000000;0.907587
9282.000000;0.907566
9281.000000;0.906955
9280.000000;0.905894
9279.000000;0.904799
9278.000000;0.904153
9277.000000;0.904255
9276.000000;0.904938
9275.000000;0.905553
9274.000000;0.905450
9273.000000;0.904524
9272.000000;0.903214
9271.000000;0.902005
9270.000000;0.901152
9269.000000;0.900801
9268.000000;0.901022
9267.000000;0.901510
9266.000000;0.901537
9265.000000;0.900630
9264.000000;0.899277
9263.000000;0.898580
9262.000000;0.899029
9261.000000;0.899859
9260.000000;0.899854
9259.000000;0.898659
9258.000000;0.897015
9257.000000;0.895778
9256.000000;0.895123
9255.000000;0.894804
9254.000000;0.894763
9253.000000;0.895071
9252.000000;0.895478
9251.000000;0.895524
9250.000000;0.895162
9249.000000;0.894901
9248.000000;0.895123
9247.000000;0.895529
9246.000000;0.895473
9245.000000;0.894757
9244.000000;0.893844
9243.000000;0.893293
9242.000000;0.893148
9241.000000;0.892934
9240.000000;0.892191
9239.000000;0.890943
9238.000000;0.889675
9237.000000;0.888879
9236.000000;0.888672
9235.000000;0.888851
9234.000000;0.889210
9233.000000;0.889650
9232.000000;0.890016
9231.000000;0.890054
9230.000000;0.889640
9229.000000;0.888948
9228.000000;0.888281
9227.000000;0.887758
9226.000000;0.887248
9225.000000;0.886598
9224.000000;0.885870
9223.000000;0.885343
9222.000000;0.885253
9221.000000;0.885512
9220.000000;0.885720
9219.000000;0.885540
9218.000000;0.885019
9217.000000;0.884423
9216.000000;0.883838
9215.000000;0.883157
9214.000000;0.882441
9213.000000;0.882035
9212.000000;0.882164
9211.000000;0.882600
9210.000000;0.882888
9209.000000;0.882779
9208.000000;0.882314
9207.000000;0.881623
9206.000000;0.880877
9205.000000;0.880338
9204.000000;0.880209
9203.000000;0.880361
9202.000000;0.880360
9201.000000;0.879876
9200.000000;0.879042
9199.000000;0.878371
9198.000000;0.878280
9197.000000;0.878630
9196.000000;0.878749
9195.000000;0.878048
9194.000000;0.876666
9193.000000;0.875387
9192.000000;0.874837
9191.000000;0.874933
9190.000000;0.875218
9189.000000;0.875502
9188.000000;0.875853
9187.000000;0.876072
9186.000000;0.875644
9185.000000;0.874365
9184.000000;0.872795
9183.000000;0.871809
9182.000000;0.871764
9181.000000;0.872241
9180.000000;0.872550
9179.000000;0.872361
9178.000000;0.871862
9177.000000;0.871430
9176.000000;0.871266
9175.000000;0.871291
9174.000000;0.871293
9173.000000;0.871090
9172.000000;0.870631
9171.000000;0.870015
9170.000000;0.869425
9169.000000;0.868985
9168.000000;0.868697
9167.000000;0.868569
9166.000000;0.868733
9165.000000;0.869256
9164.000000;0.869830
9163.000000;0.869875
9162.000000;0.869092
9161.000000;0.867785
9160.000000;0.866518
9159.000000;0.865549
9158.000000;0.864747
9157.000000;0.863948
9156.000000;0.863241
9155.000000;0.862926
9154.000000;0.863286
9153.000000;0.864312
9152.000000;0.865529
9151.000000;0.866202
9150.000000;0.865935
9149.000000;0.865069
9148.000000;0.864330
9147.000000;0.864102
9146.000000;0.864163
9145.000000;0.864066
9144.000000;0.863615
9143.000000;0.862983
9142.000000;0.862534
9141.000000;0.862585
9140.000000;0.863149
9139.000000;0.863856
9138.000000;0.864223
9137.000000;0.864069
9136.000000;0.863596
9135.000000;0.863066
9134.000000;0.862532
9133.000000;0.861909
9132.000000;0.861183
9131.000000;0.860495
9130.000000;0.860047
9129.000000;0.859900
9128.000000;0.859832
9127.000000;0.859463
9126.000000;0.858684
9125.000000;0.857923
9124.000000;0.857782
9123.000000;0.858382
9122.000000;0.859200
9121.000000;0.859622
9120.000000;0.859490
9119.000000;0.859092
9118.000000;0.858778
9117.000000;0.858685
9116.000000;0.858702
9115.000000;0.858580
9114.000000;0.858163
9113.000000;0.857584
9112.000000;0.857154
9111.000000;0.856975
9110.000000;0.856772
9109.000000;0.856192
9108.000000;0.855216
9107.000000;0.854208
9106.000000;0.853594
9105.000000;0.853537
9104.000000;0.853821
9103.000000;0.853988
9102.000000;0.853711
9101.000000;0.853132
9100.000000;0.852748
9099.000000;0.852868
9098.000000;0.853259
9097.000000;0.853426
9096.000000;0.853173
9095.000000;0.852754
9094.000000;0.852504
9093.000000;0.852472
9092.000000;0.852414
9091.000000;0.852072
9090.000000;0.851413
9089.000000;0.850667
9088.000000;0.850139
9087.000000;0.849946
9086.000000;0.849920
9085.000000;0.849799
9084.000000;0.849491
9083.000000;0.849164
9082.000000;0.849077
9081.000000;0.849291
9080.000000;0.849508
9079.000000;0.849203
9078.000000;0.848104
9077.000000;0.846602
9076.000000;0.845549
9075.000000;0.845513
9074.000000;0.846228
9073.000000;0.846920
9072.000000;0.847117
9071.000000;0.846993
9070.000000;0.846918
9069.000000;0.846915
9068.000000;0.846713
9067.000000;0.846223
9066.000000;0.845729
9065.000000;0.845535
9064.000000;0.845547
9063.000000;0.845347
9062.000000;0.844697
9061.000000;0.843862
9060.000000;0.843349
9059.000000;0.843368
9058.000000;0.843638
9057.000000;0.843712
9056.000000;0.843408
9055.000000;0.842868
9054.000000;0.842320
9053.000000;0.841861
