Criado como novo conjunto de dados;"1909daniel.spp","-4262563.9 Secs"
cm-1;Abs
10000.000000;1.646328
9999.000000;1.646115
9998.000000;1.647136
9997.000000;1.648888
9996.000000;1.649599
9995.000000;1.648105
9994.000000;1.644957
9993.000000;1.641774
9992.000000;1.639460
9991.000000;1.638180
9990.000000;1.638207
9989.000000;1.639832
9988.000000;1.642252
9987.000000;1.643648
9986.000000;1.642899
9985.000000;1.640645
9984.000000;1.638301
9983.000000;1.636813
9982.000000;1.636580
9981.000000;1.637634
9980.000000;1.639254
9979.000000;1.639980
9978.000000;1.638768
9977.000000;1.636008
9976.000000;1.632930
9975.000000;1.630345
9974.000000;1.628514
9973.000000;1.627634
9972.000000;1.627501
9971.000000;1.626980
9970.000000;1.624893
9969.000000;1.621682
9968.000000;1.619334
9967.000000;1.619210
9966.000000;1.620508
9965.000000;1.621262
9964.000000;1.620565
9963.000000;1.619335
9962.000000;1.619013
9961.000000;1.620094
9960.000000;1.621898
9959.000000;1.623257
9958.000000;1.623226
9957.000000;1.621526
9956.000000;1.618650
9955.000000;1.615571
9954.000000;1.613207
9953.000000;1.612036
9952.000000;1.612029
9951.000000;1.612712
9950.000000;1.613286
9949.000000;1.612975
9948.000000;1.611592
9947.000000;1.609810
9946.000000;1.608727
9945.000000;1.608981
9944.000000;1.610171
9943.000000;1.611108
9942.000000;1.610716
9941.000000;1.608830
9940.000000;1.606245
9939.000000;1.604020
9938.000000;1.602698
9937.000000;1.602146
9936.000000;1.601987
9935.000000;1.602003
9934.000000;1.602092
9933.000000;1.602041
9932.000000;1.601587
9931.000000;1.600728
9930.000000;1.599748
9929.000000;1.598802
9928.000000;1.597589
9927.000000;1.595714
9926.000000;1.593411
9925.000000;1.591655
9924.000000;1.591277
9923.000000;1.592000
9922.000000;1.592629
9921.000000;1.592309
9920.000000;1.591433
9919.000000;1.591025
9918.000000;1.591384
9917.000000;1.591666
9916.000000;1.590891
9915.000000;1.589052
9914.000000;1.587055
9913.000000;1.585815
9912.000000;1.585731
9911.000000;1.586809
9910.000000;1.588626
9909.000000;1.590082
9908.000000;1.589996
9907.000000;1.588430
9906.000000;1.586920
9905.000000;1.586735
9904.000000;1.587080
9903.000000;1.585817
9902.000000;1.582259
9901.000000;1.578387
9900.000000;1.576694
9899.000000;1.577474
9898.000000;1.578839
9897.000000;1.579174
9896.000000;1.578666
9895.000000;1.578159
9894.000000;1.577620
9893.000000;1.576508
9892.000000;1.574975
9891.000000;1.573630
9890.000000;1.572311
9889.000000;1.570186
9888.000000;1.567242
9887.000000;1.564696
9886.000000;1.563567
9885.000000;1.563582
9884.000000;1.563978
9883.000000;1.564701
9882.000000;1.566017
9881.000000;1.567411
9880.000000;1.567844
9879.000000;1.567102
9878.000000;1.566056
9877.000000;1.565406
9876.000000;1.564840
9875.000000;1.563731
9874.000000;1.562129
9873.000000;1.560684
9872.000000;1.559950
9871.000000;1.560055
9870.000000;1.560664
9869.000000;1.560972
9868.000000;1.560199
9867.000000;1.558519
9866.000000;1.557107
9865.000000;1.556859
9864.000000;1.557349
9863.000000;1.557435
9862.000000;1.556628
9861.000000;1.555341
9860.000000;1.554003
9859.000000;1.552681
9858.000000;1.551549
9857.000000;1.550954
9856.000000;1.550849
9855.000000;1.550676
9854.000000;1.550124
9853.000000;1.549488
9852.000000;1.548849
9851.000000;1.547538
9850.000000;1.545117
9849.000000;1.542399
9848.000000;1.540685
9847.000000;1.540240
9846.000000;1.540269
9845.000000;1.540259
9844.000000;1.540384
9843.000000;1.540504
9842.000000;1.539836
9841.000000;1.538086
9840.000000;1.536185
9839.000000;1.535274
9838.000000;1.535459
9837.000000;1.536070
9836.000000;1.536697
9835.000000;1.537272
9834.000000;1.537387
9833.000000;1.536391
9832.000000;1.534259
9831.000000;1.531788
9830.000000;1.529812
9829.000000;1.528617
9828.000000;1.528135
9827.000000;1.528173
9826.000000;1.528247
9825.000000;1.527738
9824.000000;1.526604
9823.000000;1.525600
9822.000000;1.525448
9821.000000;1.526003
9820.000000;1.526460
9819.000000;1.526250
9818.000000;1.525468
9817.000000;1.524540
9816.000000;1.523832
9815.000000;1.523513
9814.000000;1.523441
9813.000000;1.523141
9812.000000;1.522126
9811.000000;1.520318
9810.000000;1.518055
9809.000000;1.515844
9808.000000;1.514286
9807.000000;1.513945
9806.000000;1.514808
9805.000000;1.515875
9804.000000;1.515827
9803.000000;1.514335
9802.000000;1.512327
9801.000000;1.510821
9800.000000;1.510013
9799.000000;1.509709
9798.000000;1.510022
9797.000000;1.511016
9796.000000;1.511877
9795.000000;1.511260
9794.000000;1.508743
9793.000000;1.505437
9792.000000;1.502883
9791.000000;1.501716
9790.000000;1.501603
9789.000000;1.501994
9788.000000;1.502489
9787.000000;1.502766
9786.000000;1.502685
9785.000000;1.502548
9784.000000;1.502945
9783.000000;1.504103
9782.000000;1.505472
9781.000000;1.506034
9780.000000;1.505062
9779.000000;1.502648
9778.000000;1.499534
9777.000000;1.496505
9776.000000;1.493895
9775.000000;1.491631
9774.000000;1.489706
9773.000000;1.488392
9772.000000;1.487854
9771.000000;1.487817
9770.000000;1.487882
9769.000000;1.488029
9768.000000;1.488427
9767.000000;1.488780
9766.000000;1.488277
9765.000000;1.486445
9764.000000;1.483812
9763.000000;1.481498
9762.000000;1.480236
9761.000000;1.479914
9760.000000;1.479912
9759.000000;1.479765
9758.000000;1.479619
9757.000000;1.480083
9756.000000;1.481474
9755.000000;1.483157
9754.000000;1.483845
9753.000000;1.482758
9752.000000;1.480356
9751.000000;1.477790
9750.000000;1.475902
9749.000000;1.474978
9748.000000;1.475078
9747.000000;1.476052
9746.000000;1.477242
9745.000000;1.477708
9744.000000;1.477068
9743.000000;1.475951
9742.000000;1.475285
9741.000000;1.475196
9740.000000;1.474821
9739.000000;1.473301
9738.000000;1.470787
9737.000000;1.468269
9736.000000;1.466521
9735.000000;1.465541
9734.000000;1.465066
9733.000000;1.465188
9732.000000;1.466042
9731.000000;1.467119
9730.000000;1.467429
9729.000000;1.466443
9728.000000;1.464518
9727.000000;1.462295
9726.000000;1.460122
9725.000000;1.458201
9724.000000;1.456813
9723.000000;1.456002
9722.000000;1.455367
9721.000000;1.454521
9720.000000;1.453574
9719.000000;1.452967
9718.000000;1.453013
9717.000000;1.453824
9716.000000;1.455317
9715.000000;1.456896
9714.000000;1.457470
9713.000000;1.456423
9712.000000;1.454434
9711.000000;1.452764
9710.000000;1.451803
9709.000000;1.450870
9708.000000;1.449405
9707.000000;1.447742
9706.000000;1.446605
9705.000000;1.446340
9704.000000;1.446824
9703.000000;1.447687
9702.000000;1.448413
9701.000000;1.448560
9700.000000;1.448110
9699.000000;1.447332
9698.000000;1.446152
9697.000000;1.444052
9696.000000;1.440892
9695.000000;1.437529
9694.000000;1.435259
9693.000000;1.434746
9692.000000;1.435712
9691.000000;1.437452
9690.000000;1.439307
9689.000000;1.440716
9688.000000;1.441148
9687.000000;1.440341
9686.000000;1.438664
9685.000000;1.437045
9684.000000;1.436247
9683.000000;1.436144
9682.000000;1.435919
9681.000000;1.435078
9680.000000;1.433988
9679.000000;1.433123
9678.000000;1.432179
9677.000000;1.430491
9676.000000;1.428231
9675.000000;1.426553
9674.000000;1.426364
9673.000000;1.427411
9672.000000;1.428708
9671.000000;1.429422
9670.000000;1.429151
9669.000000;1.427851
9668.000000;1.425969
9667.000000;1.424368
9666.000000;1.423603
9665.000000;1.423336
9664.000000;1.422722
9663.000000;1.421257
9662.000000;1.419175
9661.000000;1.417216
9660.000000;1.416161
9659.000000;1.416287
9658.000000;1.416984
9657.000000;1.417145
9656.000000;1.416207
9655.000000;1.414637
9654.000000;1.413158
9653.000000;1.411814
9652.000000;1.410222
9651.000000;1.408445
9650.000000;1.407049
9649.000000;1.406384
9648.000000;1.406316
9647.000000;1.406674
9646.000000;1.407373
9645.000000;1.407978
9644.000000;1.407770
9643.000000;1.406660
9642.000000;1.405720
9641.000000;1.406327
9640.000000;1.408709
9639.000000;1.411505
9638.000000;1.412824
9637.000000;1.411710
9636.000000;1.408648
9635.000000;1.404909
9634.000000;1.401597
9633.000000;1.399282
9632.000000;1.398120
9631.000000;1.397926
9630.000000;1.398156
9629.000000;1.398255
9628.000000;1.398265
9627.000000;1.398735
9626.000000;1.399707
9625.000000;1.400162
9624.000000;1.399021
9623.000000;1.396567
9622.000000;1.394325
9621.000000;1.393517
9620.000000;1.394086
9619.000000;1.395137
9618.000000;1.395813
9617.000000;1.395609
9616.000000;1.394363
9615.000000;1.392345
9614.000000;1.390240
9613.000000;1.388762
9612.000000;1.388265
9611.000000;1.388644
9610.000000;1.389354
9609.000000;1.389560
9608.000000;1.388760
9607.000000;1.387437
9606.000000;1.386597
9605.000000;1.386410
9604.000000;1.385860
9603.000000;1.384165
9602.000000;1.382048
9601.000000;1.380930
9600.000000;1.381169
9599.000000;1.381811
9598.000000;1.381892
9597.000000;1.381302
9596.000000;1.380320
9595.000000;1.379107
9594.000000;1.377967
9593.000000;1.377447
9592.000000;1.377699
9591.000000;1.378115
9590.000000;1.377956
9589.000000;1.377076
9588.000000;1.375761
9587.000000;1.374233
9586.000000;1.372741
9585.000000;1.371748
9584.000000;1.371484
9583.000000;1.371464
9582.000000;1.370947
9581.000000;1.369843
9580.000000;1.368688
9579.000000;1.367794
9578.000000;1.366957
9577.000000;1.366004
9576.000000;1.365083
9575.000000;1.364257
9574.000000;1.363337
9573.000000;1.362345
9572.000000;1.361773
9571.000000;1.362064
9570.000000;1.363051
9569.000000;1.364086
9568.000000;1.364535
9567.000000;1.364052
9566.000000;1.362709
9565.000000;1.361101
9564.000000;1.360017
9563.000000;1.359667
9562.000000;1.359469
9561.000000;1.358837
9560.000000;1.357949
9559.000000;1.357396
9558.000000;1.357335
9557.000000;1.357410
9556.000000;1.357293
9555.000000;1.356883
9554.000000;1.356011
9553.000000;1.354416
9552.000000;1.352189
9551.000000;1.349887
9550.000000;1.348116
9549.000000;1.347212
9548.000000;1.347318
9547.000000;1.348301
9546.000000;1.349512
9545.000000;1.350022
9544.000000;1.349405
9543.000000;1.348065
9542.000000;1.346585
9541.000000;1.345039
9540.000000;1.343243
9539.000000;1.341448
9538.000000;1.340392
9537.000000;1.340620
9536.000000;1.341955
9535.000000;1.343651
9534.000000;1.344882
9533.000000;1.345117
9532.000000;1.344289
9531.000000;1.342781
9530.000000;1.341197
9529.000000;1.339937
9528.000000;1.338916
9527.000000;1.337776
9526.000000;1.336412
9525.000000;1.335206
9524.000000;1.334630
9523.000000;1.334657
9522.000000;1.334710
9521.000000;1.334231
9520.000000;1.333175
9519.000000;1.331930
9518.000000;1.330922
9517.000000;1.330423
9516.000000;1.330507
9515.000000;1.330995
9514.000000;1.331524
9513.000000;1.331846
9512.000000;1.331943
9511.000000;1.331760
9510.000000;1.331068
9509.000000;1.329872
9508.000000;1.328741
9507.000000;1.328344
9506.000000;1.328683
9505.000000;1.329147
9504.000000;1.329298
9503.000000;1.329252
9502.000000;1.329214
9501.000000;1.329035
9500.000000;1.328381
9499.000000;1.327117
9498.000000;1.325382
9497.000000;1.323503
9496.000000;1.321898
9495.000000;1.320842
9494.000000;1.320230
9493.000000;1.319722
9492.000000;1.319131
9491.000000;1.318421
9490.000000;1.317446
9489.000000;1.316089
9488.000000;1.314728
9487.000000;1.314078
9486.000000;1.314308
9485.000000;1.314687
9484.000000;1.314422
9483.000000;1.313512
9482.000000;1.312474
9481.000000;1.311574
9480.000000;1.310761
9479.000000;1.310187
9478.000000;1.310191
9477.000000;1.310695
9476.000000;1.311029
9475.000000;1.310558
9474.000000;1.309357
9473.000000;1.308140
9472.000000;1.307558
9471.000000;1.307625
9470.000000;1.307806
9469.000000;1.307617
9468.000000;1.307035
9467.000000;1.306213
9466.000000;1.305039
9465.000000;1.303413
9464.000000;1.301916
9463.000000;1.301598
9462.000000;1.302751
9461.000000;1.304222
9460.000000;1.304365
9459.000000;1.302637
9458.000000;1.300011
9457.000000;1.297997
9456.000000;1.297608
9455.000000;1.298962
9454.000000;1.301254
9453.000000;1.303053
9452.000000;1.303153
9451.000000;1.301405
9450.000000;1.298571
9449.000000;1.295509
9448.000000;1.292837
9447.000000;1.291188
9446.000000;1.291102
9445.000000;1.292375
9444.000000;1.293922
9443.000000;1.294703
9442.000000;1.294594
9441.000000;1.294083
9440.000000;1.293352
9439.000000;1.292102
9438.000000;1.290240
9437.000000;1.288360
9436.000000;1.287344
9435.000000;1.287588
9434.000000;1.288692
9433.000000;1.289833
9432.000000;1.290362
9431.000000;1.290096
9430.000000;1.289163
9429.000000;1.287769
9428.000000;1.286220
9427.000000;1.284967
9426.000000;1.284297
9425.000000;1.283924
9424.000000;1.283188
9423.000000;1.281826
9422.000000;1.280344
9421.000000;1.279423
9420.000000;1.279122
9419.000000;1.278946
9418.000000;1.278646
9417.000000;1.278589
9416.000000;1.279186
9415.000000;1.280177
9414.000000;1.280735
9413.000000;1.280258
9412.000000;1.278885
9411.000000;1.277284
9410.000000;1.276077
9409.000000;1.275504
9408.000000;1.275395
9407.000000;1.275349
9406.000000;1.275024
9405.000000;1.274412
9404.000000;1.273800
9403.000000;1.273412
9402.000000;1.273153
9401.000000;1.272798
9400.000000;1.272340
9399.000000;1.271950
9398.000000;1.271608
9397.000000;1.271042
9396.000000;1.270162
9395.000000;1.269325
9394.000000;1.268930
9393.000000;1.268853
9392.000000;1.268559
9391.000000;1.267819
9390.000000;1.267032
9389.000000;1.266704
9388.000000;1.266814
9387.000000;1.266861
9386.000000;1.266436
9385.000000;1.265555
9384.000000;1.264432
9383.000000;1.263202
9382.000000;1.262028
9381.000000;1.261279
9380.000000;1.261283
9379.000000;1.261857
9378.000000;1.262301
9377.000000;1.262009
9376.000000;1.261040
9375.000000;1.260052
9374.000000;1.259703
9373.000000;1.260068
9372.000000;1.260524
9371.000000;1.260197
9370.000000;1.258725
9369.000000;1.256630
9368.000000;1.254793
9367.000000;1.253578
9366.000000;1.252705
9365.000000;1.251978
9364.000000;1.251737
9363.000000;1.252288
9362.000000;1.253153
9361.000000;1.253392
9360.000000;1.252696
9359.000000;1.251733
9358.000000;1.251299
9357.000000;1.251494
9356.000000;1.251796
9355.000000;1.251609
9354.000000;1.250678
9353.000000;1.249295
9352.000000;1.248212
9351.000000;1.248008
9350.000000;1.248279
9349.000000;1.247782
9348.000000;1.245757
9347.000000;1.242980
9346.000000;1.241165
9345.000000;1.241373
9344.000000;1.243161
9343.000000;1.245094
9342.000000;1.245847
9341.000000;1.244975
9340.000000;1.243031
9339.000000;1.241130
9338.000000;1.240193
9337.000000;1.240366
9336.000000;1.241012
9335.000000;1.241273
9334.000000;1.240768
9333.000000;1.239825
9332.000000;1.239107
9331.000000;1.238995
9330.000000;1.239346
9329.000000;1.239801
9328.000000;1.240156
9327.000000;1.240241
9326.000000;1.239685
9325.000000;1.238215
9324.000000;1.236194
9323.000000;1.234445
9322.000000;1.233382
9321.000000;1.232715
9320.000000;1.232150
9319.000000;1.231934
9318.000000;1.232330
9317.000000;1.232962
9316.000000;1.233218
9315.000000;1.233073
9314.000000;1.232899
9313.000000;1.232587
9312.000000;1.231524
9311.000000;1.229576
9310.000000;1.227527
9309.000000;1.226272
9308.000000;1.225919
9307.000000;1.225887
9306.000000;1.225569
9305.000000;1.224721
9304.000000;1.223588
9303.000000;1.222908
9302.000000;1.223452
9301.000000;1.225154
9300.000000;1.226864
9299.000000;1.227374
9298.000000;1.226687
9297.000000;1.225896
9296.000000;1.225812
9295.000000;1.226140
9294.000000;1.226046
9293.000000;1.225164
9292.000000;1.223778
9291.000000;1.222273
9290.000000;1.220790
9289.000000;1.219424
9288.000000;1.218440
9287.000000;1.218133
9286.000000;1.218568
9285.000000;1.219544
9284.000000;1.220654
9283.000000;1.221332
9282.000000;1.221008
9281.000000;1.219558
9280.000000;1.217669
9279.000000;1.216483
9278.000000;1.216615
9277.000000;1.217514
9276.000000;1.217997
9275.000000;1.217457
9274.000000;1.216417
9273.000000;1.215834
9272.000000;1.216012
9271.000000;1.216394
9270.000000;1.216432
9269.000000;1.216327
9268.000000;1.216613
9267.000000;1.217139
9266.000000;1.216965
9265.000000;1.215481
9264.000000;1.213296
9263.000000;1.211617
9262.000000;1.210925
9261.000000;1.210695
9260.000000;1.210377
9259.000000;1.210079
9258.000000;1.210069
9257.000000;1.210131
9256.000000;1.209834
9255.000000;1.209172
9254.000000;1.208493
9253.000000;1.207921
9252.000000;1.207221
9251.000000;1.206196
9250.000000;1.204926
9249.000000;1.203695
9248.000000;1.202954
9247.000000;1.203163
9246.000000;1.204256
9245.000000;1.205322
9244.000000;1.205320
9243.000000;1.204229
9242.000000;1.203020
9241.000000;1.202412
9240.000000;1.202151
9239.000000;1.201695
9238.000000;1.201087
9237.000000;1.200721
9236.000000;1.200576
9235.000000;1.200269
9234.000000;1.199758
9233.000000;1.199464
9232.000000;1.199642
9231.000000;1.200013
9230.000000;1.200147
9229.000000;1.199940
9228.000000;1.199524
9227.000000;1.198907
9226.000000;1.197916
9225.000000;1.196523
9224.000000;1.195112
9223.000000;1.194322
9222.000000;1.194525
9221.000000;1.195393
9220.000000;1.196036
9219.000000;1.195717
9218.000000;1.194464
9217.000000;1.192960
9216.000000;1.191918
9215.000000;1.191678
9214.000000;1.192273
9213.000000;1.193495
9212.000000;1.194772
9211.000000;1.195266
9210.000000;1.194464
9209.000000;1.192703
9208.000000;1.190945
9207.000000;1.189933
9206.000000;1.189629
9205.000000;1.189487
9204.000000;1.189152
9203.000000;1.188817
9202.000000;1.188908
9201.000000;1.189517
9200.000000;1.190161
9199.000000;1.190117
9198.000000;1.189029
9197.000000;1.187227
9196.000000;1.185444
9195.000000;1.184242
9194.000000;1.183686
9193.000000;1.183490
9192.000000;1.183388
9191.000000;1.183237
9190.000000;1.182910
9189.000000;1.182343
9188.000000;1.181723
9187.000000;1.181426
9186.000000;1.181712
9185.000000;1.182580
9184.000000;1.183882
9183.000000;1.185394
9182.000000;1.186740
9181.000000;1.187523
9180.000000;1.187647
9179.000000;1.187305
9178.000000;1.186545
9177.000000;1.185099
9176.000000;1.182933
9175.000000;1.180734
9174.000000;1.179458
9173.000000;1.179436
9172.000000;1.180171
9171.000000;1.180922
9170.000000;1.181132
9169.000000;1.180373
9168.000000;1.178487
9167.000000;1.176101
9166.000000;1.174586
9165.000000;1.174947
9164.000000;1.176756
9163.000000;1.178452
9162.000000;1.178793
9161.000000;1.177862
9160.000000;1.176671
9159.000000;1.176039
9158.000000;1.175979
9157.000000;1.175948
9156.000000;1.175481
9155.000000;1.174564
9154.000000;1.173558
9153.000000;1.172838
9152.000000;1.172571
9151.000000;1.172722
9150.000000;1.173117
9149.000000;1.173455
9148.000000;1.173420
9147.000000;1.172907
9146.000000;1.172100
9145.000000;1.171261
9144.000000;1.170511
9143.000000;1.169859
9142.000000;1.169341
9141.000000;1.169012
9140.000000;1.168903
9139.000000;1.169089
9138.000000;1.169686
9137.000000;1.170567
9136.000000;1.171170
9135.000000;1.170898
9134.000000;1.169830
9133.000000;1.168838
9132.000000;1.168831
9131.000000;1.169909
9130.000000;1.171292
9129.000000;1.171999
9128.000000;1.171572
9127.000000;1.170246
9126.000000;1.168638
9125.000000;1.167332
9124.000000;1.166600
9123.000000;1.166351
9122.000000;1.166298
9121.000000;1.166146
9120.000000;1.165699
9119.000000;1.164929
9118.000000;1.164050
9117.000000;1.163445
9116.000000;1.163346
9115.000000;1.163524
9114.000000;1.163441
9113.000000;1.162784
9112.000000;1.161781
9111.000000;1.160910
9110.000000;1.160469
9109.000000;1.160540
9108.000000;1.161211
9107.000000;1.162460
9106.000000;1.163833
9105.000000;1.164605
9104.000000;1.164492
9103.000000;1.163979
9102.000000;1.163730
9101.000000;1.163838
9100.000000;1.163907
9099.000000;1.163645
9098.000000;1.163042
9097.000000;1.162062
9096.000000;1.160668
9095.000000;1.159241
9094.000000;1.158503
9093.000000;1.158720
9092.000000;1.159243
9091.000000;1.159128
9090.000000;1.158107
9089.000000;1.156745
9088.000000;1.155754
9087.000000;1.155407
9086.000000;1.155526
9085.000000;1.155774
9084.000000;1.155919
9083.000000;1.155929
9082.000000;1.155801
9081.000000;1.155314
9080.000000;1.154175
9079.000000;1.152570
9078.000000;1.151294
9077.000000;1.151044
9076.000000;1.151706
9075.000000;1.152596
9074.000000;1.153302
9073.000000;1.153886
9072.000000;1.154302
9071.000000;1.154235
9070.000000;1.153751
9069.000000;1.153530
9068.000000;1.154023
9067.000000;1.154748
9066.000000;1.154850
9065.000000;1.154147
9064.000000;1.153184
9063.000000;1.152426
9062.000000;1.151875
9061.000000;1.151487
9060.000000;1.151438
9059.000000;1.151801
9058.000000;1.152265
9057.000000;1.152383
9056.000000;1.151917
9055.000000;1.150899
9054.000000;1.149577
9053.000000;1.148396
