Criado como novo conjunto de dados;"1909daniel.spp","-4243662.6 Secs"
cm-1;Abs
10000.000000;1.837877
9999.000000;1.838274
9998.000000;1.838561
9997.000000;1.839071
9996.000000;1.838660
9995.000000;1.838170
9994.000000;1.838615
9993.000000;1.838058
9992.000000;1.835676
9991.000000;1.833119
9990.000000;1.832185
9989.000000;1.832075
9988.000000;1.830697
9987.000000;1.827462
9986.000000;1.823500
9985.000000;1.819981
9984.000000;1.817509
9983.000000;1.816792
9982.000000;1.818537
9981.000000;1.822336
9980.000000;1.826426
9979.000000;1.829113
9978.000000;1.830003
9977.000000;1.829584
9976.000000;1.828338
9975.000000;1.826542
9974.000000;1.824218
9973.000000;1.821101
9972.000000;1.817096
9971.000000;1.813184
9970.000000;1.811353
9969.000000;1.812494
9968.000000;1.814695
9967.000000;1.814963
9966.000000;1.812901
9965.000000;1.811358
9964.000000;1.812816
9963.000000;1.816293
9962.000000;1.818606
9961.000000;1.818071
9960.000000;1.815769
9959.000000;1.813572
9958.000000;1.812419
9957.000000;1.812396
9956.000000;1.813117
9955.000000;1.813463
9954.000000;1.811877
9953.000000;1.807900
9952.000000;1.803018
9951.000000;1.799436
9950.000000;1.798366
9949.000000;1.799655
9948.000000;1.802396
9947.000000;1.805456
9946.000000;1.807921
9945.000000;1.809514
9944.000000;1.810308
9943.000000;1.809916
9942.000000;1.807659
9941.000000;1.803868
9940.000000;1.800142
9939.000000;1.797680
9938.000000;1.796155
9937.000000;1.794916
9936.000000;1.794456
9935.000000;1.795521
9934.000000;1.797211
9933.000000;1.797440
9932.000000;1.795587
9931.000000;1.793493
9930.000000;1.793075
9929.000000;1.793866
9928.000000;1.793722
9927.000000;1.791453
9926.000000;1.788141
9925.000000;1.785986
9924.000000;1.786281
9923.000000;1.788453
9922.000000;1.790790
9921.000000;1.791982
9920.000000;1.791930
9919.000000;1.791162
9918.000000;1.789861
9917.000000;1.787694
9916.000000;1.784291
9915.000000;1.779529
9914.000000;1.773630
9913.000000;1.767615
9912.000000;1.763492
9911.000000;1.763083
9910.000000;1.766365
9909.000000;1.771295
9908.000000;1.775311
9907.000000;1.776987
9906.000000;1.776606
9905.000000;1.775547
9904.000000;1.774948
9903.000000;1.774561
9902.000000;1.773058
9901.000000;1.769949
9900.000000;1.766851
9899.000000;1.766075
9898.000000;1.768044
9897.000000;1.770497
9896.000000;1.770317
9895.000000;1.766272
9894.000000;1.760228
9893.000000;1.755863
9892.000000;1.755952
9891.000000;1.759946
9890.000000;1.764047
9889.000000;1.764784
9888.000000;1.762507
9887.000000;1.760172
9886.000000;1.759460
9885.000000;1.759663
9884.000000;1.759780
9883.000000;1.759818
9882.000000;1.759830
9881.000000;1.759326
9880.000000;1.758312
9879.000000;1.757633
9878.000000;1.757480
9877.000000;1.756711
9876.000000;1.754515
9875.000000;1.751677
9874.000000;1.749548
9873.000000;1.748918
9872.000000;1.750246
9871.000000;1.753406
9870.000000;1.756373
9869.000000;1.755919
9868.000000;1.751302
9867.000000;1.745864
9866.000000;1.743280
9865.000000;1.743510
9864.000000;1.743842
9863.000000;1.743038
9862.000000;1.742565
9861.000000;1.743746
9860.000000;1.745665
9859.000000;1.746287
9858.000000;1.744591
9857.000000;1.741383
9856.000000;1.738693
9855.000000;1.738261
9854.000000;1.739787
9853.000000;1.740827
9852.000000;1.739381
9851.000000;1.736305
9850.000000;1.734027
9849.000000;1.733435
9848.000000;1.733478
9847.000000;1.733329
9846.000000;1.733246
9845.000000;1.733198
9844.000000;1.732218
9843.000000;1.729891
9842.000000;1.727382
9841.000000;1.726151
9840.000000;1.726476
9839.000000;1.727602
9838.000000;1.728526
9837.000000;1.728343
9836.000000;1.726813
9835.000000;1.725103
9834.000000;1.724986
9833.000000;1.726682
9832.000000;1.728202
9831.000000;1.727495
9830.000000;1.724851
9829.000000;1.722349
9828.000000;1.721351
9827.000000;1.721376
9826.000000;1.721122
9825.000000;1.719983
9824.000000;1.718615
9823.000000;1.718156
9822.000000;1.718694
9821.000000;1.718619
9820.000000;1.716146
9819.000000;1.711690
9818.000000;1.707941
9817.000000;1.707209
9816.000000;1.709235
9815.000000;1.711697
9814.000000;1.712281
9813.000000;1.710023
9812.000000;1.705556
9811.000000;1.700918
9810.000000;1.698581
9809.000000;1.699657
9808.000000;1.702697
9807.000000;1.704634
9806.000000;1.703576
9805.000000;1.700593
9804.000000;1.698406
9803.000000;1.698652
9802.000000;1.700547
9801.000000;1.701795
9800.000000;1.700700
9799.000000;1.697533
9798.000000;1.694011
9797.000000;1.691911
9796.000000;1.692273
9795.000000;1.695203
9794.000000;1.699587
9793.000000;1.703212
9792.000000;1.704191
9791.000000;1.702585
9790.000000;1.700020
9789.000000;1.697806
9788.000000;1.696182
9787.000000;1.695120
9786.000000;1.694631
9785.000000;1.694009
9784.000000;1.692017
9783.000000;1.688633
9782.000000;1.685713
9781.000000;1.685005
9780.000000;1.686066
9779.000000;1.686873
9778.000000;1.686131
9777.000000;1.684373
9776.000000;1.683204
9775.000000;1.684131
9774.000000;1.687618
9773.000000;1.692277
9772.000000;1.695301
9771.000000;1.694797
9770.000000;1.691566
9769.000000;1.687688
9768.000000;1.683933
9767.000000;1.679714
9766.000000;1.675205
9765.000000;1.671984
9764.000000;1.671279
9763.000000;1.672592
9762.000000;1.674351
9761.000000;1.675140
9760.000000;1.674222
9759.000000;1.671873
9758.000000;1.669779
9757.000000;1.670215
9756.000000;1.673836
9755.000000;1.678653
9754.000000;1.681891
9753.000000;1.682561
9752.000000;1.681439
9751.000000;1.679103
9750.000000;1.675303
9749.000000;1.670291
9748.000000;1.665440
9747.000000;1.662041
9746.000000;1.660350
9745.000000;1.660045
9744.000000;1.660881
9743.000000;1.662455
9742.000000;1.663793
9741.000000;1.663729
9740.000000;1.661835
9739.000000;1.658915
9738.000000;1.656608
9737.000000;1.656294
9736.000000;1.657941
9735.000000;1.659882
9734.000000;1.660080
9733.000000;1.658000
9732.000000;1.655049
9731.000000;1.653055
9730.000000;1.652648
9729.000000;1.653154
9728.000000;1.653538
9727.000000;1.653188
9726.000000;1.652088
9725.000000;1.650693
9724.000000;1.649600
9723.000000;1.649071
9722.000000;1.648820
9721.000000;1.648518
9720.000000;1.648424
9719.000000;1.649169
9718.000000;1.650821
9717.000000;1.652394
9716.000000;1.652519
9715.000000;1.650602
9714.000000;1.647277
9713.000000;1.643727
9712.000000;1.640719
9711.000000;1.638409
9710.000000;1.636942
9709.000000;1.636750
9708.000000;1.637878
9707.000000;1.639361
9706.000000;1.639850
9705.000000;1.638960
9704.000000;1.637604
9703.000000;1.636879
9702.000000;1.637014
9701.000000;1.637560
9700.000000;1.638160
9699.000000;1.638746
9698.000000;1.639276
9697.000000;1.639601
9696.000000;1.639400
9695.000000;1.638101
9694.000000;1.635262
9693.000000;1.631306
9692.000000;1.627446
9691.000000;1.624542
9690.000000;1.622476
9689.000000;1.621052
9688.000000;1.620879
9687.000000;1.622473
9686.000000;1.624726
9685.000000;1.625238
9684.000000;1.622628
9683.000000;1.618088
9682.000000;1.614373
9681.000000;1.613641
9680.000000;1.616085
9679.000000;1.619872
9678.000000;1.622311
9677.000000;1.621866
9676.000000;1.619284
9675.000000;1.616475
9674.000000;1.614528
9673.000000;1.613280
9672.000000;1.612392
9671.000000;1.611905
9670.000000;1.611658
9669.000000;1.611093
9668.000000;1.610057
9667.000000;1.609096
9666.000000;1.608545
9665.000000;1.608056
9664.000000;1.607320
9663.000000;1.606483
9662.000000;1.605495
9661.000000;1.603910
9660.000000;1.601925
9659.000000;1.600781
9658.000000;1.601237
9657.000000;1.602232
9656.000000;1.602032
9655.000000;1.600329
9654.000000;1.598243
9653.000000;1.596578
9652.000000;1.595085
9651.000000;1.593404
9650.000000;1.591855
9649.000000;1.591061
9648.000000;1.591419
9647.000000;1.593144
9646.000000;1.596220
9645.000000;1.599912
9644.000000;1.602659
9643.000000;1.603024
9642.000000;1.600836
9641.000000;1.597268
9640.000000;1.593903
9639.000000;1.591737
9638.000000;1.590797
9637.000000;1.590470
9636.000000;1.590127
9635.000000;1.589391
9634.000000;1.587993
9633.000000;1.585935
9632.000000;1.583929
9631.000000;1.583100
9630.000000;1.583895
9629.000000;1.585586
9628.000000;1.587002
9627.000000;1.587493
9626.000000;1.587137
9625.000000;1.586423
9624.000000;1.586041
9623.000000;1.586471
9622.000000;1.587333
9621.000000;1.587591
9620.000000;1.586834
9619.000000;1.585843
9618.000000;1.585407
9617.000000;1.585140
9616.000000;1.584071
9615.000000;1.581946
9614.000000;1.579191
9613.000000;1.576015
9612.000000;1.572587
9611.000000;1.569650
9610.000000;1.567820
9609.000000;1.566556
9608.000000;1.564982
9607.000000;1.563614
9606.000000;1.563999
9605.000000;1.566346
9604.000000;1.568759
9603.000000;1.569405
9602.000000;1.568524
9601.000000;1.567558
9600.000000;1.567103
9599.000000;1.566607
9598.000000;1.565533
9597.000000;1.563865
9596.000000;1.561773
9595.000000;1.559653
9594.000000;1.558437
9593.000000;1.559040
9592.000000;1.561226
9591.000000;1.563489
9590.000000;1.564355
9589.000000;1.563619
9588.000000;1.562148
9587.000000;1.560693
9586.000000;1.559143
9585.000000;1.556912
9584.000000;1.553919
9583.000000;1.551066
9582.000000;1.549629
9581.000000;1.550069
9580.000000;1.551549
9579.000000;1.552623
9578.000000;1.552293
9577.000000;1.550671
9576.000000;1.548937
9575.000000;1.548450
9574.000000;1.549460
9573.000000;1.550674
9572.000000;1.550490
9571.000000;1.548819
9570.000000;1.547256
9569.000000;1.547235
9568.000000;1.548395
9567.000000;1.548995
9566.000000;1.547751
9565.000000;1.544956
9564.000000;1.541939
9563.000000;1.539826
9562.000000;1.538834
9561.000000;1.538443
9560.000000;1.538121
9559.000000;1.537929
9558.000000;1.538342
9557.000000;1.539451
9556.000000;1.540570
9555.000000;1.540945
9554.000000;1.540685
9553.000000;1.540579
9552.000000;1.540950
9551.000000;1.541082
9550.000000;1.540077
9549.000000;1.538088
9548.000000;1.536259
9547.000000;1.535331
9546.000000;1.534722
9545.000000;1.533386
9544.000000;1.531425
9543.000000;1.530216
9542.000000;1.530717
9541.000000;1.532186
9540.000000;1.533043
9539.000000;1.532761
9538.000000;1.532131
9537.000000;1.531698
9536.000000;1.530928
9535.000000;1.529295
9534.000000;1.527403
9533.000000;1.526342
9532.000000;1.526328
9531.000000;1.526627
9530.000000;1.526642
9529.000000;1.526325
9528.000000;1.525440
9527.000000;1.523247
9526.000000;1.519554
9525.000000;1.515670
9524.000000;1.513602
9523.000000;1.514220
9522.000000;1.516450
9521.000000;1.518272
9520.000000;1.518392
9519.000000;1.516986
9518.000000;1.515223
9517.000000;1.514354
9516.000000;1.514968
9515.000000;1.516569
9514.000000;1.517793
9513.000000;1.517405
9512.000000;1.515342
9511.000000;1.512707
9510.000000;1.510706
9509.000000;1.509741
9508.000000;1.509444
9507.000000;1.509197
9506.000000;1.508472
9505.000000;1.507051
9504.000000;1.505319
9503.000000;1.504177
9502.000000;1.504289
9501.000000;1.505406
9500.000000;1.506605
9499.000000;1.507090
9498.000000;1.506500
9497.000000;1.504697
9496.000000;1.501821
9495.000000;1.498632
9494.000000;1.496287
9493.000000;1.495558
9492.000000;1.496396
9491.000000;1.498229
9490.000000;1.500353
9489.000000;1.501980
9488.000000;1.502333
9487.000000;1.501122
9486.000000;1.498915
9485.000000;1.496775
9484.000000;1.495480
9483.000000;1.495106
9482.000000;1.495181
9481.000000;1.495172
9480.000000;1.494831
9479.000000;1.494196
9478.000000;1.493373
9477.000000;1.492438
9476.000000;1.491569
9475.000000;1.491051
9474.000000;1.490923
9473.000000;1.490739
9472.000000;1.490041
9471.000000;1.489072
9470.000000;1.488680
9469.000000;1.489388
9468.000000;1.490742
9467.000000;1.491646
9466.000000;1.491200
9465.000000;1.489267
9464.000000;1.486482
9463.000000;1.483875
9462.000000;1.482243
9461.000000;1.481583
9460.000000;1.481140
9459.000000;1.480176
9458.000000;1.478646
9457.000000;1.477035
9456.000000;1.475680
9455.000000;1.474513
9454.000000;1.473453
9453.000000;1.472728
9452.000000;1.472587
9451.000000;1.472905
9450.000000;1.473218
9449.000000;1.473092
9448.000000;1.472447
9447.000000;1.471567
9446.000000;1.470843
9445.000000;1.470468
9444.000000;1.470325
9443.000000;1.470126
9442.000000;1.469726
9441.000000;1.469397
9440.000000;1.469726
9439.000000;1.470988
9438.000000;1.472536
9437.000000;1.473123
9436.000000;1.472193
9435.000000;1.470742
9434.000000;1.470464
9433.000000;1.471891
9432.000000;1.473606
9431.000000;1.473421
9430.000000;1.470348
9429.000000;1.465435
9428.000000;1.460860
9427.000000;1.458425
9426.000000;1.458605
9425.000000;1.460467
9424.000000;1.462371
9423.000000;1.463106
9422.000000;1.462687
9421.000000;1.462129
9420.000000;1.462328
9419.000000;1.463115
9418.000000;1.463417
9417.000000;1.462371
9416.000000;1.460193
9415.000000;1.457879
9414.000000;1.456228
9413.000000;1.455296
9412.000000;1.454673
9411.000000;1.454043
9410.000000;1.453384
9409.000000;1.452859
9408.000000;1.452731
9407.000000;1.453302
9406.000000;1.454637
9405.000000;1.456194
9404.000000;1.456889
9403.000000;1.455827
9402.000000;1.453068
9401.000000;1.449676
9400.000000;1.446995
9399.000000;1.445740
9398.000000;1.445623
9397.000000;1.445778
9396.000000;1.445588
9395.000000;1.445228
9394.000000;1.445354
9393.000000;1.446213
9392.000000;1.447228
9391.000000;1.447529
9390.000000;1.446817
9389.000000;1.445626
9388.000000;1.444802
9387.000000;1.444847
9386.000000;1.445678
9385.000000;1.446740
9384.000000;1.447268
9383.000000;1.446645
9382.000000;1.444806
9381.000000;1.442427
9380.000000;1.440546
9379.000000;1.439751
9378.000000;1.439703
9377.000000;1.439470
9376.000000;1.438369
9375.000000;1.436536
9374.000000;1.434830
9373.000000;1.434198
9372.000000;1.434961
9371.000000;1.436491
9370.000000;1.437575
9369.000000;1.437322
9368.000000;1.435870
9367.000000;1.434135
9366.000000;1.432865
9365.000000;1.432051
9364.000000;1.431277
9363.000000;1.430431
9362.000000;1.429857
9361.000000;1.429840
9360.000000;1.430140
9359.000000;1.430142
9358.000000;1.429427
9357.000000;1.428067
9356.000000;1.426410
9355.000000;1.424768
9354.000000;1.423401
9353.000000;1.422623
9352.000000;1.422586
9351.000000;1.422915
9350.000000;1.422870
9349.000000;1.422184
9348.000000;1.421604
9347.000000;1.422297
9346.000000;1.424629
9345.000000;1.427489
9344.000000;1.428881
9343.000000;1.427441
9342.000000;1.423665
9341.000000;1.419649
9340.000000;1.417465
9339.000000;1.417604
9338.000000;1.418864
9337.000000;1.419759
9336.000000;1.419915
9335.000000;1.419924
9334.000000;1.420144
9333.000000;1.420253
9332.000000;1.419948
9331.000000;1.419478
9330.000000;1.419154
9329.000000;1.418726
9328.000000;1.417674
9327.000000;1.416026
9326.000000;1.414495
9325.000000;1.413718
9324.000000;1.413541
9323.000000;1.413165
9322.000000;1.411906
9321.000000;1.409839
9320.000000;1.407824
9319.000000;1.406926
9318.000000;1.407648
9317.000000;1.409537
9316.000000;1.411413
9315.000000;1.412174
9314.000000;1.411601
9313.000000;1.410386
9312.000000;1.409283
9311.000000;1.408346
9310.000000;1.407171
9309.000000;1.405793
9308.000000;1.404840
9307.000000;1.404650
9306.000000;1.404765
9305.000000;1.404630
9304.000000;1.404426
9303.000000;1.404633
9302.000000;1.405031
9301.000000;1.404793
9300.000000;1.403603
9299.000000;1.402096
9298.000000;1.401052
9297.000000;1.400660
9296.000000;1.400729
9295.000000;1.401120
9294.000000;1.401686
9293.000000;1.402105
9292.000000;1.402091
9291.000000;1.401602
9290.000000;1.400666
9289.000000;1.399316
9288.000000;1.397897
9287.000000;1.397031
9286.000000;1.396966
9285.000000;1.397217
9284.000000;1.397112
9283.000000;1.396545
9282.000000;1.395956
9281.000000;1.395748
9280.000000;1.395942
9279.000000;1.396268
9278.000000;1.396372
9277.000000;1.396062
9276.000000;1.395509
9275.000000;1.395013
9274.000000;1.394582
9273.000000;1.393976
9272.000000;1.393228
9271.000000;1.392761
9270.000000;1.392800
9269.000000;1.393032
9268.000000;1.393074
9267.000000;1.392905
9266.000000;1.392502
9265.000000;1.391511
9264.000000;1.389794
9263.000000;1.387910
9262.000000;1.386432
9261.000000;1.385063
9260.000000;1.383134
9259.000000;1.380962
9258.000000;1.379915
9257.000000;1.380815
9256.000000;1.382773
9255.000000;1.384106
9254.000000;1.384231
9253.000000;1.384068
9252.000000;1.384559
9251.000000;1.385427
9250.000000;1.385761
9249.000000;1.385537
9248.000000;1.385778
9247.000000;1.386963
9246.000000;1.387836
9245.000000;1.386493
9244.000000;1.382602
9243.000000;1.377861
9242.000000;1.374194
9241.000000;1.372134
9240.000000;1.371207
9239.000000;1.371222
9238.000000;1.372490
9237.000000;1.374891
9236.000000;1.377379
9235.000000;1.378688
9234.000000;1.378363
9233.000000;1.376994
9232.000000;1.375591
9231.000000;1.374710
9230.000000;1.374109
9229.000000;1.373308
9228.000000;1.372418
9227.000000;1.372100
9226.000000;1.372560
9225.000000;1.373041
9224.000000;1.372654
9223.000000;1.371435
9222.000000;1.370119
9221.000000;1.369195
9220.000000;1.368784
9219.000000;1.369141
9218.000000;1.370381
9217.000000;1.371632
9216.000000;1.371362
9215.000000;1.369058
9214.000000;1.366086
9213.000000;1.364367
9212.000000;1.364575
9211.000000;1.365976
9210.000000;1.367669
9209.000000;1.369340
9208.000000;1.370805
9207.000000;1.371435
9206.000000;1.370520
9205.000000;1.368154
9204.000000;1.365476
9203.000000;1.363856
9202.000000;1.363806
9201.000000;1.364660
9200.000000;1.365308
9199.000000;1.365297
9198.000000;1.365137
9197.000000;1.365482
9196.000000;1.366117
9195.000000;1.366032
9194.000000;1.364543
9193.000000;1.362100
9192.000000;1.359763
9191.000000;1.358044
9190.000000;1.356636
9189.000000;1.355286
9188.000000;1.354465
9187.000000;1.354806
9186.000000;1.356090
9185.000000;1.357253
9184.000000;1.357493
9183.000000;1.357019
9182.000000;1.356569
9181.000000;1.356500
9180.000000;1.356563
9179.000000;1.356369
9178.000000;1.355817
9177.000000;1.355151
9176.000000;1.354802
9175.000000;1.355116
9174.000000;1.356054
9173.000000;1.357112
9172.000000;1.357690
9171.000000;1.357611
9170.000000;1.357228
9169.000000;1.356993
9168.000000;1.356916
9167.000000;1.356547
9166.000000;1.355564
9165.000000;1.354271
9164.000000;1.353323
9163.000000;1.352928
9162.000000;1.352570
9161.000000;1.351753
9160.000000;1.350864
9159.000000;1.350794
9158.000000;1.351629
9157.000000;1.352241
9156.000000;1.351560
9155.000000;1.349965
9154.000000;1.348869
9153.000000;1.348995
9152.000000;1.349558
9151.000000;1.349334
9150.000000;1.348243
9149.000000;1.347426
9148.000000;1.347752
9147.000000;1.348702
9146.000000;1.349036
9145.000000;1.348312
9144.000000;1.347204
9143.000000;1.346264
9142.000000;1.345119
9141.000000;1.343352
9140.000000;1.341631
9139.000000;1.341114
9138.000000;1.341853
9137.000000;1.342538
9136.000000;1.342033
9135.000000;1.340598
9134.000000;1.339300
9133.000000;1.338773
9132.000000;1.338903
9131.000000;1.339300
9130.000000;1.339592
9129.000000;1.339516
9128.000000;1.339086
9127.000000;1.338589
9126.000000;1.338216
9125.000000;1.337895
9124.000000;1.337612
9123.000000;1.337619
9122.000000;1.338044
9121.000000;1.338599
9120.000000;1.338933
9119.000000;1.339027
9118.000000;1.338945
9117.000000;1.338536
9116.000000;1.337776
9115.000000;1.337190
9114.000000;1.337437
9113.000000;1.338458
9112.000000;1.339409
9111.000000;1.339476
9110.000000;1.338513
9109.000000;1.336973
9108.000000;1.335540
9107.000000;1.334757
9106.000000;1.334630
9105.000000;1.334572
9104.000000;1.334027
9103.000000;1.333148
9102.000000;1.332569
9101.000000;1.332539
9100.000000;1.332643
9099.000000;1.332516
9098.000000;1.332386
9097.000000;1.332546
9096.000000;1.332646
9095.000000;1.331971
9094.000000;1.330427
9093.000000;1.328804
9092.000000;1.327871
9091.000000;1.327527
9090.000000;1.327139
9089.000000;1.326538
9088.000000;1.326249
9087.000000;1.326635
9086.000000;1.327265
9085.000000;1.327464
9084.000000;1.327166
9083.000000;1.326761
9082.000000;1.326360
9081.000000;1.325818
9080.000000;1.325381
9079.000000;1.325572
9078.000000;1.326282
9077.000000;1.326600
9076.000000;1.325963
9075.000000;1.324999
9074.000000;1.324781
9073.000000;1.325582
9072.000000;1.326783
9071.000000;1.327758
9070.000000;1.328405
9069.000000;1.328843
9068.000000;1.328984
9067.000000;1.328532
9066.000000;1.327246
9065.000000;1.325221
9064.000000;1.322981
9063.000000;1.321161
9062.000000;1.320026
9061.000000;1.319488
9060.000000;1.319518
9059.000000;1.320127
9058.000000;1.320920
9057.000000;1.321228
9056.000000;1.320965
9055.000000;1.320840
9054.000000;1.321320
9053.000000;1.321853
