Criado como novo conjunto de dados;"1909daniel.spp","-4271563.9 Secs"
cm-1;Abs
10000.000000;1.393346
9999.000000;1.390996
9998.000000;1.389369
9997.000000;1.388208
9996.000000;1.387433
9995.000000;1.387082
9994.000000;1.386939
9993.000000;1.386647
9992.000000;1.386085
9991.000000;1.385441
9990.000000;1.384912
9989.000000;1.384488
9988.000000;1.384014
9987.000000;1.383389
9986.000000;1.382703
9985.000000;1.382128
9984.000000;1.381590
9983.000000;1.380665
9982.000000;1.379047
9981.000000;1.377049
9980.000000;1.375371
9979.000000;1.374392
9978.000000;1.374017
9977.000000;1.374121
9976.000000;1.374677
9975.000000;1.375357
9974.000000;1.375589
9973.000000;1.375258
9972.000000;1.374866
9971.000000;1.374653
9970.000000;1.374072
9969.000000;1.372686
9968.000000;1.371135
9967.000000;1.370452
9966.000000;1.370596
9965.000000;1.370395
9964.000000;1.369034
9963.000000;1.367023
9962.000000;1.365499
9961.000000;1.364997
9960.000000;1.365094
9959.000000;1.364891
9958.000000;1.363697
9957.000000;1.361531
9956.000000;1.359236
9955.000000;1.357939
9954.000000;1.358236
9953.000000;1.359812
9952.000000;1.361670
9951.000000;1.362664
9950.000000;1.362104
9949.000000;1.360252
9948.000000;1.358207
9947.000000;1.357009
9946.000000;1.356836
9945.000000;1.357165
9944.000000;1.357503
9943.000000;1.357600
9942.000000;1.357155
9941.000000;1.355941
9940.000000;1.354311
9939.000000;1.353053
9938.000000;1.352460
9937.000000;1.351932
9936.000000;1.350791
9935.000000;1.349166
9934.000000;1.347707
9933.000000;1.346670
9932.000000;1.345702
9931.000000;1.344407
9930.000000;1.342795
9929.000000;1.341183
9928.000000;1.339901
9927.000000;1.339188
9926.000000;1.339182
9925.000000;1.339712
9924.000000;1.340097
9923.000000;1.339438
9922.000000;1.337469
9921.000000;1.335098
9920.000000;1.333747
9919.000000;1.333940
9918.000000;1.334767
9917.000000;1.334997
9916.000000;1.334441
9915.000000;1.333716
9914.000000;1.332973
9913.000000;1.331672
9912.000000;1.329755
9911.000000;1.328214
9910.000000;1.327979
9909.000000;1.328674
9908.000000;1.328986
9907.000000;1.328090
9906.000000;1.326326
9905.000000;1.324639
9904.000000;1.323762
9903.000000;1.323836
9902.000000;1.324399
9901.000000;1.324693
9900.000000;1.324254
9899.000000;1.323263
9898.000000;1.322218
9897.000000;1.321388
9896.000000;1.320692
9895.000000;1.319942
9894.000000;1.318985
9893.000000;1.317737
9892.000000;1.316317
9891.000000;1.315022
9890.000000;1.313944
9889.000000;1.312863
9888.000000;1.311787
9887.000000;1.311314
9886.000000;1.312019
9885.000000;1.313563
9884.000000;1.314848
9883.000000;1.315107
9882.000000;1.314454
9881.000000;1.313330
9880.000000;1.311949
9879.000000;1.310460
9878.000000;1.309164
9877.000000;1.308249
9876.000000;1.307578
9875.000000;1.306949
9874.000000;1.306332
9873.000000;1.305642
9872.000000;1.304659
9871.000000;1.303505
9870.000000;1.302902
9869.000000;1.303420
9868.000000;1.304565
9867.000000;1.305130
9866.000000;1.304524
9865.000000;1.303341
9864.000000;1.302454
9863.000000;1.301957
9862.000000;1.301274
9861.000000;1.300050
9860.000000;1.298534
9859.000000;1.297193
9858.000000;1.296293
9857.000000;1.295881
9856.000000;1.295816
9855.000000;1.295621
9854.000000;1.294658
9853.000000;1.292844
9852.000000;1.290974
9851.000000;1.289969
9850.000000;1.289795
9849.000000;1.289442
9848.000000;1.288042
9847.000000;1.285812
9846.000000;1.283773
9845.000000;1.282744
9844.000000;1.282784
9843.000000;1.283385
9842.000000;1.283877
9841.000000;1.283725
9840.000000;1.282824
9839.000000;1.281524
9838.000000;1.280191
9837.000000;1.278764
9836.000000;1.277041
9835.000000;1.275275
9834.000000;1.274070
9833.000000;1.273600
9832.000000;1.273403
9831.000000;1.273133
9830.000000;1.273018
9829.000000;1.273217
9828.000000;1.273155
9827.000000;1.272125
9826.000000;1.270375
9825.000000;1.269015
9824.000000;1.268823
9823.000000;1.269545
9822.000000;1.270342
9821.000000;1.270520
9820.000000;1.269793
9819.000000;1.268370
9818.000000;1.266998
9817.000000;1.266458
9816.000000;1.266754
9815.000000;1.267090
9814.000000;1.266845
9813.000000;1.266223
9812.000000;1.265695
9811.000000;1.265222
9810.000000;1.264414
9809.000000;1.263176
9808.000000;1.261709
9807.000000;1.260099
9806.000000;1.258396
9805.000000;1.257019
9804.000000;1.256523
9803.000000;1.256890
9802.000000;1.257474
9801.000000;1.257793
9800.000000;1.257983
9799.000000;1.258201
9798.000000;1.257954
9797.000000;1.256499
9796.000000;1.253896
9795.000000;1.251272
9794.000000;1.249855
9793.000000;1.249863
9792.000000;1.250421
9791.000000;1.250513
9790.000000;1.249915
9789.000000;1.249188
9788.000000;1.248914
9787.000000;1.249108
9786.000000;1.249276
9785.000000;1.248852
9784.000000;1.247555
9783.000000;1.245542
9782.000000;1.243349
9781.000000;1.241567
9780.000000;1.240412
9779.000000;1.239646
9778.000000;1.238954
9777.000000;1.238278
9776.000000;1.237726
9775.000000;1.237307
9774.000000;1.236904
9773.000000;1.236423
9772.000000;1.235847
9771.000000;1.235251
9770.000000;1.234854
9769.000000;1.234895
9768.000000;1.235281
9767.000000;1.235477
9766.000000;1.235005
9765.000000;1.233983
9764.000000;1.232964
9763.000000;1.232315
9762.000000;1.231969
9761.000000;1.231669
9760.000000;1.231191
9759.000000;1.230389
9758.000000;1.229272
9757.000000;1.228015
9756.000000;1.226742
9755.000000;1.225408
9754.000000;1.224125
9753.000000;1.223370
9752.000000;1.223416
9751.000000;1.223621
9750.000000;1.222881
9749.000000;1.221033
9748.000000;1.219276
9747.000000;1.218809
9746.000000;1.219422
9745.000000;1.219885
9744.000000;1.219497
9743.000000;1.218662
9742.000000;1.217947
9741.000000;1.217204
9740.000000;1.215917
9739.000000;1.214094
9738.000000;1.212412
9737.000000;1.211518
9736.000000;1.211445
9735.000000;1.211731
9734.000000;1.211915
9733.000000;1.211802
9732.000000;1.211354
9731.000000;1.210549
9730.000000;1.209442
9729.000000;1.208250
9728.000000;1.207274
9727.000000;1.206762
9726.000000;1.206816
9725.000000;1.207287
9724.000000;1.207645
9723.000000;1.207075
9722.000000;1.205056
9721.000000;1.202035
9720.000000;1.199329
9719.000000;1.198102
9718.000000;1.198375
9717.000000;1.199160
9716.000000;1.199560
9715.000000;1.199591
9714.000000;1.199759
9713.000000;1.200049
9712.000000;1.199772
9711.000000;1.198453
9710.000000;1.196555
9709.000000;1.195034
9708.000000;1.194374
9707.000000;1.194300
9706.000000;1.194310
9705.000000;1.194113
9704.000000;1.193621
9703.000000;1.192878
9702.000000;1.192096
9701.000000;1.191443
9700.000000;1.190753
9699.000000;1.189764
9698.000000;1.188668
9697.000000;1.187980
9696.000000;1.187708
9695.000000;1.187152
9694.000000;1.185868
9693.000000;1.184402
9692.000000;1.183614
9691.000000;1.183574
9690.000000;1.183620
9689.000000;1.183288
9688.000000;1.182672
9687.000000;1.181962
9686.000000;1.181205
9685.000000;1.180500
9684.000000;1.179934
9683.000000;1.179206
9682.000000;1.177804
9681.000000;1.175710
9680.000000;1.173616
9679.000000;1.172236
9678.000000;1.171592
9677.000000;1.171133
9676.000000;1.170410
9675.000000;1.169589
9674.000000;1.169320
9673.000000;1.169983
9672.000000;1.170986
9671.000000;1.171105
9670.000000;1.169854
9669.000000;1.168253
9668.000000;1.167727
9667.000000;1.168410
9666.000000;1.169018
9665.000000;1.168391
9664.000000;1.166637
9663.000000;1.164694
9662.000000;1.163332
9661.000000;1.162712
9660.000000;1.162419
9659.000000;1.161712
9658.000000;1.160187
9657.000000;1.158399
9656.000000;1.157445
9655.000000;1.157770
9654.000000;1.158677
9653.000000;1.159148
9652.000000;1.158769
9651.000000;1.157749
9650.000000;1.156530
9649.000000;1.155658
9648.000000;1.155563
9647.000000;1.156013
9646.000000;1.156109
9645.000000;1.155234
9644.000000;1.153788
9643.000000;1.152659
9642.000000;1.152190
9641.000000;1.152033
9640.000000;1.151773
9639.000000;1.151313
9638.000000;1.150710
9637.000000;1.149994
9636.000000;1.149231
9635.000000;1.148558
9634.000000;1.148112
9633.000000;1.147875
9632.000000;1.147523
9631.000000;1.146542
9630.000000;1.144742
9629.000000;1.142619
9628.000000;1.140928
9627.000000;1.139909
9626.000000;1.139265
9625.000000;1.138860
9624.000000;1.138935
9623.000000;1.139491
9622.000000;1.140024
9621.000000;1.140144
9620.000000;1.140009
9619.000000;1.139839
9618.000000;1.139430
9617.000000;1.138495
9616.000000;1.137109
9615.000000;1.135511
9614.000000;1.133828
9613.000000;1.132308
9612.000000;1.131373
9611.000000;1.131058
9610.000000;1.130788
9609.000000;1.130119
9608.000000;1.129312
9607.000000;1.128722
9606.000000;1.128120
9605.000000;1.127204
9604.000000;1.126317
9603.000000;1.125937
9602.000000;1.125784
9601.000000;1.125220
9600.000000;1.124387
9599.000000;1.124108
9598.000000;1.124604
9597.000000;1.125041
9596.000000;1.124493
9595.000000;1.122897
9594.000000;1.120921
9593.000000;1.119374
9592.000000;1.118820
9591.000000;1.119284
9590.000000;1.120104
9589.000000;1.120444
9588.000000;1.120061
9587.000000;1.119319
9586.000000;1.118514
9585.000000;1.117635
9584.000000;1.116703
9583.000000;1.115841
9582.000000;1.114993
9581.000000;1.114065
9580.000000;1.113354
9579.000000;1.113259
9578.000000;1.113521
9577.000000;1.113357
9576.000000;1.112538
9575.000000;1.111693
9574.000000;1.111249
9573.000000;1.110699
9572.000000;1.109405
9571.000000;1.107671
9570.000000;1.106413
9569.000000;1.106015
9568.000000;1.106010
9567.000000;1.105819
9566.000000;1.105373
9565.000000;1.104958
9564.000000;1.104749
9563.000000;1.104589
9562.000000;1.104168
9561.000000;1.103388
9560.000000;1.102527
9559.000000;1.101965
9558.000000;1.101755
9557.000000;1.101579
9556.000000;1.101101
9555.000000;1.100181
9554.000000;1.098817
9553.000000;1.097203
9552.000000;1.095849
9551.000000;1.095271
9550.000000;1.095400
9549.000000;1.095567
9548.000000;1.095260
9547.000000;1.094662
9546.000000;1.094275
9545.000000;1.094268
9544.000000;1.094355
9543.000000;1.094099
9542.000000;1.093198
9541.000000;1.091695
9540.000000;1.090034
9539.000000;1.088696
9538.000000;1.087698
9537.000000;1.086693
9536.000000;1.085637
9535.000000;1.084986
9534.000000;1.085039
9533.000000;1.085440
9532.000000;1.085621
9531.000000;1.085433
9530.000000;1.084999
9529.000000;1.084221
9528.000000;1.082904
9527.000000;1.081250
9526.000000;1.079797
9525.000000;1.078826
9524.000000;1.078159
9523.000000;1.077589
9522.000000;1.077196
9521.000000;1.077132
9520.000000;1.077301
9519.000000;1.077440
9518.000000;1.077443
9517.000000;1.077515
9516.000000;1.077954
9515.000000;1.078701
9514.000000;1.079109
9513.000000;1.078384
9512.000000;1.076444
9511.000000;1.074227
9510.000000;1.072902
9509.000000;1.072770
9508.000000;1.073029
9507.000000;1.072612
9506.000000;1.071158
9505.000000;1.069202
9504.000000;1.067537
9503.000000;1.066515
9502.000000;1.065907
9501.000000;1.065353
9500.000000;1.064860
9499.000000;1.064761
9498.000000;1.065244
9497.000000;1.066056
9496.000000;1.066701
9495.000000;1.066791
9494.000000;1.066201
9493.000000;1.065085
9492.000000;1.063824
9491.000000;1.062734
9490.000000;1.061755
9489.000000;1.060581
9488.000000;1.059238
9487.000000;1.058225
9486.000000;1.057825
9485.000000;1.057548
9484.000000;1.056656
9483.000000;1.055146
9482.000000;1.053843
9481.000000;1.053444
9480.000000;1.053797
9479.000000;1.054212
9478.000000;1.054238
9477.000000;1.053964
9476.000000;1.053704
9475.000000;1.053596
9474.000000;1.053488
9473.000000;1.053066
9472.000000;1.052099
9471.000000;1.050652
9470.000000;1.049094
9469.000000;1.047870
9468.000000;1.047195
9467.000000;1.046909
9466.000000;1.046627
9465.000000;1.046130
9464.000000;1.045609
9463.000000;1.045433
9462.000000;1.045638
9461.000000;1.045723
9460.000000;1.045075
9459.000000;1.043606
9458.000000;1.041942
9457.000000;1.040962
9456.000000;1.041128
9455.000000;1.042107
9454.000000;1.042947
9453.000000;1.042732
9452.000000;1.041294
9451.000000;1.039319
9450.000000;1.037735
9449.000000;1.036960
9448.000000;1.036709
9447.000000;1.036393
9446.000000;1.035663
9445.000000;1.034657
9444.000000;1.033843
9443.000000;1.033589
9442.000000;1.033780
9441.000000;1.033859
9440.000000;1.033370
9439.000000;1.032480
9438.000000;1.031872
9437.000000;1.032060
9436.000000;1.032838
9435.000000;1.033414
9434.000000;1.033116
9433.000000;1.031982
9432.000000;1.030667
9431.000000;1.029742
9430.000000;1.029158
9429.000000;1.028460
9428.000000;1.027438
9427.000000;1.026382
9426.000000;1.025693
9425.000000;1.025451
9424.000000;1.025426
9423.000000;1.025342
9422.000000;1.025011
9421.000000;1.024348
9420.000000;1.023432
9419.000000;1.022532
9418.000000;1.021920
9417.000000;1.021646
9416.000000;1.021529
9415.000000;1.021326
9414.000000;1.020874
9413.000000;1.020161
9412.000000;1.019326
9411.000000;1.018541
9410.000000;1.017827
9409.000000;1.017102
9408.000000;1.016450
9407.000000;1.016170
9406.000000;1.016398
9405.000000;1.016810
9404.000000;1.016893
9403.000000;1.016470
9402.000000;1.015766
9401.000000;1.014992
9400.000000;1.014088
9399.000000;1.012963
9398.000000;1.011837
9397.000000;1.011168
9396.000000;1.011187
9395.000000;1.011560
9394.000000;1.011588
9393.000000;1.010861
9392.000000;1.009682
9391.000000;1.008739
9390.000000;1.008388
9389.000000;1.008427
9388.000000;1.008520
9387.000000;1.008576
9386.000000;1.008622
9385.000000;1.008624
9384.000000;1.008606
9383.000000;1.008677
9382.000000;1.008703
9381.000000;1.008234
9380.000000;1.007072
9379.000000;1.005680
9378.000000;1.004682
9377.000000;1.004123
9376.000000;1.003588
9375.000000;1.002856
9374.000000;1.001972
9373.000000;1.000851
9372.000000;0.999413
9371.000000;0.998099
9370.000000;0.997593
9369.000000;0.997877
9368.000000;0.998094
9367.000000;0.997628
9366.000000;0.996817
9365.000000;0.996281
9364.000000;0.996020
9363.000000;0.995630
9362.000000;0.995017
9361.000000;0.994411
9360.000000;0.993895
9359.000000;0.993438
9358.000000;0.993231
9357.000000;0.993512
9356.000000;0.994042
9355.000000;0.994160
9354.000000;0.993389
9353.000000;0.991779
9352.000000;0.989767
9351.000000;0.987979
9350.000000;0.987029
9349.000000;0.987131
9348.000000;0.987880
9347.000000;0.988635
9346.000000;0.989097
9345.000000;0.989288
9344.000000;0.989126
9343.000000;0.988442
9342.000000;0.987410
9341.000000;0.986531
9340.000000;0.986087
9339.000000;0.985915
9338.000000;0.985808
9337.000000;0.985808
9336.000000;0.985945
9335.000000;0.985962
9334.000000;0.985493
9333.000000;0.984388
9332.000000;0.982823
9331.000000;0.981287
9330.000000;0.980427
9329.000000;0.980589
9328.000000;0.981394
9327.000000;0.982003
9326.000000;0.981900
9325.000000;0.981200
9324.000000;0.980151
9323.000000;0.978787
9322.000000;0.977274
9321.000000;0.976208
9320.000000;0.976102
9319.000000;0.976685
9318.000000;0.977106
9317.000000;0.976843
9316.000000;0.976137
9315.000000;0.975475
9314.000000;0.974934
9313.000000;0.974218
9312.000000;0.973214
9311.000000;0.972310
9310.000000;0.972063
9309.000000;0.972566
9308.000000;0.973204
9307.000000;0.973152
9306.000000;0.972114
9305.000000;0.970571
9304.000000;0.969312
9303.000000;0.968788
9302.000000;0.968867
9301.000000;0.969053
9300.000000;0.968919
9299.000000;0.968462
9298.000000;0.968063
9297.000000;0.968010
9296.000000;0.968095
9295.000000;0.967832
9294.000000;0.967055
9293.000000;0.966108
9292.000000;0.965408
9291.000000;0.965027
9290.000000;0.964772
9289.000000;0.964485
9288.000000;0.964142
9287.000000;0.963781
9286.000000;0.963450
9285.000000;0.963179
9284.000000;0.962950
9283.000000;0.962730
9282.000000;0.962500
9281.000000;0.962156
9280.000000;0.961499
9279.000000;0.960528
9278.000000;0.959648
9277.000000;0.959283
9276.000000;0.959291
9275.000000;0.959117
9274.000000;0.958534
9273.000000;0.957881
9272.000000;0.957470
9271.000000;0.957150
9270.000000;0.956672
9269.000000;0.956103
9268.000000;0.955606
9267.000000;0.955130
9266.000000;0.954624
9265.000000;0.954289
9264.000000;0.954303
9263.000000;0.954491
9262.000000;0.954546
9261.000000;0.954358
9260.000000;0.953850
9259.000000;0.952818
9258.000000;0.951325
9257.000000;0.949969
9256.000000;0.949275
9255.000000;0.949010
9254.000000;0.948585
9253.000000;0.948005
9252.000000;0.947850
9251.000000;0.948334
9250.000000;0.948953
9249.000000;0.949180
9248.000000;0.948978
9247.000000;0.948474
9246.000000;0.947645
9245.000000;0.946652
9244.000000;0.946056
9243.000000;0.946269
9242.000000;0.946963
9241.000000;0.947366
9240.000000;0.947072
9239.000000;0.946343
9238.000000;0.945717
9237.000000;0.945556
9236.000000;0.945896
9235.000000;0.946483
9234.000000;0.946850
9233.000000;0.946441
9232.000000;0.944881
9231.000000;0.942337
9230.000000;0.939676
9229.000000;0.938032
9228.000000;0.937917
9227.000000;0.938752
9226.000000;0.939447
9225.000000;0.939467
9224.000000;0.939118
9223.000000;0.938873
9222.000000;0.938823
9221.000000;0.938856
9220.000000;0.938956
9219.000000;0.939069
9218.000000;0.938968
9217.000000;0.938531
9216.000000;0.937942
9215.000000;0.937382
9214.000000;0.936694
9213.000000;0.935677
9212.000000;0.934595
9211.000000;0.934047
9210.000000;0.934301
9209.000000;0.934989
9208.000000;0.935505
9207.000000;0.935530
9206.000000;0.935085
9205.000000;0.934302
9204.000000;0.933337
9203.000000;0.932411
9202.000000;0.931715
9201.000000;0.931204
9200.000000;0.930668
9199.000000;0.930071
9198.000000;0.929677
9197.000000;0.929648
9196.000000;0.929655
9195.000000;0.929190
9194.000000;0.928285
9193.000000;0.927574
9192.000000;0.927492
9191.000000;0.927715
9190.000000;0.927674
9189.000000;0.927353
9188.000000;0.927169
9187.000000;0.927259
9186.000000;0.927371
9185.000000;0.927425
9184.000000;0.927637
9183.000000;0.927971
9182.000000;0.927988
9181.000000;0.927502
9180.000000;0.926966
9179.000000;0.926805
9178.000000;0.926682
9177.000000;0.925873
9176.000000;0.924266
9175.000000;0.922590
9174.000000;0.921654
9173.000000;0.921696
9172.000000;0.922415
9171.000000;0.923288
9170.000000;0.923756
9169.000000;0.923427
9168.000000;0.922372
9167.000000;0.921126
9166.000000;0.920228
9165.000000;0.919775
9164.000000;0.919470
9163.000000;0.919074
9162.000000;0.918654
9161.000000;0.918388
9160.000000;0.918256
9159.000000;0.918077
9158.000000;0.917858
9157.000000;0.917887
9156.000000;0.918314
9155.000000;0.918762
9154.000000;0.918593
9153.000000;0.917629
9152.000000;0.916407
9151.000000;0.915632
9150.000000;0.915506
9149.000000;0.915671
9148.000000;0.915661
9147.000000;0.915278
9146.000000;0.914617
9145.000000;0.913872
9144.000000;0.913175
9143.000000;0.912576
9142.000000;0.912151
9141.000000;0.912045
9140.000000;0.912283
9139.000000;0.912592
9138.000000;0.912604
9137.000000;0.912303
9136.000000;0.912092
9135.000000;0.912284
9134.000000;0.912664
9133.000000;0.912726
9132.000000;0.912274
9131.000000;0.911640
9130.000000;0.911321
9129.000000;0.911483
9128.000000;0.911828
9127.000000;0.911855
9126.000000;0.911316
9125.000000;0.910446
9124.000000;0.909695
9123.000000;0.909199
9122.000000;0.908660
9121.000000;0.907840
9120.000000;0.907010
9119.000000;0.906690
9118.000000;0.907005
9117.000000;0.907519
9116.000000;0.907730
9115.000000;0.907497
9114.000000;0.906957
9113.000000;0.906262
9112.000000;0.905587
9111.000000;0.905213
9110.000000;0.905319
9109.000000;0.905680
9108.000000;0.905765
9107.000000;0.905252
9106.000000;0.904332
9105.000000;0.903421
9104.000000;0.902685
9103.000000;0.902006
9102.000000;0.901349
9101.000000;0.900960
9100.000000;0.901066
9099.000000;0.901487
9098.000000;0.901711
9097.000000;0.901374
9096.000000;0.900610
9095.000000;0.899931
9094.000000;0.899781
9093.000000;0.900147
9092.000000;0.900542
9091.000000;0.900411
9090.000000;0.899639
9089.000000;0.898659
9088.000000;0.898015
9087.000000;0.897888
9086.000000;0.898050
9085.000000;0.898179
9084.000000;0.898064
9083.000000;0.897630
9082.000000;0.896969
9081.000000;0.896352
9080.000000;0.896043
9079.000000;0.896048
9078.000000;0.896141
9077.000000;0.896136
9076.000000;0.896006
9075.000000;0.895764
9074.000000;0.895405
9073.000000;0.895013
9072.000000;0.894774
9071.000000;0.894797
9070.000000;0.895000
9069.000000;0.895225
9068.000000;0.895361
9067.000000;0.895292
9066.000000;0.894885
9065.000000;0.894113
9064.000000;0.893122
9063.000000;0.892150
9062.000000;0.891438
9061.000000;0.891183
9060.000000;0.891389
9059.000000;0.891721
9058.000000;0.891729
9057.000000;0.891344
9056.000000;0.890996
9055.000000;0.891093
9054.000000;0.891523
9053.000000;0.891816
