Criado como novo conjunto de dados;"1909daniel.spp","-4251403.3 Secs"
cm-1;Abs
10000.000000;1.650116
9999.000000;1.651087
9998.000000;1.653331
9997.000000;1.655984
9996.000000;1.657382
9995.000000;1.656829
9994.000000;1.655197
9993.000000;1.653673
9992.000000;1.652551
9991.000000;1.651432
9990.000000;1.650107
9989.000000;1.648865
9988.000000;1.648142
9987.000000;1.648143
9986.000000;1.648670
9985.000000;1.649009
9984.000000;1.648056
9983.000000;1.645033
9982.000000;1.640353
9981.000000;1.635691
9980.000000;1.632830
9979.000000;1.632259
9978.000000;1.632997
9977.000000;1.633749
9976.000000;1.633970
9975.000000;1.633653
9974.000000;1.632628
9973.000000;1.630844
9972.000000;1.629234
9971.000000;1.629403
9970.000000;1.631997
9969.000000;1.635662
9968.000000;1.637972
9967.000000;1.637451
9966.000000;1.634571
9965.000000;1.631020
9964.000000;1.628339
9963.000000;1.626982
9962.000000;1.626155
9961.000000;1.624692
9960.000000;1.622514
9959.000000;1.621098
9958.000000;1.622076
9957.000000;1.625283
9956.000000;1.628470
9955.000000;1.629243
9954.000000;1.627160
9953.000000;1.623771
9952.000000;1.621058
9951.000000;1.620016
9950.000000;1.620258
9949.000000;1.620573
9948.000000;1.619980
9947.000000;1.618529
9946.000000;1.617131
9945.000000;1.616601
9944.000000;1.616918
9943.000000;1.617375
9942.000000;1.617240
9941.000000;1.616289
9940.000000;1.615010
9939.000000;1.614397
9938.000000;1.615170
9937.000000;1.616848
9936.000000;1.617746
9935.000000;1.616303
9934.000000;1.612433
9933.000000;1.607507
9932.000000;1.603328
9931.000000;1.601282
9930.000000;1.601816
9929.000000;1.603975
9928.000000;1.605671
9927.000000;1.605269
9926.000000;1.603191
9925.000000;1.601474
9924.000000;1.601621
9923.000000;1.603364
9922.000000;1.605436
9921.000000;1.606749
9920.000000;1.606506
9919.000000;1.604160
9918.000000;1.600226
9917.000000;1.596620
9916.000000;1.595149
9915.000000;1.595648
9914.000000;1.596329
9913.000000;1.596048
9912.000000;1.595417
9911.000000;1.595392
9910.000000;1.595712
9909.000000;1.595279
9908.000000;1.593579
9907.000000;1.591160
9906.000000;1.588823
9905.000000;1.586898
9904.000000;1.585444
9903.000000;1.584748
9902.000000;1.585258
9901.000000;1.586973
9900.000000;1.589018
9899.000000;1.590053
9898.000000;1.589364
9897.000000;1.587535
9896.000000;1.585756
9895.000000;1.584573
9894.000000;1.583647
9893.000000;1.582628
9892.000000;1.581711
9891.000000;1.581118
9890.000000;1.580557
9889.000000;1.579640
9888.000000;1.578504
9887.000000;1.577450
9886.000000;1.576325
9885.000000;1.574939
9884.000000;1.573873
9883.000000;1.574058
9882.000000;1.575424
9881.000000;1.576570
9880.000000;1.576020
9879.000000;1.573450
9878.000000;1.569678
9877.000000;1.566082
9876.000000;1.564243
9875.000000;1.565329
9874.000000;1.568922
9873.000000;1.572625
9872.000000;1.573753
9871.000000;1.571795
9870.000000;1.568854
9869.000000;1.567514
9868.000000;1.568620
9867.000000;1.570972
9866.000000;1.572514
9865.000000;1.571800
9864.000000;1.569028
9863.000000;1.565911
9862.000000;1.564186
9861.000000;1.564016
9860.000000;1.563992
9859.000000;1.562787
9858.000000;1.560509
9857.000000;1.558125
9856.000000;1.555978
9855.000000;1.553546
9854.000000;1.550621
9853.000000;1.548056
9852.000000;1.546974
9851.000000;1.547589
9850.000000;1.549130
9849.000000;1.550657
9848.000000;1.551595
9847.000000;1.551672
9846.000000;1.550894
9845.000000;1.549733
9844.000000;1.548918
9843.000000;1.548698
9842.000000;1.548490
9841.000000;1.547612
9840.000000;1.546240
9839.000000;1.545191
9838.000000;1.544764
9837.000000;1.544233
9836.000000;1.542800
9835.000000;1.540795
9834.000000;1.539464
9833.000000;1.539535
9832.000000;1.540422
9831.000000;1.540941
9830.000000;1.540498
9829.000000;1.539441
9828.000000;1.538454
9827.000000;1.537746
9826.000000;1.536904
9825.000000;1.535382
9824.000000;1.532999
9823.000000;1.530211
9822.000000;1.528000
9821.000000;1.527262
9820.000000;1.528040
9819.000000;1.529324
9818.000000;1.529736
9817.000000;1.528631
9816.000000;1.526575
9815.000000;1.524702
9814.000000;1.523719
9813.000000;1.523579
9812.000000;1.523986
9811.000000;1.524922
9810.000000;1.526400
9809.000000;1.527823
9808.000000;1.528217
9807.000000;1.527435
9806.000000;1.526593
9805.000000;1.526695
9804.000000;1.527002
9803.000000;1.525559
9802.000000;1.521640
9801.000000;1.516881
9800.000000;1.513479
9799.000000;1.512034
9798.000000;1.511633
9797.000000;1.511446
9796.000000;1.511458
9795.000000;1.511795
9794.000000;1.512129
9793.000000;1.512067
9792.000000;1.511616
9791.000000;1.510976
9790.000000;1.510196
9789.000000;1.509198
9788.000000;1.507946
9787.000000;1.506467
9786.000000;1.504923
9785.000000;1.503694
9784.000000;1.503171
9783.000000;1.503337
9782.000000;1.503771
9781.000000;1.504106
9780.000000;1.504268
9779.000000;1.504188
9778.000000;1.503587
9777.000000;1.502254
9776.000000;1.500350
9775.000000;1.498275
9774.000000;1.496381
9773.000000;1.494961
9772.000000;1.494338
9771.000000;1.494746
9770.000000;1.496096
9769.000000;1.497864
9768.000000;1.499204
9767.000000;1.499307
9766.000000;1.497987
9765.000000;1.495936
9764.000000;1.494107
9763.000000;1.492823
9762.000000;1.491786
9761.000000;1.490904
9760.000000;1.490573
9759.000000;1.490873
9758.000000;1.491014
9757.000000;1.490085
9756.000000;1.488096
9755.000000;1.485706
9754.000000;1.483239
9753.000000;1.480660
9752.000000;1.478438
9751.000000;1.477583
9750.000000;1.478468
9749.000000;1.480053
9748.000000;1.480759
9747.000000;1.479977
9746.000000;1.478411
9745.000000;1.477128
9744.000000;1.476699
9743.000000;1.477097
9742.000000;1.477830
9741.000000;1.478128
9740.000000;1.477476
9739.000000;1.476198
9738.000000;1.475174
9737.000000;1.474827
9736.000000;1.474714
9735.000000;1.474271
9734.000000;1.473519
9733.000000;1.472680
9732.000000;1.471619
9731.000000;1.470243
9730.000000;1.469186
9729.000000;1.469361
9728.000000;1.470673
9727.000000;1.471769
9726.000000;1.471438
9725.000000;1.469838
9724.000000;1.468038
9723.000000;1.466851
9722.000000;1.466501
9721.000000;1.466960
9720.000000;1.468006
9719.000000;1.469061
9718.000000;1.469433
9717.000000;1.468759
9716.000000;1.467044
9715.000000;1.464547
9714.000000;1.461917
9713.000000;1.460036
9712.000000;1.459211
9711.000000;1.458715
9710.000000;1.457650
9709.000000;1.456123
9708.000000;1.454988
9707.000000;1.454542
9706.000000;1.454215
9705.000000;1.453588
9704.000000;1.452937
9703.000000;1.452475
9702.000000;1.451739
9701.000000;1.450315
9700.000000;1.448765
9699.000000;1.448167
9698.000000;1.448797
9697.000000;1.449666
9696.000000;1.449488
9695.000000;1.447951
9694.000000;1.445999
9693.000000;1.444875
9692.000000;1.444892
9691.000000;1.445241
9690.000000;1.445052
9689.000000;1.444350
9688.000000;1.443663
9687.000000;1.442998
9686.000000;1.441948
9685.000000;1.440760
9684.000000;1.440323
9683.000000;1.440630
9682.000000;1.440149
9681.000000;1.437560
9680.000000;1.433702
9679.000000;1.430920
9678.000000;1.430682
9677.000000;1.432411
9676.000000;1.434355
9675.000000;1.435058
9674.000000;1.434146
9673.000000;1.432412
9672.000000;1.431267
9671.000000;1.431504
9670.000000;1.432387
9669.000000;1.432337
9668.000000;1.430659
9667.000000;1.428167
9666.000000;1.426019
9665.000000;1.424622
9664.000000;1.423908
9663.000000;1.423928
9662.000000;1.424640
9661.000000;1.425499
9660.000000;1.425919
9659.000000;1.425984
9658.000000;1.426085
9657.000000;1.425910
9656.000000;1.424530
9655.000000;1.421742
9654.000000;1.418689
9653.000000;1.416683
9652.000000;1.415802
9651.000000;1.415095
9650.000000;1.413960
9649.000000;1.412804
9648.000000;1.412339
9647.000000;1.412728
9646.000000;1.413637
9645.000000;1.414697
9644.000000;1.415553
9643.000000;1.415703
9642.000000;1.414776
9641.000000;1.413019
9640.000000;1.411260
9639.000000;1.410278
9638.000000;1.410276
9637.000000;1.410903
9636.000000;1.411550
9635.000000;1.411663
9634.000000;1.411129
9633.000000;1.410418
9632.000000;1.410056
9631.000000;1.409833
9630.000000;1.408824
9629.000000;1.406467
9628.000000;1.403535
9627.000000;1.401646
9626.000000;1.401769
9625.000000;1.403338
9624.000000;1.404758
9623.000000;1.404703
9622.000000;1.403021
9621.000000;1.400537
9620.000000;1.398216
9619.000000;1.396595
9618.000000;1.395750
9617.000000;1.395432
9616.000000;1.395117
9615.000000;1.394258
9614.000000;1.392778
9613.000000;1.391184
9612.000000;1.389980
9611.000000;1.389154
9610.000000;1.388473
9609.000000;1.388051
9608.000000;1.388249
9607.000000;1.389157
9606.000000;1.390596
9605.000000;1.392500
9604.000000;1.394730
9603.000000;1.396402
9602.000000;1.395993
9601.000000;1.392645
9600.000000;1.387221
9599.000000;1.381814
9598.000000;1.378364
9597.000000;1.377581
9596.000000;1.378635
9595.000000;1.379752
9594.000000;1.379690
9593.000000;1.378834
9592.000000;1.378395
9591.000000;1.378582
9590.000000;1.378407
9589.000000;1.377497
9588.000000;1.377085
9587.000000;1.378325
9586.000000;1.380332
9585.000000;1.381043
9584.000000;1.379832
9583.000000;1.378096
9582.000000;1.377108
9581.000000;1.376375
9580.000000;1.374628
9579.000000;1.371758
9578.000000;1.369076
9577.000000;1.367836
9576.000000;1.368009
9575.000000;1.368457
9574.000000;1.368118
9573.000000;1.367020
9572.000000;1.366078
9571.000000;1.365969
9570.000000;1.366496
9569.000000;1.367035
9568.000000;1.367252
9567.000000;1.367069
9566.000000;1.366234
9565.000000;1.364575
9564.000000;1.362650
9563.000000;1.361457
9562.000000;1.361349
9561.000000;1.361654
9560.000000;1.361549
9559.000000;1.360952
9558.000000;1.360341
9557.000000;1.360037
9556.000000;1.359943
9555.000000;1.359722
9554.000000;1.359093
9553.000000;1.358211
9552.000000;1.357678
9551.000000;1.357765
9550.000000;1.357671
9549.000000;1.356223
9548.000000;1.353537
9547.000000;1.351234
9546.000000;1.350560
9545.000000;1.350910
9544.000000;1.350783
9543.000000;1.349761
9542.000000;1.348763
9541.000000;1.348526
9540.000000;1.348697
9539.000000;1.348534
9538.000000;1.347815
9537.000000;1.346782
9536.000000;1.345684
9535.000000;1.344712
9534.000000;1.344036
9533.000000;1.343568
9532.000000;1.342936
9531.000000;1.342008
9530.000000;1.341231
9529.000000;1.341113
9528.000000;1.341499
9527.000000;1.341600
9526.000000;1.340739
9525.000000;1.338872
9524.000000;1.336496
9523.000000;1.334374
9522.000000;1.333290
9521.000000;1.333632
9520.000000;1.334913
9519.000000;1.335906
9518.000000;1.335574
9517.000000;1.333955
9516.000000;1.332042
9515.000000;1.330868
9514.000000;1.330901
9513.000000;1.332107
9512.000000;1.334041
9511.000000;1.335745
9510.000000;1.336055
9509.000000;1.334508
9508.000000;1.331863
9507.000000;1.329410
9506.000000;1.327820
9505.000000;1.326892
9504.000000;1.326272
9503.000000;1.326014
9502.000000;1.326251
9501.000000;1.326660
9500.000000;1.326580
9499.000000;1.325703
9498.000000;1.324485
9497.000000;1.323774
9496.000000;1.323987
9495.000000;1.324633
9494.000000;1.324683
9493.000000;1.323528
9492.000000;1.321590
9491.000000;1.319866
9490.000000;1.318916
9489.000000;1.318418
9488.000000;1.317742
9487.000000;1.316739
9486.000000;1.315826
9485.000000;1.315374
9484.000000;1.315253
9483.000000;1.314988
9482.000000;1.314233
9481.000000;1.313047
9480.000000;1.311737
9479.000000;1.310515
9478.000000;1.309438
9477.000000;1.308637
9476.000000;1.308372
9475.000000;1.308721
9474.000000;1.309313
9473.000000;1.309601
9472.000000;1.309407
9471.000000;1.309004
9470.000000;1.308548
9469.000000;1.307657
9468.000000;1.305828
9467.000000;1.303242
9466.000000;1.300937
9465.000000;1.299975
9464.000000;1.300428
9463.000000;1.301301
9462.000000;1.301566
9461.000000;1.301230
9460.000000;1.301146
9459.000000;1.301771
9458.000000;1.302495
9457.000000;1.302460
9456.000000;1.301723
9455.000000;1.301059
9454.000000;1.300749
9453.000000;1.300187
9452.000000;1.298908
9451.000000;1.297375
9450.000000;1.296254
9449.000000;1.295370
9448.000000;1.293991
9447.000000;1.292004
9446.000000;1.290182
9445.000000;1.289303
9444.000000;1.289490
9443.000000;1.290429
9442.000000;1.291727
9441.000000;1.292841
9440.000000;1.293150
9439.000000;1.292498
9438.000000;1.291412
9437.000000;1.290509
9436.000000;1.289892
9435.000000;1.289329
9434.000000;1.288762
9433.000000;1.288291
9432.000000;1.287821
9431.000000;1.287123
9430.000000;1.286205
9429.000000;1.285259
9428.000000;1.284302
9427.000000;1.283274
9426.000000;1.282516
9425.000000;1.282614
9424.000000;1.283469
9423.000000;1.283960
9422.000000;1.283033
9421.000000;1.280969
9420.000000;1.279123
9419.000000;1.278441
9418.000000;1.278655
9417.000000;1.278954
9416.000000;1.278956
9415.000000;1.278736
9414.000000;1.278360
9413.000000;1.277868
9412.000000;1.277511
9411.000000;1.277450
9410.000000;1.277221
9409.000000;1.276033
9408.000000;1.273879
9407.000000;1.271940
9406.000000;1.271480
9405.000000;1.272516
9404.000000;1.273885
9403.000000;1.274558
9402.000000;1.274541
9401.000000;1.274426
9400.000000;1.274449
9399.000000;1.274305
9398.000000;1.273772
9397.000000;1.273131
9396.000000;1.272800
9395.000000;1.272619
9394.000000;1.271755
9393.000000;1.269542
9392.000000;1.266455
9391.000000;1.263997
9390.000000;1.263367
9389.000000;1.264314
9388.000000;1.265463
9387.000000;1.265739
9386.000000;1.265203
9385.000000;1.264515
9384.000000;1.264077
9383.000000;1.263947
9382.000000;1.264147
9381.000000;1.264574
9380.000000;1.264767
9379.000000;1.264294
9378.000000;1.263364
9377.000000;1.262625
9376.000000;1.262274
9375.000000;1.261762
9374.000000;1.260507
9373.000000;1.258608
9372.000000;1.256723
9371.000000;1.255531
9370.000000;1.255364
9369.000000;1.255976
9368.000000;1.256553
9367.000000;1.256350
9366.000000;1.255575
9365.000000;1.255232
9364.000000;1.255820
9363.000000;1.256587
9362.000000;1.256498
9361.000000;1.255586
9360.000000;1.254745
9359.000000;1.254398
9358.000000;1.254100
9357.000000;1.253477
9356.000000;1.252804
9355.000000;1.252357
9354.000000;1.251815
9353.000000;1.250681
9352.000000;1.249008
9351.000000;1.247402
9350.000000;1.246444
9349.000000;1.246264
9348.000000;1.246412
9347.000000;1.246006
9346.000000;1.244386
9345.000000;1.241967
9344.000000;1.240146
9343.000000;1.239949
9342.000000;1.240955
9341.000000;1.241865
9340.000000;1.241983
9339.000000;1.241656
9338.000000;1.241358
9337.000000;1.240995
9336.000000;1.240262
9335.000000;1.239201
9334.000000;1.238068
9333.000000;1.236988
9332.000000;1.236065
9331.000000;1.235596
9330.000000;1.235815
9329.000000;1.236493
9328.000000;1.237110
9327.000000;1.237406
9326.000000;1.237474
9325.000000;1.237343
9324.000000;1.236826
9323.000000;1.235885
9322.000000;1.234877
9321.000000;1.234210
9320.000000;1.233888
9319.000000;1.233575
9318.000000;1.233008
9317.000000;1.232188
9316.000000;1.231282
9315.000000;1.230565
9314.000000;1.230348
9313.000000;1.230670
9312.000000;1.231038
9311.000000;1.230794
9310.000000;1.229904
9309.000000;1.229069
9308.000000;1.228841
9307.000000;1.228867
9306.000000;1.228345
9305.000000;1.227112
9304.000000;1.225880
9303.000000;1.225329
9302.000000;1.225325
9301.000000;1.225188
9300.000000;1.224496
9299.000000;1.223417
9298.000000;1.222396
9297.000000;1.221783
9296.000000;1.221689
9295.000000;1.221969
9294.000000;1.222310
9293.000000;1.222476
9292.000000;1.222503
9291.000000;1.222530
9290.000000;1.222427
9289.000000;1.221806
9288.000000;1.220570
9287.000000;1.219286
9286.000000;1.218785
9285.000000;1.219359
9284.000000;1.220484
9283.000000;1.221404
9282.000000;1.221792
9281.000000;1.221731
9280.000000;1.221279
9279.000000;1.220412
9278.000000;1.219327
9277.000000;1.218408
9276.000000;1.217741
9275.000000;1.216935
9274.000000;1.215639
9273.000000;1.214080
9272.000000;1.212823
9271.000000;1.212090
9270.000000;1.211567
9269.000000;1.210912
9268.000000;1.210200
9267.000000;1.209818
9266.000000;1.210049
9265.000000;1.210799
9264.000000;1.211611
9263.000000;1.211921
9262.000000;1.211424
9261.000000;1.210295
9260.000000;1.209015
9259.000000;1.208056
9258.000000;1.207706
9257.000000;1.208003
9256.000000;1.208645
9255.000000;1.209047
9254.000000;1.208741
9253.000000;1.207754
9252.000000;1.206478
9251.000000;1.205222
9250.000000;1.204124
9249.000000;1.203397
9248.000000;1.203305
9247.000000;1.203748
9246.000000;1.204175
9245.000000;1.204098
9244.000000;1.203517
9243.000000;1.202694
9242.000000;1.201705
9241.000000;1.200504
9240.000000;1.199371
9239.000000;1.198981
9238.000000;1.199854
9237.000000;1.201697
9236.000000;1.203322
9235.000000;1.203440
9234.000000;1.201795
9233.000000;1.199473
9232.000000;1.197881
9231.000000;1.197403
9230.000000;1.197288
9229.000000;1.196845
9228.000000;1.196309
9227.000000;1.196249
9226.000000;1.196551
9225.000000;1.196524
9224.000000;1.195869
9223.000000;1.195019
9222.000000;1.194485
9221.000000;1.194323
9220.000000;1.194391
9219.000000;1.194699
9218.000000;1.195209
9217.000000;1.195536
9216.000000;1.195181
9215.000000;1.194060
9214.000000;1.192609
9213.000000;1.191391
9212.000000;1.190730
9211.000000;1.190682
9210.000000;1.191131
9209.000000;1.191808
9208.000000;1.192267
9207.000000;1.192053
9206.000000;1.191067
9205.000000;1.189800
9204.000000;1.189032
9203.000000;1.189110
9202.000000;1.189561
9201.000000;1.189576
9200.000000;1.188937
9199.000000;1.188241
9198.000000;1.188123
9197.000000;1.188435
9196.000000;1.188391
9195.000000;1.187432
9194.000000;1.185747
9193.000000;1.183954
9192.000000;1.182480
9191.000000;1.181349
9190.000000;1.180414
9189.000000;1.179560
9188.000000;1.178698
9187.000000;1.177773
9186.000000;1.176907
9185.000000;1.176368
9184.000000;1.176242
9183.000000;1.176210
9182.000000;1.175896
9181.000000;1.175455
9180.000000;1.175505
9179.000000;1.176302
9178.000000;1.177257
9177.000000;1.177568
9176.000000;1.177219
9175.000000;1.176995
9174.000000;1.177493
9173.000000;1.178454
9172.000000;1.179134
9171.000000;1.179045
9170.000000;1.178191
9169.000000;1.176873
9168.000000;1.175560
9167.000000;1.174753
9166.000000;1.174638
9165.000000;1.174866
9164.000000;1.174864
9163.000000;1.174404
9162.000000;1.173711
9161.000000;1.173085
9160.000000;1.172616
9159.000000;1.172229
9158.000000;1.171804
9157.000000;1.171213
9156.000000;1.170436
9155.000000;1.169688
9154.000000;1.169309
9153.000000;1.169479
9152.000000;1.170073
9151.000000;1.170791
9150.000000;1.171324
9149.000000;1.171490
9148.000000;1.171386
9147.000000;1.171365
9146.000000;1.171588
9145.000000;1.171611
9144.000000;1.170749
9143.000000;1.168974
9142.000000;1.167187
9141.000000;1.166380
9140.000000;1.166740
9139.000000;1.167682
9138.000000;1.168544
9137.000000;1.168984
9136.000000;1.168912
9135.000000;1.168394
9134.000000;1.167659
9133.000000;1.166966
9132.000000;1.166383
9131.000000;1.165822
9130.000000;1.165257
9129.000000;1.164722
9128.000000;1.164121
9127.000000;1.163278
9126.000000;1.162245
9125.000000;1.161379
9124.000000;1.160989
9123.000000;1.160970
9122.000000;1.160871
9121.000000;1.160346
9120.000000;1.159539
9119.000000;1.159075
9118.000000;1.159552
9117.000000;1.160890
9116.000000;1.162261
9115.000000;1.162833
9114.000000;1.162557
9113.000000;1.162079
9112.000000;1.161959
9111.000000;1.162177
9110.000000;1.162322
9109.000000;1.162020
9108.000000;1.161180
9107.000000;1.160061
9106.000000;1.159108
9105.000000;1.158485
9104.000000;1.157757
9103.000000;1.156381
9102.000000;1.154567
9101.000000;1.153280
9100.000000;1.153158
9099.000000;1.153752
9098.000000;1.154150
9097.000000;1.154109
9096.000000;1.154207
9095.000000;1.154964
9094.000000;1.156182
9093.000000;1.157164
9092.000000;1.157314
9091.000000;1.156497
9090.000000;1.155041
9089.000000;1.153474
9088.000000;1.152151
9087.000000;1.151124
9086.000000;1.150397
9085.000000;1.150143
9084.000000;1.150479
9083.000000;1.151113
9082.000000;1.151466
9081.000000;1.151196
9080.000000;1.150468
9079.000000;1.149730
9078.000000;1.149381
9077.000000;1.149592
9076.000000;1.150190
9075.000000;1.150649
9074.000000;1.150447
9073.000000;1.149581
9072.000000;1.148665
9071.000000;1.148444
9070.000000;1.149179
9069.000000;1.150390
9068.000000;1.151122
9067.000000;1.150629
9066.000000;1.149030
9065.000000;1.147255
9064.000000;1.146154
9063.000000;1.145711
9062.000000;1.145314
9061.000000;1.144673
9060.000000;1.144114
9059.000000;1.143979
9058.000000;1.144159
9057.000000;1.144448
9056.000000;1.145005
9055.000000;1.146099
9054.000000;1.147490
9053.000000;1.148398
