Criado como novo conjunto de dados;"1909daniel.spp","-4260403.5 Secs"
cm-1;Abs
10000.000000;1.809808
9999.000000;1.810787
9998.000000;1.812625
9997.000000;1.814370
9996.000000;1.814986
9995.000000;1.814771
9994.000000;1.814343
9993.000000;1.814040
9992.000000;1.813762
9991.000000;1.813404
9990.000000;1.812727
9989.000000;1.811344
9988.000000;1.808970
9987.000000;1.805902
9986.000000;1.803187
9985.000000;1.802168
9984.000000;1.803447
9983.000000;1.805976
9982.000000;1.807505
9981.000000;1.806574
9980.000000;1.803936
9979.000000;1.801438
9978.000000;1.799892
9977.000000;1.798758
9976.000000;1.797666
9975.000000;1.797288
9974.000000;1.798325
9973.000000;1.800168
9972.000000;1.801009
9971.000000;1.799242
9970.000000;1.794903
9969.000000;1.790030
9968.000000;1.787335
9967.000000;1.788001
9966.000000;1.790622
9965.000000;1.792509
9964.000000;1.792340
9963.000000;1.791271
9962.000000;1.791182
9961.000000;1.792344
9960.000000;1.793255
9959.000000;1.792494
9958.000000;1.790163
9957.000000;1.787334
9956.000000;1.784525
9955.000000;1.781411
9954.000000;1.778130
9953.000000;1.776036
9952.000000;1.776421
9951.000000;1.778814
9950.000000;1.781318
9949.000000;1.782667
9948.000000;1.783112
9947.000000;1.783112
9946.000000;1.782334
9945.000000;1.780559
9944.000000;1.778396
9943.000000;1.776184
9942.000000;1.773209
9941.000000;1.769152
9940.000000;1.765485
9939.000000;1.764061
9938.000000;1.764776
9937.000000;1.765899
9936.000000;1.766576
9935.000000;1.767464
9934.000000;1.768728
9933.000000;1.769236
9932.000000;1.768550
9931.000000;1.768199
9930.000000;1.769626
9929.000000;1.771713
9928.000000;1.771708
9927.000000;1.768529
9926.000000;1.764054
9925.000000;1.760927
9924.000000;1.760075
9923.000000;1.760694
9922.000000;1.761847
9921.000000;1.763440
9920.000000;1.765606
9919.000000;1.767537
9918.000000;1.767788
9917.000000;1.765929
9916.000000;1.763063
9915.000000;1.760576
9914.000000;1.758938
9913.000000;1.757921
9912.000000;1.757461
9911.000000;1.757502
9910.000000;1.757270
9909.000000;1.755677
9908.000000;1.752598
9907.000000;1.749127
9906.000000;1.746583
9905.000000;1.745698
9904.000000;1.746388
9903.000000;1.747471
9902.000000;1.746980
9901.000000;1.744088
9900.000000;1.740702
9899.000000;1.739774
9898.000000;1.741886
9897.000000;1.744625
9896.000000;1.745724
9895.000000;1.745572
9894.000000;1.745611
9893.000000;1.745682
9892.000000;1.744583
9891.000000;1.742450
9890.000000;1.740935
9889.000000;1.741110
9888.000000;1.742383
9887.000000;1.743407
9886.000000;1.743163
9885.000000;1.741233
9884.000000;1.738068
9883.000000;1.735181
9882.000000;1.734156
9881.000000;1.735052
9880.000000;1.736239
9879.000000;1.736069
9878.000000;1.734436
9877.000000;1.732568
9876.000000;1.731659
9875.000000;1.731857
9874.000000;1.732261
9873.000000;1.731819
9872.000000;1.730514
9871.000000;1.729465
9870.000000;1.729418
9869.000000;1.729459
9868.000000;1.727923
9867.000000;1.724592
9866.000000;1.721254
9865.000000;1.719897
9864.000000;1.721050
9863.000000;1.723957
9862.000000;1.727339
9861.000000;1.729558
9860.000000;1.729209
9859.000000;1.726525
9858.000000;1.723584
9857.000000;1.722285
9856.000000;1.722503
9855.000000;1.722780
9854.000000;1.722458
9853.000000;1.722163
9852.000000;1.722252
9851.000000;1.721861
9850.000000;1.719894
9849.000000;1.716326
9848.000000;1.712067
9847.000000;1.708065
9846.000000;1.704974
9845.000000;1.703183
9844.000000;1.702594
9843.000000;1.702497
9842.000000;1.702171
9841.000000;1.701656
9840.000000;1.701541
9839.000000;1.702095
9838.000000;1.703025
9837.000000;1.704058
9836.000000;1.705340
9835.000000;1.706988
9834.000000;1.708455
9833.000000;1.708735
9832.000000;1.707244
9831.000000;1.704307
9830.000000;1.700802
9829.000000;1.697590
9828.000000;1.695370
9827.000000;1.694647
9826.000000;1.695486
9825.000000;1.697272
9824.000000;1.698912
9823.000000;1.699549
9822.000000;1.699043
9821.000000;1.697737
9820.000000;1.696036
9819.000000;1.694374
9818.000000;1.693244
9817.000000;1.692852
9816.000000;1.692863
9815.000000;1.692918
9814.000000;1.693270
9813.000000;1.694370
9812.000000;1.695852
9811.000000;1.696530
9810.000000;1.695590
9809.000000;1.693373
9808.000000;1.690840
9807.000000;1.688782
9806.000000;1.687605
9805.000000;1.687233
9804.000000;1.686989
9803.000000;1.685986
9802.000000;1.684054
9801.000000;1.681991
9800.000000;1.680618
9799.000000;1.679889
9798.000000;1.679208
9797.000000;1.678310
9796.000000;1.677445
9795.000000;1.677036
9794.000000;1.677582
9793.000000;1.679437
9792.000000;1.682017
9791.000000;1.683545
9790.000000;1.682518
9789.000000;1.679379
9788.000000;1.675913
9787.000000;1.673069
9786.000000;1.670361
9785.000000;1.667421
9784.000000;1.665008
9783.000000;1.663948
9782.000000;1.663906
9781.000000;1.663993
9780.000000;1.664158
9779.000000;1.665211
9778.000000;1.667454
9777.000000;1.669781
9776.000000;1.670292
9775.000000;1.667868
9774.000000;1.663348
9773.000000;1.659147
9772.000000;1.657448
9771.000000;1.658594
9770.000000;1.661213
9769.000000;1.663709
9768.000000;1.665333
9767.000000;1.665868
9766.000000;1.665157
9765.000000;1.663425
9764.000000;1.661416
9763.000000;1.659647
9762.000000;1.657972
9761.000000;1.656240
9760.000000;1.654802
9759.000000;1.653846
9758.000000;1.652838
9757.000000;1.651239
9756.000000;1.649340
9755.000000;1.647816
9754.000000;1.646798
9753.000000;1.646007
9752.000000;1.645501
9751.000000;1.645485
9750.000000;1.645414
9749.000000;1.644281
9748.000000;1.642185
9747.000000;1.640764
9746.000000;1.641450
9745.000000;1.643809
9744.000000;1.646037
9743.000000;1.646766
9742.000000;1.645979
9741.000000;1.644374
9740.000000;1.642508
9739.000000;1.640700
9738.000000;1.639219
9737.000000;1.638168
9736.000000;1.637280
9735.000000;1.636143
9734.000000;1.634859
9733.000000;1.634223
9732.000000;1.634879
9731.000000;1.636440
9730.000000;1.637688
9729.000000;1.637578
9728.000000;1.635930
9727.000000;1.633325
9726.000000;1.630683
9725.000000;1.628857
9724.000000;1.628132
9723.000000;1.627992
9722.000000;1.627823
9721.000000;1.627790
9720.000000;1.628432
9719.000000;1.629398
9718.000000;1.629408
9717.000000;1.627917
9716.000000;1.626049
9715.000000;1.625124
9714.000000;1.624841
9713.000000;1.623786
9712.000000;1.621482
9711.000000;1.619074
9710.000000;1.617970
9709.000000;1.618476
9708.000000;1.619865
9707.000000;1.621122
9706.000000;1.621394
9705.000000;1.620338
9704.000000;1.618392
9703.000000;1.616478
9702.000000;1.615289
9701.000000;1.614938
9700.000000;1.615044
9699.000000;1.614808
9698.000000;1.613398
9697.000000;1.611003
9696.000000;1.609354
9695.000000;1.610297
9694.000000;1.613581
9693.000000;1.616701
9692.000000;1.617439
9691.000000;1.616141
9690.000000;1.614898
9689.000000;1.614902
9688.000000;1.615309
9687.000000;1.614512
9686.000000;1.611856
9685.000000;1.608039
9684.000000;1.604351
9683.000000;1.601792
9682.000000;1.600647
9681.000000;1.600482
9680.000000;1.600501
9679.000000;1.600292
9678.000000;1.600243
9677.000000;1.600920
9676.000000;1.602085
9675.000000;1.602653
9674.000000;1.601764
9673.000000;1.599713
9672.000000;1.597531
9671.000000;1.595773
9670.000000;1.594048
9669.000000;1.591710
9668.000000;1.588691
9667.000000;1.585578
9666.000000;1.583157
9665.000000;1.581995
9664.000000;1.582176
9663.000000;1.583329
9662.000000;1.585097
9661.000000;1.587568
9660.000000;1.590781
9659.000000;1.593543
9658.000000;1.593644
9657.000000;1.590227
9656.000000;1.585386
9655.000000;1.582418
9654.000000;1.582633
9653.000000;1.584441
9652.000000;1.585429
9651.000000;1.584753
9650.000000;1.583322
9649.000000;1.582357
9648.000000;1.582378
9647.000000;1.583158
9646.000000;1.584063
9645.000000;1.584452
9644.000000;1.584096
9643.000000;1.583244
9642.000000;1.582207
9641.000000;1.581101
9640.000000;1.580134
9639.000000;1.579817
9638.000000;1.580371
9637.000000;1.580984
9636.000000;1.580181
9635.000000;1.577285
9634.000000;1.573296
9633.000000;1.569980
9632.000000;1.568106
9631.000000;1.566865
9630.000000;1.565190
9629.000000;1.563321
9628.000000;1.562530
9627.000000;1.563449
9626.000000;1.565273
9625.000000;1.566743
9624.000000;1.567321
9623.000000;1.567107
9622.000000;1.566195
9621.000000;1.564774
9620.000000;1.563495
9619.000000;1.562911
9618.000000;1.562628
9617.000000;1.561660
9616.000000;1.559724
9615.000000;1.557718
9614.000000;1.556801
9613.000000;1.557295
9612.000000;1.558630
9611.000000;1.559956
9610.000000;1.560627
9609.000000;1.560467
9608.000000;1.559723
9607.000000;1.558624
9606.000000;1.557109
9605.000000;1.555216
9604.000000;1.553509
9603.000000;1.552642
9602.000000;1.552449
9601.000000;1.551867
9600.000000;1.549928
9599.000000;1.546779
9598.000000;1.543812
9597.000000;1.542918
9596.000000;1.545154
9595.000000;1.549483
9594.000000;1.552990
9593.000000;1.553239
9592.000000;1.550513
9591.000000;1.547002
9590.000000;1.544177
9589.000000;1.542014
9588.000000;1.540365
9587.000000;1.539727
9586.000000;1.540272
9585.000000;1.541288
9584.000000;1.542225
9583.000000;1.543302
9582.000000;1.544411
9581.000000;1.544431
9580.000000;1.542730
9579.000000;1.540570
9578.000000;1.539690
9577.000000;1.540003
9576.000000;1.539990
9575.000000;1.539096
9574.000000;1.538357
9573.000000;1.538553
9572.000000;1.539025
9571.000000;1.538753
9570.000000;1.537541
9569.000000;1.535684
9568.000000;1.533428
9567.000000;1.531398
9566.000000;1.530681
9565.000000;1.531594
9564.000000;1.532806
9563.000000;1.532563
9562.000000;1.530627
9561.000000;1.528212
9560.000000;1.526188
9559.000000;1.524279
9558.000000;1.522119
9557.000000;1.520197
9556.000000;1.519238
9555.000000;1.519187
9554.000000;1.519322
9553.000000;1.519154
9552.000000;1.518837
9551.000000;1.518648
9550.000000;1.518352
9549.000000;1.517372
9548.000000;1.515609
9547.000000;1.513836
9546.000000;1.513032
9545.000000;1.513321
9544.000000;1.513818
9543.000000;1.513555
9542.000000;1.512374
9541.000000;1.510822
9540.000000;1.509459
9539.000000;1.508675
9538.000000;1.508929
9537.000000;1.510339
9536.000000;1.512024
9535.000000;1.512562
9534.000000;1.511478
9533.000000;1.509783
9532.000000;1.508680
9531.000000;1.508195
9530.000000;1.507619
9529.000000;1.506847
9528.000000;1.506461
9527.000000;1.506629
9526.000000;1.506690
9525.000000;1.506167
9524.000000;1.505667
9523.000000;1.506168
9522.000000;1.507523
9521.000000;1.508190
9520.000000;1.506650
9519.000000;1.502997
9518.000000;1.498976
9517.000000;1.496506
9516.000000;1.496304
9515.000000;1.497716
9514.000000;1.499514
9513.000000;1.500674
9512.000000;1.500595
9511.000000;1.499211
9510.000000;1.497206
9509.000000;1.495637
9508.000000;1.494959
9507.000000;1.494598
9506.000000;1.493829
9505.000000;1.492862
9504.000000;1.492524
9503.000000;1.493041
9502.000000;1.493872
9501.000000;1.494749
9500.000000;1.495961
9499.000000;1.497275
9498.000000;1.497468
9497.000000;1.495744
9496.000000;1.493145
9495.000000;1.491628
9494.000000;1.491875
9493.000000;1.492650
9492.000000;1.492304
9491.000000;1.490387
9490.000000;1.487672
9489.000000;1.485146
9488.000000;1.483287
9487.000000;1.481987
9486.000000;1.480923
9485.000000;1.480057
9484.000000;1.479806
9483.000000;1.480611
9482.000000;1.482364
9481.000000;1.484362
9480.000000;1.485682
9479.000000;1.485501
9478.000000;1.483417
9477.000000;1.479983
9476.000000;1.476739
9475.000000;1.475107
9474.000000;1.475063
9473.000000;1.475273
9472.000000;1.474702
9471.000000;1.473717
9470.000000;1.473326
9469.000000;1.473859
9468.000000;1.474805
9467.000000;1.475619
9466.000000;1.476079
9465.000000;1.475991
9464.000000;1.475138
9463.000000;1.473739
9462.000000;1.472531
9461.000000;1.472006
9460.000000;1.471739
9459.000000;1.470864
9458.000000;1.469267
9457.000000;1.467953
9456.000000;1.467948
9455.000000;1.468975
9454.000000;1.469588
9453.000000;1.468696
9452.000000;1.466628
9451.000000;1.464435
9450.000000;1.462550
9449.000000;1.460643
9448.000000;1.458621
9447.000000;1.457161
9446.000000;1.457043
9445.000000;1.458218
9444.000000;1.459718
9443.000000;1.460441
9442.000000;1.459969
9441.000000;1.458689
9440.000000;1.457218
9439.000000;1.455815
9438.000000;1.454487
9437.000000;1.453559
9436.000000;1.453654
9435.000000;1.454799
9434.000000;1.455889
9433.000000;1.455593
9432.000000;1.453826
9431.000000;1.451873
9430.000000;1.451013
9429.000000;1.451407
9428.000000;1.452296
9427.000000;1.452798
9426.000000;1.452448
9425.000000;1.451390
9424.000000;1.450229
9423.000000;1.449441
9422.000000;1.448859
9421.000000;1.448062
9420.000000;1.447287
9419.000000;1.447371
9418.000000;1.448523
9417.000000;1.449764
9416.000000;1.450098
9415.000000;1.449764
9414.000000;1.449679
9413.000000;1.449954
9412.000000;1.449742
9411.000000;1.448518
9410.000000;1.446843
9409.000000;1.445613
9408.000000;1.445025
9407.000000;1.444560
9406.000000;1.443674
9405.000000;1.442236
9404.000000;1.440522
9403.000000;1.439091
9402.000000;1.438619
9401.000000;1.439546
9400.000000;1.441617
9399.000000;1.443699
9398.000000;1.444220
9397.000000;1.442211
9396.000000;1.438204
9395.000000;1.433989
9394.000000;1.431346
9393.000000;1.430918
9392.000000;1.432062
9391.000000;1.433451
9390.000000;1.433884
9389.000000;1.432944
9388.000000;1.431248
9387.000000;1.429891
9386.000000;1.429353
9385.000000;1.429086
9384.000000;1.428397
9383.000000;1.427459
9382.000000;1.427038
9381.000000;1.427403
9380.000000;1.427998
9379.000000;1.428175
9378.000000;1.427775
9377.000000;1.426912
9376.000000;1.425720
9375.000000;1.424513
9374.000000;1.423732
9373.000000;1.423426
9372.000000;1.423102
9371.000000;1.422417
9370.000000;1.421796
9369.000000;1.421909
9368.000000;1.422653
9367.000000;1.423047
9366.000000;1.422241
9365.000000;1.420416
9364.000000;1.418573
9363.000000;1.417599
9362.000000;1.417610
9361.000000;1.418059
9360.000000;1.418317
9359.000000;1.418193
9358.000000;1.417993
9357.000000;1.418089
9356.000000;1.418399
9355.000000;1.418270
9354.000000;1.417074
9353.000000;1.415019
9352.000000;1.413186
9351.000000;1.412432
9350.000000;1.412333
9349.000000;1.411662
9348.000000;1.409982
9347.000000;1.408241
9346.000000;1.407474
9345.000000;1.407481
9344.000000;1.407320
9343.000000;1.406743
9342.000000;1.406434
9341.000000;1.406965
9340.000000;1.408263
9339.000000;1.410067
9338.000000;1.412052
9337.000000;1.413343
9336.000000;1.412831
9335.000000;1.410522
9334.000000;1.407915
9333.000000;1.406481
9332.000000;1.406220
9331.000000;1.406156
9330.000000;1.405749
9329.000000;1.405186
9328.000000;1.404617
9327.000000;1.403916
9326.000000;1.403170
9325.000000;1.402752
9324.000000;1.402853
9323.000000;1.403350
9322.000000;1.404086
9321.000000;1.404818
9320.000000;1.404926
9319.000000;1.403802
9318.000000;1.401863
9317.000000;1.400639
9316.000000;1.401360
9315.000000;1.403611
9314.000000;1.405642
9313.000000;1.405961
9312.000000;1.404518
9311.000000;1.402413
9310.000000;1.400681
9309.000000;1.399481
9308.000000;1.398390
9307.000000;1.397204
9306.000000;1.396121
9305.000000;1.395131
9304.000000;1.393781
9303.000000;1.392010
9302.000000;1.390756
9301.000000;1.391009
9300.000000;1.392398
9299.000000;1.393369
9298.000000;1.392930
9297.000000;1.391692
9296.000000;1.390876
9295.000000;1.390856
9294.000000;1.391002
9293.000000;1.390519
9292.000000;1.389168
9291.000000;1.387441
9290.000000;1.386259
9289.000000;1.386213
9288.000000;1.386866
9287.000000;1.387129
9286.000000;1.386603
9285.000000;1.386154
9284.000000;1.386655
9283.000000;1.387626
9282.000000;1.387863
9281.000000;1.387207
9280.000000;1.386805
9279.000000;1.387496
9278.000000;1.388657
9277.000000;1.389036
9276.000000;1.388237
9275.000000;1.386823
9274.000000;1.385305
9273.000000;1.383755
9272.000000;1.382384
9271.000000;1.381770
9270.000000;1.382102
9269.000000;1.382551
9268.000000;1.381989
9267.000000;1.380335
9266.000000;1.378724
9265.000000;1.378210
9264.000000;1.378691
9263.000000;1.379257
9262.000000;1.379261
9261.000000;1.378767
9260.000000;1.378155
9259.000000;1.377693
9258.000000;1.377455
9257.000000;1.377295
9256.000000;1.376876
9255.000000;1.376048
9254.000000;1.375100
9253.000000;1.374347
9252.000000;1.373616
9251.000000;1.372573
9250.000000;1.371485
9249.000000;1.371013
9248.000000;1.371172
9247.000000;1.371128
9246.000000;1.370362
9245.000000;1.369510
9244.000000;1.369583
9243.000000;1.370712
9242.000000;1.372058
9241.000000;1.372684
9240.000000;1.372162
9239.000000;1.370647
9238.000000;1.368857
9237.000000;1.367845
9236.000000;1.368229
9235.000000;1.369520
9234.000000;1.370522
9233.000000;1.370401
9232.000000;1.369143
9231.000000;1.367201
9230.000000;1.365153
9229.000000;1.363659
9228.000000;1.363173
9227.000000;1.363503
9226.000000;1.363951
9225.000000;1.364015
9224.000000;1.363679
9223.000000;1.363054
9222.000000;1.362191
9221.000000;1.361397
9220.000000;1.361264
9219.000000;1.362039
9218.000000;1.363149
9217.000000;1.363641
9216.000000;1.362991
9215.000000;1.361346
9214.000000;1.359216
9213.000000;1.357242
9212.000000;1.356097
9211.000000;1.356132
9210.000000;1.356961
9209.000000;1.357672
9208.000000;1.357608
9207.000000;1.356868
9206.000000;1.356011
9205.000000;1.355467
9204.000000;1.355340
9203.000000;1.355686
9202.000000;1.356621
9201.000000;1.357977
9200.000000;1.359134
9199.000000;1.359483
9198.000000;1.358939
9197.000000;1.357805
9196.000000;1.356296
9195.000000;1.354540
9194.000000;1.353029
9193.000000;1.352578
9192.000000;1.353525
9191.000000;1.355188
9190.000000;1.356447
9189.000000;1.356793
9188.000000;1.356506
9187.000000;1.355963
9186.000000;1.355168
9185.000000;1.353969
9184.000000;1.352362
9183.000000;1.350484
9182.000000;1.348605
9181.000000;1.347231
9180.000000;1.346869
9179.000000;1.347405
9178.000000;1.347921
9177.000000;1.347491
9176.000000;1.346133
9175.000000;1.344769
9174.000000;1.344286
9173.000000;1.344764
9172.000000;1.345561
9171.000000;1.345976
9170.000000;1.345810
9169.000000;1.345430
9168.000000;1.345317
9167.000000;1.345548
9166.000000;1.345704
9165.000000;1.345313
9164.000000;1.344323
9163.000000;1.343039
9162.000000;1.341722
9161.000000;1.340495
9160.000000;1.339597
9159.000000;1.339408
9158.000000;1.340009
9157.000000;1.340925
9156.000000;1.341582
9155.000000;1.341855
9154.000000;1.341927
9153.000000;1.341783
9152.000000;1.341216
9151.000000;1.340357
9150.000000;1.339732
9149.000000;1.339529
9148.000000;1.339127
9147.000000;1.337766
9146.000000;1.335627
9145.000000;1.333849
9144.000000;1.333394
9143.000000;1.334145
9142.000000;1.335216
9141.000000;1.335946
9140.000000;1.336349
9139.000000;1.336639
9138.000000;1.336619
9137.000000;1.335858
9136.000000;1.334428
9135.000000;1.333133
9134.000000;1.332753
9133.000000;1.333219
9132.000000;1.333858
9131.000000;1.334362
9130.000000;1.335078
9129.000000;1.336208
9128.000000;1.337205
9127.000000;1.337328
9126.000000;1.336499
9125.000000;1.335192
9124.000000;1.333725
9123.000000;1.332181
9122.000000;1.330809
9121.000000;1.329920
9120.000000;1.329373
9119.000000;1.328744
9118.000000;1.328162
9117.000000;1.328412
9116.000000;1.329897
9115.000000;1.331875
9114.000000;1.333043
9113.000000;1.332676
9112.000000;1.331004
9111.000000;1.328830
9110.000000;1.327093
9109.000000;1.326467
9108.000000;1.326836
9107.000000;1.327267
9106.000000;1.326913
9105.000000;1.325943
9104.000000;1.325270
9103.000000;1.325361
9102.000000;1.325731
9101.000000;1.325706
9100.000000;1.325384
9099.000000;1.325532
9098.000000;1.326605
9097.000000;1.328099
9096.000000;1.328969
9095.000000;1.328631
9094.000000;1.327479
9093.000000;1.326421
9092.000000;1.326033
9091.000000;1.326163
9090.000000;1.326174
9089.000000;1.325465
9088.000000;1.323923
9087.000000;1.322162
9086.000000;1.321206
9085.000000;1.321505
9084.000000;1.322300
9083.000000;1.322344
9082.000000;1.321349
9081.000000;1.320246
9080.000000;1.319875
9079.000000;1.319980
9078.000000;1.319824
9077.000000;1.319335
9076.000000;1.319074
9075.000000;1.319306
9074.000000;1.319704
9073.000000;1.319984
9072.000000;1.320319
9071.000000;1.320875
9070.000000;1.321277
9069.000000;1.320893
9068.000000;1.319634
9067.000000;1.318223
9066.000000;1.317537
9065.000000;1.317692
9064.000000;1.317912
9063.000000;1.317421
9062.000000;1.316393
9061.000000;1.315710
9060.000000;1.315770
9059.000000;1.315937
9058.000000;1.315382
9057.000000;1.314168
9056.000000;1.313124
9055.000000;1.312794
9054.000000;1.312884
9053.000000;1.312773
