Criado como novo conjunto de dados;"1909daniel.spp","-4258243.6 Secs"
cm-1;Abs
10000.000000;1.881852
9999.000000;1.882804
9998.000000;1.883758
9997.000000;1.884715
9996.000000;1.885674
9995.000000;1.886635
9994.000000;1.887598
9993.000000;1.888563
9992.000000;1.889530
9991.000000;1.890497
9990.000000;1.891477
9989.000000;1.892308
9988.000000;1.892120
9987.000000;1.889811
9986.000000;1.885346
9985.000000;1.880073
9984.000000;1.875610
9983.000000;1.872597
9982.000000;1.870717
9981.000000;1.869551
9980.000000;1.868963
9979.000000;1.868781
9978.000000;1.868661
9977.000000;1.868526
9976.000000;1.868808
9975.000000;1.869871
9974.000000;1.871394
9973.000000;1.872649
9972.000000;1.873255
9971.000000;1.873293
9970.000000;1.872709
9969.000000;1.871221
9968.000000;1.869088
9967.000000;1.867389
9966.000000;1.866968
9965.000000;1.867425
9964.000000;1.867768
9963.000000;1.867949
9962.000000;1.868948
9961.000000;1.871192
9960.000000;1.873637
9959.000000;1.874809
9958.000000;1.874281
9957.000000;1.872628
9956.000000;1.870519
9955.000000;1.868795
9954.000000;1.868656
9953.000000;1.870338
9952.000000;1.871965
9951.000000;1.871080
9950.000000;1.867509
9949.000000;1.863554
9948.000000;1.861088
9947.000000;1.859606
9946.000000;1.857606
9945.000000;1.854864
9944.000000;1.852425
9943.000000;1.850965
9942.000000;1.850210
9941.000000;1.849658
9940.000000;1.848969
9939.000000;1.847682
9938.000000;1.845464
9937.000000;1.842959
9936.000000;1.841684
9935.000000;1.842749
9934.000000;1.845802
9933.000000;1.849229
9932.000000;1.851302
9931.000000;1.851258
9930.000000;1.849748
9929.000000;1.848479
9928.000000;1.848725
9927.000000;1.849761
9926.000000;1.849431
9925.000000;1.846754
9924.000000;1.843247
9923.000000;1.841030
9922.000000;1.840380
9921.000000;1.839924
9920.000000;1.838593
9919.000000;1.836392
9918.000000;1.833576
9917.000000;1.830297
9916.000000;1.827246
9915.000000;1.825477
9914.000000;1.825134
9913.000000;1.825079
9912.000000;1.824274
9911.000000;1.823085
9910.000000;1.822654
9909.000000;1.823369
9908.000000;1.824749
9907.000000;1.826505
9906.000000;1.828771
9905.000000;1.831274
9904.000000;1.833132
9903.000000;1.833748
9902.000000;1.833147
9901.000000;1.831331
9900.000000;1.828028
9899.000000;1.823240
9898.000000;1.817754
9897.000000;1.812867
9896.000000;1.809707
9895.000000;1.808893
9894.000000;1.810382
9893.000000;1.813256
9892.000000;1.815812
9891.000000;1.816407
9890.000000;1.814649
9889.000000;1.811684
9888.000000;1.809159
9887.000000;1.808010
9886.000000;1.808246
9885.000000;1.809411
9884.000000;1.810861
9883.000000;1.811930
9882.000000;1.812184
9881.000000;1.811481
9880.000000;1.809817
9879.000000;1.807447
9878.000000;1.805165
9877.000000;1.803997
9876.000000;1.804199
9875.000000;1.804725
9874.000000;1.804199
9873.000000;1.802528
9872.000000;1.801216
9871.000000;1.801840
9870.000000;1.804280
9869.000000;1.806483
9868.000000;1.806161
9867.000000;1.803035
9866.000000;1.799261
9865.000000;1.797360
9864.000000;1.797833
9863.000000;1.799056
9862.000000;1.799431
9861.000000;1.799088
9860.000000;1.798997
9859.000000;1.798884
9858.000000;1.797081
9857.000000;1.792691
9856.000000;1.787077
9855.000000;1.782646
9854.000000;1.780776
9853.000000;1.781281
9852.000000;1.783226
9851.000000;1.785626
9850.000000;1.787468
9849.000000;1.787678
9848.000000;1.785602
9847.000000;1.781750
9846.000000;1.777917
9845.000000;1.776197
9844.000000;1.777432
9843.000000;1.780505
9842.000000;1.783375
9841.000000;1.784782
9840.000000;1.784685
9839.000000;1.783421
9838.000000;1.781233
9837.000000;1.778490
9836.000000;1.775629
9835.000000;1.772889
9834.000000;1.770726
9833.000000;1.770353
9832.000000;1.772838
9831.000000;1.777318
9830.000000;1.781094
9829.000000;1.782277
9828.000000;1.781492
9827.000000;1.780318
9826.000000;1.779163
9825.000000;1.777521
9824.000000;1.775442
9823.000000;1.773512
9822.000000;1.771849
9821.000000;1.770281
9820.000000;1.769101
9819.000000;1.768578
9818.000000;1.767825
9817.000000;1.765321
9816.000000;1.761037
9815.000000;1.757192
9814.000000;1.756320
9813.000000;1.758955
9812.000000;1.763277
9811.000000;1.766665
9810.000000;1.767662
9809.000000;1.766631
9808.000000;1.764619
9807.000000;1.762033
9806.000000;1.758933
9805.000000;1.756211
9804.000000;1.755282
9803.000000;1.756207
9802.000000;1.757054
9801.000000;1.756038
9800.000000;1.753617
9799.000000;1.751366
9798.000000;1.749536
9797.000000;1.747217
9796.000000;1.744495
9795.000000;1.742841
9794.000000;1.743393
9793.000000;1.745943
9792.000000;1.749572
9791.000000;1.753286
9790.000000;1.755659
9789.000000;1.755195
9788.000000;1.751991
9787.000000;1.748202
9786.000000;1.746223
9785.000000;1.746739
9784.000000;1.748542
9783.000000;1.749656
9782.000000;1.748570
9781.000000;1.745312
9780.000000;1.741669
9779.000000;1.739617
9778.000000;1.739340
9777.000000;1.739397
9776.000000;1.738974
9775.000000;1.738939
9774.000000;1.740072
9773.000000;1.741448
9772.000000;1.741659
9771.000000;1.740788
9770.000000;1.739983
9769.000000;1.739463
9768.000000;1.738018
9767.000000;1.734597
9766.000000;1.729812
9765.000000;1.725558
9764.000000;1.723485
9763.000000;1.723756
9762.000000;1.724989
9761.000000;1.725731
9760.000000;1.726101
9759.000000;1.727160
9758.000000;1.728889
9757.000000;1.729923
9756.000000;1.729417
9755.000000;1.728295
9754.000000;1.728012
9753.000000;1.728665
9752.000000;1.729132
9751.000000;1.728513
9750.000000;1.726636
9749.000000;1.723549
9748.000000;1.719480
9747.000000;1.715265
9746.000000;1.712072
9745.000000;1.710499
9744.000000;1.710239
9743.000000;1.710484
9742.000000;1.710490
9741.000000;1.710129
9740.000000;1.710179
9739.000000;1.711686
9738.000000;1.714602
9737.000000;1.717372
9736.000000;1.718298
9735.000000;1.717002
9734.000000;1.714145
9733.000000;1.710424
9732.000000;1.706767
9731.000000;1.704748
9730.000000;1.705482
9729.000000;1.708220
9728.000000;1.710933
9727.000000;1.712343
9726.000000;1.712613
9725.000000;1.712123
9724.000000;1.710719
9723.000000;1.708491
9722.000000;1.706211
9721.000000;1.704452
9720.000000;1.702998
9719.000000;1.701562
9718.000000;1.700373
9717.000000;1.699621
9716.000000;1.698800
9715.000000;1.697226
9714.000000;1.694991
9713.000000;1.692970
9712.000000;1.691958
9711.000000;1.692114
9710.000000;1.693068
9709.000000;1.694135
9708.000000;1.694496
9707.000000;1.693646
9706.000000;1.691856
9705.000000;1.689903
9704.000000;1.688251
9703.000000;1.686482
9702.000000;1.683873
9701.000000;1.680799
9700.000000;1.679015
9699.000000;1.680080
9698.000000;1.683678
9697.000000;1.687696
9696.000000;1.689904
9695.000000;1.689407
9694.000000;1.686717
9693.000000;1.683161
9692.000000;1.680394
9691.000000;1.679631
9690.000000;1.680531
9689.000000;1.681129
9688.000000;1.679759
9687.000000;1.677019
9686.000000;1.675101
9685.000000;1.675175
9684.000000;1.676066
9683.000000;1.675816
9682.000000;1.674191
9681.000000;1.673002
9680.000000;1.673932
9679.000000;1.676580
9678.000000;1.678946
9677.000000;1.679567
9676.000000;1.678723
9675.000000;1.677501
9674.000000;1.676236
9673.000000;1.674371
9672.000000;1.671599
9671.000000;1.668569
9670.000000;1.666381
9669.000000;1.665733
9668.000000;1.666467
9667.000000;1.667488
9666.000000;1.667190
9665.000000;1.664683
9664.000000;1.660919
9663.000000;1.658035
9662.000000;1.657300
9661.000000;1.658189
9660.000000;1.659621
9659.000000;1.661396
9658.000000;1.663832
9657.000000;1.666512
9656.000000;1.668196
9655.000000;1.667843
9654.000000;1.665217
9653.000000;1.660672
9652.000000;1.655056
9651.000000;1.649853
9650.000000;1.646775
9649.000000;1.646784
9648.000000;1.649481
9647.000000;1.653268
9646.000000;1.656146
9645.000000;1.656834
9644.000000;1.655382
9643.000000;1.652662
9642.000000;1.649343
9641.000000;1.645766
9640.000000;1.642804
9639.000000;1.641904
9638.000000;1.643752
9637.000000;1.647258
9636.000000;1.650285
9635.000000;1.651369
9634.000000;1.650499
9633.000000;1.648525
9632.000000;1.646295
9631.000000;1.644148
9630.000000;1.641848
9629.000000;1.639160
9628.000000;1.636673
9627.000000;1.635616
9626.000000;1.636372
9625.000000;1.637607
9624.000000;1.637566
9623.000000;1.636107
9622.000000;1.634743
9621.000000;1.634661
9620.000000;1.635401
9619.000000;1.635599
9618.000000;1.634511
9617.000000;1.632727
9616.000000;1.631659
9615.000000;1.632239
9614.000000;1.633896
9613.000000;1.634967
9612.000000;1.634364
9611.000000;1.632399
9610.000000;1.629849
9609.000000;1.627118
9608.000000;1.624679
9607.000000;1.623364
9606.000000;1.623381
9605.000000;1.623670
9604.000000;1.623263
9603.000000;1.622875
9602.000000;1.624028
9601.000000;1.626730
9600.000000;1.629016
9599.000000;1.628919
9598.000000;1.626158
9597.000000;1.621720
9596.000000;1.616845
9595.000000;1.612876
9594.000000;1.611151
9593.000000;1.612152
9592.000000;1.614711
9591.000000;1.616405
9590.000000;1.615234
9589.000000;1.611497
9588.000000;1.607933
9587.000000;1.607235
9586.000000;1.609246
9585.000000;1.611293
9584.000000;1.611559
9583.000000;1.611004
9582.000000;1.611159
9581.000000;1.611596
9580.000000;1.611183
9579.000000;1.610607
9578.000000;1.611406
9577.000000;1.613020
9576.000000;1.613166
9575.000000;1.611250
9574.000000;1.609102
9573.000000;1.607927
9572.000000;1.606899
9571.000000;1.605407
9570.000000;1.604419
9569.000000;1.604483
9568.000000;1.604361
9567.000000;1.603153
9566.000000;1.602215
9565.000000;1.603137
9564.000000;1.605019
9563.000000;1.605519
9562.000000;1.603924
9561.000000;1.601445
9560.000000;1.599014
9559.000000;1.596683
9558.000000;1.594951
9557.000000;1.594846
9556.000000;1.596341
9555.000000;1.597993
9554.000000;1.598520
9553.000000;1.597827
9552.000000;1.596282
9551.000000;1.594096
9550.000000;1.591766
9549.000000;1.590148
9548.000000;1.589561
9547.000000;1.589454
9546.000000;1.589298
9545.000000;1.589248
9544.000000;1.589641
9543.000000;1.590316
9542.000000;1.590779
9541.000000;1.590699
9540.000000;1.589993
9539.000000;1.588752
9538.000000;1.587309
9537.000000;1.586159
9536.000000;1.585603
9535.000000;1.585557
9534.000000;1.585742
9533.000000;1.585938
9532.000000;1.586008
9531.000000;1.585706
9530.000000;1.584521
9529.000000;1.581968
9528.000000;1.578355
9527.000000;1.575098
9526.000000;1.573590
9525.000000;1.573627
9524.000000;1.573617
9523.000000;1.572687
9522.000000;1.571829
9521.000000;1.572337
9520.000000;1.573873
9519.000000;1.574958
9518.000000;1.575015
9517.000000;1.574899
9516.000000;1.575451
9515.000000;1.576499
9514.000000;1.577350
9513.000000;1.577475
9512.000000;1.576547
9511.000000;1.574536
9510.000000;1.572022
9509.000000;1.569895
9508.000000;1.568567
9507.000000;1.567882
9506.000000;1.567758
9505.000000;1.568366
9504.000000;1.569471
9503.000000;1.570221
9502.000000;1.569996
9501.000000;1.569112
9500.000000;1.568376
9499.000000;1.568163
9498.000000;1.568161
9497.000000;1.567808
9496.000000;1.566842
9495.000000;1.565628
9494.000000;1.564948
9493.000000;1.565103
9492.000000;1.565242
9491.000000;1.564094
9490.000000;1.561595
9489.000000;1.559220
9488.000000;1.558391
9487.000000;1.558921
9486.000000;1.559278
9485.000000;1.558172
9484.000000;1.555656
9483.000000;1.552782
9482.000000;1.550509
9481.000000;1.548994
9480.000000;1.547840
9479.000000;1.546922
9478.000000;1.546702
9477.000000;1.547414
9476.000000;1.548211
9475.000000;1.547736
9474.000000;1.545709
9473.000000;1.543438
9472.000000;1.542462
9471.000000;1.543025
9470.000000;1.544119
9469.000000;1.544789
9468.000000;1.545100
9467.000000;1.545833
9466.000000;1.547371
9465.000000;1.549064
9464.000000;1.549806
9463.000000;1.549258
9462.000000;1.548198
9461.000000;1.547433
9460.000000;1.546742
9459.000000;1.545333
9458.000000;1.543155
9457.000000;1.541104
9456.000000;1.539830
9455.000000;1.538969
9454.000000;1.537868
9453.000000;1.536501
9452.000000;1.535317
9451.000000;1.534742
9450.000000;1.535106
9449.000000;1.536483
9448.000000;1.538218
9447.000000;1.539043
9446.000000;1.538178
9445.000000;1.536102
9444.000000;1.533868
9443.000000;1.532012
9442.000000;1.530611
9441.000000;1.529978
9440.000000;1.530461
9439.000000;1.531623
9438.000000;1.532354
9437.000000;1.532056
9436.000000;1.531234
9435.000000;1.530652
9434.000000;1.530423
9433.000000;1.530330
9432.000000;1.530579
9431.000000;1.531481
9430.000000;1.532292
9429.000000;1.531202
9428.000000;1.527267
9427.000000;1.522199
9426.000000;1.519288
9425.000000;1.520200
9424.000000;1.523207
9423.000000;1.524899
9422.000000;1.523623
9421.000000;1.520745
9420.000000;1.518483
9419.000000;1.517391
9418.000000;1.516452
9417.000000;1.515043
9416.000000;1.513957
9415.000000;1.514330
9414.000000;1.516105
9413.000000;1.517944
9412.000000;1.518674
9411.000000;1.518541
9410.000000;1.518703
9409.000000;1.519546
9408.000000;1.520008
9407.000000;1.518937
9406.000000;1.516766
9405.000000;1.515006
9404.000000;1.514182
9403.000000;1.513249
9402.000000;1.511319
9401.000000;1.509049
9400.000000;1.507641
9399.000000;1.507220
9398.000000;1.507102
9397.000000;1.507205
9396.000000;1.508073
9395.000000;1.509579
9394.000000;1.510677
9393.000000;1.510740
9392.000000;1.510309
9391.000000;1.510047
9390.000000;1.509612
9389.000000;1.508241
9388.000000;1.506058
9387.000000;1.504150
9386.000000;1.503405
9385.000000;1.503619
9384.000000;1.503730
9383.000000;1.502892
9382.000000;1.501456
9381.000000;1.500798
9380.000000;1.501862
9379.000000;1.503877
9378.000000;1.504864
9377.000000;1.503623
9376.000000;1.500900
9375.000000;1.498427
9374.000000;1.497242
9373.000000;1.497174
9372.000000;1.497411
9371.000000;1.497185
9370.000000;1.496343
9369.000000;1.495676
9368.000000;1.496336
9367.000000;1.498512
9366.000000;1.500827
9365.000000;1.501439
9364.000000;1.499615
9363.000000;1.495984
9362.000000;1.491656
9361.000000;1.487669
9360.000000;1.484950
9359.000000;1.484000
9358.000000;1.484455
9357.000000;1.485448
9356.000000;1.486462
9355.000000;1.487397
9354.000000;1.487977
9353.000000;1.487747
9352.000000;1.486780
9351.000000;1.485846
9350.000000;1.485540
9349.000000;1.485604
9348.000000;1.485372
9347.000000;1.484530
9346.000000;1.483229
9345.000000;1.481787
9344.000000;1.480510
9343.000000;1.479512
9342.000000;1.478552
9341.000000;1.477360
9340.000000;1.476316
9339.000000;1.476429
9338.000000;1.478207
9337.000000;1.480672
9336.000000;1.481957
9335.000000;1.481115
9334.000000;1.478991
9333.000000;1.477126
9332.000000;1.476160
9331.000000;1.475612
9330.000000;1.475009
9329.000000;1.474733
9328.000000;1.475427
9327.000000;1.476801
9326.000000;1.477573
9325.000000;1.476828
9324.000000;1.475112
9323.000000;1.473755
9322.000000;1.473338
9321.000000;1.473336
9320.000000;1.473151
9319.000000;1.472821
9318.000000;1.472513
9317.000000;1.471995
9316.000000;1.471013
9315.000000;1.469809
9314.000000;1.468814
9313.000000;1.468183
9312.000000;1.468073
9311.000000;1.468940
9310.000000;1.470863
9309.000000;1.472772
9308.000000;1.473188
9307.000000;1.471828
9306.000000;1.469769
9305.000000;1.467917
9304.000000;1.466102
9303.000000;1.463982
9302.000000;1.462055
9301.000000;1.461112
9300.000000;1.461107
9299.000000;1.461318
9298.000000;1.461543
9297.000000;1.462408
9296.000000;1.464247
9295.000000;1.466246
9294.000000;1.467102
9293.000000;1.466368
9292.000000;1.464796
9291.000000;1.463336
9290.000000;1.462167
9289.000000;1.460731
9288.000000;1.458557
9287.000000;1.455979
9286.000000;1.453914
9285.000000;1.453050
9284.000000;1.453424
9283.000000;1.454605
9282.000000;1.455895
9281.000000;1.456450
9280.000000;1.455797
9279.000000;1.454544
9278.000000;1.454117
9277.000000;1.455298
9276.000000;1.457213
9275.000000;1.458179
9274.000000;1.457469
9273.000000;1.455755
9272.000000;1.453872
9271.000000;1.451887
9270.000000;1.449643
9269.000000;1.447616
9268.000000;1.446693
9267.000000;1.447297
9266.000000;1.448994
9265.000000;1.450890
9264.000000;1.452232
9263.000000;1.452705
9262.000000;1.452489
9261.000000;1.452151
9260.000000;1.452271
9259.000000;1.452906
9258.000000;1.453326
9257.000000;1.452435
9256.000000;1.449816
9255.000000;1.446514
9254.000000;1.444455
9253.000000;1.444684
9252.000000;1.446240
9251.000000;1.447163
9250.000000;1.446753
9249.000000;1.446281
9248.000000;1.447183
9247.000000;1.449127
9246.000000;1.450378
9245.000000;1.449833
9244.000000;1.448038
9243.000000;1.446116
9242.000000;1.444339
9241.000000;1.442163
9240.000000;1.439420
9239.000000;1.437006
9238.000000;1.436157
9237.000000;1.437070
9236.000000;1.438514
9235.000000;1.439138
9234.000000;1.439049
9233.000000;1.439536
9232.000000;1.441178
9231.000000;1.442846
9230.000000;1.442990
9229.000000;1.441487
9228.000000;1.439567
9227.000000;1.438123
9226.000000;1.436860
9225.000000;1.435120
9224.000000;1.432918
9223.000000;1.430943
9222.000000;1.429928
9221.000000;1.430196
9220.000000;1.431492
9219.000000;1.433059
9218.000000;1.434144
9217.000000;1.434582
9216.000000;1.434671
9215.000000;1.434511
9214.000000;1.433855
9213.000000;1.432686
9212.000000;1.431481
9211.000000;1.430689
9210.000000;1.430267
9209.000000;1.429981
9208.000000;1.429867
9207.000000;1.430078
9206.000000;1.430437
9205.000000;1.430467
9204.000000;1.429892
9203.000000;1.428961
9202.000000;1.428259
9201.000000;1.428173
9200.000000;1.428442
9199.000000;1.428276
9198.000000;1.427108
9197.000000;1.425157
9196.000000;1.423085
9195.000000;1.421338
9194.000000;1.420175
9193.000000;1.420073
9192.000000;1.421481
9191.000000;1.423973
9190.000000;1.426230
9189.000000;1.427273
9188.000000;1.427302
9187.000000;1.426999
9186.000000;1.426524
9185.000000;1.425552
9184.000000;1.423921
9183.000000;1.421889
9182.000000;1.420030
9181.000000;1.419183
9180.000000;1.420026
9179.000000;1.422164
9178.000000;1.423928
9177.000000;1.423747
9176.000000;1.421706
9175.000000;1.419310
9174.000000;1.417931
9173.000000;1.417918
9172.000000;1.418822
9171.000000;1.419834
9170.000000;1.420089
9169.000000;1.419180
9168.000000;1.417533
9167.000000;1.415958
9166.000000;1.414814
9165.000000;1.413898
9164.000000;1.413063
9163.000000;1.412567
9162.000000;1.412793
9161.000000;1.413879
9160.000000;1.415568
9159.000000;1.417169
9158.000000;1.417852
9157.000000;1.417379
9156.000000;1.416534
9155.000000;1.416447
9154.000000;1.417442
9153.000000;1.418676
9152.000000;1.418864
9151.000000;1.417248
9150.000000;1.414162
9149.000000;1.410950
9148.000000;1.409106
9147.000000;1.409065
9146.000000;1.409919
9145.000000;1.410560
9144.000000;1.410842
9143.000000;1.411162
9142.000000;1.411327
9141.000000;1.410662
9140.000000;1.409185
9139.000000;1.407829
9138.000000;1.407411
9137.000000;1.407972
9136.000000;1.409068
9135.000000;1.410066
9134.000000;1.410097
9133.000000;1.408450
9132.000000;1.405396
9131.000000;1.402163
9130.000000;1.399879
9129.000000;1.398926
9128.000000;1.399324
9127.000000;1.401000
9126.000000;1.403336
9125.000000;1.405045
9124.000000;1.405161
9123.000000;1.404034
9122.000000;1.402992
9121.000000;1.403169
9120.000000;1.404772
9119.000000;1.407025
9118.000000;1.408596
9117.000000;1.408566
9116.000000;1.407326
9115.000000;1.406143
9114.000000;1.405608
9113.000000;1.404964
9112.000000;1.403274
9111.000000;1.400832
9110.000000;1.398922
9109.000000;1.398395
9108.000000;1.398962
9107.000000;1.399754
9106.000000;1.400134
9105.000000;1.399944
9104.000000;1.399297
9103.000000;1.398333
9102.000000;1.397160
9101.000000;1.396018
9100.000000;1.395320
9099.000000;1.395264
9098.000000;1.395429
9097.000000;1.395096
9096.000000;1.394083
9095.000000;1.392999
9094.000000;1.392585
9093.000000;1.393035
9092.000000;1.393970
9091.000000;1.394722
9090.000000;1.394606
9089.000000;1.393460
9088.000000;1.392150
9087.000000;1.391922
9086.000000;1.392933
9085.000000;1.393903
9084.000000;1.393657
9083.000000;1.392606
9082.000000;1.392119
9081.000000;1.392755
9080.000000;1.393755
9079.000000;1.394126
9078.000000;1.393619
9077.000000;1.392657
9076.000000;1.391854
9075.000000;1.391694
9074.000000;1.392208
9073.000000;1.392834
9072.000000;1.392880
9071.000000;1.392190
9070.000000;1.391158
9069.000000;1.390172
9068.000000;1.389297
9067.000000;1.388389
9066.000000;1.387246
9065.000000;1.385795
9064.000000;1.384465
9063.000000;1.384206
9062.000000;1.385617
9061.000000;1.388040
9060.000000;1.390003
9059.000000;1.390771
9058.000000;1.390981
9057.000000;1.391454
9056.000000;1.391843
9055.000000;1.390900
9054.000000;1.388000
9053.000000;1.384059
