Criado como novo conjunto de dados;"1909daniel.spp","-4288484.9 Secs"
cm-1;Abs
10000.000000;1.365661
9999.000000;1.365656
9998.000000;1.364586
9997.000000;1.362495
9996.000000;1.360254
9995.000000;1.358506
9994.000000;1.357446
9993.000000;1.356844
9992.000000;1.356321
9991.000000;1.355468
9990.000000;1.354185
9989.000000;1.352772
9988.000000;1.351603
9987.000000;1.350853
9986.000000;1.350528
9985.000000;1.350448
9984.000000;1.350199
9983.000000;1.349533
9982.000000;1.348937
9981.000000;1.349241
9980.000000;1.350385
9979.000000;1.351076
9978.000000;1.350206
9977.000000;1.348235
9976.000000;1.346670
9975.000000;1.346480
9974.000000;1.347472
9973.000000;1.348775
9972.000000;1.349386
9971.000000;1.348605
9970.000000;1.346586
9969.000000;1.344294
9968.000000;1.342465
9967.000000;1.340892
9966.000000;1.339162
9965.000000;1.337686
9964.000000;1.337271
9963.000000;1.337826
9962.000000;1.338237
9961.000000;1.337674
9960.000000;1.336428
9959.000000;1.335349
9958.000000;1.334941
9957.000000;1.335088
9956.000000;1.335197
9955.000000;1.334566
9954.000000;1.333053
9953.000000;1.331420
9952.000000;1.330622
9951.000000;1.330765
9950.000000;1.331102
9949.000000;1.330984
9948.000000;1.330350
9947.000000;1.329358
9946.000000;1.328083
9945.000000;1.326749
9944.000000;1.325756
9943.000000;1.325203
9942.000000;1.324653
9941.000000;1.323539
9940.000000;1.321673
9939.000000;1.319444
9938.000000;1.317702
9937.000000;1.317232
9936.000000;1.317966
9935.000000;1.318899
9934.000000;1.319117
9933.000000;1.318661
9932.000000;1.317979
9931.000000;1.317046
9930.000000;1.315726
9929.000000;1.314605
9928.000000;1.314418
9927.000000;1.314707
9926.000000;1.314088
9925.000000;1.312084
9924.000000;1.309785
9923.000000;1.308349
9922.000000;1.307748
9921.000000;1.307411
9920.000000;1.307251
9919.000000;1.307439
9918.000000;1.307787
9917.000000;1.307997
9916.000000;1.308038
9915.000000;1.307679
9914.000000;1.306180
9913.000000;1.303239
9912.000000;1.299908
9911.000000;1.297750
9910.000000;1.297238
9909.000000;1.297535
9908.000000;1.297709
9907.000000;1.297542
9906.000000;1.297154
9905.000000;1.296535
9904.000000;1.295670
9903.000000;1.294725
9902.000000;1.293867
9901.000000;1.293163
9900.000000;1.292684
9899.000000;1.292387
9898.000000;1.291876
9897.000000;1.290709
9896.000000;1.289110
9895.000000;1.287987
9894.000000;1.287952
9893.000000;1.288609
9892.000000;1.289081
9891.000000;1.289017
9890.000000;1.288689
9889.000000;1.288199
9888.000000;1.287108
9887.000000;1.285123
9886.000000;1.282834
9885.000000;1.281414
9884.000000;1.281521
9883.000000;1.282649
9882.000000;1.283605
9881.000000;1.283557
9880.000000;1.282601
9879.000000;1.281363
9878.000000;1.280191
9877.000000;1.278828
9876.000000;1.276925
9875.000000;1.274752
9874.000000;1.273071
9873.000000;1.272251
9872.000000;1.271784
9871.000000;1.270954
9870.000000;1.269816
9869.000000;1.269095
9868.000000;1.269159
9867.000000;1.269541
9866.000000;1.269570
9865.000000;1.269098
9864.000000;1.268416
9863.000000;1.267840
9862.000000;1.267617
9861.000000;1.267879
9860.000000;1.268269
9859.000000;1.267933
9858.000000;1.266351
9857.000000;1.264082
9856.000000;1.262241
9855.000000;1.261303
9854.000000;1.260827
9853.000000;1.260270
9852.000000;1.259615
9851.000000;1.259079
9850.000000;1.258694
9849.000000;1.258412
9848.000000;1.258315
9847.000000;1.258397
9846.000000;1.258280
9845.000000;1.257474
9844.000000;1.255959
9843.000000;1.254365
9842.000000;1.253436
9841.000000;1.253251
9840.000000;1.253031
9839.000000;1.251890
9838.000000;1.249869
9837.000000;1.248032
9836.000000;1.247350
9835.000000;1.247685
9834.000000;1.248102
9833.000000;1.248033
9832.000000;1.247665
9831.000000;1.247169
9830.000000;1.246149
9829.000000;1.244254
9828.000000;1.242045
9827.000000;1.240712
9826.000000;1.240872
9825.000000;1.241911
9824.000000;1.242592
9823.000000;1.242192
9822.000000;1.240990
9821.000000;1.239751
9820.000000;1.238910
9819.000000;1.238274
9818.000000;1.237395
9817.000000;1.236198
9816.000000;1.235211
9815.000000;1.235095
9814.000000;1.235833
9813.000000;1.236476
9812.000000;1.235958
9811.000000;1.234246
9810.000000;1.232400
9809.000000;1.231353
9808.000000;1.230963
9807.000000;1.230493
9806.000000;1.229707
9805.000000;1.228931
9804.000000;1.228156
9803.000000;1.226799
9802.000000;1.224625
9801.000000;1.222381
9800.000000;1.221099
9799.000000;1.221003
9798.000000;1.221385
9797.000000;1.221342
9796.000000;1.220458
9795.000000;1.219035
9794.000000;1.217950
9793.000000;1.218055
9792.000000;1.219357
9791.000000;1.220833
9790.000000;1.221309
9789.000000;1.220501
9788.000000;1.219062
9787.000000;1.217801
9786.000000;1.217138
9785.000000;1.217108
9784.000000;1.217447
9783.000000;1.217634
9782.000000;1.217161
9781.000000;1.215901
9780.000000;1.214241
9779.000000;1.212804
9778.000000;1.211952
9777.000000;1.211432
9776.000000;1.210571
9775.000000;1.209043
9774.000000;1.207434
9773.000000;1.206737
9772.000000;1.207201
9771.000000;1.207991
9770.000000;1.208053
9769.000000;1.206991
9768.000000;1.205001
9767.000000;1.202499
9766.000000;1.200226
9765.000000;1.199164
9764.000000;1.199686
9763.000000;1.200922
9762.000000;1.201479
9761.000000;1.200799
9760.000000;1.199425
9759.000000;1.198068
9758.000000;1.196945
9757.000000;1.196009
9756.000000;1.195306
9755.000000;1.194883
9754.000000;1.194623
9753.000000;1.194337
9752.000000;1.193955
9751.000000;1.193586
9750.000000;1.193402
9749.000000;1.193344
9748.000000;1.192902
9747.000000;1.191509
9746.000000;1.189358
9745.000000;1.187472
9744.000000;1.186636
9743.000000;1.186499
9742.000000;1.186105
9741.000000;1.185100
9740.000000;1.183958
9739.000000;1.183134
9738.000000;1.182559
9737.000000;1.182000
9736.000000;1.181473
9735.000000;1.181106
9734.000000;1.180863
9733.000000;1.180529
9732.000000;1.179827
9731.000000;1.178610
9730.000000;1.177142
9729.000000;1.176072
9728.000000;1.175834
9727.000000;1.176098
9726.000000;1.176070
9725.000000;1.175314
9724.000000;1.174049
9723.000000;1.172777
9722.000000;1.171955
9721.000000;1.171918
9720.000000;1.172675
9719.000000;1.173719
9718.000000;1.174348
9717.000000;1.174260
9716.000000;1.173631
9715.000000;1.172723
9714.000000;1.171699
9713.000000;1.170741
9712.000000;1.169936
9711.000000;1.169022
9710.000000;1.167596
9709.000000;1.165644
9708.000000;1.163603
9707.000000;1.161864
9706.000000;1.160491
9705.000000;1.159446
9704.000000;1.158697
9703.000000;1.158075
9702.000000;1.157373
9701.000000;1.156704
9700.000000;1.156451
9699.000000;1.156718
9698.000000;1.157082
9697.000000;1.157037
9696.000000;1.156509
9695.000000;1.155822
9694.000000;1.155315
9693.000000;1.155062
9692.000000;1.154815
9691.000000;1.154150
9690.000000;1.152838
9689.000000;1.151096
9688.000000;1.149351
9687.000000;1.147804
9686.000000;1.146403
9685.000000;1.145185
9684.000000;1.144363
9683.000000;1.144020
9682.000000;1.143906
9681.000000;1.143657
9680.000000;1.143116
9679.000000;1.142473
9678.000000;1.142126
9677.000000;1.142303
9676.000000;1.142685
9675.000000;1.142565
9674.000000;1.141607
9673.000000;1.140298
9672.000000;1.139384
9671.000000;1.139008
9670.000000;1.138745
9669.000000;1.138329
9668.000000;1.137955
9667.000000;1.137827
9666.000000;1.137783
9665.000000;1.137454
9664.000000;1.136599
9663.000000;1.135302
9662.000000;1.134058
9661.000000;1.133556
9660.000000;1.134014
9659.000000;1.134770
9658.000000;1.134868
9657.000000;1.134025
9656.000000;1.132674
9655.000000;1.131199
9654.000000;1.129667
9653.000000;1.128292
9652.000000;1.127544
9651.000000;1.127540
9650.000000;1.127779
9649.000000;1.127771
9648.000000;1.127585
9647.000000;1.127463
9646.000000;1.127214
9645.000000;1.126319
9644.000000;1.124520
9643.000000;1.122128
9642.000000;1.119862
9641.000000;1.118495
9640.000000;1.118347
9639.000000;1.118909
9638.000000;1.119166
9637.000000;1.118530
9636.000000;1.117283
9635.000000;1.116035
9634.000000;1.115032
9633.000000;1.114184
9632.000000;1.113456
9631.000000;1.112903
9630.000000;1.112496
9629.000000;1.112189
9628.000000;1.112055
9627.000000;1.112138
9626.000000;1.112259
9625.000000;1.112190
9624.000000;1.111903
9623.000000;1.111452
9622.000000;1.110738
9621.000000;1.109640
9620.000000;1.108296
9619.000000;1.107005
9618.000000;1.105867
9617.000000;1.104767
9616.000000;1.103727
9615.000000;1.103009
9614.000000;1.102775
9613.000000;1.102831
9612.000000;1.102801
9611.000000;1.102450
9610.000000;1.101772
9609.000000;1.100927
9608.000000;1.100206
9607.000000;1.099897
9606.000000;1.099936
9605.000000;1.099759
9604.000000;1.098794
9603.000000;1.097209
9602.000000;1.095884
9601.000000;1.095404
9600.000000;1.095280
9599.000000;1.094522
9598.000000;1.092911
9597.000000;1.091292
9596.000000;1.090513
9595.000000;1.090507
9594.000000;1.090634
9593.000000;1.090564
9592.000000;1.090432
9591.000000;1.090330
9590.000000;1.090104
9589.000000;1.089611
9588.000000;1.088831
9587.000000;1.087710
9586.000000;1.086216
9585.000000;1.084598
9584.000000;1.083297
9583.000000;1.082483
9582.000000;1.081874
9581.000000;1.081108
9580.000000;1.080196
9579.000000;1.079501
9578.000000;1.079316
9577.000000;1.079457
9576.000000;1.079258
9575.000000;1.078108
9574.000000;1.076140
9573.000000;1.074276
9572.000000;1.073352
9571.000000;1.073293
9570.000000;1.073330
9569.000000;1.072980
9568.000000;1.072537
9567.000000;1.072563
9566.000000;1.073126
9565.000000;1.073702
9564.000000;1.073730
9563.000000;1.073154
9562.000000;1.072418
9561.000000;1.071920
9560.000000;1.071529
9559.000000;1.070770
9558.000000;1.069525
9557.000000;1.068282
9556.000000;1.067545
9555.000000;1.067231
9554.000000;1.066902
9553.000000;1.066368
9552.000000;1.065748
9551.000000;1.065095
9550.000000;1.064339
9549.000000;1.063573
9548.000000;1.063005
9547.000000;1.062615
9546.000000;1.062150
9545.000000;1.061485
9544.000000;1.060709
9543.000000;1.059880
9542.000000;1.059026
9541.000000;1.058351
9540.000000;1.058084
9539.000000;1.058049
9538.000000;1.057748
9537.000000;1.056974
9536.000000;1.056019
9535.000000;1.055189
9534.000000;1.054391
9533.000000;1.053388
9532.000000;1.052219
9531.000000;1.051201
9530.000000;1.050590
9529.000000;1.050362
9528.000000;1.050229
9527.000000;1.049934
9526.000000;1.049615
9525.000000;1.049711
9524.000000;1.050270
9523.000000;1.050555
9522.000000;1.049775
9521.000000;1.048141
9520.000000;1.046706
9519.000000;1.046104
9518.000000;1.045941
9517.000000;1.045588
9516.000000;1.045057
9515.000000;1.044767
9514.000000;1.044832
9513.000000;1.044967
9512.000000;1.044876
9511.000000;1.044353
9510.000000;1.043206
9509.000000;1.041449
9508.000000;1.039517
9507.000000;1.038000
9506.000000;1.037094
9505.000000;1.036485
9504.000000;1.035751
9503.000000;1.034751
9502.000000;1.033702
9501.000000;1.032965
9500.000000;1.032709
9499.000000;1.032715
9498.000000;1.032607
9497.000000;1.032303
9496.000000;1.032064
9495.000000;1.032030
9494.000000;1.031985
9493.000000;1.031707
9492.000000;1.031237
9491.000000;1.030585
9490.000000;1.029472
9489.000000;1.027782
9488.000000;1.026088
9487.000000;1.025257
9486.000000;1.025485
9485.000000;1.026065
9484.000000;1.026192
9483.000000;1.025705
9482.000000;1.024937
9481.000000;1.024137
9480.000000;1.023279
9479.000000;1.022326
9478.000000;1.021395
9477.000000;1.020623
9476.000000;1.020051
9475.000000;1.019718
9474.000000;1.019767
9473.000000;1.020272
9472.000000;1.020937
9471.000000;1.021100
9470.000000;1.020225
9469.000000;1.018423
9468.000000;1.016369
9467.000000;1.014690
9466.000000;1.013555
9465.000000;1.012854
9464.000000;1.012550
9463.000000;1.012688
9462.000000;1.013153
9461.000000;1.013643
9460.000000;1.013913
9459.000000;1.013932
9458.000000;1.013784
9457.000000;1.013508
9456.000000;1.013119
9455.000000;1.012668
9454.000000;1.012178
9453.000000;1.011582
9452.000000;1.010826
9451.000000;1.010043
9450.000000;1.009473
9449.000000;1.009119
9448.000000;1.008619
9447.000000;1.007673
9446.000000;1.006538
9445.000000;1.005841
9444.000000;1.005797
9443.000000;1.005843
9442.000000;1.005261
9441.000000;1.004028
9440.000000;1.002802
9439.000000;1.002125
9438.000000;1.001911
9437.000000;1.001770
9436.000000;1.001571
9435.000000;1.001506
9434.000000;1.001712
9433.000000;1.001988
9432.000000;1.001895
9431.000000;1.001057
9430.000000;0.999406
9429.000000;0.997243
9428.000000;0.995099
9427.000000;0.993494
9426.000000;0.992722
9425.000000;0.992696
9424.000000;0.992973
9423.000000;0.993082
9422.000000;0.992947
9421.000000;0.992930
9420.000000;0.993316
9419.000000;0.993793
9418.000000;0.993654
9417.000000;0.992522
9416.000000;0.990751
9415.000000;0.989066
9414.000000;0.987963
9413.000000;0.987501
9412.000000;0.987476
9411.000000;0.987618
9410.000000;0.987640
9409.000000;0.987276
9408.000000;0.986401
9407.000000;0.985155
9406.000000;0.983896
9405.000000;0.982969
9404.000000;0.982471
9403.000000;0.982269
9402.000000;0.982211
9401.000000;0.982236
9400.000000;0.982254
9399.000000;0.982093
9398.000000;0.981655
9397.000000;0.981070
9396.000000;0.980528
9395.000000;0.980007
9394.000000;0.979276
9393.000000;0.978185
9392.000000;0.976883
9391.000000;0.975768
9390.000000;0.975222
9389.000000;0.975281
9388.000000;0.975506
9387.000000;0.975363
9386.000000;0.974831
9385.000000;0.974475
9384.000000;0.974699
9383.000000;0.975145
9382.000000;0.975100
9381.000000;0.974432
9380.000000;0.973704
9379.000000;0.973333
9378.000000;0.973053
9377.000000;0.972390
9376.000000;0.971358
9375.000000;0.970399
9374.000000;0.969782
9373.000000;0.969360
9372.000000;0.968873
9371.000000;0.968277
9370.000000;0.967709
9369.000000;0.967257
9368.000000;0.966845
9367.000000;0.966290
9366.000000;0.965494
9365.000000;0.964608
9364.000000;0.963956
9363.000000;0.963681
9362.000000;0.963512
9361.000000;0.963014
9360.000000;0.962117
9359.000000;0.961280
9358.000000;0.961065
9357.000000;0.961541
9356.000000;0.962136
9355.000000;0.962117
9354.000000;0.961222
9353.000000;0.959823
9352.000000;0.958503
9351.000000;0.957508
9350.000000;0.956638
9349.000000;0.955641
9348.000000;0.954617
9347.000000;0.953956
9346.000000;0.953875
9345.000000;0.954131
9344.000000;0.954274
9343.000000;0.954144
9342.000000;0.954004
9341.000000;0.954115
9340.000000;0.954310
9339.000000;0.954127
9338.000000;0.953357
9337.000000;0.952314
9336.000000;0.951543
9335.000000;0.951317
9334.000000;0.951434
9333.000000;0.951415
9332.000000;0.950907
9331.000000;0.950018
9330.000000;0.949258
9329.000000;0.949090
9328.000000;0.949507
9327.000000;0.950074
9326.000000;0.950302
9325.000000;0.949917
9324.000000;0.948909
9323.000000;0.947575
9322.000000;0.946452
9321.000000;0.945939
9320.000000;0.945866
9319.000000;0.945645
9318.000000;0.944917
9317.000000;0.943905
9316.000000;0.943053
9315.000000;0.942555
9314.000000;0.942339
9313.000000;0.942303
9312.000000;0.942337
9311.000000;0.942250
9310.000000;0.941869
9309.000000;0.941186
9308.000000;0.940321
9307.000000;0.939422
9306.000000;0.938656
9305.000000;0.938154
9304.000000;0.937834
9303.000000;0.937432
9302.000000;0.936807
9301.000000;0.936139
9300.000000;0.935704
9299.000000;0.935602
9298.000000;0.935748
9297.000000;0.935953
9296.000000;0.935935
9295.000000;0.935452
9294.000000;0.934593
9293.000000;0.933748
9292.000000;0.933148
9291.000000;0.932625
9290.000000;0.931989
9289.000000;0.931384
9288.000000;0.930997
9287.000000;0.930650
9286.000000;0.930022
9285.000000;0.929168
9284.000000;0.928472
9283.000000;0.928121
9282.000000;0.927954
9281.000000;0.927802
9280.000000;0.927689
9279.000000;0.927641
9278.000000;0.927561
9277.000000;0.927343
9276.000000;0.926959
9275.000000;0.926413
9274.000000;0.925793
9273.000000;0.925339
9272.000000;0.925207
9271.000000;0.925153
9270.000000;0.924741
9269.000000;0.923937
9268.000000;0.923187
9267.000000;0.922800
9266.000000;0.922485
9265.000000;0.921747
9264.000000;0.920611
9263.000000;0.919671
9262.000000;0.919415
9261.000000;0.919724
9260.000000;0.920066
9259.000000;0.920017
9258.000000;0.919472
9257.000000;0.918530
9256.000000;0.917414
9255.000000;0.916496
9254.000000;0.916163
9253.000000;0.916446
9252.000000;0.916922
9251.000000;0.917163
9250.000000;0.917202
9249.000000;0.917313
9248.000000;0.917438
9247.000000;0.917165
9246.000000;0.916317
9245.000000;0.915257
9244.000000;0.914487
9243.000000;0.914149
9242.000000;0.914057
9241.000000;0.913973
9240.000000;0.913698
9239.000000;0.913134
9238.000000;0.912430
9237.000000;0.911920
9236.000000;0.911735
9235.000000;0.911661
9234.000000;0.911469
9233.000000;0.911144
9232.000000;0.910666
9231.000000;0.909897
9230.000000;0.908936
9229.000000;0.908268
9228.000000;0.908177
9227.000000;0.908263
9226.000000;0.907941
9225.000000;0.907276
9224.000000;0.906847
9223.000000;0.906896
9222.000000;0.907065
9221.000000;0.907020
9220.000000;0.906889
9219.000000;0.906939
9218.000000;0.907113
9217.000000;0.907084
9216.000000;0.906555
9215.000000;0.905439
9214.000000;0.903952
9213.000000;0.902593
9212.000000;0.901830
9211.000000;0.901673
9210.000000;0.901705
9209.000000;0.901555
9208.000000;0.901216
9207.000000;0.900875
9206.000000;0.900639
9205.000000;0.900530
9204.000000;0.900547
9203.000000;0.900593
9202.000000;0.900437
9201.000000;0.899906
9200.000000;0.899129
9199.000000;0.898492
9198.000000;0.898286
9197.000000;0.898361
9196.000000;0.898197
9195.000000;0.897437
9194.000000;0.896328
9193.000000;0.895464
9192.000000;0.895083
9191.000000;0.894877
9190.000000;0.894579
9189.000000;0.894396
9188.000000;0.894607
9187.000000;0.895000
9186.000000;0.895116
9185.000000;0.894896
9184.000000;0.894709
9183.000000;0.894753
9182.000000;0.894797
9181.000000;0.894590
9180.000000;0.894216
9179.000000;0.893889
9178.000000;0.893634
9177.000000;0.893247
9176.000000;0.892476
9175.000000;0.891255
9174.000000;0.889913
9173.000000;0.889081
9172.000000;0.889177
9171.000000;0.889911
9170.000000;0.890469
9169.000000;0.890233
9168.000000;0.889233
9167.000000;0.887960
9166.000000;0.886926
9165.000000;0.886386
9164.000000;0.886214
9163.000000;0.886001
9162.000000;0.885473
9161.000000;0.884819
9160.000000;0.884482
9159.000000;0.884615
9158.000000;0.884933
9157.000000;0.885110
9156.000000;0.885091
9155.000000;0.884943
9154.000000;0.884642
9153.000000;0.884142
9152.000000;0.883539
9151.000000;0.883044
9150.000000;0.882791
9149.000000;0.882704
9148.000000;0.882520
9147.000000;0.881999
9146.000000;0.881194
9145.000000;0.880457
9144.000000;0.880122
9143.000000;0.880227
9142.000000;0.880601
9141.000000;0.881071
9140.000000;0.881459
9139.000000;0.881557
9138.000000;0.881326
9137.000000;0.880993
9136.000000;0.880712
9135.000000;0.880267
9134.000000;0.879388
9133.000000;0.878300
9132.000000;0.877612
9131.000000;0.877654
9130.000000;0.878159
9129.000000;0.878578
9128.000000;0.878471
9127.000000;0.877684
9126.000000;0.876482
9125.000000;0.875552
9124.000000;0.875464
9123.000000;0.876009
9122.000000;0.876345
9121.000000;0.875949
9120.000000;0.875142
9119.000000;0.874547
9118.000000;0.874349
9117.000000;0.874261
9116.000000;0.873996
9115.000000;0.873509
9114.000000;0.872921
9113.000000;0.872443
9112.000000;0.872292
9111.000000;0.872491
9110.000000;0.872780
9109.000000;0.872810
9108.000000;0.872464
9107.000000;0.871919
9106.000000;0.871443
9105.000000;0.871141
9104.000000;0.870838
9103.000000;0.870224
9102.000000;0.869237
9101.000000;0.868270
9100.000000;0.867849
9099.000000;0.868059
9098.000000;0.868473
9097.000000;0.868665
9096.000000;0.868616
9095.000000;0.868533
9094.000000;0.868480
9093.000000;0.868350
9092.000000;0.868086
9091.000000;0.867739
9090.000000;0.867346
9089.000000;0.866874
9088.000000;0.866282
9087.000000;0.865603
9086.000000;0.864952
9085.000000;0.864474
9084.000000;0.864241
9083.000000;0.864201
9082.000000;0.864261
9081.000000;0.864361
9080.000000;0.864430
9079.000000;0.864319
9078.000000;0.863932
9077.000000;0.863384
9076.000000;0.862884
9075.000000;0.862474
9074.000000;0.862057
9073.000000;0.861688
9072.000000;0.861643
9071.000000;0.862100
9070.000000;0.862834
9069.000000;0.863348
9068.000000;0.863298
9067.000000;0.862755
9066.000000;0.862079
9065.000000;0.861542
9064.000000;0.861056
9063.000000;0.860347
9062.000000;0.859403
9061.000000;0.858633
9060.000000;0.858437
9059.000000;0.858730
9058.000000;0.859081
9057.000000;0.859237
9056.000000;0.859297
9055.000000;0.859382
9054.000000;0.859381
9053.000000;0.859106
