Criado como novo conjunto de dados;"1909daniel.spp","-4237182.3 Secs"
cm-1;Abs
10000.000000;1.627033
9999.000000;1.624458
9998.000000;1.620761
9997.000000;1.617697
9996.000000;1.616544
9995.000000;1.616788
9994.000000;1.617587
9993.000000;1.618189
9992.000000;1.618339
9991.000000;1.617505
9990.000000;1.615277
9989.000000;1.612128
9988.000000;1.609507
9987.000000;1.608554
9986.000000;1.608926
9985.000000;1.609110
9984.000000;1.607939
9983.000000;1.605628
9982.000000;1.603362
9981.000000;1.602149
9980.000000;1.602076
9979.000000;1.602453
9978.000000;1.602656
9977.000000;1.602821
9976.000000;1.603520
9975.000000;1.604682
9974.000000;1.605242
9973.000000;1.604251
9972.000000;1.602055
9971.000000;1.599905
9970.000000;1.598568
9969.000000;1.597845
9968.000000;1.597393
9967.000000;1.597322
9966.000000;1.597715
9965.000000;1.598058
9964.000000;1.597671
9963.000000;1.596530
9962.000000;1.595265
9961.000000;1.594487
9960.000000;1.594238
9959.000000;1.593890
9958.000000;1.592591
9957.000000;1.590151
9956.000000;1.587514
9955.000000;1.585979
9954.000000;1.585862
9953.000000;1.586370
9952.000000;1.586796
9951.000000;1.587200
9950.000000;1.587631
9949.000000;1.587552
9948.000000;1.586716
9947.000000;1.586041
9946.000000;1.586555
9945.000000;1.587711
9944.000000;1.587759
9943.000000;1.585926
9942.000000;1.583369
9941.000000;1.581733
9940.000000;1.581504
9939.000000;1.581972
9938.000000;1.582117
9937.000000;1.581223
9936.000000;1.579201
9935.000000;1.576821
9934.000000;1.575280
9933.000000;1.575089
9932.000000;1.575532
9931.000000;1.575471
9930.000000;1.574520
9929.000000;1.573196
9928.000000;1.572117
9927.000000;1.571377
9926.000000;1.570627
9925.000000;1.569526
9924.000000;1.568131
9923.000000;1.566953
9922.000000;1.566541
9921.000000;1.566831
9920.000000;1.566916
9919.000000;1.565781
9918.000000;1.563443
9917.000000;1.561182
9916.000000;1.560404
9915.000000;1.561179
9914.000000;1.562063
9913.000000;1.561673
9912.000000;1.560334
9911.000000;1.559623
9910.000000;1.560318
9909.000000;1.561462
9908.000000;1.561768
9907.000000;1.561248
9906.000000;1.560732
9905.000000;1.560281
9904.000000;1.559126
9903.000000;1.557072
9902.000000;1.555013
9901.000000;1.553784
9900.000000;1.553311
9899.000000;1.553229
9898.000000;1.553597
9897.000000;1.554453
9896.000000;1.555140
9895.000000;1.554671
9894.000000;1.552707
9893.000000;1.549861
9892.000000;1.547136
9891.000000;1.545275
9890.000000;1.544497
9889.000000;1.544548
9888.000000;1.544949
9887.000000;1.545275
9886.000000;1.545245
9885.000000;1.544798
9884.000000;1.544281
9883.000000;1.544259
9882.000000;1.544719
9881.000000;1.544660
9880.000000;1.543133
9879.000000;1.540650
9878.000000;1.538847
9877.000000;1.538583
9876.000000;1.539014
9875.000000;1.538715
9874.000000;1.537134
9873.000000;1.534637
9872.000000;1.531859
9871.000000;1.529598
9870.000000;1.528763
9869.000000;1.529622
9868.000000;1.531215
9867.000000;1.532015
9866.000000;1.531133
9865.000000;1.528681
9864.000000;1.525398
9863.000000;1.522429
9862.000000;1.521034
9861.000000;1.521695
9860.000000;1.523482
9859.000000;1.524806
9858.000000;1.524837
9857.000000;1.523928
9856.000000;1.522838
9855.000000;1.522041
9854.000000;1.521590
9853.000000;1.521086
9852.000000;1.519923
9851.000000;1.518069
9850.000000;1.516456
9849.000000;1.516040
9848.000000;1.516543
9847.000000;1.516739
9846.000000;1.515978
9845.000000;1.514806
9844.000000;1.513927
9843.000000;1.513251
9842.000000;1.512271
9841.000000;1.510963
9840.000000;1.509887
9839.000000;1.509612
9838.000000;1.510256
9837.000000;1.511394
9836.000000;1.512268
9835.000000;1.512328
9834.000000;1.511707
9833.000000;1.510978
9832.000000;1.510414
9831.000000;1.509827
9830.000000;1.509150
9829.000000;1.508730
9828.000000;1.508809
9827.000000;1.508945
9826.000000;1.508300
9825.000000;1.506505
9824.000000;1.504076
9823.000000;1.502022
9822.000000;1.501026
9821.000000;1.500911
9820.000000;1.500945
9819.000000;1.500633
9818.000000;1.500099
9817.000000;1.499602
9816.000000;1.498948
9815.000000;1.497746
9814.000000;1.496177
9813.000000;1.494984
9812.000000;1.494671
9811.000000;1.495082
9810.000000;1.495757
9809.000000;1.496222
9808.000000;1.495853
9807.000000;1.494089
9806.000000;1.491223
9805.000000;1.488602
9804.000000;1.487484
9803.000000;1.487862
9802.000000;1.488728
9801.000000;1.489251
9800.000000;1.489368
9799.000000;1.489305
9798.000000;1.488916
9797.000000;1.487734
9796.000000;1.485645
9795.000000;1.483397
9794.000000;1.482235
9793.000000;1.482764
9792.000000;1.484156
9791.000000;1.484757
9790.000000;1.483582
9789.000000;1.480983
9788.000000;1.477898
9787.000000;1.474993
9786.000000;1.472709
9785.000000;1.471467
9784.000000;1.471340
9783.000000;1.471875
9782.000000;1.472669
9781.000000;1.473879
9780.000000;1.475712
9779.000000;1.477686
9778.000000;1.478960
9777.000000;1.479281
9776.000000;1.479044
9775.000000;1.478429
9774.000000;1.477108
9773.000000;1.474988
9772.000000;1.472652
9771.000000;1.470722
9770.000000;1.469224
9769.000000;1.467818
9768.000000;1.466297
9767.000000;1.464773
9766.000000;1.463578
9765.000000;1.463048
9764.000000;1.463218
9763.000000;1.463658
9762.000000;1.463836
9761.000000;1.463790
9760.000000;1.464159
9759.000000;1.465296
9758.000000;1.466489
9757.000000;1.466445
9756.000000;1.464645
9755.000000;1.461952
9754.000000;1.459753
9753.000000;1.458691
9752.000000;1.458275
9751.000000;1.457548
9750.000000;1.455944
9749.000000;1.453667
9748.000000;1.451558
9747.000000;1.450588
9746.000000;1.451107
9745.000000;1.452350
9744.000000;1.452906
9743.000000;1.452017
9742.000000;1.450375
9741.000000;1.449389
9740.000000;1.449757
9739.000000;1.450927
9738.000000;1.451726
9737.000000;1.451259
9736.000000;1.449329
9735.000000;1.446550
9734.000000;1.444147
9733.000000;1.443063
9732.000000;1.443025
9731.000000;1.442905
9730.000000;1.442167
9729.000000;1.441421
9728.000000;1.441243
9727.000000;1.441136
9726.000000;1.440306
9725.000000;1.439070
9724.000000;1.438640
9723.000000;1.439620
9722.000000;1.441390
9721.000000;1.442891
9720.000000;1.443355
9719.000000;1.442329
9718.000000;1.439857
9717.000000;1.436898
9716.000000;1.434801
9715.000000;1.433938
9714.000000;1.433335
9713.000000;1.432015
9712.000000;1.430273
9711.000000;1.429201
9710.000000;1.429337
9709.000000;1.430211
9708.000000;1.430940
9707.000000;1.430870
9706.000000;1.429868
9705.000000;1.428475
9704.000000;1.427647
9703.000000;1.427857
9702.000000;1.428423
9701.000000;1.428114
9700.000000;1.426529
9699.000000;1.424545
9698.000000;1.423325
9697.000000;1.423128
9696.000000;1.423160
9695.000000;1.422404
9694.000000;1.420510
9693.000000;1.418086
9692.000000;1.416241
9691.000000;1.415706
9690.000000;1.416310
9689.000000;1.417280
9688.000000;1.417966
9687.000000;1.418170
9686.000000;1.417929
9685.000000;1.417256
9684.000000;1.416189
9683.000000;1.414896
9682.000000;1.413568
9681.000000;1.412251
9680.000000;1.410925
9679.000000;1.409744
9678.000000;1.409016
9677.000000;1.408900
9676.000000;1.409083
9675.000000;1.408853
9674.000000;1.407708
9673.000000;1.405996
9672.000000;1.404766
9671.000000;1.404761
9670.000000;1.405542
9669.000000;1.405810
9668.000000;1.404704
9667.000000;1.402637
9666.000000;1.400794
9665.000000;1.399928
9664.000000;1.399773
9663.000000;1.399544
9662.000000;1.398827
9661.000000;1.397855
9660.000000;1.396971
9659.000000;1.396095
9658.000000;1.394939
9657.000000;1.393633
9656.000000;1.392711
9655.000000;1.392410
9654.000000;1.392284
9653.000000;1.391798
9652.000000;1.391150
9651.000000;1.391097
9650.000000;1.391915
9649.000000;1.392871
9648.000000;1.392879
9647.000000;1.391580
9646.000000;1.389644
9645.000000;1.388104
9644.000000;1.387484
9643.000000;1.387489
9642.000000;1.387373
9641.000000;1.386587
9640.000000;1.385239
9639.000000;1.384001
9638.000000;1.383500
9637.000000;1.383732
9636.000000;1.383997
9635.000000;1.383459
9634.000000;1.381861
9633.000000;1.379721
9632.000000;1.377791
9631.000000;1.376417
9630.000000;1.375552
9629.000000;1.375235
9628.000000;1.375619
9627.000000;1.376538
9626.000000;1.377420
9625.000000;1.377781
9624.000000;1.377563
9623.000000;1.376834
9622.000000;1.375516
9621.000000;1.373716
9620.000000;1.372000
9619.000000;1.370967
9618.000000;1.370696
9617.000000;1.370849
9616.000000;1.371184
9615.000000;1.371583
9614.000000;1.371702
9613.000000;1.371195
9612.000000;1.370377
9611.000000;1.370112
9610.000000;1.370739
9609.000000;1.371449
9608.000000;1.371060
9607.000000;1.369248
9606.000000;1.366751
9605.000000;1.364549
9604.000000;1.363166
9603.000000;1.362544
9602.000000;1.362169
9601.000000;1.361418
9600.000000;1.360089
9599.000000;1.358746
9598.000000;1.358325
9597.000000;1.359147
9596.000000;1.360487
9595.000000;1.361195
9594.000000;1.360573
9593.000000;1.358703
9592.000000;1.356186
9591.000000;1.353735
9590.000000;1.351948
9589.000000;1.351228
9588.000000;1.351751
9587.000000;1.353295
9586.000000;1.355026
9585.000000;1.355716
9584.000000;1.354626
9583.000000;1.352291
9582.000000;1.350144
9581.000000;1.349192
9580.000000;1.349253
9579.000000;1.349537
9578.000000;1.349621
9577.000000;1.349655
9576.000000;1.349898
9575.000000;1.350404
9574.000000;1.351088
9573.000000;1.351649
9572.000000;1.351358
9571.000000;1.349430
9570.000000;1.345981
9569.000000;1.342356
9568.000000;1.340067
9567.000000;1.339474
9566.000000;1.339739
9565.000000;1.339918
9564.000000;1.339750
9563.000000;1.339372
9562.000000;1.338766
9561.000000;1.337851
9560.000000;1.336876
9559.000000;1.336330
9558.000000;1.336463
9557.000000;1.337113
9556.000000;1.337892
9555.000000;1.338239
9554.000000;1.337392
9553.000000;1.334894
9552.000000;1.331427
9551.000000;1.328725
9550.000000;1.328157
9549.000000;1.329421
9548.000000;1.330929
9547.000000;1.331472
9546.000000;1.331185
9545.000000;1.330816
9544.000000;1.330624
9543.000000;1.330363
9542.000000;1.329911
9541.000000;1.329340
9540.000000;1.328505
9539.000000;1.327091
9538.000000;1.325155
9537.000000;1.323172
9536.000000;1.321440
9535.000000;1.319859
9534.000000;1.318489
9533.000000;1.317911
9532.000000;1.318626
9531.000000;1.320230
9530.000000;1.321524
9529.000000;1.321489
9528.000000;1.320057
9527.000000;1.318006
9526.000000;1.316329
9525.000000;1.315612
9524.000000;1.315740
9523.000000;1.316118
9522.000000;1.316244
9521.000000;1.316070
9520.000000;1.315742
9519.000000;1.315189
9518.000000;1.314263
9517.000000;1.313195
9516.000000;1.312556
9515.000000;1.312671
9514.000000;1.313277
9513.000000;1.313827
9512.000000;1.313900
9511.000000;1.313281
9510.000000;1.311970
9509.000000;1.310300
9508.000000;1.308877
9507.000000;1.308135
9506.000000;1.307945
9505.000000;1.307719
9504.000000;1.306954
9503.000000;1.305709
9502.000000;1.304656
9501.000000;1.304597
9500.000000;1.305682
9499.000000;1.307038
9498.000000;1.307409
9497.000000;1.306376
9496.000000;1.304783
9495.000000;1.303810
9494.000000;1.303833
9493.000000;1.304279
9492.000000;1.304344
9491.000000;1.303660
9490.000000;1.302446
9489.000000;1.301260
9488.000000;1.300615
9487.000000;1.300566
9486.000000;1.300570
9485.000000;1.299937
9484.000000;1.298479
9483.000000;1.296571
9482.000000;1.294661
9481.000000;1.292967
9480.000000;1.291693
9479.000000;1.291206
9478.000000;1.291652
9477.000000;1.292494
9476.000000;1.292708
9475.000000;1.291650
9474.000000;1.289683
9473.000000;1.287887
9472.000000;1.287184
9471.000000;1.287749
9470.000000;1.289098
9469.000000;1.290529
9468.000000;1.291459
9467.000000;1.291549
9466.000000;1.290752
9465.000000;1.289316
9464.000000;1.287632
9463.000000;1.285984
9462.000000;1.284371
9461.000000;1.282585
9460.000000;1.280546
9459.000000;1.278591
9458.000000;1.277338
9457.000000;1.277175
9456.000000;1.277906
9455.000000;1.278937
9454.000000;1.279692
9453.000000;1.279784
9452.000000;1.279004
9451.000000;1.277505
9450.000000;1.275916
9449.000000;1.274840
9448.000000;1.274203
9447.000000;1.273547
9446.000000;1.273004
9445.000000;1.273296
9444.000000;1.274464
9443.000000;1.275297
9442.000000;1.274718
9441.000000;1.273265
9440.000000;1.272417
9439.000000;1.272783
9438.000000;1.273778
9437.000000;1.274781
9436.000000;1.275618
9435.000000;1.275957
9434.000000;1.275339
9433.000000;1.274075
9432.000000;1.273097
9431.000000;1.272517
9430.000000;1.271310
9429.000000;1.269048
9428.000000;1.266947
9427.000000;1.266332
9426.000000;1.266780
9425.000000;1.266835
9424.000000;1.266137
9423.000000;1.265693
9422.000000;1.266191
9421.000000;1.267108
9420.000000;1.267578
9419.000000;1.267290
9418.000000;1.266273
9417.000000;1.264504
9416.000000;1.262189
9415.000000;1.259983
9414.000000;1.258625
9413.000000;1.258520
9412.000000;1.259612
9411.000000;1.261266
9410.000000;1.262310
9409.000000;1.261805
9408.000000;1.259993
9407.000000;1.258082
9406.000000;1.256958
9405.000000;1.256556
9404.000000;1.256476
9403.000000;1.256611
9402.000000;1.256911
9401.000000;1.257071
9400.000000;1.256909
9399.000000;1.256747
9398.000000;1.256998
9397.000000;1.257507
9396.000000;1.257656
9395.000000;1.257027
9394.000000;1.255740
9393.000000;1.254233
9392.000000;1.252924
9391.000000;1.251978
9390.000000;1.251249
9389.000000;1.250502
9388.000000;1.249723
9387.000000;1.249118
9386.000000;1.248837
9385.000000;1.248892
9384.000000;1.249295
9383.000000;1.249919
9382.000000;1.250218
9381.000000;1.249499
9380.000000;1.247700
9379.000000;1.245604
9378.000000;1.244090
9377.000000;1.243370
9376.000000;1.243127
9375.000000;1.243107
9374.000000;1.243247
9373.000000;1.243430
9372.000000;1.243507
9371.000000;1.243490
9370.000000;1.243441
9369.000000;1.243215
9368.000000;1.242558
9367.000000;1.241412
9366.000000;1.239925
9365.000000;1.238249
9364.000000;1.236633
9363.000000;1.235633
9362.000000;1.235783
9361.000000;1.236860
9360.000000;1.237782
9359.000000;1.237586
9358.000000;1.236405
9357.000000;1.235168
9356.000000;1.234404
9355.000000;1.233736
9354.000000;1.232685
9353.000000;1.231562
9352.000000;1.231102
9351.000000;1.231395
9350.000000;1.231752
9349.000000;1.231771
9348.000000;1.231947
9347.000000;1.232772
9346.000000;1.233705
9345.000000;1.233697
9344.000000;1.232587
9343.000000;1.231239
9342.000000;1.230296
9341.000000;1.229506
9340.000000;1.228485
9339.000000;1.227491
9338.000000;1.227023
9337.000000;1.227069
9336.000000;1.227165
9335.000000;1.226938
9334.000000;1.226265
9333.000000;1.225188
9332.000000;1.224051
9331.000000;1.223464
9330.000000;1.223722
9329.000000;1.224370
9328.000000;1.224680
9327.000000;1.224384
9326.000000;1.223661
9325.000000;1.222624
9324.000000;1.221309
9323.000000;1.220069
9322.000000;1.219446
9321.000000;1.219551
9320.000000;1.219897
9319.000000;1.219951
9318.000000;1.219585
9317.000000;1.218957
9316.000000;1.218205
9315.000000;1.217361
9314.000000;1.216374
9313.000000;1.215244
9312.000000;1.214290
9311.000000;1.214120
9310.000000;1.214951
9309.000000;1.215980
9308.000000;1.215901
9307.000000;1.214236
9306.000000;1.211861
9305.000000;1.210152
9304.000000;1.209896
9303.000000;1.211020
9302.000000;1.212844
9301.000000;1.214326
9300.000000;1.214529
9299.000000;1.213399
9298.000000;1.211896
9297.000000;1.210985
9296.000000;1.210634
9295.000000;1.210137
9294.000000;1.209233
9293.000000;1.208419
9292.000000;1.208110
9291.000000;1.208002
9290.000000;1.207545
9289.000000;1.206701
9288.000000;1.205867
9287.000000;1.205207
9286.000000;1.204478
9285.000000;1.203531
9284.000000;1.202632
9283.000000;1.202083
9282.000000;1.201706
9281.000000;1.201030
9280.000000;1.199988
9279.000000;1.199200
9278.000000;1.199393
9277.000000;1.200609
9276.000000;1.202141
9275.000000;1.203257
9274.000000;1.203786
9273.000000;1.203932
9272.000000;1.203785
9271.000000;1.203219
9270.000000;1.202247
9269.000000;1.201205
9268.000000;1.200383
9267.000000;1.199593
9266.000000;1.198333
9265.000000;1.196467
9264.000000;1.194621
9263.000000;1.193751
9262.000000;1.194272
9261.000000;1.195676
9260.000000;1.196965
9259.000000;1.197410
9258.000000;1.196976
9257.000000;1.196196
9256.000000;1.195673
9255.000000;1.195580
9254.000000;1.195541
9253.000000;1.195082
9252.000000;1.194218
9251.000000;1.193413
9250.000000;1.192898
9249.000000;1.192326
9248.000000;1.191347
9247.000000;1.190307
9246.000000;1.189930
9245.000000;1.190382
9244.000000;1.191077
9243.000000;1.191530
9242.000000;1.191937
9241.000000;1.192619
9240.000000;1.193235
9239.000000;1.193051
9238.000000;1.191878
9237.000000;1.190295
9236.000000;1.188832
9235.000000;1.187370
9234.000000;1.185551
9233.000000;1.183497
9232.000000;1.181812
9231.000000;1.180948
9230.000000;1.180805
9229.000000;1.180950
9228.000000;1.181064
9227.000000;1.181095
9226.000000;1.181129
9225.000000;1.181240
9224.000000;1.181436
9223.000000;1.181656
9222.000000;1.181822
9221.000000;1.181947
9220.000000;1.182173
9219.000000;1.182626
9218.000000;1.183209
9217.000000;1.183589
9216.000000;1.183475
9215.000000;1.182903
9214.000000;1.182155
9213.000000;1.181412
9212.000000;1.180624
9211.000000;1.179764
9210.000000;1.179012
9209.000000;1.178578
9208.000000;1.178464
9207.000000;1.178534
9206.000000;1.178717
9205.000000;1.178969
9204.000000;1.179082
9203.000000;1.178776
9202.000000;1.178022
9201.000000;1.177103
9200.000000;1.176315
9199.000000;1.175788
9198.000000;1.175649
9197.000000;1.176070
9196.000000;1.176936
9195.000000;1.177633
9194.000000;1.177471
9193.000000;1.176374
9192.000000;1.174987
9191.000000;1.174046
9190.000000;1.173773
9189.000000;1.173840
9188.000000;1.173737
9187.000000;1.173154
9186.000000;1.172255
9185.000000;1.171628
9184.000000;1.171737
9183.000000;1.172296
9182.000000;1.172383
9181.000000;1.171399
9180.000000;1.169793
9179.000000;1.168636
9178.000000;1.168579
9177.000000;1.169407
9176.000000;1.170444
9175.000000;1.171075
9174.000000;1.170896
9173.000000;1.169790
9172.000000;1.168151
9171.000000;1.166851
9170.000000;1.166621
9169.000000;1.167396
9168.000000;1.168401
9167.000000;1.168920
9166.000000;1.168872
9165.000000;1.168637
9164.000000;1.168438
9163.000000;1.168068
9162.000000;1.167201
9161.000000;1.165850
9160.000000;1.164424
9159.000000;1.163328
9158.000000;1.162577
9157.000000;1.161891
9156.000000;1.161129
9155.000000;1.160544
9154.000000;1.160552
9153.000000;1.161280
9152.000000;1.162384
9151.000000;1.163249
9150.000000;1.163319
9149.000000;1.162357
9148.000000;1.160624
9147.000000;1.158857
9146.000000;1.157840
9145.000000;1.157763
9144.000000;1.158004
9143.000000;1.157732
9142.000000;1.156827
9141.000000;1.156032
9140.000000;1.156109
9139.000000;1.156993
9138.000000;1.157944
9137.000000;1.158402
9136.000000;1.158407
9135.000000;1.158142
9134.000000;1.157428
9133.000000;1.155976
9132.000000;1.154064
9131.000000;1.152658
9130.000000;1.152651
9129.000000;1.153989
9128.000000;1.155559
9127.000000;1.156046
9126.000000;1.155075
9125.000000;1.153557
9124.000000;1.152814
9123.000000;1.153253
9122.000000;1.154016
9121.000000;1.153989
9120.000000;1.153037
9119.000000;1.152036
9118.000000;1.151819
9117.000000;1.152378
9116.000000;1.153090
9115.000000;1.153365
9114.000000;1.152959
9113.000000;1.151946
9112.000000;1.150723
9111.000000;1.149932
9110.000000;1.150085
9109.000000;1.151095
9108.000000;1.152277
9107.000000;1.152909
9106.000000;1.152814
9105.000000;1.152406
9104.000000;1.152245
9103.000000;1.152521
9102.000000;1.152871
9101.000000;1.152677
9100.000000;1.151596
9099.000000;1.149866
9098.000000;1.148127
9097.000000;1.147002
9096.000000;1.146774
9095.000000;1.147263
9094.000000;1.147890
9093.000000;1.147980
9092.000000;1.147274
9091.000000;1.146208
9090.000000;1.145560
9089.000000;1.145699
9088.000000;1.146198
9087.000000;1.146293
9086.000000;1.145680
9085.000000;1.144726
9084.000000;1.143918
9083.000000;1.143359
9082.000000;1.142984
9081.000000;1.143066
9080.000000;1.144042
9079.000000;1.145679
9078.000000;1.146749
9077.000000;1.146015
9076.000000;1.143553
9075.000000;1.140730
9074.000000;1.138890
9073.000000;1.138388
9072.000000;1.138896
9071.000000;1.140107
9070.000000;1.141759
9069.000000;1.143321
9068.000000;1.144226
9067.000000;1.144392
9066.000000;1.144140
9065.000000;1.143608
9064.000000;1.142631
9063.000000;1.141221
9062.000000;1.139739
9061.000000;1.138449
9060.000000;1.137276
9059.000000;1.136208
9058.000000;1.135597
9057.000000;1.135734
9056.000000;1.136321
9055.000000;1.136717
9054.000000;1.136616
9053.000000;1.136223
