Criado como novo conjunto de dados;"1909daniel.spp","-4219001.3 Secs"
cm-1;Abs
10000.000000;1.433328
9999.000000;1.432987
9998.000000;1.432086
9997.000000;1.430809
9996.000000;1.429948
9995.000000;1.429975
9994.000000;1.430366
9993.000000;1.430192
9992.000000;1.429155
9991.000000;1.427800
9990.000000;1.426919
9989.000000;1.426904
9988.000000;1.427397
9987.000000;1.427472
9986.000000;1.426465
9985.000000;1.424728
9984.000000;1.423168
9983.000000;1.422051
9982.000000;1.420867
9981.000000;1.419497
9980.000000;1.418683
9979.000000;1.418879
9978.000000;1.419265
9977.000000;1.418653
9976.000000;1.417054
9975.000000;1.415629
9974.000000;1.415283
9973.000000;1.415878
9972.000000;1.416586
9971.000000;1.416497
9970.000000;1.415124
9969.000000;1.412827
9968.000000;1.410647
9967.000000;1.409317
9966.000000;1.408649
9965.000000;1.408202
9964.000000;1.408050
9963.000000;1.408255
9962.000000;1.408068
9961.000000;1.406667
9960.000000;1.404571
9959.000000;1.403320
9958.000000;1.403613
9957.000000;1.404581
9956.000000;1.405051
9955.000000;1.404725
9954.000000;1.403837
9953.000000;1.402623
9952.000000;1.401613
9951.000000;1.401608
9950.000000;1.402683
9949.000000;1.403736
9948.000000;1.403663
9947.000000;1.402640
9946.000000;1.401578
9945.000000;1.400647
9944.000000;1.399214
9943.000000;1.397207
9942.000000;1.395665
9941.000000;1.395611
9940.000000;1.396906
9939.000000;1.398465
9938.000000;1.399260
9937.000000;1.398838
9936.000000;1.397112
9935.000000;1.394171
9934.000000;1.390493
9933.000000;1.387088
9932.000000;1.385067
9931.000000;1.384851
9930.000000;1.385760
9929.000000;1.386513
9928.000000;1.386274
9927.000000;1.385243
9926.000000;1.384299
9925.000000;1.384133
9924.000000;1.384638
9923.000000;1.384996
9922.000000;1.384377
9921.000000;1.382702
9920.000000;1.380789
9919.000000;1.379616
9918.000000;1.379478
9917.000000;1.379926
9916.000000;1.380316
9915.000000;1.380137
9914.000000;1.378990
9913.000000;1.376813
9912.000000;1.374219
9911.000000;1.372132
9910.000000;1.370859
9909.000000;1.369916
9908.000000;1.368975
9907.000000;1.368491
9906.000000;1.369020
9905.000000;1.370314
9904.000000;1.371595
9903.000000;1.372481
9902.000000;1.373084
9901.000000;1.373306
9900.000000;1.372704
9899.000000;1.371221
9898.000000;1.369514
9897.000000;1.368237
9896.000000;1.367318
9895.000000;1.366232
9894.000000;1.364847
9893.000000;1.363687
9892.000000;1.363295
9891.000000;1.363530
9890.000000;1.363630
9889.000000;1.362990
9888.000000;1.361807
9887.000000;1.360795
9886.000000;1.360347
9885.000000;1.360170
9884.000000;1.359756
9883.000000;1.358940
9882.000000;1.357872
9881.000000;1.356776
9880.000000;1.355944
9879.000000;1.355720
9878.000000;1.356076
9877.000000;1.356364
9876.000000;1.355907
9875.000000;1.354866
9874.000000;1.354072
9873.000000;1.353938
9872.000000;1.353933
9871.000000;1.353335
9870.000000;1.352149
9869.000000;1.350922
9868.000000;1.349871
9867.000000;1.348653
9866.000000;1.347019
9865.000000;1.345310
9864.000000;1.344178
9863.000000;1.343942
9862.000000;1.344309
9861.000000;1.344689
9860.000000;1.344668
9859.000000;1.344169
9858.000000;1.343216
9857.000000;1.341771
9856.000000;1.339968
9855.000000;1.338397
9854.000000;1.337816
9853.000000;1.338477
9852.000000;1.339847
9851.000000;1.341058
9850.000000;1.341501
9849.000000;1.340924
9848.000000;1.339202
9847.000000;1.336439
9846.000000;1.333308
9845.000000;1.330882
9844.000000;1.329850
9843.000000;1.329987
9842.000000;1.330557
9841.000000;1.331126
9840.000000;1.331714
9839.000000;1.332204
9838.000000;1.332041
9837.000000;1.330732
9836.000000;1.328472
9835.000000;1.325987
9834.000000;1.323947
9833.000000;1.322783
9832.000000;1.322849
9831.000000;1.324192
9830.000000;1.326042
9829.000000;1.327017
9828.000000;1.326228
9827.000000;1.324103
9826.000000;1.321943
9825.000000;1.320803
9824.000000;1.320866
9823.000000;1.321547
9822.000000;1.321942
9821.000000;1.321447
9820.000000;1.320219
9819.000000;1.318919
9818.000000;1.317884
9817.000000;1.316783
9816.000000;1.315335
9815.000000;1.314056
9814.000000;1.313782
9813.000000;1.314590
9812.000000;1.315662
9811.000000;1.316177
9810.000000;1.315878
9809.000000;1.314746
9808.000000;1.312667
9807.000000;1.309789
9806.000000;1.306895
9805.000000;1.304991
9804.000000;1.304529
9803.000000;1.305115
9802.000000;1.305870
9801.000000;1.306024
9800.000000;1.305369
9799.000000;1.304344
9798.000000;1.303609
9797.000000;1.303428
9796.000000;1.303511
9795.000000;1.303518
9794.000000;1.303564
9793.000000;1.303995
9792.000000;1.304757
9791.000000;1.305241
9790.000000;1.304815
9789.000000;1.303345
9788.000000;1.301162
9787.000000;1.298709
9786.000000;1.296391
9785.000000;1.294590
9784.000000;1.293606
9783.000000;1.293490
9782.000000;1.293942
9781.000000;1.294466
9780.000000;1.294704
9779.000000;1.294636
9778.000000;1.294447
9777.000000;1.294242
9776.000000;1.293843
9775.000000;1.292879
9774.000000;1.291152
9773.000000;1.288995
9772.000000;1.287147
9771.000000;1.286111
9770.000000;1.285645
9769.000000;1.285053
9768.000000;1.284050
9767.000000;1.283087
9766.000000;1.282697
9765.000000;1.282775
9764.000000;1.282797
9763.000000;1.282605
9762.000000;1.282584
9761.000000;1.283035
9760.000000;1.283745
9759.000000;1.284347
9758.000000;1.284803
9757.000000;1.285191
9756.000000;1.285209
9755.000000;1.284355
9754.000000;1.282722
9753.000000;1.281190
9752.000000;1.280467
9751.000000;1.280075
9750.000000;1.278716
9749.000000;1.275785
9748.000000;1.272191
9747.000000;1.269456
9746.000000;1.268305
9745.000000;1.268410
9744.000000;1.269161
9743.000000;1.270107
9742.000000;1.270718
9741.000000;1.270460
9740.000000;1.269438
9739.000000;1.268457
9738.000000;1.268004
9737.000000;1.267599
9736.000000;1.266577
9735.000000;1.265148
9734.000000;1.264086
9733.000000;1.263646
9732.000000;1.263417
9731.000000;1.263102
9730.000000;1.262742
9729.000000;1.262171
9728.000000;1.261019
9727.000000;1.259504
9726.000000;1.258514
9725.000000;1.258522
9724.000000;1.258908
9723.000000;1.258761
9722.000000;1.258002
9721.000000;1.257273
9720.000000;1.256966
9719.000000;1.256870
9718.000000;1.256658
9717.000000;1.256267
9716.000000;1.255769
9715.000000;1.255170
9714.000000;1.254405
9713.000000;1.253361
9712.000000;1.252000
9711.000000;1.250597
9710.000000;1.249679
9709.000000;1.249444
9708.000000;1.249394
9707.000000;1.248885
9706.000000;1.247927
9705.000000;1.247075
9704.000000;1.246568
9703.000000;1.246004
9702.000000;1.245024
9701.000000;1.244003
9700.000000;1.243787
9699.000000;1.244788
9698.000000;1.246425
9697.000000;1.247502
9696.000000;1.247167
9695.000000;1.245602
9694.000000;1.243746
9693.000000;1.242384
9692.000000;1.241595
9691.000000;1.241072
9690.000000;1.240642
9689.000000;1.240248
9688.000000;1.239665
9687.000000;1.238665
9686.000000;1.237434
9685.000000;1.236442
9684.000000;1.235820
9683.000000;1.235121
9682.000000;1.233831
9681.000000;1.231949
9680.000000;1.229990
9679.000000;1.228618
9678.000000;1.228304
9677.000000;1.229041
9676.000000;1.230251
9675.000000;1.231151
9674.000000;1.231335
9673.000000;1.230915
9672.000000;1.230110
9671.000000;1.229007
9670.000000;1.227805
9669.000000;1.226944
9668.000000;1.226665
9667.000000;1.226546
9666.000000;1.225767
9665.000000;1.223915
9664.000000;1.221429
9663.000000;1.219245
9662.000000;1.218045
9661.000000;1.217774
9660.000000;1.217769
9659.000000;1.217417
9658.000000;1.216753
9657.000000;1.216337
9656.000000;1.216561
9655.000000;1.217251
9654.000000;1.217940
9653.000000;1.218304
9652.000000;1.218160
9651.000000;1.217331
9650.000000;1.215867
9649.000000;1.214279
9648.000000;1.213238
9647.000000;1.212972
9646.000000;1.213116
9645.000000;1.213136
9644.000000;1.212744
9643.000000;1.212016
9642.000000;1.211312
9641.000000;1.211024
9640.000000;1.211144
9639.000000;1.211051
9638.000000;1.210003
9637.000000;1.207904
9636.000000;1.205403
9635.000000;1.203257
9634.000000;1.201829
9633.000000;1.201176
9632.000000;1.201191
9631.000000;1.201467
9630.000000;1.201392
9629.000000;1.200749
9628.000000;1.200038
9627.000000;1.199887
9626.000000;1.200221
9625.000000;1.200329
9624.000000;1.199715
9623.000000;1.198563
9622.000000;1.197383
9621.000000;1.196538
9620.000000;1.196179
9619.000000;1.196289
9618.000000;1.196563
9617.000000;1.196499
9616.000000;1.195888
9615.000000;1.195107
9614.000000;1.194711
9613.000000;1.194764
9612.000000;1.194772
9611.000000;1.194295
9610.000000;1.193435
9609.000000;1.192655
9608.000000;1.192205
9607.000000;1.191880
9606.000000;1.191326
9605.000000;1.190521
9604.000000;1.189831
9603.000000;1.189565
9602.000000;1.189598
9601.000000;1.189502
9600.000000;1.189002
9599.000000;1.188150
9598.000000;1.187164
9597.000000;1.186338
9596.000000;1.186019
9595.000000;1.186281
9594.000000;1.186527
9593.000000;1.185816
9592.000000;1.183922
9591.000000;1.181837
9590.000000;1.180858
9589.000000;1.181287
9588.000000;1.182244
9587.000000;1.182595
9586.000000;1.181833
9585.000000;1.180238
9584.000000;1.178599
9583.000000;1.177757
9582.000000;1.177948
9581.000000;1.178418
9580.000000;1.178057
9579.000000;1.176629
9578.000000;1.175029
9577.000000;1.174154
9576.000000;1.173953
9575.000000;1.173799
9574.000000;1.173371
9573.000000;1.172666
9572.000000;1.171454
9571.000000;1.169387
9570.000000;1.166753
9569.000000;1.164562
9568.000000;1.163637
9567.000000;1.163889
9566.000000;1.164631
9565.000000;1.165337
9564.000000;1.165877
9563.000000;1.166237
9562.000000;1.166329
9561.000000;1.166075
9560.000000;1.165504
9559.000000;1.164721
9558.000000;1.163888
9557.000000;1.163208
9556.000000;1.162811
9555.000000;1.162626
9554.000000;1.162393
9553.000000;1.161857
9552.000000;1.160937
9551.000000;1.159770
9550.000000;1.158649
9549.000000;1.157882
9548.000000;1.157642
9547.000000;1.157850
9546.000000;1.158162
9545.000000;1.158093
9544.000000;1.157291
9543.000000;1.155853
9542.000000;1.154372
9541.000000;1.153556
9540.000000;1.153650
9539.000000;1.154179
9538.000000;1.154280
9537.000000;1.153409
9536.000000;1.151812
9535.000000;1.150339
9534.000000;1.149718
9533.000000;1.149934
9532.000000;1.150244
9531.000000;1.149853
9530.000000;1.148583
9529.000000;1.146905
9528.000000;1.145393
9527.000000;1.144293
9526.000000;1.143602
9525.000000;1.143357
9524.000000;1.143646
9523.000000;1.144338
9522.000000;1.144929
9521.000000;1.144805
9520.000000;1.143699
9519.000000;1.141926
9518.000000;1.140160
9517.000000;1.138940
9516.000000;1.138354
9515.000000;1.138148
9514.000000;1.138080
9513.000000;1.138101
9512.000000;1.138183
9511.000000;1.138127
9510.000000;1.137697
9509.000000;1.136965
9508.000000;1.136306
9507.000000;1.135924
9506.000000;1.135500
9505.000000;1.134540
9504.000000;1.133080
9503.000000;1.131830
9502.000000;1.131473
9501.000000;1.131929
9500.000000;1.132444
9499.000000;1.132348
9498.000000;1.131581
9497.000000;1.130519
9496.000000;1.129491
9495.000000;1.128581
9494.000000;1.127759
9493.000000;1.127052
9492.000000;1.126543
9491.000000;1.126288
9490.000000;1.126269
9489.000000;1.126449
9488.000000;1.126766
9487.000000;1.127017
9486.000000;1.126844
9485.000000;1.126019
9484.000000;1.124793
9483.000000;1.123780
9482.000000;1.123308
9481.000000;1.123008
9480.000000;1.122311
9479.000000;1.121242
9478.000000;1.120332
9477.000000;1.119750
9476.000000;1.119023
9475.000000;1.117815
9474.000000;1.116508
9473.000000;1.115654
9472.000000;1.115201
9471.000000;1.114733
9470.000000;1.114248
9469.000000;1.114124
9468.000000;1.114332
9467.000000;1.114244
9466.000000;1.113403
9465.000000;1.112098
9464.000000;1.110970
9463.000000;1.110355
9462.000000;1.110219
9461.000000;1.110414
9460.000000;1.110724
9459.000000;1.110871
9458.000000;1.110744
9457.000000;1.110558
9456.000000;1.110560
9455.000000;1.110669
9454.000000;1.110548
9453.000000;1.109948
9452.000000;1.108859
9451.000000;1.107465
9450.000000;1.106087
9449.000000;1.105062
9448.000000;1.104493
9447.000000;1.104202
9446.000000;1.104031
9445.000000;1.104057
9444.000000;1.104342
9443.000000;1.104669
9442.000000;1.104778
9441.000000;1.104740
9440.000000;1.104790
9439.000000;1.104834
9438.000000;1.104453
9437.000000;1.103466
9436.000000;1.102227
9435.000000;1.101245
9434.000000;1.100660
9433.000000;1.100214
9432.000000;1.099562
9431.000000;1.098553
9430.000000;1.097352
9429.000000;1.096366
9428.000000;1.095919
9427.000000;1.095916
9426.000000;1.095905
9425.000000;1.095505
9424.000000;1.094651
9423.000000;1.093440
9422.000000;1.092006
9421.000000;1.090649
9420.000000;1.089849
9419.000000;1.089881
9418.000000;1.090480
9417.000000;1.091028
9416.000000;1.091048
9415.000000;1.090446
9414.000000;1.089414
9413.000000;1.088276
9412.000000;1.087319
9411.000000;1.086593
9410.000000;1.085882
9409.000000;1.085071
9408.000000;1.084441
9407.000000;1.084414
9406.000000;1.085003
9405.000000;1.085749
9404.000000;1.086234
9403.000000;1.086445
9402.000000;1.086496
9401.000000;1.086253
9400.000000;1.085516
9399.000000;1.084454
9398.000000;1.083574
9397.000000;1.083207
9396.000000;1.083144
9395.000000;1.082817
9394.000000;1.081828
9393.000000;1.080362
9392.000000;1.079127
9391.000000;1.078784
9390.000000;1.079300
9389.000000;1.079840
9388.000000;1.079452
9387.000000;1.077978
9386.000000;1.076278
9385.000000;1.075501
9384.000000;1.076121
9383.000000;1.077605
9382.000000;1.078878
9381.000000;1.079079
9380.000000;1.077989
9379.000000;1.075944
9378.000000;1.073551
9377.000000;1.071519
9376.000000;1.070509
9375.000000;1.070760
9374.000000;1.071741
9373.000000;1.072391
9372.000000;1.071981
9371.000000;1.070721
9370.000000;1.069409
9369.000000;1.068571
9368.000000;1.068099
9367.000000;1.067632
9366.000000;1.067042
9365.000000;1.066495
9364.000000;1.066178
9363.000000;1.066118
9362.000000;1.066183
9361.000000;1.066171
9360.000000;1.065921
9359.000000;1.065437
9358.000000;1.064896
9357.000000;1.064532
9356.000000;1.064460
9355.000000;1.064588
9354.000000;1.064666
9353.000000;1.064431
9352.000000;1.063752
9351.000000;1.062684
9350.000000;1.061408
9349.000000;1.060207
9348.000000;1.059411
9347.000000;1.059177
9346.000000;1.059195
9345.000000;1.058835
9344.000000;1.057828
9343.000000;1.056699
9342.000000;1.056258
9341.000000;1.056679
9340.000000;1.057327
9339.000000;1.057509
9338.000000;1.057133
9337.000000;1.056546
9336.000000;1.056022
9335.000000;1.055584
9334.000000;1.055119
9333.000000;1.054479
9332.000000;1.053630
9331.000000;1.052831
9330.000000;1.052459
9329.000000;1.052477
9328.000000;1.052293
9327.000000;1.051430
9326.000000;1.050204
9325.000000;1.049463
9324.000000;1.049673
9323.000000;1.050480
9322.000000;1.051130
9321.000000;1.051054
9320.000000;1.050093
9319.000000;1.048475
9318.000000;1.046741
9317.000000;1.045543
9316.000000;1.045285
9315.000000;1.045860
9314.000000;1.046711
9313.000000;1.047197
9312.000000;1.047068
9311.000000;1.046684
9310.000000;1.046609
9309.000000;1.046882
9308.000000;1.046862
9307.000000;1.046000
9306.000000;1.044538
9305.000000;1.043200
9304.000000;1.042371
9303.000000;1.041919
9302.000000;1.041698
9301.000000;1.041700
9300.000000;1.041692
9299.000000;1.041240
9298.000000;1.040357
9297.000000;1.039715
9296.000000;1.039863
9295.000000;1.040494
9294.000000;1.040805
9293.000000;1.040402
9292.000000;1.039551
9291.000000;1.038661
9290.000000;1.037906
9289.000000;1.037343
9288.000000;1.037078
9287.000000;1.037136
9286.000000;1.037325
9285.000000;1.037315
9284.000000;1.036848
9283.000000;1.035884
9282.000000;1.034604
9281.000000;1.033272
9280.000000;1.032072
9279.000000;1.031118
9278.000000;1.030584
9277.000000;1.030646
9276.000000;1.031203
9275.000000;1.031815
9274.000000;1.032090
9273.000000;1.032050
9272.000000;1.031938
9271.000000;1.031748
9270.000000;1.031231
9269.000000;1.030390
9268.000000;1.029681
9267.000000;1.029527
9266.000000;1.029759
9265.000000;1.029766
9264.000000;1.029214
9263.000000;1.028451
9262.000000;1.028041
9261.000000;1.027973
9260.000000;1.027582
9259.000000;1.026374
9258.000000;1.024771
9257.000000;1.023754
9256.000000;1.023786
9255.000000;1.024358
9254.000000;1.024617
9253.000000;1.024214
9252.000000;1.023421
9251.000000;1.022664
9250.000000;1.022176
9249.000000;1.021932
9248.000000;1.021610
9247.000000;1.020734
9246.000000;1.019198
9245.000000;1.017621
9244.000000;1.016900
9243.000000;1.017330
9242.000000;1.018321
9241.000000;1.019013
9240.000000;1.019022
9239.000000;1.018574
9238.000000;1.018176
9237.000000;1.018197
9236.000000;1.018571
9235.000000;1.018822
9234.000000;1.018554
9233.000000;1.017949
9232.000000;1.017530
9231.000000;1.017376
9230.000000;1.016919
9229.000000;1.015734
9228.000000;1.014251
9227.000000;1.013301
9226.000000;1.013176
9225.000000;1.013498
9224.000000;1.013895
9223.000000;1.014383
9222.000000;1.014967
9221.000000;1.015286
9220.000000;1.014966
9219.000000;1.014137
9218.000000;1.013312
9217.000000;1.012852
9216.000000;1.012718
9215.000000;1.012658
9214.000000;1.012437
9213.000000;1.011941
9212.000000;1.011249
9211.000000;1.010635
9210.000000;1.010372
9209.000000;1.010498
9208.000000;1.010831
9207.000000;1.011139
9206.000000;1.011180
9205.000000;1.010699
9204.000000;1.009666
9203.000000;1.008494
9202.000000;1.007736
9201.000000;1.007463
9200.000000;1.007219
9199.000000;1.006707
9198.000000;1.006239
9197.000000;1.006199
9196.000000;1.006291
9195.000000;1.005787
9194.000000;1.004496
9193.000000;1.003114
9192.000000;1.002440
9191.000000;1.002507
9190.000000;1.002663
9189.000000;1.002299
9188.000000;1.001334
9187.000000;1.000186
9186.000000;0.999481
9185.000000;0.999659
9184.000000;1.000599
9183.000000;1.001659
9182.000000;1.002248
9181.000000;1.002381
9180.000000;1.002523
9179.000000;1.002915
9178.000000;1.003271
9177.000000;1.003180
9176.000000;1.002587
9175.000000;1.001787
9174.000000;1.001070
9173.000000;1.000530
9172.000000;1.000121
9171.000000;0.999746
9170.000000;0.999279
9169.000000;0.998618
9168.000000;0.997840
9167.000000;0.997269
9166.000000;0.997297
9165.000000;0.997979
9164.000000;0.998812
9163.000000;0.999061
9162.000000;0.998449
9161.000000;0.997475
9160.000000;0.996904
9159.000000;0.996950
9158.000000;0.997147
9157.000000;0.996953
9156.000000;0.996294
9155.000000;0.995456
9154.000000;0.994721
9153.000000;0.994234
9152.000000;0.994031
9151.000000;0.993912
9150.000000;0.993410
9149.000000;0.992218
9148.000000;0.990702
9147.000000;0.989680
9146.000000;0.989555
9145.000000;0.989858
9144.000000;0.989814
9143.000000;0.989212
9142.000000;0.988518
9141.000000;0.988245
9140.000000;0.988501
9139.000000;0.989135
9138.000000;0.990032
9137.000000;0.991082
9136.000000;0.992000
9135.000000;0.992372
9134.000000;0.991934
9133.000000;0.990816
9132.000000;0.989546
9131.000000;0.988798
9130.000000;0.988928
9129.000000;0.989599
9128.000000;0.989960
9127.000000;0.989385
9126.000000;0.988060
9125.000000;0.986738
9124.000000;0.985970
9123.000000;0.985711
9122.000000;0.985637
9121.000000;0.985599
9120.000000;0.985632
9119.000000;0.985679
9118.000000;0.985528
9117.000000;0.985086
9116.000000;0.984558
9115.000000;0.984253
9114.000000;0.984212
9113.000000;0.984159
9112.000000;0.983869
9111.000000;0.983505
9110.000000;0.983457
9109.000000;0.983833
9108.000000;0.984236
9107.000000;0.984156
9106.000000;0.983493
9105.000000;0.982564
9104.000000;0.981658
9103.000000;0.980806
9102.000000;0.980036
9101.000000;0.979609
9100.000000;0.979776
9099.000000;0.980331
9098.000000;0.980667
9097.000000;0.980344
9096.000000;0.979530
9095.000000;0.978761
9094.000000;0.978336
9093.000000;0.978064
9092.000000;0.977605
9091.000000;0.976916
9090.000000;0.976296
9089.000000;0.976060
9088.000000;0.976258
9087.000000;0.976669
9086.000000;0.976953
9085.000000;0.976849
9084.000000;0.976370
9083.000000;0.975831
9082.000000;0.975584
9081.000000;0.975662
9080.000000;0.975760
9079.000000;0.975607
9078.000000;0.975269
9077.000000;0.974998
9076.000000;0.974924
9075.000000;0.974985
9074.000000;0.975098
9073.000000;0.975294
9072.000000;0.975720
9071.000000;0.976515
9070.000000;0.977555
9069.000000;0.978320
9068.000000;0.978216
9067.000000;0.977172
9066.000000;0.975797
9065.000000;0.974773
9064.000000;0.974216
9063.000000;0.973781
9062.000000;0.973203
9061.000000;0.972459
9060.000000;0.971511
9059.000000;0.970269
9058.000000;0.968898
9057.000000;0.967875
9056.000000;0.967586
9055.000000;0.968001
9054.000000;0.968792
9053.000000;0.969652
