Criado como novo conjunto de dados;"1909daniel.spp","-4239342.4 Secs"
cm-1;Abs
10000.000000;1.755535
9999.000000;1.753064
9998.000000;1.750584
9997.000000;1.748638
9996.000000;1.747730
9995.000000;1.747966
9994.000000;1.748700
9993.000000;1.748815
9992.000000;1.747836
9991.000000;1.746183
9990.000000;1.744527
9989.000000;1.743146
9988.000000;1.742176
9987.000000;1.741955
9986.000000;1.742549
9985.000000;1.743251
9984.000000;1.743187
9983.000000;1.742245
9982.000000;1.740953
9981.000000;1.739545
9980.000000;1.737614
9979.000000;1.734798
9978.000000;1.731627
9977.000000;1.729569
9976.000000;1.730093
9975.000000;1.733364
9974.000000;1.737673
9973.000000;1.740498
9972.000000;1.740537
9971.000000;1.738658
9970.000000;1.736758
9969.000000;1.735981
9968.000000;1.736103
9967.000000;1.736117
9966.000000;1.735139
9965.000000;1.733181
9964.000000;1.731295
9963.000000;1.730629
9962.000000;1.731199
9961.000000;1.731929
9960.000000;1.731910
9959.000000;1.731160
9958.000000;1.730040
9957.000000;1.728578
9956.000000;1.726875
9955.000000;1.725599
9954.000000;1.725393
9953.000000;1.726134
9952.000000;1.727248
9951.000000;1.728299
9950.000000;1.728833
9949.000000;1.728211
9948.000000;1.726273
9947.000000;1.723714
9946.000000;1.721169
9945.000000;1.718539
9944.000000;1.715889
9943.000000;1.714329
9942.000000;1.714875
9941.000000;1.716734
9940.000000;1.717825
9939.000000;1.717084
9938.000000;1.715337
9937.000000;1.713878
9936.000000;1.713269
9935.000000;1.713614
9934.000000;1.714763
9933.000000;1.715778
9932.000000;1.715169
9931.000000;1.712372
9930.000000;1.708520
9929.000000;1.705410
9928.000000;1.704196
9927.000000;1.705080
9926.000000;1.707300
9925.000000;1.709154
9924.000000;1.708949
9923.000000;1.706422
9922.000000;1.702709
9921.000000;1.698962
9920.000000;1.695747
9919.000000;1.693737
9918.000000;1.693809
9917.000000;1.695851
9916.000000;1.698303
9915.000000;1.699716
9914.000000;1.700260
9913.000000;1.700944
9912.000000;1.701857
9911.000000;1.701944
9910.000000;1.700197
9909.000000;1.696593
9908.000000;1.692233
9907.000000;1.688947
9906.000000;1.688156
9905.000000;1.689460
9904.000000;1.690729
9903.000000;1.690319
9902.000000;1.688828
9901.000000;1.687957
9900.000000;1.688189
9899.000000;1.688451
9898.000000;1.687614
9897.000000;1.685502
9896.000000;1.682700
9895.000000;1.680255
9894.000000;1.679376
9893.000000;1.680516
9892.000000;1.682604
9891.000000;1.683784
9890.000000;1.683159
9889.000000;1.681457
9888.000000;1.680007
9887.000000;1.679483
9886.000000;1.679496
9885.000000;1.679036
9884.000000;1.677495
9883.000000;1.675537
9882.000000;1.674545
9881.000000;1.674860
9880.000000;1.675173
9879.000000;1.674278
9878.000000;1.672770
9877.000000;1.672070
9876.000000;1.672260
9875.000000;1.671992
9874.000000;1.670364
9873.000000;1.667872
9872.000000;1.665484
9871.000000;1.663850
9870.000000;1.663496
9869.000000;1.664686
9868.000000;1.666728
9867.000000;1.668268
9866.000000;1.668550
9865.000000;1.667833
9864.000000;1.666660
9863.000000;1.665473
9862.000000;1.664801
9861.000000;1.664836
9860.000000;1.664713
9859.000000;1.663274
9858.000000;1.660855
9857.000000;1.659315
9856.000000;1.659768
9855.000000;1.661078
9854.000000;1.661132
9853.000000;1.659069
9852.000000;1.655758
9851.000000;1.652619
9850.000000;1.650586
9849.000000;1.649849
9848.000000;1.650033
9847.000000;1.650734
9846.000000;1.652035
9845.000000;1.654158
9844.000000;1.656470
9843.000000;1.657501
9842.000000;1.656349
9841.000000;1.653529
9840.000000;1.650145
9839.000000;1.646982
9838.000000;1.644674
9837.000000;1.643728
9836.000000;1.643718
9835.000000;1.643272
9834.000000;1.641707
9833.000000;1.640140
9832.000000;1.640014
9831.000000;1.640977
9830.000000;1.641415
9829.000000;1.640887
9828.000000;1.640674
9827.000000;1.641665
9826.000000;1.642884
9825.000000;1.642775
9824.000000;1.641240
9823.000000;1.639521
9822.000000;1.638355
9821.000000;1.637217
9820.000000;1.635477
9819.000000;1.633573
9818.000000;1.632417
9817.000000;1.631985
9816.000000;1.631200
9815.000000;1.629300
9814.000000;1.626864
9813.000000;1.625104
9812.000000;1.624571
9811.000000;1.625014
9810.000000;1.626192
9809.000000;1.628023
9808.000000;1.629918
9807.000000;1.630888
9806.000000;1.630651
9805.000000;1.629881
9804.000000;1.628972
9803.000000;1.627396
9802.000000;1.624910
9801.000000;1.622572
9800.000000;1.621541
9799.000000;1.621297
9798.000000;1.620101
9797.000000;1.617254
9796.000000;1.614104
9795.000000;1.612561
9794.000000;1.613219
9793.000000;1.615044
9792.000000;1.616349
9791.000000;1.615838
9790.000000;1.613325
9789.000000;1.609932
9788.000000;1.607367
9787.000000;1.606649
9786.000000;1.607466
9785.000000;1.608747
9784.000000;1.609652
9783.000000;1.610006
9782.000000;1.610091
9781.000000;1.610284
9780.000000;1.610710
9779.000000;1.611027
9778.000000;1.610696
9777.000000;1.609669
9776.000000;1.608638
9775.000000;1.608246
9774.000000;1.608204
9773.000000;1.607591
9772.000000;1.606043
9771.000000;1.604267
9770.000000;1.603201
9769.000000;1.602962
9768.000000;1.602852
9767.000000;1.602187
9766.000000;1.600830
9765.000000;1.599062
9764.000000;1.597335
9763.000000;1.596145
9762.000000;1.595721
9761.000000;1.595646
9760.000000;1.595111
9759.000000;1.593788
9758.000000;1.592234
9757.000000;1.591223
9756.000000;1.590891
9755.000000;1.590798
9754.000000;1.590553
9753.000000;1.590088
9752.000000;1.589538
9751.000000;1.589241
9750.000000;1.589638
9749.000000;1.590641
9748.000000;1.591216
9747.000000;1.590281
9746.000000;1.588113
9745.000000;1.586094
9744.000000;1.584938
9743.000000;1.583935
9742.000000;1.582283
9741.000000;1.580528
9740.000000;1.580064
9739.000000;1.581513
9738.000000;1.583962
9737.000000;1.585516
9736.000000;1.584452
9735.000000;1.580476
9734.000000;1.575403
9733.000000;1.572149
9732.000000;1.572332
9731.000000;1.574777
9730.000000;1.576703
9729.000000;1.576462
9728.000000;1.574797
9727.000000;1.573542
9726.000000;1.573710
9725.000000;1.574816
9724.000000;1.575434
9723.000000;1.574278
9722.000000;1.571243
9721.000000;1.567567
9720.000000;1.564715
9719.000000;1.563260
9718.000000;1.563001
9717.000000;1.563742
9716.000000;1.565340
9715.000000;1.567094
9714.000000;1.567822
9713.000000;1.566969
9712.000000;1.565263
9711.000000;1.564012
9710.000000;1.563965
9709.000000;1.564807
9708.000000;1.565336
9707.000000;1.564173
9706.000000;1.560807
9705.000000;1.556302
9704.000000;1.552783
9703.000000;1.551850
9702.000000;1.553422
9701.000000;1.556034
9700.000000;1.558009
9699.000000;1.558416
9698.000000;1.557417
9697.000000;1.556029
9696.000000;1.555293
9695.000000;1.555297
9694.000000;1.555078
9693.000000;1.553707
9692.000000;1.551409
9691.000000;1.549384
9690.000000;1.548596
9689.000000;1.548992
9688.000000;1.549764
9687.000000;1.550070
9686.000000;1.549432
9685.000000;1.547679
9684.000000;1.544910
9683.000000;1.541732
9682.000000;1.539272
9681.000000;1.538419
9680.000000;1.538881
9679.000000;1.539332
9678.000000;1.538909
9677.000000;1.538406
9676.000000;1.539441
9675.000000;1.542480
9674.000000;1.546090
9673.000000;1.548190
9672.000000;1.547672
9671.000000;1.544660
9670.000000;1.539856
9669.000000;1.534334
9668.000000;1.529649
9667.000000;1.527279
9666.000000;1.527590
9665.000000;1.529428
9664.000000;1.530932
9663.000000;1.530956
9662.000000;1.529804
9661.000000;1.528690
9660.000000;1.528591
9659.000000;1.529406
9658.000000;1.530123
9657.000000;1.529871
9656.000000;1.528667
9655.000000;1.527097
9654.000000;1.525593
9653.000000;1.524276
9652.000000;1.523287
9651.000000;1.522814
9650.000000;1.522719
9649.000000;1.522545
9648.000000;1.522158
9647.000000;1.522079
9646.000000;1.522784
9645.000000;1.523764
9644.000000;1.523766
9643.000000;1.522182
9642.000000;1.519852
9641.000000;1.518118
9640.000000;1.517382
9639.000000;1.517063
9638.000000;1.516797
9637.000000;1.516880
9636.000000;1.517341
9635.000000;1.517320
9634.000000;1.515950
9633.000000;1.513475
9632.000000;1.510924
9631.000000;1.508985
9630.000000;1.507837
9629.000000;1.507724
9628.000000;1.508700
9627.000000;1.509828
9626.000000;1.509625
9625.000000;1.507777
9624.000000;1.505638
9623.000000;1.504567
9622.000000;1.504441
9621.000000;1.504237
9620.000000;1.503508
9619.000000;1.502623
9618.000000;1.501942
9617.000000;1.501483
9616.000000;1.501345
9615.000000;1.501865
9614.000000;1.503092
9613.000000;1.504329
9612.000000;1.504463
9611.000000;1.502879
9610.000000;1.500123
9609.000000;1.497622
9608.000000;1.496523
9607.000000;1.496686
9606.000000;1.497046
9605.000000;1.497048
9604.000000;1.497256
9603.000000;1.498312
9602.000000;1.499899
9601.000000;1.501104
9600.000000;1.501267
9599.000000;1.500017
9598.000000;1.497097
9597.000000;1.493055
9596.000000;1.489757
9595.000000;1.489019
9594.000000;1.490566
9593.000000;1.492223
9592.000000;1.492351
9591.000000;1.491348
9590.000000;1.490470
9589.000000;1.490084
9588.000000;1.489682
9587.000000;1.488884
9586.000000;1.487638
9585.000000;1.485781
9584.000000;1.483212
9583.000000;1.480461
9582.000000;1.478509
9581.000000;1.477867
9580.000000;1.478008
9579.000000;1.477779
9578.000000;1.476472
9577.000000;1.474588
9576.000000;1.473450
9575.000000;1.473859
9574.000000;1.475173
9573.000000;1.475974
9572.000000;1.475573
9571.000000;1.474447
9570.000000;1.473257
9569.000000;1.472162
9568.000000;1.471291
9567.000000;1.471058
9566.000000;1.471477
9565.000000;1.471784
9564.000000;1.471398
9563.000000;1.470812
9562.000000;1.470851
9561.000000;1.471406
9560.000000;1.471656
9559.000000;1.471292
9558.000000;1.470734
9557.000000;1.470213
9556.000000;1.469504
9555.000000;1.468719
9554.000000;1.468598
9553.000000;1.469554
9552.000000;1.470797
9551.000000;1.470856
9550.000000;1.468974
9549.000000;1.465888
9548.000000;1.463212
9547.000000;1.462081
9546.000000;1.462294
9545.000000;1.462756
9544.000000;1.462710
9543.000000;1.462256
9542.000000;1.461693
9541.000000;1.460985
9540.000000;1.460258
9539.000000;1.460176
9538.000000;1.461044
9537.000000;1.461897
9536.000000;1.461350
9535.000000;1.459239
9534.000000;1.456707
9533.000000;1.454789
9532.000000;1.453696
9531.000000;1.453332
9530.000000;1.453482
9529.000000;1.453393
9528.000000;1.452280
9527.000000;1.450617
9526.000000;1.449938
9525.000000;1.450874
9524.000000;1.452179
9523.000000;1.452250
9522.000000;1.450891
9521.000000;1.448929
9520.000000;1.446880
9519.000000;1.444968
9518.000000;1.443844
9517.000000;1.444126
9516.000000;1.445384
9515.000000;1.446489
9514.000000;1.446997
9513.000000;1.447325
9512.000000;1.447556
9511.000000;1.447026
9510.000000;1.445442
9509.000000;1.443583
9508.000000;1.442380
9507.000000;1.441790
9506.000000;1.441047
9505.000000;1.439683
9504.000000;1.437851
9503.000000;1.435876
9502.000000;1.434006
9501.000000;1.432585
9500.000000;1.432044
9499.000000;1.432482
9498.000000;1.433403
9497.000000;1.434099
9496.000000;1.434336
9495.000000;1.434570
9494.000000;1.435335
9493.000000;1.436447
9492.000000;1.436967
9491.000000;1.436059
9490.000000;1.433822
9489.000000;1.431230
9488.000000;1.429352
9487.000000;1.428595
9486.000000;1.428455
9485.000000;1.427946
9484.000000;1.426532
9483.000000;1.424725
9482.000000;1.423554
9481.000000;1.423432
9480.000000;1.423845
9479.000000;1.424172
9478.000000;1.424294
9477.000000;1.424234
9476.000000;1.423748
9475.000000;1.422737
9474.000000;1.421624
9473.000000;1.420822
9472.000000;1.420203
9471.000000;1.419683
9470.000000;1.419846
9469.000000;1.421141
9468.000000;1.422696
9467.000000;1.422915
9466.000000;1.421400
9465.000000;1.419393
9464.000000;1.418051
9463.000000;1.417200
9462.000000;1.416209
9461.000000;1.415265
9460.000000;1.415029
9459.000000;1.415435
9458.000000;1.415624
9457.000000;1.414999
9456.000000;1.413822
9455.000000;1.412822
9454.000000;1.412639
9453.000000;1.413590
9452.000000;1.415524
9451.000000;1.417708
9450.000000;1.419052
9449.000000;1.418670
9448.000000;1.416440
9447.000000;1.413111
9446.000000;1.409828
9445.000000;1.407431
9444.000000;1.406033
9443.000000;1.405302
9442.000000;1.405035
9441.000000;1.405242
9440.000000;1.405667
9439.000000;1.405686
9438.000000;1.404938
9437.000000;1.403791
9436.000000;1.402957
9435.000000;1.402836
9434.000000;1.403403
9433.000000;1.404453
9432.000000;1.405577
9431.000000;1.406077
9430.000000;1.405344
9429.000000;1.403456
9428.000000;1.401225
9427.000000;1.399612
9426.000000;1.399078
9425.000000;1.399350
9424.000000;1.399628
9423.000000;1.399160
9422.000000;1.397894
9421.000000;1.396533
9420.000000;1.395704
9419.000000;1.395108
9418.000000;1.393831
9417.000000;1.391605
9416.000000;1.389470
9415.000000;1.388868
9414.000000;1.390103
9413.000000;1.391863
9412.000000;1.392354
9411.000000;1.390930
9410.000000;1.388523
9409.000000;1.386605
9408.000000;1.385974
9407.000000;1.386504
9406.000000;1.387640
9405.000000;1.388856
9404.000000;1.389860
9403.000000;1.390678
9402.000000;1.391439
9401.000000;1.391918
9400.000000;1.391463
9399.000000;1.389654
9398.000000;1.386881
9397.000000;1.383954
9396.000000;1.381371
9395.000000;1.379396
9394.000000;1.378592
9393.000000;1.379526
9392.000000;1.381752
9391.000000;1.383632
9390.000000;1.383615
9389.000000;1.381548
9388.000000;1.378577
9387.000000;1.376090
9386.000000;1.374910
9385.000000;1.375101
9384.000000;1.376164
9383.000000;1.377497
9382.000000;1.378774
9381.000000;1.379702
9380.000000;1.379560
9379.000000;1.377627
9378.000000;1.374337
9377.000000;1.371384
9376.000000;1.370244
9375.000000;1.370906
9374.000000;1.372239
9373.000000;1.373183
9372.000000;1.373290
9371.000000;1.372625
9370.000000;1.371663
9369.000000;1.370983
9368.000000;1.370579
9367.000000;1.369797
9366.000000;1.368388
9365.000000;1.367167
9364.000000;1.366987
9363.000000;1.367463
9362.000000;1.367507
9361.000000;1.366930
9360.000000;1.366609
9359.000000;1.367098
9358.000000;1.367968
9357.000000;1.368593
9356.000000;1.368736
9355.000000;1.368094
9354.000000;1.366202
9353.000000;1.363403
9352.000000;1.361228
9351.000000;1.361045
9350.000000;1.362554
9349.000000;1.364098
9348.000000;1.364341
9347.000000;1.363287
9346.000000;1.361724
9345.000000;1.360174
9344.000000;1.358578
9343.000000;1.356758
9342.000000;1.354990
9341.000000;1.354022
9340.000000;1.354478
9339.000000;1.356283
9338.000000;1.358769
9337.000000;1.361239
9336.000000;1.363170
9335.000000;1.363974
9334.000000;1.363106
9333.000000;1.360701
9332.000000;1.357770
9331.000000;1.355448
9330.000000;1.354108
9329.000000;1.353320
9328.000000;1.352474
9327.000000;1.351294
9326.000000;1.349958
9325.000000;1.348970
9324.000000;1.348811
9323.000000;1.349486
9322.000000;1.350406
9321.000000;1.350851
9320.000000;1.350577
9319.000000;1.349891
9318.000000;1.349249
9317.000000;1.348874
9316.000000;1.348634
9315.000000;1.348165
9314.000000;1.347219
9313.000000;1.346007
9312.000000;1.345137
9311.000000;1.345098
9310.000000;1.345768
9309.000000;1.346413
9308.000000;1.346239
9307.000000;1.345137
9306.000000;1.343960
9305.000000;1.343814
9304.000000;1.344820
9303.000000;1.345771
9302.000000;1.345405
9301.000000;1.343885
9300.000000;1.342496
9299.000000;1.341952
9298.000000;1.341646
9297.000000;1.340762
9296.000000;1.339482
9295.000000;1.338617
9294.000000;1.338471
9293.000000;1.338634
9292.000000;1.338648
9291.000000;1.338348
9290.000000;1.337688
9289.000000;1.336760
9288.000000;1.336005
9287.000000;1.335994
9286.000000;1.336807
9285.000000;1.337815
9284.000000;1.338204
9283.000000;1.337582
9282.000000;1.336030
9281.000000;1.333808
9280.000000;1.331285
9279.000000;1.329082
9278.000000;1.328046
9277.000000;1.328797
9276.000000;1.331082
9275.000000;1.333595
9274.000000;1.334720
9273.000000;1.333746
9272.000000;1.331330
9271.000000;1.328748
9270.000000;1.326928
9269.000000;1.326235
9268.000000;1.326671
9267.000000;1.327821
9266.000000;1.328795
9265.000000;1.328750
9264.000000;1.327591
9263.000000;1.325998
9262.000000;1.324754
9261.000000;1.324240
9260.000000;1.324431
9259.000000;1.324990
9258.000000;1.325360
9257.000000;1.325120
9256.000000;1.324376
9255.000000;1.323573
9254.000000;1.322942
9253.000000;1.322433
9252.000000;1.322164
9251.000000;1.322514
9250.000000;1.323565
9249.000000;1.324734
9248.000000;1.325152
9247.000000;1.324331
9246.000000;1.322417
9245.000000;1.320072
9244.000000;1.318251
9243.000000;1.317706
9242.000000;1.318326
9241.000000;1.319076
9240.000000;1.318898
9239.000000;1.317706
9238.000000;1.316343
9237.000000;1.315644
9236.000000;1.315710
9235.000000;1.315993
9234.000000;1.315835
9233.000000;1.314916
9232.000000;1.313391
9231.000000;1.311760
9230.000000;1.310585
9229.000000;1.310278
9228.000000;1.310995
9227.000000;1.312467
9226.000000;1.313892
9225.000000;1.314348
9224.000000;1.313687
9223.000000;1.312862
9222.000000;1.313015
9221.000000;1.314210
9220.000000;1.315362
9219.000000;1.315440
9218.000000;1.314450
9217.000000;1.313031
9216.000000;1.311480
9215.000000;1.309631
9214.000000;1.307645
9213.000000;1.306378
9212.000000;1.306653
9211.000000;1.308291
9210.000000;1.310125
9209.000000;1.311064
9208.000000;1.310993
9207.000000;1.310535
9206.000000;1.310112
9205.000000;1.309520
9204.000000;1.308459
9203.000000;1.307214
9202.000000;1.306501
9201.000000;1.306622
9200.000000;1.307034
9199.000000;1.306902
9198.000000;1.305940
9197.000000;1.304506
9196.000000;1.302992
9195.000000;1.301516
9194.000000;1.300321
9193.000000;1.300029
9192.000000;1.301015
9191.000000;1.302615
9190.000000;1.303481
9189.000000;1.302956
9188.000000;1.301770
9187.000000;1.301107
9186.000000;1.301305
9185.000000;1.301743
9184.000000;1.301687
9183.000000;1.300907
9182.000000;1.299643
9181.000000;1.298455
9180.000000;1.298064
9179.000000;1.298806
9178.000000;1.300113
9177.000000;1.300892
9176.000000;1.300571
9175.000000;1.299415
9174.000000;1.297809
9173.000000;1.295868
9172.000000;1.294033
9171.000000;1.293341
9170.000000;1.294431
9169.000000;1.296544
9168.000000;1.298116
9167.000000;1.298328
9166.000000;1.297603
9165.000000;1.296646
9164.000000;1.295620
9163.000000;1.294407
9162.000000;1.293119
9161.000000;1.292028
9160.000000;1.291294
9159.000000;1.290996
9158.000000;1.291171
9157.000000;1.291618
9156.000000;1.291950
9155.000000;1.292043
9154.000000;1.292228
9153.000000;1.292799
9152.000000;1.293504
9151.000000;1.293775
9150.000000;1.293340
9149.000000;1.292388
9148.000000;1.291233
9147.000000;1.290032
9146.000000;1.288810
9145.000000;1.287616
9144.000000;1.286640
9143.000000;1.286211
9142.000000;1.286529
9141.000000;1.287321
9140.000000;1.287918
9139.000000;1.287808
9138.000000;1.287059
9137.000000;1.286083
9136.000000;1.285166
9135.000000;1.284373
9134.000000;1.283715
9133.000000;1.283203
9132.000000;1.282841
9131.000000;1.282746
9130.000000;1.283133
9129.000000;1.284001
9128.000000;1.284888
9127.000000;1.285194
9126.000000;1.284796
9125.000000;1.284217
9124.000000;1.284179
9123.000000;1.285019
9122.000000;1.286409
9121.000000;1.287500
9120.000000;1.287488
9119.000000;1.286280
9118.000000;1.284645
9117.000000;1.283513
9116.000000;1.283178
9115.000000;1.283264
9114.000000;1.283316
9113.000000;1.283171
9112.000000;1.282801
9111.000000;1.282076
9110.000000;1.280852
9109.000000;1.279226
9108.000000;1.277679
9107.000000;1.276938
9106.000000;1.277502
9105.000000;1.279103
9104.000000;1.280758
9103.000000;1.281580
9102.000000;1.281484
9101.000000;1.280860
9100.000000;1.279789
9099.000000;1.278118
9098.000000;1.276250
9097.000000;1.275186
9096.000000;1.275470
9095.000000;1.276504
9094.000000;1.277250
9093.000000;1.277386
9092.000000;1.277372
9091.000000;1.277517
9090.000000;1.277456
9089.000000;1.276716
9088.000000;1.275472
9087.000000;1.274457
9086.000000;1.274152
9085.000000;1.274265
9084.000000;1.274085
9083.000000;1.273360
9082.000000;1.272673
9081.000000;1.272774
9080.000000;1.273623
9079.000000;1.274338
9078.000000;1.274147
9077.000000;1.273180
9076.000000;1.272207
9075.000000;1.271829
9074.000000;1.272081
9073.000000;1.272663
9072.000000;1.273277
9071.000000;1.273761
9070.000000;1.274097
9069.000000;1.274316
9068.000000;1.274337
9067.000000;1.273925
9066.000000;1.272912
9065.000000;1.271414
9064.000000;1.269737
9063.000000;1.268157
9062.000000;1.266839
9061.000000;1.265840
9060.000000;1.265064
9059.000000;1.264302
9058.000000;1.263489
9057.000000;1.262856
9056.000000;1.262667
9055.000000;1.262851
9054.000000;1.263103
9053.000000;1.263354
