Criado como novo conjunto de dados;"1909daniel.spp","-4258963.7 Secs"
cm-1;Abs
10000.000000;1.750993
9999.000000;1.753666
9998.000000;1.754315
9997.000000;1.752752
9996.000000;1.750226
9995.000000;1.747685
9994.000000;1.745137
9993.000000;1.742592
9992.000000;1.740728
9991.000000;1.740077
9990.000000;1.740077
9989.000000;1.739708
9988.000000;1.738997
9987.000000;1.739054
9986.000000;1.740284
9985.000000;1.741272
9984.000000;1.740086
9983.000000;1.736598
9982.000000;1.732944
9981.000000;1.731548
9980.000000;1.732997
9979.000000;1.735751
9978.000000;1.737628
9977.000000;1.737673
9976.000000;1.736766
9975.000000;1.736461
9974.000000;1.737166
9973.000000;1.737496
9972.000000;1.735608
9971.000000;1.731285
9970.000000;1.726372
9969.000000;1.723039
9968.000000;1.721839
9967.000000;1.721502
9966.000000;1.720500
9965.000000;1.718585
9964.000000;1.716744
9963.000000;1.715977
9962.000000;1.716431
9961.000000;1.717579
9960.000000;1.718867
9959.000000;1.720005
9958.000000;1.720845
9957.000000;1.721288
9956.000000;1.721396
9955.000000;1.721395
9954.000000;1.721376
9953.000000;1.721094
9952.000000;1.720231
9951.000000;1.718803
9950.000000;1.717184
9949.000000;1.715800
9948.000000;1.714907
9947.000000;1.714485
9946.000000;1.714141
9945.000000;1.713223
9944.000000;1.711355
9943.000000;1.708972
9942.000000;1.707192
9941.000000;1.707041
9940.000000;1.708707
9939.000000;1.711228
9938.000000;1.712752
9937.000000;1.711523
9936.000000;1.707304
9935.000000;1.701953
9934.000000;1.698136
9933.000000;1.697111
9932.000000;1.697840
9931.000000;1.698318
9930.000000;1.697640
9929.000000;1.696616
9928.000000;1.696556
9927.000000;1.697774
9926.000000;1.699211
9925.000000;1.699242
9924.000000;1.696911
9923.000000;1.692815
9922.000000;1.688924
9921.000000;1.687247
9920.000000;1.688252
9919.000000;1.690412
9918.000000;1.691475
9917.000000;1.690475
9916.000000;1.688401
9915.000000;1.686871
9914.000000;1.686569
9913.000000;1.687116
9912.000000;1.687909
9911.000000;1.688457
9910.000000;1.688112
9909.000000;1.686345
9908.000000;1.683617
9907.000000;1.681294
9906.000000;1.680157
9905.000000;1.679396
9904.000000;1.677639
9903.000000;1.674904
9902.000000;1.672919
9901.000000;1.673298
9900.000000;1.675858
9899.000000;1.678744
9898.000000;1.679951
9897.000000;1.678772
9896.000000;1.676083
9895.000000;1.673429
9894.000000;1.671754
9893.000000;1.670918
9892.000000;1.670340
9891.000000;1.669782
9890.000000;1.669286
9889.000000;1.668742
9888.000000;1.668202
9887.000000;1.668401
9886.000000;1.670115
9885.000000;1.672794
9884.000000;1.674536
9883.000000;1.673875
9882.000000;1.671190
9881.000000;1.668015
9880.000000;1.665474
9879.000000;1.663744
9878.000000;1.662380
9877.000000;1.660612
9876.000000;1.657824
9875.000000;1.654440
9874.000000;1.652068
9873.000000;1.652063
9872.000000;1.654024
9871.000000;1.656163
9870.000000;1.657155
9869.000000;1.657205
9868.000000;1.657242
9867.000000;1.657616
9866.000000;1.657912
9865.000000;1.657712
9864.000000;1.657127
9863.000000;1.656550
9862.000000;1.656033
9861.000000;1.655022
9860.000000;1.652827
9859.000000;1.649507
9858.000000;1.646158
9857.000000;1.644125
9856.000000;1.643801
9855.000000;1.644218
9854.000000;1.643938
9853.000000;1.642408
9852.000000;1.640501
9851.000000;1.639591
9850.000000;1.640143
9849.000000;1.641390
9848.000000;1.642333
9847.000000;1.642671
9846.000000;1.642540
9845.000000;1.641947
9844.000000;1.641082
9843.000000;1.640767
9842.000000;1.641569
9841.000000;1.642461
9840.000000;1.641534
9839.000000;1.638536
9838.000000;1.635586
9837.000000;1.634617
9836.000000;1.635071
9835.000000;1.635098
9834.000000;1.634334
9833.000000;1.634091
9832.000000;1.634896
9831.000000;1.635336
9830.000000;1.633870
9829.000000;1.630867
9828.000000;1.628158
9827.000000;1.627091
9826.000000;1.627608
9825.000000;1.628773
9824.000000;1.629532
9823.000000;1.629169
9822.000000;1.627578
9821.000000;1.625274
9820.000000;1.622986
9819.000000;1.621220
9818.000000;1.620099
9817.000000;1.619447
9816.000000;1.618910
9815.000000;1.618126
9814.000000;1.616974
9813.000000;1.615546
9812.000000;1.613957
9811.000000;1.612403
9810.000000;1.611327
9809.000000;1.611309
9808.000000;1.612582
9807.000000;1.614650
9806.000000;1.616499
9805.000000;1.617282
9804.000000;1.616838
9803.000000;1.615611
9802.000000;1.614049
9801.000000;1.612156
9800.000000;1.609829
9799.000000;1.607551
9798.000000;1.606265
9797.000000;1.606283
9796.000000;1.606708
9795.000000;1.606452
9794.000000;1.605685
9793.000000;1.605722
9792.000000;1.607439
9791.000000;1.610247
9790.000000;1.612640
9789.000000;1.613378
9788.000000;1.612116
9787.000000;1.609314
9786.000000;1.605874
9785.000000;1.602702
9784.000000;1.600416
9783.000000;1.599348
9782.000000;1.599582
9781.000000;1.600739
9780.000000;1.601843
9779.000000;1.601885
9778.000000;1.600707
9777.000000;1.599094
9776.000000;1.597929
9775.000000;1.597523
9774.000000;1.597695
9773.000000;1.597994
9772.000000;1.597726
9771.000000;1.596274
9770.000000;1.593713
9769.000000;1.590854
9768.000000;1.588485
9767.000000;1.586908
9766.000000;1.586267
9765.000000;1.586673
9764.000000;1.587575
9763.000000;1.587641
9762.000000;1.586130
9761.000000;1.584273
9760.000000;1.584454
9759.000000;1.587789
9758.000000;1.592801
9757.000000;1.596509
9756.000000;1.596702
9755.000000;1.593342
9754.000000;1.588250
9753.000000;1.583680
9752.000000;1.580872
9751.000000;1.579458
9750.000000;1.578193
9749.000000;1.576396
9748.000000;1.574681
9747.000000;1.574207
9746.000000;1.575379
9745.000000;1.577346
9744.000000;1.578572
9743.000000;1.577887
9742.000000;1.575330
9741.000000;1.572136
9740.000000;1.569720
9739.000000;1.568443
9738.000000;1.567486
9737.000000;1.566154
9736.000000;1.564994
9735.000000;1.565123
9734.000000;1.566626
9733.000000;1.568276
9732.000000;1.568959
9731.000000;1.568733
9730.000000;1.568098
9729.000000;1.566978
9728.000000;1.565191
9727.000000;1.563453
9726.000000;1.562881
9725.000000;1.563467
9724.000000;1.563662
9723.000000;1.561766
9722.000000;1.557653
9721.000000;1.553123
9720.000000;1.550698
9719.000000;1.551880
9718.000000;1.555872
9717.000000;1.559772
9716.000000;1.560672
9715.000000;1.558174
9714.000000;1.554560
9713.000000;1.552400
9712.000000;1.552424
9711.000000;1.553539
9710.000000;1.554132
9709.000000;1.553171
9708.000000;1.550762
9707.000000;1.548199
9706.000000;1.547026
9705.000000;1.547502
9704.000000;1.548259
9703.000000;1.547935
9702.000000;1.546799
9701.000000;1.546095
9700.000000;1.546159
9699.000000;1.546112
9698.000000;1.545287
9697.000000;1.544090
9696.000000;1.543263
9695.000000;1.543016
9694.000000;1.543070
9693.000000;1.542932
9692.000000;1.541932
9691.000000;1.539658
9690.000000;1.536662
9689.000000;1.534196
9688.000000;1.532966
9687.000000;1.532620
9686.000000;1.532630
9685.000000;1.533051
9684.000000;1.533978
9683.000000;1.534787
9682.000000;1.534756
9681.000000;1.534251
9680.000000;1.534438
9679.000000;1.535697
9678.000000;1.537042
9677.000000;1.537328
9676.000000;1.536517
9675.000000;1.535374
9674.000000;1.534219
9673.000000;1.532567
9672.000000;1.530009
9671.000000;1.527025
9670.000000;1.524562
9669.000000;1.523037
9668.000000;1.522076
9667.000000;1.521227
9666.000000;1.520477
9665.000000;1.519921
9664.000000;1.519322
9663.000000;1.518475
9662.000000;1.517777
9661.000000;1.517933
9660.000000;1.519041
9659.000000;1.520411
9658.000000;1.521386
9657.000000;1.521900
9656.000000;1.522100
9655.000000;1.521827
9654.000000;1.520773
9653.000000;1.518927
9652.000000;1.516706
9651.000000;1.514792
9650.000000;1.513909
9649.000000;1.514367
9648.000000;1.515551
9647.000000;1.516090
9646.000000;1.514905
9645.000000;1.512103
9644.000000;1.508751
9643.000000;1.506015
9642.000000;1.504603
9641.000000;1.504674
9640.000000;1.505840
9639.000000;1.507308
9638.000000;1.508307
9637.000000;1.508525
9636.000000;1.508098
9635.000000;1.507307
9634.000000;1.506365
9633.000000;1.505240
9632.000000;1.503602
9631.000000;1.501278
9630.000000;1.498905
9629.000000;1.497698
9628.000000;1.498228
9627.000000;1.499618
9626.000000;1.500338
9625.000000;1.499737
9624.000000;1.498407
9623.000000;1.497143
9622.000000;1.496117
9621.000000;1.495166
9620.000000;1.494405
9619.000000;1.494130
9618.000000;1.494207
9617.000000;1.493934
9616.000000;1.492720
9615.000000;1.490857
9614.000000;1.489348
9613.000000;1.488854
9612.000000;1.488952
9611.000000;1.488671
9610.000000;1.487654
9609.000000;1.486431
9608.000000;1.485576
9607.000000;1.485017
9606.000000;1.484295
9605.000000;1.483186
9604.000000;1.481831
9603.000000;1.480499
9602.000000;1.479453
9601.000000;1.478871
9600.000000;1.478627
9599.000000;1.478302
9598.000000;1.477639
9597.000000;1.476908
9596.000000;1.476643
9595.000000;1.477093
9594.000000;1.478006
9593.000000;1.478813
9592.000000;1.478982
9591.000000;1.478423
9590.000000;1.477636
9589.000000;1.477185
9588.000000;1.476940
9587.000000;1.476217
9586.000000;1.474857
9585.000000;1.473700
9584.000000;1.473518
9583.000000;1.473879
9582.000000;1.473703
9581.000000;1.472734
9580.000000;1.471819
9579.000000;1.471718
9578.000000;1.472167
9577.000000;1.472374
9576.000000;1.472076
9575.000000;1.471682
9574.000000;1.471545
9573.000000;1.471388
9572.000000;1.470557
9571.000000;1.468827
9570.000000;1.466875
9569.000000;1.465763
9568.000000;1.465853
9567.000000;1.466391
9566.000000;1.466308
9565.000000;1.465234
9564.000000;1.463593
9563.000000;1.462020
9562.000000;1.460908
9561.000000;1.460195
9560.000000;1.459304
9559.000000;1.457588
9558.000000;1.455182
9557.000000;1.453114
9556.000000;1.452145
9555.000000;1.451732
9554.000000;1.450740
9553.000000;1.449069
9552.000000;1.447860
9551.000000;1.448016
9550.000000;1.449180
9549.000000;1.450356
9548.000000;1.450999
9547.000000;1.451165
9546.000000;1.450966
9545.000000;1.450304
9544.000000;1.449043
9543.000000;1.447276
9542.000000;1.445522
9541.000000;1.444601
9540.000000;1.444936
9539.000000;1.445932
9538.000000;1.446492
9537.000000;1.446238
9536.000000;1.445751
9535.000000;1.445469
9534.000000;1.445007
9533.000000;1.443949
9532.000000;1.442701
9531.000000;1.442009
9530.000000;1.441957
9529.000000;1.441987
9528.000000;1.441686
9527.000000;1.441001
9526.000000;1.439872
9525.000000;1.438330
9524.000000;1.436913
9523.000000;1.436313
9522.000000;1.436454
9521.000000;1.436335
9520.000000;1.435062
9519.000000;1.432809
9518.000000;1.430629
9517.000000;1.429576
9516.000000;1.430094
9515.000000;1.431774
9514.000000;1.433483
9513.000000;1.434045
9512.000000;1.433103
9511.000000;1.431269
9510.000000;1.429365
9509.000000;1.427737
9508.000000;1.426444
9507.000000;1.425761
9506.000000;1.426052
9505.000000;1.427120
9504.000000;1.427959
9503.000000;1.427397
9502.000000;1.425158
9501.000000;1.422332
9500.000000;1.420673
9499.000000;1.421183
9498.000000;1.423153
9497.000000;1.424653
9496.000000;1.424284
9495.000000;1.422570
9494.000000;1.421424
9493.000000;1.422219
9492.000000;1.424480
9491.000000;1.426410
9490.000000;1.426482
9489.000000;1.424405
9488.000000;1.420787
9487.000000;1.416421
9486.000000;1.412119
9485.000000;1.408839
9484.000000;1.407425
9483.000000;1.408079
9482.000000;1.410163
9481.000000;1.412539
9480.000000;1.414093
9479.000000;1.414104
9478.000000;1.412571
9477.000000;1.410252
9476.000000;1.408069
9475.000000;1.406479
9474.000000;1.405571
9473.000000;1.405524
9472.000000;1.406536
9471.000000;1.408213
9470.000000;1.409459
9469.000000;1.409316
9468.000000;1.407777
9467.000000;1.405593
9466.000000;1.403587
9465.000000;1.402360
9464.000000;1.402243
9463.000000;1.402968
9462.000000;1.403577
9461.000000;1.403227
9460.000000;1.402136
9459.000000;1.401301
9458.000000;1.401246
9457.000000;1.401475
9456.000000;1.401272
9455.000000;1.400574
9454.000000;1.399729
9453.000000;1.398808
9452.000000;1.397667
9451.000000;1.396555
9450.000000;1.396060
9449.000000;1.396271
9448.000000;1.396432
9447.000000;1.395790
9446.000000;1.394530
9445.000000;1.393579
9444.000000;1.393529
9443.000000;1.394011
9442.000000;1.394128
9441.000000;1.393343
9440.000000;1.391892
9439.000000;1.390519
9438.000000;1.389965
9437.000000;1.390539
9436.000000;1.391818
9435.000000;1.392756
9434.000000;1.392428
9433.000000;1.390857
9432.000000;1.388969
9431.000000;1.387647
9430.000000;1.386972
9429.000000;1.386470
9428.000000;1.385829
9427.000000;1.385155
9426.000000;1.384632
9425.000000;1.384225
9424.000000;1.383744
9423.000000;1.383006
9422.000000;1.381897
9421.000000;1.380468
9420.000000;1.379043
9419.000000;1.378074
9418.000000;1.377772
9417.000000;1.377981
9416.000000;1.378411
9415.000000;1.378861
9414.000000;1.379142
9413.000000;1.378912
9412.000000;1.377866
9411.000000;1.376130
9410.000000;1.374342
9409.000000;1.373302
9408.000000;1.373498
9407.000000;1.374831
9406.000000;1.376751
9405.000000;1.378629
9404.000000;1.379992
9403.000000;1.380442
9402.000000;1.379618
9401.000000;1.377573
9400.000000;1.375145
9399.000000;1.373456
9398.000000;1.372770
9397.000000;1.372067
9396.000000;1.370144
9395.000000;1.367122
9394.000000;1.364515
9393.000000;1.363747
9392.000000;1.364827
9391.000000;1.366475
9390.000000;1.367258
9389.000000;1.366556
9388.000000;1.364684
9387.000000;1.362466
9386.000000;1.360704
9385.000000;1.359731
9384.000000;1.359251
9383.000000;1.358717
9382.000000;1.357955
9381.000000;1.357345
9380.000000;1.357391
9379.000000;1.358193
9378.000000;1.359396
9377.000000;1.360517
9376.000000;1.361160
9375.000000;1.360969
9374.000000;1.359699
9373.000000;1.357515
9372.000000;1.355127
9371.000000;1.353380
9370.000000;1.352638
9369.000000;1.352577
9368.000000;1.352616
9367.000000;1.352507
9366.000000;1.352478
9365.000000;1.352860
9364.000000;1.353650
9363.000000;1.354478
9362.000000;1.354996
9361.000000;1.355239
9360.000000;1.355522
9359.000000;1.355964
9358.000000;1.356236
9357.000000;1.355837
9356.000000;1.354549
9355.000000;1.352575
9354.000000;1.350345
9353.000000;1.348284
9352.000000;1.346675
9351.000000;1.345522
9350.000000;1.344540
9349.000000;1.343477
9348.000000;1.342540
9347.000000;1.342361
9346.000000;1.343379
9345.000000;1.345206
9344.000000;1.346697
9343.000000;1.346797
9342.000000;1.345443
9341.000000;1.343690
9340.000000;1.342881
9339.000000;1.343546
9338.000000;1.344972
9337.000000;1.345910
9336.000000;1.345784
9335.000000;1.345058
9334.000000;1.344320
9333.000000;1.343346
9332.000000;1.341427
9331.000000;1.338542
9330.000000;1.335790
9329.000000;1.334432
9328.000000;1.334692
9327.000000;1.335611
9326.000000;1.335921
9325.000000;1.334984
9324.000000;1.333103
9323.000000;1.331226
9322.000000;1.330367
9321.000000;1.330945
9320.000000;1.332357
9319.000000;1.333313
9318.000000;1.332932
9317.000000;1.331585
9316.000000;1.330445
9315.000000;1.330221
9314.000000;1.330575
9313.000000;1.330859
9312.000000;1.331011
9311.000000;1.331260
9310.000000;1.331145
9309.000000;1.329672
9308.000000;1.326812
9307.000000;1.324188
9306.000000;1.323564
9305.000000;1.324864
9304.000000;1.326293
9303.000000;1.326537
9302.000000;1.326193
9301.000000;1.326577
9300.000000;1.327796
9299.000000;1.328735
9298.000000;1.328708
9297.000000;1.328317
9296.000000;1.328455
9295.000000;1.329088
9294.000000;1.329457
9293.000000;1.329058
9292.000000;1.327979
9291.000000;1.326497
9290.000000;1.324836
9289.000000;1.323286
9288.000000;1.322137
9287.000000;1.321378
9286.000000;1.320719
9285.000000;1.320033
9284.000000;1.319550
9283.000000;1.319492
9282.000000;1.319637
9281.000000;1.319442
9280.000000;1.318562
9279.000000;1.317192
9278.000000;1.315981
9277.000000;1.315613
9276.000000;1.316249
9275.000000;1.317204
9274.000000;1.317375
9273.000000;1.316286
9272.000000;1.314686
9271.000000;1.313838
9270.000000;1.314242
9269.000000;1.315231
9268.000000;1.315745
9267.000000;1.315308
9266.000000;1.314228
9265.000000;1.313061
9264.000000;1.312091
9263.000000;1.311276
9262.000000;1.310560
9261.000000;1.310153
9260.000000;1.310372
9259.000000;1.311070
9258.000000;1.311306
9257.000000;1.309964
9256.000000;1.306910
9255.000000;1.303363
9254.000000;1.300966
9253.000000;1.300565
9252.000000;1.301796
9251.000000;1.303542
9250.000000;1.304682
9249.000000;1.304777
9248.000000;1.304352
9247.000000;1.304342
9246.000000;1.304973
9245.000000;1.305339
9244.000000;1.304424
9243.000000;1.302460
9242.000000;1.300783
9241.000000;1.300353
9240.000000;1.300986
9239.000000;1.302041
9238.000000;1.303195
9237.000000;1.304149
9236.000000;1.304134
9235.000000;1.302529
9234.000000;1.299910
9233.000000;1.297828
9232.000000;1.297359
9231.000000;1.298149
9230.000000;1.298959
9229.000000;1.298948
9228.000000;1.298305
9227.000000;1.297855
9226.000000;1.298290
9225.000000;1.299655
9224.000000;1.301272
9223.000000;1.302160
9222.000000;1.301735
9221.000000;1.300193
9220.000000;1.298193
9219.000000;1.296279
9218.000000;1.294713
9217.000000;1.293727
9216.000000;1.293628
9215.000000;1.294458
9214.000000;1.295668
9213.000000;1.296381
9212.000000;1.296088
9211.000000;1.295037
9210.000000;1.293910
9209.000000;1.293206
9208.000000;1.292908
9207.000000;1.292629
9206.000000;1.291996
9205.000000;1.291028
9204.000000;1.290258
9203.000000;1.290300
9202.000000;1.291040
9201.000000;1.291424
9200.000000;1.290487
9199.000000;1.288642
9198.000000;1.287439
9197.000000;1.287778
9196.000000;1.288737
9195.000000;1.288562
9194.000000;1.286606
9193.000000;1.283853
9192.000000;1.281639
9191.000000;1.280501
9190.000000;1.280392
9189.000000;1.281352
9188.000000;1.283383
9187.000000;1.285841
9186.000000;1.287510
9185.000000;1.287536
9184.000000;1.286189
9183.000000;1.284628
9182.000000;1.283995
9181.000000;1.284617
9180.000000;1.285784
9179.000000;1.286263
9178.000000;1.285279
9177.000000;1.283199
9176.000000;1.281159
9175.000000;1.280011
9174.000000;1.279754
9173.000000;1.279944
9172.000000;1.280359
9171.000000;1.280977
9170.000000;1.281493
9169.000000;1.281313
9168.000000;1.280233
9167.000000;1.278861
9166.000000;1.278084
9165.000000;1.278153
9164.000000;1.278498
9163.000000;1.278439
9162.000000;1.277932
9161.000000;1.277513
9160.000000;1.277588
9159.000000;1.277860
9158.000000;1.277550
9157.000000;1.276235
9156.000000;1.274423
9155.000000;1.273107
9154.000000;1.272765
9153.000000;1.272959
9152.000000;1.273005
9151.000000;1.272792
9150.000000;1.272676
9149.000000;1.272756
9148.000000;1.272697
9147.000000;1.272306
9146.000000;1.271879
9145.000000;1.271757
9144.000000;1.271824
9143.000000;1.271669
9142.000000;1.271120
9141.000000;1.270422
9140.000000;1.269971
9139.000000;1.269982
9138.000000;1.270338
9137.000000;1.270703
9136.000000;1.270868
9135.000000;1.270958
9134.000000;1.271124
9133.000000;1.271034
9132.000000;1.270109
9131.000000;1.268480
9130.000000;1.267298
9129.000000;1.267573
9128.000000;1.268958
9127.000000;1.270113
9126.000000;1.270186
9125.000000;1.269517
9124.000000;1.268878
9123.000000;1.268485
9122.000000;1.267993
9121.000000;1.267128
9120.000000;1.266031
9119.000000;1.265080
9118.000000;1.264616
9117.000000;1.264758
9116.000000;1.265309
9115.000000;1.265810
9114.000000;1.265772
9113.000000;1.264957
9112.000000;1.263547
9111.000000;1.262101
9110.000000;1.261260
9109.000000;1.261293
9108.000000;1.261891
9107.000000;1.262454
9106.000000;1.262591
9105.000000;1.262275
9104.000000;1.261601
9103.000000;1.260609
9102.000000;1.259431
9101.000000;1.258417
9100.000000;1.257922
9099.000000;1.258017
9098.000000;1.258464
9097.000000;1.258879
9096.000000;1.258966
9095.000000;1.258704
9094.000000;1.258388
9093.000000;1.258370
9092.000000;1.258670
9091.000000;1.258848
9090.000000;1.258330
9089.000000;1.256933
9088.000000;1.255224
9087.000000;1.254273
9086.000000;1.254772
9085.000000;1.256217
9084.000000;1.257185
9083.000000;1.256712
9082.000000;1.255310
9081.000000;1.254354
9080.000000;1.254582
9079.000000;1.255492
9078.000000;1.256008
9077.000000;1.255406
9076.000000;1.253684
9075.000000;1.251513
9074.000000;1.249903
9073.000000;1.249546
9072.000000;1.250265
9071.000000;1.251274
9070.000000;1.252004
9069.000000;1.252513
9068.000000;1.253124
9067.000000;1.253974
9066.000000;1.254906
9065.000000;1.255421
9064.000000;1.254767
9063.000000;1.252674
9062.000000;1.250102
9061.000000;1.248658
9060.000000;1.248965
9059.000000;1.250076
9058.000000;1.250781
9057.000000;1.251018
9056.000000;1.251436
9055.000000;1.251974
9054.000000;1.251728
9053.000000;1.250234
