Criado como novo conjunto de dados;"1909daniel.spp","-4273184.4 Secs"
cm-1;Abs
10000.000000;1.304782
9999.000000;1.303548
9998.000000;1.302031
9997.000000;1.300967
9996.000000;1.300964
9995.000000;1.301527
9994.000000;1.301478
9993.000000;1.300059
9992.000000;1.297852
9991.000000;1.295997
9990.000000;1.294997
9989.000000;1.294511
9988.000000;1.294143
9987.000000;1.293788
9986.000000;1.293250
9985.000000;1.292177
9984.000000;1.290669
9983.000000;1.289465
9982.000000;1.289141
9981.000000;1.289383
9980.000000;1.289391
9979.000000;1.288789
9978.000000;1.287848
9977.000000;1.287010
9976.000000;1.286475
9975.000000;1.286159
9974.000000;1.285729
9973.000000;1.284729
9972.000000;1.282994
9971.000000;1.281019
9970.000000;1.279679
9969.000000;1.279449
9968.000000;1.280022
9967.000000;1.280737
9966.000000;1.281272
9965.000000;1.281798
9964.000000;1.282442
9963.000000;1.282765
9962.000000;1.282022
9961.000000;1.280013
9960.000000;1.277463
9959.000000;1.275290
9958.000000;1.273629
9957.000000;1.271921
9956.000000;1.269997
9955.000000;1.268631
9954.000000;1.268688
9953.000000;1.269997
9952.000000;1.271395
9951.000000;1.271794
9950.000000;1.270895
9949.000000;1.269003
9948.000000;1.266669
9947.000000;1.264634
9946.000000;1.263653
9945.000000;1.263938
9944.000000;1.264802
9943.000000;1.265145
9942.000000;1.264406
9941.000000;1.262945
9940.000000;1.261461
9939.000000;1.260211
9938.000000;1.258952
9937.000000;1.257571
9936.000000;1.256471
9935.000000;1.256138
9934.000000;1.256462
9933.000000;1.256808
9932.000000;1.256746
9931.000000;1.256394
9930.000000;1.255924
9929.000000;1.255116
9928.000000;1.253740
9927.000000;1.252160
9926.000000;1.251139
9925.000000;1.251045
9924.000000;1.251500
9923.000000;1.251791
9922.000000;1.251408
9921.000000;1.250252
9920.000000;1.248650
9919.000000;1.247234
9918.000000;1.246516
9917.000000;1.246411
9916.000000;1.246315
9915.000000;1.245728
9914.000000;1.244651
9913.000000;1.243377
9912.000000;1.242156
9911.000000;1.241143
9910.000000;1.240439
9909.000000;1.239979
9908.000000;1.239541
9907.000000;1.239049
9906.000000;1.238739
9905.000000;1.238813
9904.000000;1.238974
9903.000000;1.238565
9902.000000;1.237248
9901.000000;1.235469
9900.000000;1.234120
9899.000000;1.233703
9898.000000;1.233855
9897.000000;1.233734
9896.000000;1.232907
9895.000000;1.231720
9894.000000;1.230704
9893.000000;1.229859
9892.000000;1.228865
9891.000000;1.227841
9890.000000;1.227400
9889.000000;1.227762
9888.000000;1.228228
9887.000000;1.227847
9886.000000;1.226426
9885.000000;1.224561
9884.000000;1.222873
9883.000000;1.221572
9882.000000;1.220653
9881.000000;1.220066
9880.000000;1.219592
9879.000000;1.218881
9878.000000;1.217820
9877.000000;1.216716
9876.000000;1.216006
9875.000000;1.215893
9874.000000;1.216278
9873.000000;1.216868
9872.000000;1.217238
9871.000000;1.216992
9870.000000;1.216079
9869.000000;1.214920
9868.000000;1.214036
9867.000000;1.213481
9866.000000;1.212763
9865.000000;1.211415
9864.000000;1.209623
9863.000000;1.208182
9862.000000;1.207769
9861.000000;1.208293
9860.000000;1.209009
9859.000000;1.209210
9858.000000;1.208707
9857.000000;1.207698
9856.000000;1.206381
9855.000000;1.204836
9854.000000;1.203126
9853.000000;1.201364
9852.000000;1.199791
9851.000000;1.198882
9850.000000;1.199120
9849.000000;1.200423
9848.000000;1.201857
9847.000000;1.202249
9846.000000;1.201283
9845.000000;1.199771
9844.000000;1.198719
9843.000000;1.198309
9842.000000;1.197945
9841.000000;1.197080
9840.000000;1.195751
9839.000000;1.194337
9838.000000;1.193079
9837.000000;1.191960
9836.000000;1.190941
9835.000000;1.190108
9834.000000;1.189543
9833.000000;1.189112
9832.000000;1.188525
9831.000000;1.187662
9830.000000;1.186732
9829.000000;1.185991
9828.000000;1.185347
9827.000000;1.184458
9826.000000;1.183240
9825.000000;1.182071
9824.000000;1.181344
9823.000000;1.180955
9822.000000;1.180432
9821.000000;1.179512
9820.000000;1.178392
9819.000000;1.177410
9818.000000;1.176689
9817.000000;1.176140
9816.000000;1.175679
9815.000000;1.175342
9814.000000;1.175277
9813.000000;1.175619
9812.000000;1.176262
9811.000000;1.176742
9810.000000;1.176495
9809.000000;1.175382
9808.000000;1.173862
9807.000000;1.172526
9806.000000;1.171544
9805.000000;1.170702
9804.000000;1.169879
9803.000000;1.169275
9802.000000;1.169087
9801.000000;1.169116
9800.000000;1.168892
9799.000000;1.168178
9798.000000;1.167253
9797.000000;1.166607
9796.000000;1.166391
9795.000000;1.166229
9794.000000;1.165613
9793.000000;1.164435
9792.000000;1.163075
9791.000000;1.161995
9790.000000;1.161387
9789.000000;1.161211
9788.000000;1.161318
9787.000000;1.161327
9786.000000;1.160590
9785.000000;1.158687
9784.000000;1.156034
9783.000000;1.153712
9782.000000;1.152517
9781.000000;1.152385
9780.000000;1.152810
9779.000000;1.153500
9778.000000;1.154325
9777.000000;1.154839
9776.000000;1.154394
9775.000000;1.152868
9774.000000;1.150928
9773.000000;1.149346
9772.000000;1.148300
9771.000000;1.147536
9770.000000;1.146930
9769.000000;1.146520
9768.000000;1.146089
9767.000000;1.145178
9766.000000;1.143703
9765.000000;1.142287
9764.000000;1.141684
9763.000000;1.141966
9762.000000;1.142485
9761.000000;1.142634
9760.000000;1.142409
9759.000000;1.142154
9758.000000;1.141984
9757.000000;1.141713
9756.000000;1.141258
9755.000000;1.140811
9754.000000;1.140529
9753.000000;1.140256
9752.000000;1.139663
9751.000000;1.138538
9750.000000;1.136847
9749.000000;1.134703
9748.000000;1.132454
9747.000000;1.130674
9746.000000;1.129765
9745.000000;1.129562
9744.000000;1.129499
9743.000000;1.129186
9742.000000;1.128648
9741.000000;1.128022
9740.000000;1.127277
9739.000000;1.126392
9738.000000;1.125579
9737.000000;1.125059
9736.000000;1.124703
9735.000000;1.124109
9734.000000;1.123084
9733.000000;1.121912
9732.000000;1.121056
9731.000000;1.120662
9730.000000;1.120447
9729.000000;1.120035
9728.000000;1.119320
9727.000000;1.118447
9726.000000;1.117518
9725.000000;1.116509
9724.000000;1.115476
9723.000000;1.114672
9722.000000;1.114281
9721.000000;1.114160
9720.000000;1.113998
9719.000000;1.113663
9718.000000;1.113224
9717.000000;1.112726
9716.000000;1.112153
9715.000000;1.111577
9714.000000;1.111078
9713.000000;1.110544
9712.000000;1.109776
9711.000000;1.108813
9710.000000;1.107876
9709.000000;1.106972
9708.000000;1.105861
9707.000000;1.104536
9706.000000;1.103394
9705.000000;1.102731
9704.000000;1.102332
9703.000000;1.101803
9702.000000;1.101132
9701.000000;1.100683
9700.000000;1.100760
9699.000000;1.101368
9698.000000;1.102220
9697.000000;1.102796
9696.000000;1.102567
9695.000000;1.101396
9694.000000;1.099634
9693.000000;1.097725
9692.000000;1.095898
9691.000000;1.094366
9690.000000;1.093443
9689.000000;1.093170
9688.000000;1.093066
9687.000000;1.092624
9686.000000;1.091889
9685.000000;1.091236
9684.000000;1.090772
9683.000000;1.090324
9682.000000;1.089888
9681.000000;1.089637
9680.000000;1.089522
9679.000000;1.089244
9678.000000;1.088612
9677.000000;1.087604
9676.000000;1.086143
9675.000000;1.084264
9674.000000;1.082509
9673.000000;1.081671
9672.000000;1.082004
9671.000000;1.082954
9670.000000;1.083724
9669.000000;1.083821
9668.000000;1.083079
9667.000000;1.081640
9666.000000;1.080057
9665.000000;1.079002
9664.000000;1.078618
9663.000000;1.078396
9662.000000;1.077818
9661.000000;1.076870
9660.000000;1.075820
9659.000000;1.074854
9658.000000;1.074088
9657.000000;1.073604
9656.000000;1.073245
9655.000000;1.072665
9654.000000;1.071729
9653.000000;1.070628
9652.000000;1.069525
9651.000000;1.068465
9650.000000;1.067749
9649.000000;1.067845
9648.000000;1.068617
9647.000000;1.069100
9646.000000;1.068503
9645.000000;1.067147
9644.000000;1.065942
9643.000000;1.065311
9642.000000;1.065059
9641.000000;1.064961
9640.000000;1.064843
9639.000000;1.064262
9638.000000;1.062810
9637.000000;1.060836
9636.000000;1.059285
9635.000000;1.058689
9634.000000;1.058719
9633.000000;1.058800
9632.000000;1.058712
9631.000000;1.058437
9630.000000;1.057848
9629.000000;1.056903
9628.000000;1.055905
9627.000000;1.055248
9626.000000;1.054958
9625.000000;1.054663
9624.000000;1.053992
9623.000000;1.052902
9622.000000;1.051660
9621.000000;1.050583
9620.000000;1.049786
9619.000000;1.049171
9618.000000;1.048610
9617.000000;1.048049
9616.000000;1.047400
9615.000000;1.046539
9614.000000;1.045554
9613.000000;1.044780
9612.000000;1.044333
9611.000000;1.043802
9610.000000;1.042724
9609.000000;1.041289
9608.000000;1.040218
9607.000000;1.039932
9606.000000;1.040191
9605.000000;1.040579
9604.000000;1.040966
9603.000000;1.041337
9602.000000;1.041512
9601.000000;1.041292
9600.000000;1.040701
9599.000000;1.039811
9598.000000;1.038510
9597.000000;1.036699
9596.000000;1.034683
9595.000000;1.033109
9594.000000;1.032473
9593.000000;1.032746
9592.000000;1.033498
9591.000000;1.034253
9590.000000;1.034704
9589.000000;1.034665
9588.000000;1.033992
9587.000000;1.032715
9586.000000;1.031279
9585.000000;1.030418
9584.000000;1.030531
9583.000000;1.031181
9582.000000;1.031392
9581.000000;1.030534
9580.000000;1.028806
9579.000000;1.026839
9578.000000;1.025090
9577.000000;1.023737
9576.000000;1.022923
9575.000000;1.022744
9574.000000;1.022944
9573.000000;1.022865
9572.000000;1.021913
9571.000000;1.020162
9570.000000;1.018421
9569.000000;1.017597
9568.000000;1.017923
9567.000000;1.018797
9566.000000;1.019435
9565.000000;1.019621
9564.000000;1.019735
9563.000000;1.020090
9562.000000;1.020411
9561.000000;1.020067
9560.000000;1.018765
9559.000000;1.016905
9558.000000;1.015205
9557.000000;1.014046
9556.000000;1.013254
9555.000000;1.012495
9554.000000;1.011717
9553.000000;1.011064
9552.000000;1.010477
9551.000000;1.009715
9550.000000;1.008796
9549.000000;1.008109
9548.000000;1.007860
9547.000000;1.007671
9546.000000;1.007020
9545.000000;1.005927
9544.000000;1.004858
9543.000000;1.004059
9542.000000;1.003373
9541.000000;1.002709
9540.000000;1.002322
9539.000000;1.002461
9538.000000;1.002966
9537.000000;1.003360
9536.000000;1.003249
9535.000000;1.002574
9534.000000;1.001583
9533.000000;1.000575
9532.000000;0.999585
9531.000000;0.998335
9530.000000;0.996669
9529.000000;0.994939
9528.000000;0.993709
9527.000000;0.993093
9526.000000;0.992657
9525.000000;0.992032
9524.000000;0.991304
9523.000000;0.990700
9522.000000;0.990182
9521.000000;0.989584
9520.000000;0.988949
9519.000000;0.988521
9518.000000;0.988496
9517.000000;0.988945
9516.000000;0.989805
9515.000000;0.990760
9514.000000;0.991282
9513.000000;0.991007
9512.000000;0.990024
9511.000000;0.988656
9510.000000;0.987129
9509.000000;0.985645
9508.000000;0.984567
9507.000000;0.984156
9506.000000;0.984117
9505.000000;0.983733
9504.000000;0.982596
9503.000000;0.981043
9502.000000;0.979767
9501.000000;0.979152
9500.000000;0.979082
9499.000000;0.979266
9498.000000;0.979555
9497.000000;0.979907
9496.000000;0.980194
9495.000000;0.980179
9494.000000;0.979742
9493.000000;0.979033
9492.000000;0.978295
9491.000000;0.977557
9490.000000;0.976661
9489.000000;0.975634
9488.000000;0.974812
9487.000000;0.974422
9486.000000;0.974186
9485.000000;0.973602
9484.000000;0.972577
9483.000000;0.971485
9482.000000;0.970616
9481.000000;0.969869
9480.000000;0.969098
9479.000000;0.968469
9478.000000;0.968225
9477.000000;0.968230
9476.000000;0.968058
9475.000000;0.967547
9474.000000;0.966990
9473.000000;0.966666
9472.000000;0.966371
9471.000000;0.965592
9470.000000;0.964106
9469.000000;0.962260
9468.000000;0.960669
9467.000000;0.959764
9466.000000;0.959625
9465.000000;0.960071
9464.000000;0.960777
9463.000000;0.961328
9462.000000;0.961363
9461.000000;0.960806
9460.000000;0.959936
9459.000000;0.959138
9458.000000;0.958566
9457.000000;0.958128
9456.000000;0.957780
9455.000000;0.957633
9454.000000;0.957619
9453.000000;0.957197
9452.000000;0.955734
9451.000000;0.953339
9450.000000;0.951068
9449.000000;0.950058
9448.000000;0.950484
9447.000000;0.951504
9446.000000;0.952142
9445.000000;0.952034
9444.000000;0.951370
9443.000000;0.950424
9442.000000;0.949332
9441.000000;0.948163
9440.000000;0.947023
9439.000000;0.946094
9438.000000;0.945638
9437.000000;0.945798
9436.000000;0.946344
9435.000000;0.946744
9434.000000;0.946674
9433.000000;0.946301
9432.000000;0.945890
9431.000000;0.945285
9430.000000;0.944092
9429.000000;0.942376
9428.000000;0.940827
9427.000000;0.940092
9426.000000;0.940119
9425.000000;0.940335
9424.000000;0.940318
9423.000000;0.940099
9422.000000;0.939865
9421.000000;0.939606
9420.000000;0.939147
9419.000000;0.938388
9418.000000;0.937413
9417.000000;0.936409
9416.000000;0.935554
9415.000000;0.934975
9414.000000;0.934664
9413.000000;0.934400
9412.000000;0.933855
9411.000000;0.932915
9410.000000;0.931866
9409.000000;0.931165
9408.000000;0.930975
9407.000000;0.931072
9406.000000;0.931190
9405.000000;0.931316
9404.000000;0.931542
9403.000000;0.931786
9402.000000;0.931800
9401.000000;0.931402
9400.000000;0.930564
9399.000000;0.929360
9398.000000;0.927988
9397.000000;0.926814
9396.000000;0.926199
9395.000000;0.926176
9394.000000;0.926379
9393.000000;0.926306
9392.000000;0.925647
9391.000000;0.924426
9390.000000;0.922980
9389.000000;0.921799
9388.000000;0.921235
9387.000000;0.921234
9386.000000;0.921390
9385.000000;0.921315
9384.000000;0.920966
9383.000000;0.920575
9382.000000;0.920315
9381.000000;0.920076
9380.000000;0.919584
9379.000000;0.918723
9378.000000;0.917709
9377.000000;0.916915
9376.000000;0.916537
9375.000000;0.916468
9374.000000;0.916484
9373.000000;0.916403
9372.000000;0.916066
9371.000000;0.915364
9370.000000;0.914445
9369.000000;0.913750
9368.000000;0.913609
9367.000000;0.913808
9366.000000;0.913714
9365.000000;0.912878
9364.000000;0.911435
9363.000000;0.909879
9362.000000;0.908585
9361.000000;0.907576
9360.000000;0.906662
9359.000000;0.905763
9358.000000;0.905108
9357.000000;0.905086
9356.000000;0.905761
9355.000000;0.906607
9354.000000;0.906870
9353.000000;0.906262
9352.000000;0.905196
9351.000000;0.904305
9350.000000;0.903873
9349.000000;0.903786
9348.000000;0.903832
9347.000000;0.903862
9346.000000;0.903717
9345.000000;0.903198
9344.000000;0.902236
9343.000000;0.901044
9342.000000;0.900032
9341.000000;0.899511
9340.000000;0.899466
9339.000000;0.899592
9338.000000;0.899579
9337.000000;0.899345
9336.000000;0.899003
9335.000000;0.898641
9334.000000;0.898197
9333.000000;0.897563
9332.000000;0.896735
9331.000000;0.895832
9330.000000;0.894991
9329.000000;0.894292
9328.000000;0.893790
9327.000000;0.893572
9326.000000;0.893686
9325.000000;0.893977
9324.000000;0.894074
9323.000000;0.893682
9322.000000;0.892868
9321.000000;0.891987
9320.000000;0.891327
9319.000000;0.890932
9318.000000;0.890759
9317.000000;0.890807
9316.000000;0.890965
9315.000000;0.890869
9314.000000;0.890131
9313.000000;0.888747
9312.000000;0.887198
9311.000000;0.886131
9310.000000;0.885887
9309.000000;0.886264
9308.000000;0.886675
9307.000000;0.886602
9306.000000;0.885971
9305.000000;0.885093
9304.000000;0.884288
9303.000000;0.883684
9302.000000;0.883337
9301.000000;0.883313
9300.000000;0.883511
9299.000000;0.883596
9298.000000;0.883309
9297.000000;0.882780
9296.000000;0.882365
9295.000000;0.882215
9294.000000;0.882156
9293.000000;0.881938
9292.000000;0.881449
9291.000000;0.880687
9290.000000;0.879713
9289.000000;0.878667
9288.000000;0.877750
9287.000000;0.877148
9286.000000;0.876968
9285.000000;0.877195
9284.000000;0.877642
9283.000000;0.878005
9282.000000;0.878028
9281.000000;0.877594
9280.000000;0.876667
9279.000000;0.875336
9278.000000;0.873973
9277.000000;0.873120
9276.000000;0.872998
9275.000000;0.873259
9274.000000;0.873422
9273.000000;0.873451
9272.000000;0.873637
9271.000000;0.874017
9270.000000;0.874220
9269.000000;0.873955
9268.000000;0.873350
9267.000000;0.872710
9266.000000;0.872117
9265.000000;0.871419
9264.000000;0.870504
9263.000000;0.869473
9262.000000;0.868614
9261.000000;0.868171
9260.000000;0.868071
9259.000000;0.867903
9258.000000;0.867317
9257.000000;0.866430
9256.000000;0.865682
9255.000000;0.865301
9254.000000;0.865120
9253.000000;0.864920
9252.000000;0.864736
9251.000000;0.864719
9250.000000;0.864869
9249.000000;0.865022
9248.000000;0.864985
9247.000000;0.864596
9246.000000;0.863784
9245.000000;0.862714
9244.000000;0.861806
9243.000000;0.861452
9242.000000;0.861674
9241.000000;0.862081
9240.000000;0.862187
9239.000000;0.861806
9238.000000;0.861176
9237.000000;0.860675
9236.000000;0.860415
9235.000000;0.860142
9234.000000;0.859573
9233.000000;0.858709
9232.000000;0.857740
9231.000000;0.856802
9230.000000;0.855993
9229.000000;0.855518
9228.000000;0.855506
9227.000000;0.855710
9226.000000;0.855658
9225.000000;0.855177
9224.000000;0.854532
9223.000000;0.853996
9222.000000;0.853532
9221.000000;0.853038
9220.000000;0.852648
9219.000000;0.852568
9218.000000;0.852713
9217.000000;0.852721
9216.000000;0.852323
9215.000000;0.851596
9214.000000;0.850844
9213.000000;0.850326
9212.000000;0.850067
9211.000000;0.849911
9210.000000;0.849758
9209.000000;0.849733
9208.000000;0.849991
9207.000000;0.850376
9206.000000;0.850468
9205.000000;0.850060
9204.000000;0.849447
9203.000000;0.849061
9202.000000;0.848927
9201.000000;0.848697
9200.000000;0.848195
9199.000000;0.847705
9198.000000;0.847599
9197.000000;0.847784
9196.000000;0.847707
9195.000000;0.846952
9194.000000;0.845734
9193.000000;0.844706
9192.000000;0.844301
9191.000000;0.844377
9190.000000;0.844530
9189.000000;0.844564
9188.000000;0.844525
9187.000000;0.844374
9186.000000;0.843914
9185.000000;0.843105
9184.000000;0.842289
9183.000000;0.841923
9182.000000;0.842097
9181.000000;0.842418
9180.000000;0.842384
9179.000000;0.841831
9178.000000;0.840979
9177.000000;0.840098
9176.000000;0.839263
9175.000000;0.838480
9174.000000;0.837897
9173.000000;0.837687
9172.000000;0.837753
9171.000000;0.837781
9170.000000;0.837646
9169.000000;0.837552
9168.000000;0.837653
9167.000000;0.837783
9166.000000;0.837725
9165.000000;0.837539
9164.000000;0.837363
9163.000000;0.837043
9162.000000;0.836314
9161.000000;0.835324
9160.000000;0.834647
9159.000000;0.834686
9158.000000;0.835234
9157.000000;0.835711
9156.000000;0.835678
9155.000000;0.835140
9154.000000;0.834479
9153.000000;0.834140
9152.000000;0.834223
9151.000000;0.834382
9150.000000;0.834211
9149.000000;0.833683
9148.000000;0.833071
9147.000000;0.832508
9146.000000;0.831865
9145.000000;0.831018
9144.000000;0.830019
9143.000000;0.829005
9142.000000;0.828175
9141.000000;0.827836
9140.000000;0.828157
9139.000000;0.828819
9138.000000;0.829182
9137.000000;0.828931
9136.000000;0.828345
9135.000000;0.827831
9134.000000;0.827451
9133.000000;0.827066
9132.000000;0.826709
9131.000000;0.826589
9130.000000;0.826810
9129.000000;0.827244
9128.000000;0.827618
9127.000000;0.827657
9126.000000;0.827271
9125.000000;0.826696
9124.000000;0.826306
9123.000000;0.826152
9122.000000;0.825859
9121.000000;0.825094
9120.000000;0.824018
9119.000000;0.823110
9118.000000;0.822664
9117.000000;0.822601
9116.000000;0.822693
9115.000000;0.822807
9114.000000;0.822923
9113.000000;0.823063
9112.000000;0.823220
9111.000000;0.823334
9110.000000;0.823347
9109.000000;0.823271
9108.000000;0.823138
9107.000000;0.822904
9106.000000;0.822519
9105.000000;0.822086
9104.000000;0.821773
9103.000000;0.821520
9102.000000;0.821055
9101.000000;0.820310
9100.000000;0.819608
9099.000000;0.819272
9098.000000;0.819182
9097.000000;0.818942
9096.000000;0.818431
9095.000000;0.817964
9094.000000;0.817875
9093.000000;0.818057
9092.000000;0.818030
9091.000000;0.817410
9090.000000;0.816288
9089.000000;0.815133
9088.000000;0.814347
9087.000000;0.813997
9086.000000;0.813987
9085.000000;0.814284
9084.000000;0.814788
9083.000000;0.815132
9082.000000;0.814940
9081.000000;0.814337
9080.000000;0.813856
9079.000000;0.813738
9078.000000;0.813617
9077.000000;0.813110
9076.000000;0.812465
9075.000000;0.812329
9074.000000;0.812958
9073.000000;0.813937
9072.000000;0.814645
9071.000000;0.814789
9070.000000;0.814489
9069.000000;0.814003
9068.000000;0.813470
9067.000000;0.812845
9066.000000;0.812069
9065.000000;0.811250
9064.000000;0.810582
9063.000000;0.810077
9062.000000;0.809533
9061.000000;0.808863
9060.000000;0.808280
9059.000000;0.808044
9058.000000;0.808145
9057.000000;0.808372
9056.000000;0.808556
9055.000000;0.808586
9054.000000;0.808330
9053.000000;0.807757
