Criado como novo conjunto de dados;"1909daniel.spp","-4216841.5 Secs"
cm-1;Abs
10000.000000;1.370066
9999.000000;1.367243
9998.000000;1.364478
9997.000000;1.361637
9996.000000;1.359430
9995.000000;1.358776
9994.000000;1.359389
9993.000000;1.360320
9992.000000;1.360692
9991.000000;1.360393
9990.000000;1.360026
9989.000000;1.360133
9988.000000;1.360540
9987.000000;1.360578
9986.000000;1.359940
9985.000000;1.359029
9984.000000;1.358292
9983.000000;1.357459
9982.000000;1.355827
9981.000000;1.353252
9980.000000;1.350536
9979.000000;1.348779
9978.000000;1.348464
9977.000000;1.349109
9976.000000;1.349661
9975.000000;1.349322
9974.000000;1.348232
9973.000000;1.347301
9972.000000;1.347253
9971.000000;1.347868
9970.000000;1.348358
9969.000000;1.348324
9968.000000;1.347973
9967.000000;1.347421
9966.000000;1.346398
9965.000000;1.344861
9964.000000;1.343400
9963.000000;1.342534
9962.000000;1.341879
9961.000000;1.340605
9960.000000;1.338723
9959.000000;1.337347
9958.000000;1.337444
9957.000000;1.338629
9956.000000;1.339479
9955.000000;1.338989
9954.000000;1.337501
9953.000000;1.336129
9952.000000;1.335494
9951.000000;1.335128
9950.000000;1.334000
9949.000000;1.331622
9948.000000;1.328701
9947.000000;1.326679
9946.000000;1.326538
9945.000000;1.327898
9944.000000;1.329256
9943.000000;1.329262
9942.000000;1.327886
9941.000000;1.326286
9940.000000;1.325507
9939.000000;1.325471
9938.000000;1.325276
9937.000000;1.324346
9936.000000;1.323012
9935.000000;1.321945
9934.000000;1.321368
9933.000000;1.321044
9932.000000;1.320775
9931.000000;1.320613
9930.000000;1.320615
9929.000000;1.320660
9928.000000;1.320590
9927.000000;1.320354
9926.000000;1.319893
9925.000000;1.318971
9924.000000;1.317271
9923.000000;1.314823
9922.000000;1.312306
9921.000000;1.310735
9920.000000;1.310643
9919.000000;1.311568
9918.000000;1.312518
9917.000000;1.312956
9916.000000;1.313136
9915.000000;1.313374
9914.000000;1.313333
9913.000000;1.312329
9912.000000;1.310212
9911.000000;1.307681
9910.000000;1.305758
9909.000000;1.305102
9908.000000;1.305617
9907.000000;1.306465
9906.000000;1.306630
9905.000000;1.305743
9904.000000;1.304270
9903.000000;1.302747
9902.000000;1.301132
9901.000000;1.299319
9900.000000;1.297927
9899.000000;1.297847
9898.000000;1.299000
9897.000000;1.300175
9896.000000;1.300393
9895.000000;1.299896
9894.000000;1.299457
9893.000000;1.299255
9892.000000;1.298911
9891.000000;1.298273
9890.000000;1.297551
9889.000000;1.296822
9888.000000;1.295946
9887.000000;1.294956
9886.000000;1.294081
9885.000000;1.293380
9884.000000;1.292678
9883.000000;1.291885
9882.000000;1.291087
9881.000000;1.290297
9880.000000;1.289456
9879.000000;1.288724
9878.000000;1.288387
9877.000000;1.288284
9876.000000;1.287656
9875.000000;1.285876
9874.000000;1.283197
9873.000000;1.280623
9872.000000;1.279182
9871.000000;1.279352
9870.000000;1.280893
9869.000000;1.282897
9868.000000;1.284152
9867.000000;1.283888
9866.000000;1.282295
9865.000000;1.280212
9864.000000;1.278389
9863.000000;1.277147
9862.000000;1.276550
9861.000000;1.276537
9860.000000;1.276750
9859.000000;1.276515
9858.000000;1.275402
9857.000000;1.273786
9856.000000;1.272594
9855.000000;1.272358
9854.000000;1.272566
9853.000000;1.272082
9852.000000;1.270341
9851.000000;1.268025
9850.000000;1.266361
9849.000000;1.265803
9848.000000;1.265676
9847.000000;1.265210
9846.000000;1.264600
9845.000000;1.264680
9844.000000;1.265631
9843.000000;1.266477
9842.000000;1.266075
9841.000000;1.264354
9840.000000;1.262287
9839.000000;1.260808
9838.000000;1.260097
9837.000000;1.259827
9836.000000;1.259719
9835.000000;1.259647
9834.000000;1.259435
9833.000000;1.258884
9832.000000;1.258067
9831.000000;1.257394
9830.000000;1.257202
9829.000000;1.257341
9828.000000;1.257262
9827.000000;1.256520
9826.000000;1.255102
9825.000000;1.253352
9824.000000;1.251752
9823.000000;1.250770
9822.000000;1.250585
9821.000000;1.250728
9820.000000;1.250304
9819.000000;1.248985
9818.000000;1.247645
9817.000000;1.247531
9816.000000;1.248789
9815.000000;1.250190
9814.000000;1.250427
9813.000000;1.249376
9812.000000;1.247919
9811.000000;1.246907
9810.000000;1.246646
9809.000000;1.247031
9808.000000;1.247653
9807.000000;1.247826
9806.000000;1.246980
9805.000000;1.245184
9804.000000;1.243069
9803.000000;1.241152
9802.000000;1.239450
9801.000000;1.237757
9800.000000;1.236086
9799.000000;1.234762
9798.000000;1.234099
9797.000000;1.233972
9796.000000;1.233769
9795.000000;1.232955
9794.000000;1.231766
9793.000000;1.231091
9792.000000;1.231428
9791.000000;1.232164
9790.000000;1.232192
9789.000000;1.231185
9788.000000;1.229882
9787.000000;1.229121
9786.000000;1.228964
9785.000000;1.228931
9784.000000;1.228732
9783.000000;1.228472
9782.000000;1.228239
9781.000000;1.227801
9780.000000;1.226805
9779.000000;1.225230
9778.000000;1.223552
9777.000000;1.222409
9776.000000;1.222135
9775.000000;1.222641
9774.000000;1.223576
9773.000000;1.224361
9772.000000;1.224173
9771.000000;1.222453
9770.000000;1.219704
9769.000000;1.217353
9768.000000;1.216384
9767.000000;1.216349
9766.000000;1.216126
9765.000000;1.215367
9764.000000;1.214624
9763.000000;1.214240
9762.000000;1.213900
9761.000000;1.213404
9760.000000;1.213106
9759.000000;1.213236
9758.000000;1.213366
9757.000000;1.212967
9756.000000;1.212079
9755.000000;1.211053
9754.000000;1.210048
9753.000000;1.209215
9752.000000;1.208888
9751.000000;1.209018
9750.000000;1.208719
9749.000000;1.207116
9748.000000;1.204614
9747.000000;1.202674
9746.000000;1.202195
9745.000000;1.202585
9744.000000;1.202616
9743.000000;1.201773
9742.000000;1.200529
9741.000000;1.199586
9740.000000;1.199217
9739.000000;1.199295
9738.000000;1.199633
9737.000000;1.200074
9736.000000;1.200296
9735.000000;1.199808
9734.000000;1.198426
9733.000000;1.196700
9732.000000;1.195514
9731.000000;1.195182
9730.000000;1.195243
9729.000000;1.195227
9728.000000;1.195217
9727.000000;1.195309
9726.000000;1.194977
9725.000000;1.193635
9724.000000;1.191707
9723.000000;1.190392
9722.000000;1.190227
9721.000000;1.190437
9720.000000;1.189995
9719.000000;1.188926
9718.000000;1.188136
9717.000000;1.188182
9716.000000;1.188641
9715.000000;1.188696
9714.000000;1.188065
9713.000000;1.187259
9712.000000;1.186963
9711.000000;1.187224
9710.000000;1.187305
9709.000000;1.186436
9708.000000;1.184672
9707.000000;1.182821
9706.000000;1.181531
9705.000000;1.180752
9704.000000;1.180116
9703.000000;1.179496
9702.000000;1.178960
9701.000000;1.178387
9700.000000;1.177533
9699.000000;1.176402
9698.000000;1.175249
9697.000000;1.174220
9696.000000;1.173283
9695.000000;1.172528
9694.000000;1.172244
9693.000000;1.172564
9692.000000;1.173218
9691.000000;1.173764
9690.000000;1.173900
9689.000000;1.173432
9688.000000;1.172156
9687.000000;1.170095
9686.000000;1.167798
9685.000000;1.166106
9684.000000;1.165476
9683.000000;1.165623
9682.000000;1.165831
9681.000000;1.165508
9680.000000;1.164530
9679.000000;1.163281
9678.000000;1.162423
9677.000000;1.162381
9676.000000;1.162865
9675.000000;1.163052
9674.000000;1.162377
9673.000000;1.161060
9672.000000;1.159762
9671.000000;1.158901
9670.000000;1.158472
9669.000000;1.158245
9668.000000;1.157838
9667.000000;1.156764
9666.000000;1.154872
9665.000000;1.152736
9664.000000;1.151228
9663.000000;1.150676
9662.000000;1.150757
9661.000000;1.151176
9660.000000;1.151988
9659.000000;1.153021
9658.000000;1.153545
9657.000000;1.152992
9656.000000;1.151731
9655.000000;1.150568
9654.000000;1.149618
9653.000000;1.148283
9652.000000;1.146365
9651.000000;1.144637
9650.000000;1.143995
9649.000000;1.144401
9648.000000;1.144984
9647.000000;1.144996
9646.000000;1.144370
9645.000000;1.143394
9644.000000;1.142212
9643.000000;1.140848
9642.000000;1.139578
9641.000000;1.138971
9640.000000;1.139397
9639.000000;1.140483
9638.000000;1.141209
9637.000000;1.140677
9636.000000;1.138883
9635.000000;1.136739
9634.000000;1.135359
9633.000000;1.135235
9632.000000;1.135939
9631.000000;1.136485
9630.000000;1.136048
9629.000000;1.134476
9628.000000;1.132241
9627.000000;1.130008
9626.000000;1.128272
9625.000000;1.127288
9624.000000;1.127050
9623.000000;1.127204
9622.000000;1.127173
9621.000000;1.126667
9620.000000;1.126076
9619.000000;1.126097
9618.000000;1.126856
9617.000000;1.127581
9616.000000;1.127308
9615.000000;1.125866
9614.000000;1.124014
9613.000000;1.122641
9612.000000;1.121990
9611.000000;1.121657
9610.000000;1.121119
9609.000000;1.120154
9608.000000;1.118933
9607.000000;1.117870
9606.000000;1.117329
9605.000000;1.117311
9604.000000;1.117430
9603.000000;1.117292
9602.000000;1.116878
9601.000000;1.116444
9600.000000;1.116121
9599.000000;1.115818
9598.000000;1.115503
9597.000000;1.115272
9596.000000;1.115037
9595.000000;1.114458
9594.000000;1.113422
9593.000000;1.112361
9592.000000;1.111811
9591.000000;1.111740
9590.000000;1.111582
9589.000000;1.110893
9588.000000;1.109728
9587.000000;1.108438
9586.000000;1.107363
9585.000000;1.106743
9584.000000;1.106607
9583.000000;1.106581
9582.000000;1.106056
9581.000000;1.104776
9580.000000;1.103212
9579.000000;1.102147
9578.000000;1.101925
9577.000000;1.102194
9576.000000;1.102368
9575.000000;1.102207
9574.000000;1.101880
9573.000000;1.101536
9572.000000;1.101047
9571.000000;1.100274
9570.000000;1.099451
9569.000000;1.098991
9568.000000;1.098913
9567.000000;1.098766
9566.000000;1.098279
9565.000000;1.097758
9564.000000;1.097540
9563.000000;1.097302
9562.000000;1.096331
9561.000000;1.094455
9560.000000;1.092328
9559.000000;1.090785
9558.000000;1.090189
9557.000000;1.090383
9556.000000;1.090927
9555.000000;1.091274
9554.000000;1.091023
9553.000000;1.090190
9552.000000;1.089108
9551.000000;1.088051
9550.000000;1.087109
9549.000000;1.086397
9548.000000;1.086093
9547.000000;1.086142
9546.000000;1.086183
9545.000000;1.085881
9544.000000;1.085167
9543.000000;1.084137
9542.000000;1.082963
9541.000000;1.081949
9540.000000;1.081408
9539.000000;1.081329
9538.000000;1.081343
9537.000000;1.081134
9536.000000;1.080683
9535.000000;1.080090
9534.000000;1.079443
9533.000000;1.078928
9532.000000;1.078771
9531.000000;1.078879
9530.000000;1.078807
9529.000000;1.078257
9528.000000;1.077399
9527.000000;1.076523
9526.000000;1.075628
9525.000000;1.074590
9524.000000;1.073554
9523.000000;1.072839
9522.000000;1.072552
9521.000000;1.072481
9520.000000;1.072299
9519.000000;1.071724
9518.000000;1.070648
9517.000000;1.069307
9516.000000;1.068253
9515.000000;1.067964
9514.000000;1.068453
9513.000000;1.069257
9512.000000;1.069682
9511.000000;1.069089
9510.000000;1.067251
9509.000000;1.064747
9508.000000;1.062848
9507.000000;1.062661
9506.000000;1.064212
9505.000000;1.066334
9504.000000;1.067436
9503.000000;1.066591
9502.000000;1.064179
9501.000000;1.061538
9500.000000;1.059846
9499.000000;1.059282
9498.000000;1.059249
9497.000000;1.059276
9496.000000;1.059373
9495.000000;1.059530
9494.000000;1.059359
9493.000000;1.058515
9492.000000;1.057189
9491.000000;1.055850
9490.000000;1.054715
9489.000000;1.053765
9488.000000;1.053081
9487.000000;1.052833
9486.000000;1.052997
9485.000000;1.053356
9484.000000;1.053707
9483.000000;1.053875
9482.000000;1.053617
9481.000000;1.052801
9480.000000;1.051654
9479.000000;1.050660
9478.000000;1.050151
9477.000000;1.050040
9476.000000;1.049877
9475.000000;1.049174
9474.000000;1.047872
9473.000000;1.046569
9472.000000;1.046044
9471.000000;1.046408
9470.000000;1.046953
9469.000000;1.046963
9468.000000;1.046411
9467.000000;1.045657
9466.000000;1.044813
9465.000000;1.043767
9464.000000;1.042634
9463.000000;1.041765
9462.000000;1.041358
9461.000000;1.041310
9460.000000;1.041372
9459.000000;1.041261
9458.000000;1.040797
9457.000000;1.040143
9456.000000;1.039689
9455.000000;1.039451
9454.000000;1.038856
9453.000000;1.037480
9452.000000;1.035768
9451.000000;1.034599
9450.000000;1.034309
9449.000000;1.034537
9448.000000;1.034890
9447.000000;1.035240
9446.000000;1.035458
9445.000000;1.035383
9444.000000;1.035140
9443.000000;1.035018
9442.000000;1.034906
9441.000000;1.034276
9440.000000;1.032882
9439.000000;1.031168
9438.000000;1.029853
9437.000000;1.029346
9436.000000;1.029581
9435.000000;1.030092
9434.000000;1.030253
9433.000000;1.029767
9432.000000;1.028965
9431.000000;1.028319
9430.000000;1.027685
9429.000000;1.026472
9428.000000;1.024632
9427.000000;1.022951
9426.000000;1.022125
9425.000000;1.021979
9424.000000;1.021864
9423.000000;1.021457
9422.000000;1.020897
9421.000000;1.020405
9420.000000;1.020058
9419.000000;1.019740
9418.000000;1.019162
9417.000000;1.018168
9416.000000;1.017159
9415.000000;1.016882
9414.000000;1.017524
9413.000000;1.018303
9412.000000;1.018276
9411.000000;1.017333
9410.000000;1.016076
9409.000000;1.015003
9408.000000;1.014211
9407.000000;1.013679
9406.000000;1.013342
9405.000000;1.012901
9404.000000;1.012005
9403.000000;1.010779
9402.000000;1.009882
9401.000000;1.009871
9400.000000;1.010637
9399.000000;1.011517
9398.000000;1.011877
9397.000000;1.011572
9396.000000;1.010941
9395.000000;1.010385
9394.000000;1.009951
9393.000000;1.009422
9392.000000;1.008744
9391.000000;1.008157
9390.000000;1.007819
9389.000000;1.007563
9388.000000;1.007173
9387.000000;1.006710
9386.000000;1.006318
9385.000000;1.005910
9384.000000;1.005358
9383.000000;1.004818
9382.000000;1.004488
9381.000000;1.004109
9380.000000;1.003130
9379.000000;1.001481
9378.000000;0.999847
9377.000000;0.999060
9376.000000;0.999375
9375.000000;1.000391
9374.000000;1.001380
9373.000000;1.001675
9372.000000;1.001017
9371.000000;0.999760
9370.000000;0.998566
9369.000000;0.997793
9368.000000;0.997281
9367.000000;0.996737
9366.000000;0.996073
9365.000000;0.995266
9364.000000;0.994217
9363.000000;0.993005
9362.000000;0.992041
9361.000000;0.991657
9360.000000;0.991680
9359.000000;0.991697
9358.000000;0.991645
9357.000000;0.991773
9356.000000;0.992035
9355.000000;0.991939
9354.000000;0.991188
9353.000000;0.990181
9352.000000;0.989574
9351.000000;0.989487
9350.000000;0.989414
9349.000000;0.988919
9348.000000;0.988159
9347.000000;0.987606
9346.000000;0.987411
9345.000000;0.987247
9344.000000;0.986778
9343.000000;0.986138
9342.000000;0.985772
9341.000000;0.985850
9340.000000;0.985998
9339.000000;0.985714
9338.000000;0.984947
9337.000000;0.984141
9336.000000;0.983748
9335.000000;0.983795
9334.000000;0.983906
9333.000000;0.983634
9332.000000;0.982795
9331.000000;0.981653
9330.000000;0.980781
9329.000000;0.980588
9328.000000;0.980874
9327.000000;0.980955
9326.000000;0.980331
9325.000000;0.979207
9324.000000;0.978274
9323.000000;0.978033
9322.000000;0.978387
9321.000000;0.978821
9320.000000;0.978840
9319.000000;0.978316
9318.000000;0.977516
9317.000000;0.976836
9316.000000;0.976383
9315.000000;0.975803
9314.000000;0.974626
9313.000000;0.972851
9312.000000;0.971170
9311.000000;0.970522
9310.000000;0.971310
9309.000000;0.972905
9308.000000;0.973999
9307.000000;0.973654
9306.000000;0.972149
9305.000000;0.970723
9304.000000;0.970367
9303.000000;0.970949
9302.000000;0.971519
9301.000000;0.971333
9300.000000;0.970428
9299.000000;0.969325
9298.000000;0.968484
9297.000000;0.968070
9296.000000;0.967989
9295.000000;0.967967
9294.000000;0.967733
9293.000000;0.967239
9292.000000;0.966617
9291.000000;0.965882
9290.000000;0.964857
9289.000000;0.963517
9288.000000;0.962266
9287.000000;0.961665
9286.000000;0.961927
9285.000000;0.962770
9284.000000;0.963680
9283.000000;0.964191
9282.000000;0.963996
9281.000000;0.963046
9280.000000;0.961655
9279.000000;0.960330
9278.000000;0.959378
9277.000000;0.958727
9276.000000;0.958212
9275.000000;0.957926
9274.000000;0.958154
9273.000000;0.958989
9272.000000;0.960099
9271.000000;0.960938
9270.000000;0.961132
9269.000000;0.960656
9268.000000;0.959720
9267.000000;0.958592
9266.000000;0.957520
9265.000000;0.956704
9264.000000;0.956218
9263.000000;0.955934
9262.000000;0.955586
9261.000000;0.954977
9260.000000;0.954139
9259.000000;0.953283
9258.000000;0.952586
9257.000000;0.952038
9256.000000;0.951499
9255.000000;0.950887
9254.000000;0.950289
9253.000000;0.949883
9252.000000;0.949798
9251.000000;0.950056
9250.000000;0.950613
9249.000000;0.951322
9248.000000;0.951853
9247.000000;0.951778
9246.000000;0.950920
9245.000000;0.949605
9244.000000;0.948464
9243.000000;0.947885
9242.000000;0.947658
9241.000000;0.947219
9240.000000;0.946280
9239.000000;0.945226
9238.000000;0.944808
9237.000000;0.945394
9236.000000;0.946527
9235.000000;0.947319
9234.000000;0.947278
9233.000000;0.946648
9232.000000;0.945952
9231.000000;0.945384
9230.000000;0.944773
9229.000000;0.943974
9228.000000;0.943037
9227.000000;0.942036
9226.000000;0.940984
9225.000000;0.940029
9224.000000;0.939522
9223.000000;0.939677
9222.000000;0.940244
9221.000000;0.940646
9220.000000;0.940488
9219.000000;0.939827
9218.000000;0.938967
9217.000000;0.938134
9216.000000;0.937433
9215.000000;0.937014
9214.000000;0.937052
9213.000000;0.937451
9212.000000;0.937734
9211.000000;0.937427
9210.000000;0.936614
9209.000000;0.935948
9208.000000;0.935989
9207.000000;0.936598
9206.000000;0.937112
9205.000000;0.937074
9204.000000;0.936682
9203.000000;0.936435
9202.000000;0.936442
9201.000000;0.936252
9200.000000;0.935435
9199.000000;0.934232
9198.000000;0.933429
9197.000000;0.933492
9196.000000;0.934008
9195.000000;0.934155
9194.000000;0.933652
9193.000000;0.932971
9192.000000;0.932614
9191.000000;0.932513
9190.000000;0.932306
9189.000000;0.931921
9188.000000;0.931598
9187.000000;0.931493
9186.000000;0.931540
9185.000000;0.931634
9184.000000;0.931663
9183.000000;0.931397
9182.000000;0.930619
9181.000000;0.929440
9180.000000;0.928254
9179.000000;0.927332
9178.000000;0.926616
9177.000000;0.925947
9176.000000;0.925329
9175.000000;0.924878
9174.000000;0.924649
9173.000000;0.924631
9172.000000;0.924843
9171.000000;0.925335
9170.000000;0.926061
9169.000000;0.926738
9168.000000;0.926895
9167.000000;0.926243
9166.000000;0.925080
9165.000000;0.924130
9164.000000;0.923761
9163.000000;0.923513
9162.000000;0.922708
9161.000000;0.921450
9160.000000;0.920575
9159.000000;0.920541
9158.000000;0.920769
9157.000000;0.920362
9156.000000;0.919236
9155.000000;0.918218
9154.000000;0.918099
9153.000000;0.918856
9152.000000;0.919758
9151.000000;0.920039
9150.000000;0.919477
9149.000000;0.918480
9148.000000;0.917652
9147.000000;0.917240
9146.000000;0.916990
9145.000000;0.916545
9144.000000;0.915909
9143.000000;0.915434
9142.000000;0.915414
9141.000000;0.915832
9140.000000;0.916469
9139.000000;0.917116
9138.000000;0.917619
9137.000000;0.917822
9136.000000;0.917607
9135.000000;0.916997
9134.000000;0.916155
9133.000000;0.915257
9132.000000;0.914427
9131.000000;0.913839
9130.000000;0.913777
9129.000000;0.914373
9128.000000;0.915273
9127.000000;0.915717
9126.000000;0.915153
9125.000000;0.913760
9124.000000;0.912293
9123.000000;0.911448
9122.000000;0.911401
9121.000000;0.911811
9120.000000;0.912110
9119.000000;0.911917
9118.000000;0.911372
9117.000000;0.911046
9116.000000;0.911340
9115.000000;0.912016
9114.000000;0.912454
9113.000000;0.912312
9112.000000;0.911765
9111.000000;0.911166
9110.000000;0.910712
9109.000000;0.910423
9108.000000;0.910193
9107.000000;0.909806
9106.000000;0.909135
9105.000000;0.908372
9104.000000;0.907846
9103.000000;0.907588
9102.000000;0.907320
9101.000000;0.906941
9100.000000;0.906710
9099.000000;0.906800
9098.000000;0.906973
9097.000000;0.906933
9096.000000;0.906756
9095.000000;0.906708
9094.000000;0.906788
9093.000000;0.906734
9092.000000;0.906386
9091.000000;0.905791
9090.000000;0.905011
9089.000000;0.904111
9088.000000;0.903320
9087.000000;0.902920
9086.000000;0.902889
9085.000000;0.902848
9084.000000;0.902492
9083.000000;0.901968
9082.000000;0.901724
9081.000000;0.902025
9080.000000;0.902657
9079.000000;0.903083
9078.000000;0.902900
9077.000000;0.902210
9076.000000;0.901557
9075.000000;0.901412
9074.000000;0.901679
9073.000000;0.901782
9072.000000;0.901286
9071.000000;0.900394
9070.000000;0.899741
9069.000000;0.899730
9068.000000;0.900170
9067.000000;0.900627
9066.000000;0.900972
9065.000000;0.901364
9064.000000;0.901705
9063.000000;0.901408
9062.000000;0.899999
9061.000000;0.897847
9060.000000;0.896054
9059.000000;0.895524
9058.000000;0.896256
9057.000000;0.897475
9056.000000;0.898291
9055.000000;0.898240
9054.000000;0.897451
9053.000000;0.896436
