Criado como novo conjunto de dados;"1909daniel.spp","-4216660.9 Secs"
cm-1;Abs
10000.000000;1.369073
9999.000000;1.367716
9998.000000;1.366289
9997.000000;1.365195
9996.000000;1.364551
9995.000000;1.363641
9994.000000;1.361814
9993.000000;1.359751
9992.000000;1.358981
9991.000000;1.360048
9990.000000;1.361789
9989.000000;1.362639
9988.000000;1.362107
9987.000000;1.360712
9986.000000;1.359079
9985.000000;1.357619
9984.000000;1.356649
9983.000000;1.356220
9982.000000;1.355929
9981.000000;1.355270
9980.000000;1.354196
9979.000000;1.353184
9978.000000;1.352804
9977.000000;1.353274
9976.000000;1.354271
9975.000000;1.355067
9974.000000;1.355058
9973.000000;1.354316
9972.000000;1.353387
9971.000000;1.352466
9970.000000;1.351124
9969.000000;1.349073
9968.000000;1.346810
9967.000000;1.345155
9966.000000;1.344465
9965.000000;1.344559
9964.000000;1.345084
9963.000000;1.345495
9962.000000;1.344999
9961.000000;1.343249
9960.000000;1.341087
9959.000000;1.339948
9958.000000;1.340306
9957.000000;1.341131
9956.000000;1.341082
9955.000000;1.339878
9954.000000;1.338227
9953.000000;1.336833
9952.000000;1.335904
9951.000000;1.335382
9950.000000;1.335137
9949.000000;1.334915
9948.000000;1.334436
9947.000000;1.333692
9946.000000;1.333009
9945.000000;1.332737
9944.000000;1.332900
9943.000000;1.333121
9942.000000;1.332860
9941.000000;1.331882
9940.000000;1.330582
9939.000000;1.329722
9938.000000;1.329662
9937.000000;1.329931
9936.000000;1.329740
9935.000000;1.328853
9934.000000;1.327725
9933.000000;1.326771
9932.000000;1.325863
9931.000000;1.324683
9930.000000;1.323261
9929.000000;1.321902
9928.000000;1.320746
9927.000000;1.319757
9926.000000;1.319071
9925.000000;1.318970
9924.000000;1.319359
9923.000000;1.319551
9922.000000;1.318896
9921.000000;1.317560
9920.000000;1.316377
9919.000000;1.315960
9918.000000;1.316168
9917.000000;1.316456
9916.000000;1.316515
9915.000000;1.316364
9914.000000;1.315982
9913.000000;1.315235
9912.000000;1.314186
9911.000000;1.313208
9910.000000;1.312557
9909.000000;1.311941
9908.000000;1.310739
9907.000000;1.308704
9906.000000;1.306330
9905.000000;1.304473
9904.000000;1.303641
9903.000000;1.303678
9902.000000;1.304076
9901.000000;1.304448
9900.000000;1.304603
9899.000000;1.304305
9898.000000;1.303313
9897.000000;1.301861
9896.000000;1.300801
9895.000000;1.300863
9894.000000;1.301699
9893.000000;1.302014
9892.000000;1.300832
9891.000000;1.298479
9890.000000;1.296091
9889.000000;1.294399
9888.000000;1.293292
9887.000000;1.292390
9886.000000;1.291663
9885.000000;1.291423
9884.000000;1.291901
9883.000000;1.292939
9882.000000;1.293981
9881.000000;1.294334
9880.000000;1.293609
9879.000000;1.292099
9878.000000;1.290654
9877.000000;1.289992
9876.000000;1.290039
9875.000000;1.289995
9874.000000;1.289139
9873.000000;1.287573
9872.000000;1.286069
9871.000000;1.285192
9870.000000;1.284705
9869.000000;1.283903
9868.000000;1.282426
9867.000000;1.280519
9866.000000;1.278597
9865.000000;1.276923
9864.000000;1.275863
9863.000000;1.276017
9862.000000;1.277611
9861.000000;1.279813
9860.000000;1.281087
9859.000000;1.280444
9858.000000;1.278215
9857.000000;1.275587
9856.000000;1.273639
9855.000000;1.272848
9854.000000;1.273134
9853.000000;1.274027
9852.000000;1.274877
9851.000000;1.275214
9850.000000;1.275014
9849.000000;1.274541
9848.000000;1.273948
9847.000000;1.273115
9846.000000;1.271879
9845.000000;1.270400
9844.000000;1.269227
9843.000000;1.268872
9842.000000;1.269188
9841.000000;1.269290
9840.000000;1.268337
9839.000000;1.266418
9838.000000;1.264447
9837.000000;1.263129
9836.000000;1.262265
9835.000000;1.261220
9834.000000;1.259881
9833.000000;1.258862
9832.000000;1.258810
9831.000000;1.259659
9830.000000;1.260595
9829.000000;1.260696
9828.000000;1.259691
9827.000000;1.258166
9826.000000;1.256996
9825.000000;1.256533
9824.000000;1.256407
9823.000000;1.256093
9822.000000;1.255468
9821.000000;1.254757
9820.000000;1.254128
9819.000000;1.253535
9818.000000;1.252850
9817.000000;1.252030
9816.000000;1.251229
9815.000000;1.250801
9814.000000;1.250991
9813.000000;1.251479
9812.000000;1.251455
9811.000000;1.250442
9810.000000;1.248883
9809.000000;1.247614
9808.000000;1.246930
9807.000000;1.246504
9806.000000;1.246027
9805.000000;1.245477
9804.000000;1.244768
9803.000000;1.243632
9802.000000;1.242023
9801.000000;1.240274
9800.000000;1.238700
9799.000000;1.237374
9798.000000;1.236411
9797.000000;1.236042
9796.000000;1.236121
9795.000000;1.235967
9794.000000;1.235169
9793.000000;1.234361
9792.000000;1.234641
9791.000000;1.236174
9790.000000;1.237743
9789.000000;1.237848
9788.000000;1.236121
9787.000000;1.233561
9786.000000;1.231558
9785.000000;1.230817
9784.000000;1.231068
9783.000000;1.231566
9782.000000;1.231749
9781.000000;1.231436
9780.000000;1.230600
9779.000000;1.229230
9778.000000;1.227462
9777.000000;1.225639
9776.000000;1.224116
9775.000000;1.223130
9774.000000;1.222868
9773.000000;1.223369
9772.000000;1.224189
9771.000000;1.224463
9770.000000;1.223640
9769.000000;1.222038
9768.000000;1.220391
9767.000000;1.219076
9766.000000;1.218056
9765.000000;1.217352
9764.000000;1.217079
9763.000000;1.217058
9762.000000;1.216888
9761.000000;1.216514
9760.000000;1.216313
9759.000000;1.216429
9758.000000;1.216406
9757.000000;1.215768
9756.000000;1.214716
9755.000000;1.213889
9754.000000;1.213514
9753.000000;1.213067
9752.000000;1.211834
9751.000000;1.209707
9750.000000;1.207402
9749.000000;1.205927
9748.000000;1.205756
9747.000000;1.206452
9746.000000;1.207133
9745.000000;1.207298
9744.000000;1.207052
9743.000000;1.206630
9742.000000;1.206039
9741.000000;1.205264
9740.000000;1.204500
9739.000000;1.203925
9738.000000;1.203471
9737.000000;1.203046
9736.000000;1.202792
9735.000000;1.202843
9734.000000;1.202978
9733.000000;1.202811
9732.000000;1.202257
9731.000000;1.201492
9730.000000;1.200475
9729.000000;1.198822
9728.000000;1.196334
9727.000000;1.193465
9726.000000;1.191158
9725.000000;1.190204
9724.000000;1.190651
9723.000000;1.191684
9722.000000;1.192172
9721.000000;1.191587
9720.000000;1.190397
9719.000000;1.189452
9718.000000;1.189061
9717.000000;1.188831
9716.000000;1.188283
9715.000000;1.187384
9714.000000;1.186495
9713.000000;1.186021
9712.000000;1.186137
9711.000000;1.186604
9710.000000;1.186787
9709.000000;1.186076
9708.000000;1.184501
9707.000000;1.182805
9706.000000;1.181809
9705.000000;1.181756
9704.000000;1.182261
9703.000000;1.182751
9702.000000;1.182929
9701.000000;1.182912
9700.000000;1.182927
9699.000000;1.182854
9698.000000;1.182191
9697.000000;1.180672
9696.000000;1.178815
9695.000000;1.177565
9694.000000;1.177332
9693.000000;1.177586
9692.000000;1.177491
9691.000000;1.176707
9690.000000;1.175470
9689.000000;1.174109
9688.000000;1.172792
9687.000000;1.171612
9686.000000;1.170638
9685.000000;1.169846
9684.000000;1.169152
9683.000000;1.168519
9682.000000;1.167948
9681.000000;1.167425
9680.000000;1.166968
9679.000000;1.166676
9678.000000;1.166598
9677.000000;1.166546
9676.000000;1.166132
9675.000000;1.165050
9674.000000;1.163327
9673.000000;1.161344
9672.000000;1.159652
9671.000000;1.158681
9670.000000;1.158467
9669.000000;1.158653
9668.000000;1.158824
9667.000000;1.158854
9666.000000;1.158862
9665.000000;1.158918
9664.000000;1.158908
9663.000000;1.158650
9662.000000;1.158046
9661.000000;1.157109
9660.000000;1.155945
9659.000000;1.154768
9658.000000;1.153835
9657.000000;1.153264
9656.000000;1.152911
9655.000000;1.152460
9654.000000;1.151644
9653.000000;1.150377
9652.000000;1.148733
9651.000000;1.146880
9650.000000;1.145113
9649.000000;1.143841
9648.000000;1.143430
9647.000000;1.143948
9646.000000;1.145060
9645.000000;1.146147
9644.000000;1.146519
9643.000000;1.145673
9642.000000;1.143609
9641.000000;1.141027
9640.000000;1.139030
9639.000000;1.138346
9638.000000;1.138796
9637.000000;1.139583
9636.000000;1.140065
9635.000000;1.140085
9634.000000;1.139665
9633.000000;1.138714
9632.000000;1.137188
9631.000000;1.135415
9630.000000;1.134021
9629.000000;1.133499
9628.000000;1.133822
9627.000000;1.134442
9626.000000;1.134752
9625.000000;1.134631
9624.000000;1.134436
9623.000000;1.134352
9622.000000;1.133953
9621.000000;1.132720
9620.000000;1.130905
9619.000000;1.129443
9618.000000;1.128941
9617.000000;1.129104
9616.000000;1.129246
9615.000000;1.129002
9614.000000;1.128351
9613.000000;1.127355
9612.000000;1.126212
9611.000000;1.125330
9610.000000;1.124956
9609.000000;1.124815
9608.000000;1.124455
9607.000000;1.123863
9606.000000;1.123419
9605.000000;1.123305
9604.000000;1.123333
9603.000000;1.123325
9602.000000;1.123287
9601.000000;1.123088
9600.000000;1.122313
9599.000000;1.120680
9598.000000;1.118475
9597.000000;1.116392
9596.000000;1.115015
9595.000000;1.114452
9594.000000;1.114322
9593.000000;1.114077
9592.000000;1.113529
9591.000000;1.113091
9590.000000;1.113332
9589.000000;1.114250
9588.000000;1.115125
9587.000000;1.115202
9586.000000;1.114391
9585.000000;1.113162
9584.000000;1.111928
9583.000000;1.110793
9582.000000;1.109815
9581.000000;1.109174
9580.000000;1.108949
9579.000000;1.108879
9578.000000;1.108481
9577.000000;1.107440
9576.000000;1.105869
9575.000000;1.104188
9574.000000;1.102801
9573.000000;1.101852
9572.000000;1.101180
9571.000000;1.100523
9570.000000;1.099832
9569.000000;1.099322
9568.000000;1.099168
9567.000000;1.099194
9566.000000;1.098952
9565.000000;1.098157
9564.000000;1.096940
9563.000000;1.095686
9562.000000;1.094754
9561.000000;1.094367
9560.000000;1.094554
9559.000000;1.095042
9558.000000;1.095342
9557.000000;1.095187
9556.000000;1.094813
9555.000000;1.094596
9554.000000;1.094485
9553.000000;1.094007
9552.000000;1.092857
9551.000000;1.091261
9550.000000;1.089771
9549.000000;1.088898
9548.000000;1.088880
9547.000000;1.089495
9546.000000;1.090070
9545.000000;1.089991
9544.000000;1.089327
9543.000000;1.088659
9542.000000;1.088228
9541.000000;1.087630
9540.000000;1.086492
9539.000000;1.085074
9538.000000;1.083906
9537.000000;1.083143
9536.000000;1.082616
9535.000000;1.082261
9534.000000;1.082116
9533.000000;1.082053
9532.000000;1.081888
9531.000000;1.081658
9530.000000;1.081441
9529.000000;1.081009
9528.000000;1.080074
9527.000000;1.078826
9526.000000;1.077811
9525.000000;1.077195
9524.000000;1.076524
9523.000000;1.075343
9522.000000;1.073782
9521.000000;1.072378
9520.000000;1.071555
9519.000000;1.071360
9518.000000;1.071517
9517.000000;1.071634
9516.000000;1.071525
9515.000000;1.071354
9514.000000;1.071339
9513.000000;1.071299
9512.000000;1.070710
9511.000000;1.069298
9510.000000;1.067440
9509.000000;1.065913
9508.000000;1.065307
9507.000000;1.065651
9506.000000;1.066443
9505.000000;1.067010
9504.000000;1.066954
9503.000000;1.066326
9502.000000;1.065391
9501.000000;1.064323
9500.000000;1.063178
9499.000000;1.062021
9498.000000;1.060913
9497.000000;1.059890
9496.000000;1.059126
9495.000000;1.058948
9494.000000;1.059431
9493.000000;1.060098
9492.000000;1.060303
9491.000000;1.059868
9490.000000;1.059099
9489.000000;1.058308
9488.000000;1.057619
9487.000000;1.057113
9486.000000;1.056760
9485.000000;1.056273
9484.000000;1.055469
9483.000000;1.054731
9482.000000;1.054599
9481.000000;1.054876
9480.000000;1.054690
9479.000000;1.053626
9478.000000;1.052276
9477.000000;1.051386
9476.000000;1.050941
9475.000000;1.050454
9474.000000;1.049729
9473.000000;1.048889
9472.000000;1.047986
9471.000000;1.047090
9470.000000;1.046556
9469.000000;1.046690
9468.000000;1.047184
9467.000000;1.047323
9466.000000;1.046810
9465.000000;1.046060
9464.000000;1.045581
9463.000000;1.045365
9462.000000;1.045039
9461.000000;1.044410
9460.000000;1.043669
9459.000000;1.043108
9458.000000;1.042731
9457.000000;1.042258
9456.000000;1.041550
9455.000000;1.040889
9454.000000;1.040620
9453.000000;1.040526
9452.000000;1.039888
9451.000000;1.038328
9450.000000;1.036375
9449.000000;1.034984
9448.000000;1.034657
9447.000000;1.035155
9446.000000;1.035822
9445.000000;1.035961
9444.000000;1.035153
9443.000000;1.033610
9442.000000;1.032123
9441.000000;1.031352
9440.000000;1.031147
9439.000000;1.030852
9438.000000;1.030263
9437.000000;1.029962
9436.000000;1.030520
9435.000000;1.031628
9434.000000;1.032278
9433.000000;1.031804
9432.000000;1.030561
9431.000000;1.029443
9430.000000;1.028873
9429.000000;1.028457
9428.000000;1.027657
9427.000000;1.026515
9426.000000;1.025428
9425.000000;1.024430
9424.000000;1.023193
9423.000000;1.021751
9422.000000;1.020701
9421.000000;1.020437
9420.000000;1.020583
9419.000000;1.020537
9418.000000;1.020273
9417.000000;1.020185
9416.000000;1.020387
9415.000000;1.020623
9414.000000;1.020755
9413.000000;1.020870
9412.000000;1.020863
9411.000000;1.020371
9410.000000;1.019290
9409.000000;1.018051
9408.000000;1.017232
9407.000000;1.017058
9406.000000;1.017325
9405.000000;1.017623
9404.000000;1.017586
9403.000000;1.017126
9402.000000;1.016472
9401.000000;1.015842
9400.000000;1.015139
9399.000000;1.014171
9398.000000;1.013111
9397.000000;1.012368
9396.000000;1.011950
9395.000000;1.011345
9394.000000;1.010190
9393.000000;1.008831
9392.000000;1.007963
9391.000000;1.007861
9390.000000;1.008176
9389.000000;1.008448
9388.000000;1.008569
9387.000000;1.008716
9386.000000;1.008972
9385.000000;1.009137
9384.000000;1.008885
9383.000000;1.008032
9382.000000;1.006630
9381.000000;1.004881
9380.000000;1.003084
9379.000000;1.001689
9378.000000;1.001190
9377.000000;1.001751
9376.000000;1.002920
9375.000000;1.003868
9374.000000;1.004008
9373.000000;1.003390
9372.000000;1.002541
9371.000000;1.001983
9370.000000;1.001784
9369.000000;1.001478
9368.000000;1.000502
9367.000000;0.998901
9366.000000;0.997446
9365.000000;0.996862
9364.000000;0.997037
9363.000000;0.997209
9362.000000;0.996860
9361.000000;0.996122
9360.000000;0.995332
9359.000000;0.994600
9358.000000;0.993954
9357.000000;0.993558
9356.000000;0.993488
9355.000000;0.993471
9354.000000;0.993157
9353.000000;0.992559
9352.000000;0.992008
9351.000000;0.991721
9350.000000;0.991610
9349.000000;0.991492
9348.000000;0.991305
9347.000000;0.991094
9346.000000;0.990920
9345.000000;0.990787
9344.000000;0.990579
9343.000000;0.990095
9342.000000;0.989222
9341.000000;0.988059
9340.000000;0.986843
9339.000000;0.985746
9338.000000;0.984817
9337.000000;0.984128
9336.000000;0.983881
9335.000000;0.984209
9334.000000;0.984841
9333.000000;0.985055
9332.000000;0.984180
9331.000000;0.982294
9330.000000;0.980331
9329.000000;0.979327
9328.000000;0.979546
9327.000000;0.980390
9326.000000;0.981083
9325.000000;0.981260
9324.000000;0.980922
9323.000000;0.980145
9322.000000;0.979054
9321.000000;0.977991
9320.000000;0.977393
9319.000000;0.977400
9318.000000;0.977703
9317.000000;0.977852
9316.000000;0.977631
9315.000000;0.977067
9314.000000;0.976206
9313.000000;0.975075
9312.000000;0.973921
9311.000000;0.973276
9310.000000;0.973531
9309.000000;0.974401
9308.000000;0.975005
9307.000000;0.974660
9306.000000;0.973492
9305.000000;0.972161
9304.000000;0.971129
9303.000000;0.970399
9302.000000;0.969884
9301.000000;0.969686
9300.000000;0.969876
9299.000000;0.970200
9298.000000;0.970244
9297.000000;0.969864
9296.000000;0.969297
9295.000000;0.968837
9294.000000;0.968511
9293.000000;0.968124
9292.000000;0.967558
9291.000000;0.966927
9290.000000;0.966388
9289.000000;0.965866
9288.000000;0.965079
9287.000000;0.963919
9286.000000;0.962720
9285.000000;0.962017
9284.000000;0.962050
9283.000000;0.962598
9282.000000;0.963245
9281.000000;0.963671
9280.000000;0.963735
9279.000000;0.963471
9278.000000;0.963049
9277.000000;0.962573
9276.000000;0.961901
9275.000000;0.960876
9274.000000;0.959761
9273.000000;0.959181
9272.000000;0.959423
9271.000000;0.959937
9270.000000;0.959867
9269.000000;0.959024
9268.000000;0.958044
9267.000000;0.957537
9266.000000;0.957422
9265.000000;0.957268
9264.000000;0.957015
9263.000000;0.957012
9262.000000;0.957383
9261.000000;0.957722
9260.000000;0.957587
9259.000000;0.957036
9258.000000;0.956431
9257.000000;0.955811
9256.000000;0.954833
9255.000000;0.953432
9254.000000;0.952206
9253.000000;0.951878
9252.000000;0.952459
9251.000000;0.953188
9250.000000;0.953325
9249.000000;0.952782
9248.000000;0.951962
9247.000000;0.951227
9246.000000;0.950700
9245.000000;0.950414
9244.000000;0.950399
9243.000000;0.950582
9242.000000;0.950740
9241.000000;0.950636
9240.000000;0.950187
9239.000000;0.949555
9238.000000;0.949088
9237.000000;0.949065
9236.000000;0.949388
9235.000000;0.949585
9234.000000;0.949239
9233.000000;0.948356
9232.000000;0.947214
9231.000000;0.945953
9230.000000;0.944527
9229.000000;0.943067
9228.000000;0.942014
9227.000000;0.941702
9226.000000;0.941965
9225.000000;0.942345
9224.000000;0.942585
9223.000000;0.942746
9222.000000;0.942881
9221.000000;0.942857
9220.000000;0.942576
9219.000000;0.942187
9218.000000;0.941928
9217.000000;0.941836
9216.000000;0.941708
9215.000000;0.941305
9214.000000;0.940527
9213.000000;0.939459
9212.000000;0.938343
9211.000000;0.937492
9210.000000;0.937155
9209.000000;0.937404
9208.000000;0.938096
9207.000000;0.938879
9206.000000;0.939319
9205.000000;0.939173
9204.000000;0.938631
9203.000000;0.938145
9202.000000;0.937915
9201.000000;0.937663
9200.000000;0.937042
9199.000000;0.936156
9198.000000;0.935471
9197.000000;0.935242
9196.000000;0.935252
9195.000000;0.935106
9194.000000;0.934621
9193.000000;0.933898
9192.000000;0.933153
9191.000000;0.932543
9190.000000;0.932065
9189.000000;0.931585
9188.000000;0.931066
9187.000000;0.930731
9186.000000;0.930836
9185.000000;0.931260
9184.000000;0.931535
9183.000000;0.931332
9182.000000;0.930761
9181.000000;0.930118
9180.000000;0.929542
9179.000000;0.929042
9178.000000;0.928665
9177.000000;0.928447
9176.000000;0.928329
9175.000000;0.928283
9174.000000;0.928418
9173.000000;0.928752
9172.000000;0.928991
9171.000000;0.928766
9170.000000;0.928074
9169.000000;0.927295
9168.000000;0.926746
9167.000000;0.926425
9166.000000;0.926188
9165.000000;0.925953
9164.000000;0.925626
9163.000000;0.925024
9162.000000;0.924063
9161.000000;0.923017
9160.000000;0.922403
9159.000000;0.922490
9158.000000;0.922983
9157.000000;0.923276
9156.000000;0.923026
9155.000000;0.922407
9154.000000;0.921792
9153.000000;0.921297
9152.000000;0.920777
9151.000000;0.920162
9150.000000;0.919615
9149.000000;0.919323
9148.000000;0.919298
9147.000000;0.919386
9146.000000;0.919335
9145.000000;0.918862
9144.000000;0.917895
9143.000000;0.916847
9142.000000;0.916408
9141.000000;0.916900
9140.000000;0.917960
9139.000000;0.918966
9138.000000;0.919596
9137.000000;0.919833
9136.000000;0.919608
9135.000000;0.918777
9134.000000;0.917401
9133.000000;0.915827
9132.000000;0.914499
9131.000000;0.913797
9130.000000;0.913909
9129.000000;0.914618
9128.000000;0.915320
9127.000000;0.915482
9126.000000;0.915131
9125.000000;0.914734
9124.000000;0.914613
9123.000000;0.914660
9122.000000;0.914557
9121.000000;0.914095
9120.000000;0.913288
9119.000000;0.912392
9118.000000;0.911844
9117.000000;0.911949
9116.000000;0.912523
9115.000000;0.912955
9114.000000;0.912707
9113.000000;0.911754
9112.000000;0.910562
9111.000000;0.909722
9110.000000;0.909534
9109.000000;0.909811
9108.000000;0.910080
9107.000000;0.910081
9106.000000;0.909969
9105.000000;0.909922
9104.000000;0.909714
9103.000000;0.908951
9102.000000;0.907691
9101.000000;0.906526
9100.000000;0.906049
9099.000000;0.906408
9098.000000;0.907330
9097.000000;0.908319
9096.000000;0.908817
9095.000000;0.908545
9094.000000;0.907842
9093.000000;0.907393
9092.000000;0.907468
9091.000000;0.907618
9090.000000;0.907256
9089.000000;0.906314
9088.000000;0.905206
9087.000000;0.904334
9086.000000;0.903834
9085.000000;0.903620
9084.000000;0.903472
9083.000000;0.903199
9082.000000;0.902896
9081.000000;0.902922
9080.000000;0.903446
9079.000000;0.904112
9078.000000;0.904342
9077.000000;0.903914
9076.000000;0.903094
9075.000000;0.902276
9074.000000;0.901706
9073.000000;0.901514
9072.000000;0.901728
9071.000000;0.902145
9070.000000;0.902331
9069.000000;0.901937
9068.000000;0.901069
9067.000000;0.900282
9066.000000;0.900110
9065.000000;0.900517
9064.000000;0.900848
9063.000000;0.900466
9062.000000;0.899470
9061.000000;0.898616
9060.000000;0.898479
9059.000000;0.898884
9058.000000;0.899246
9057.000000;0.899296
9056.000000;0.899186
9055.000000;0.899015
9054.000000;0.898572
9053.000000;0.897690
