Criado como novo conjunto de dados;"1909daniel.spp","-4226201.7 Secs"
cm-1;Abs
10000.000000;1.564667
9999.000000;1.566121
9998.000000;1.567949
9997.000000;1.570052
9996.000000;1.572260
9995.000000;1.574134
9994.000000;1.574928
9993.000000;1.574264
9992.000000;1.572450
9991.000000;1.570439
9990.000000;1.569242
9989.000000;1.569353
9988.000000;1.570513
9987.000000;1.571879
9986.000000;1.572361
9985.000000;1.571077
9984.000000;1.567837
9983.000000;1.563312
9982.000000;1.558700
9981.000000;1.555178
9980.000000;1.553519
9979.000000;1.553914
9978.000000;1.555898
9977.000000;1.558510
9976.000000;1.560729
9975.000000;1.561859
9974.000000;1.561611
9973.000000;1.560114
9972.000000;1.557922
9971.000000;1.555646
9970.000000;1.553408
9969.000000;1.550938
9968.000000;1.548377
9967.000000;1.546598
9966.000000;1.546348
9965.000000;1.547378
9964.000000;1.548871
9963.000000;1.550487
9962.000000;1.552372
9961.000000;1.554233
9960.000000;1.555107
9959.000000;1.554216
9958.000000;1.551600
9957.000000;1.547913
9956.000000;1.544180
9955.000000;1.541723
9954.000000;1.541526
9953.000000;1.543260
9952.000000;1.545308
9951.000000;1.546205
9950.000000;1.545870
9949.000000;1.545179
9948.000000;1.544763
9947.000000;1.544528
9946.000000;1.543918
9945.000000;1.542291
9944.000000;1.539429
9943.000000;1.536112
9942.000000;1.533878
9941.000000;1.533768
9940.000000;1.535283
9939.000000;1.536786
9938.000000;1.536968
9937.000000;1.535929
9936.000000;1.534892
9935.000000;1.534932
9934.000000;1.535833
9933.000000;1.536161
9932.000000;1.534765
9931.000000;1.532142
9930.000000;1.529854
9929.000000;1.528582
9928.000000;1.527483
9927.000000;1.525711
9926.000000;1.523786
9925.000000;1.522718
9924.000000;1.522349
9923.000000;1.521554
9922.000000;1.519913
9921.000000;1.518240
9920.000000;1.517353
9919.000000;1.517042
9918.000000;1.516534
9917.000000;1.515504
9916.000000;1.514270
9915.000000;1.513290
9914.000000;1.512864
9913.000000;1.513175
9912.000000;1.514214
9911.000000;1.515619
9910.000000;1.516787
9909.000000;1.517232
9908.000000;1.516871
9907.000000;1.515956
9906.000000;1.514763
9905.000000;1.513352
9904.000000;1.511650
9903.000000;1.509800
9902.000000;1.508260
9901.000000;1.507361
9900.000000;1.506889
9899.000000;1.506323
9898.000000;1.505469
9897.000000;1.504684
9896.000000;1.504498
9895.000000;1.505098
9894.000000;1.506083
9893.000000;1.506584
9892.000000;1.505821
9891.000000;1.503843
9890.000000;1.501636
9889.000000;1.500179
9888.000000;1.499491
9887.000000;1.498917
9886.000000;1.498169
9885.000000;1.497629
9884.000000;1.497584
9883.000000;1.497633
9882.000000;1.497145
9881.000000;1.495985
9880.000000;1.494545
9879.000000;1.493372
9878.000000;1.492926
9877.000000;1.493306
9876.000000;1.493985
9875.000000;1.494034
9874.000000;1.492895
9873.000000;1.490884
9872.000000;1.488803
9871.000000;1.487261
9870.000000;1.486466
9869.000000;1.486230
9868.000000;1.485928
9867.000000;1.484912
9866.000000;1.483307
9865.000000;1.482141
9864.000000;1.482275
9863.000000;1.483306
9862.000000;1.483984
9861.000000;1.483679
9860.000000;1.482882
9859.000000;1.482239
9858.000000;1.481806
9857.000000;1.481537
9856.000000;1.481791
9855.000000;1.482686
9854.000000;1.483348
9853.000000;1.482587
9852.000000;1.480361
9851.000000;1.478008
9850.000000;1.476889
9849.000000;1.477221
9848.000000;1.478254
9847.000000;1.479103
9846.000000;1.479190
9845.000000;1.478277
9844.000000;1.476543
9843.000000;1.474576
9842.000000;1.472895
9841.000000;1.471382
9840.000000;1.469412
9839.000000;1.466669
9838.000000;1.463768
9837.000000;1.462022
9836.000000;1.462507
9835.000000;1.465110
9834.000000;1.468303
9833.000000;1.470112
9832.000000;1.469711
9831.000000;1.468037
9830.000000;1.466614
9829.000000;1.465914
9828.000000;1.465175
9827.000000;1.463689
9826.000000;1.461819
9825.000000;1.460561
9824.000000;1.460385
9823.000000;1.460740
9822.000000;1.460646
9821.000000;1.459616
9820.000000;1.457961
9819.000000;1.456254
9818.000000;1.454678
9817.000000;1.453106
9816.000000;1.451815
9815.000000;1.451590
9814.000000;1.452695
9813.000000;1.454029
9812.000000;1.453956
9811.000000;1.452171
9810.000000;1.450159
9809.000000;1.449469
9808.000000;1.450089
9807.000000;1.450911
9806.000000;1.451295
9805.000000;1.451449
9804.000000;1.451400
9803.000000;1.450448
9802.000000;1.448046
9801.000000;1.444893
9800.000000;1.442661
9799.000000;1.442565
9798.000000;1.444205
9797.000000;1.445761
9796.000000;1.445537
9795.000000;1.443538
9794.000000;1.441332
9793.000000;1.440293
9792.000000;1.440358
9791.000000;1.440634
9790.000000;1.440667
9789.000000;1.440533
9788.000000;1.440081
9787.000000;1.438954
9786.000000;1.437438
9785.000000;1.436587
9784.000000;1.437031
9783.000000;1.438107
9782.000000;1.438616
9781.000000;1.438099
9780.000000;1.436920
9779.000000;1.435438
9778.000000;1.433708
9777.000000;1.431888
9776.000000;1.430349
9775.000000;1.429210
9774.000000;1.428157
9773.000000;1.426881
9772.000000;1.425522
9771.000000;1.424576
9770.000000;1.424429
9769.000000;1.425028
9768.000000;1.425997
9767.000000;1.427015
9766.000000;1.427994
9765.000000;1.428696
9764.000000;1.428356
9763.000000;1.426230
9762.000000;1.422754
9761.000000;1.419598
9760.000000;1.418169
9759.000000;1.418306
9758.000000;1.418749
9757.000000;1.418644
9756.000000;1.418143
9755.000000;1.417672
9754.000000;1.417284
9753.000000;1.416887
9752.000000;1.416558
9751.000000;1.416296
9750.000000;1.415778
9749.000000;1.414695
9748.000000;1.413212
9747.000000;1.411866
9746.000000;1.411102
9745.000000;1.410992
9744.000000;1.411225
9743.000000;1.411216
9742.000000;1.410459
9741.000000;1.409013
9740.000000;1.407556
9739.000000;1.406777
9738.000000;1.406722
9737.000000;1.406798
9736.000000;1.406389
9735.000000;1.405414
9734.000000;1.404340
9733.000000;1.403709
9732.000000;1.403616
9731.000000;1.403629
9730.000000;1.403200
9729.000000;1.402065
9728.000000;1.400299
9727.000000;1.398277
9726.000000;1.396781
9725.000000;1.396762
9724.000000;1.398422
9723.000000;1.400474
9722.000000;1.401002
9721.000000;1.399457
9720.000000;1.397271
9719.000000;1.396153
9718.000000;1.396291
9717.000000;1.396593
9716.000000;1.396220
9715.000000;1.395220
9714.000000;1.393917
9713.000000;1.392454
9712.000000;1.391084
9711.000000;1.390285
9710.000000;1.390228
9709.000000;1.390369
9708.000000;1.389867
9707.000000;1.388401
9706.000000;1.386493
9705.000000;1.385040
9704.000000;1.384512
9703.000000;1.384489
9702.000000;1.384002
9701.000000;1.382559
9700.000000;1.380764
9699.000000;1.379658
9698.000000;1.379555
9697.000000;1.379855
9696.000000;1.379934
9695.000000;1.379749
9694.000000;1.379491
9693.000000;1.379138
9692.000000;1.378597
9691.000000;1.377901
9690.000000;1.376978
9689.000000;1.375600
9688.000000;1.373871
9687.000000;1.372453
9686.000000;1.371858
9685.000000;1.371735
9684.000000;1.371367
9683.000000;1.370755
9682.000000;1.370587
9681.000000;1.371066
9680.000000;1.371457
9679.000000;1.371074
9678.000000;1.370216
9677.000000;1.369740
9676.000000;1.370059
9675.000000;1.370939
9674.000000;1.371939
9673.000000;1.372551
9672.000000;1.372119
9671.000000;1.370280
9670.000000;1.367638
9669.000000;1.365439
9668.000000;1.364336
9667.000000;1.363819
9666.000000;1.363102
9665.000000;1.362203
9664.000000;1.361708
9663.000000;1.361688
9662.000000;1.361448
9661.000000;1.360458
9660.000000;1.359073
9659.000000;1.358015
9658.000000;1.357404
9657.000000;1.356672
9656.000000;1.355349
9655.000000;1.353633
9654.000000;1.352142
9653.000000;1.351285
9652.000000;1.350994
9651.000000;1.350952
9650.000000;1.350916
9649.000000;1.350859
9648.000000;1.350898
9647.000000;1.351109
9646.000000;1.351427
9645.000000;1.351709
9644.000000;1.351772
9643.000000;1.351333
9642.000000;1.350061
9641.000000;1.347958
9640.000000;1.345729
9639.000000;1.344509
9638.000000;1.344938
9637.000000;1.346455
9636.000000;1.347605
9635.000000;1.347117
9634.000000;1.344853
9633.000000;1.341874
9632.000000;1.339697
9631.000000;1.339357
9630.000000;1.340755
9629.000000;1.342604
9628.000000;1.343294
9627.000000;1.342256
9626.000000;1.340432
9625.000000;1.339131
9624.000000;1.338571
9623.000000;1.337936
9622.000000;1.336785
9621.000000;1.335849
9620.000000;1.336074
9619.000000;1.337275
9618.000000;1.338293
9617.000000;1.338368
9616.000000;1.337796
9615.000000;1.337120
9614.000000;1.336228
9613.000000;1.334588
9612.000000;1.332115
9611.000000;1.329447
9610.000000;1.327431
9609.000000;1.326514
9608.000000;1.326477
9607.000000;1.326614
9606.000000;1.326254
9605.000000;1.325294
9604.000000;1.324216
9603.000000;1.323573
9602.000000;1.323621
9601.000000;1.324415
9600.000000;1.325876
9599.000000;1.327508
9598.000000;1.328359
9597.000000;1.327723
9596.000000;1.325866
9595.000000;1.323777
9594.000000;1.322196
9593.000000;1.321158
9592.000000;1.320341
9591.000000;1.319516
9590.000000;1.318573
9589.000000;1.317397
9588.000000;1.315915
9587.000000;1.314158
9586.000000;1.312282
9585.000000;1.310687
9584.000000;1.310011
9583.000000;1.310637
9582.000000;1.312080
9581.000000;1.313199
9580.000000;1.313269
9579.000000;1.312604
9578.000000;1.311822
9577.000000;1.310904
9576.000000;1.309468
9575.000000;1.307757
9574.000000;1.306649
9573.000000;1.306487
9572.000000;1.306503
9571.000000;1.305863
9570.000000;1.304842
9569.000000;1.304308
9568.000000;1.304299
9567.000000;1.303945
9566.000000;1.302944
9565.000000;1.302295
9564.000000;1.303014
9563.000000;1.304653
9562.000000;1.305730
9561.000000;1.305423
9560.000000;1.304149
9559.000000;1.302547
9558.000000;1.300718
9557.000000;1.298672
9556.000000;1.296815
9555.000000;1.295558
9554.000000;1.294819
9553.000000;1.294241
9552.000000;1.293728
9551.000000;1.293554
9550.000000;1.294101
9549.000000;1.295511
9548.000000;1.297314
9547.000000;1.298382
9546.000000;1.297815
9545.000000;1.296091
9544.000000;1.294710
9543.000000;1.294381
9542.000000;1.294155
9541.000000;1.292778
9540.000000;1.290453
9539.000000;1.288597
9538.000000;1.288149
9537.000000;1.288724
9536.000000;1.289195
9535.000000;1.288578
9534.000000;1.286619
9533.000000;1.284130
9532.000000;1.282597
9531.000000;1.282853
9530.000000;1.284140
9529.000000;1.284942
9528.000000;1.284591
9527.000000;1.283532
9526.000000;1.282289
9525.000000;1.281069
9524.000000;1.280279
9523.000000;1.280394
9522.000000;1.281077
9521.000000;1.281281
9520.000000;1.280610
9519.000000;1.279786
9518.000000;1.279357
9517.000000;1.278718
9516.000000;1.277016
9515.000000;1.274484
9514.000000;1.272300
9513.000000;1.271462
9512.000000;1.272196
9511.000000;1.273917
9510.000000;1.275387
9509.000000;1.275411
9508.000000;1.273939
9507.000000;1.272185
9506.000000;1.271206
9505.000000;1.270774
9504.000000;1.270146
9503.000000;1.269397
9502.000000;1.269194
9501.000000;1.269573
9500.000000;1.269737
9499.000000;1.269009
9498.000000;1.267398
9497.000000;1.265390
9496.000000;1.263821
9495.000000;1.263697
9494.000000;1.265317
9493.000000;1.267470
9492.000000;1.268236
9491.000000;1.266930
9490.000000;1.264724
9489.000000;1.263155
9488.000000;1.262594
9487.000000;1.262345
9486.000000;1.261653
9485.000000;1.260335
9484.000000;1.258791
9483.000000;1.257669
9482.000000;1.257242
9481.000000;1.256999
9480.000000;1.256244
9479.000000;1.255272
9478.000000;1.255362
9477.000000;1.257154
9476.000000;1.259364
9475.000000;1.259747
9474.000000;1.257459
9473.000000;1.254041
9472.000000;1.251872
9471.000000;1.251946
9470.000000;1.253211
9469.000000;1.253791
9468.000000;1.252711
9467.000000;1.250565
9466.000000;1.248705
9465.000000;1.248030
9464.000000;1.248493
9463.000000;1.249439
9462.000000;1.250144
9461.000000;1.250145
9460.000000;1.249407
9459.000000;1.248292
9458.000000;1.247207
9457.000000;1.246223
9456.000000;1.245220
9455.000000;1.244389
9454.000000;1.244242
9453.000000;1.244933
9452.000000;1.245807
9451.000000;1.245910
9450.000000;1.244918
9449.000000;1.243307
9448.000000;1.241670
9447.000000;1.240187
9446.000000;1.238828
9445.000000;1.237737
9444.000000;1.237167
9443.000000;1.237147
9442.000000;1.237449
9441.000000;1.237883
9440.000000;1.238382
9439.000000;1.238775
9438.000000;1.238741
9437.000000;1.238187
9436.000000;1.237462
9435.000000;1.236943
9434.000000;1.236541
9433.000000;1.235909
9432.000000;1.235095
9431.000000;1.234600
9430.000000;1.234691
9429.000000;1.234950
9428.000000;1.234719
9427.000000;1.233835
9426.000000;1.232706
9425.000000;1.231732
9424.000000;1.230875
9423.000000;1.229772
9422.000000;1.228226
9421.000000;1.226609
9420.000000;1.225763
9419.000000;1.226266
9418.000000;1.227708
9417.000000;1.228907
9416.000000;1.229044
9415.000000;1.228373
9414.000000;1.227684
9413.000000;1.227366
9412.000000;1.227262
9411.000000;1.227111
9410.000000;1.226723
9409.000000;1.225879
9408.000000;1.224542
9407.000000;1.223181
9406.000000;1.222514
9405.000000;1.222803
9404.000000;1.223536
9403.000000;1.223820
9402.000000;1.223013
9401.000000;1.221145
9400.000000;1.218951
9399.000000;1.217406
9398.000000;1.216979
9397.000000;1.217273
9396.000000;1.217488
9395.000000;1.217143
9394.000000;1.216238
9393.000000;1.214986
9392.000000;1.213721
9391.000000;1.212940
9390.000000;1.212984
9389.000000;1.213568
9388.000000;1.213880
9387.000000;1.213294
9386.000000;1.211871
9385.000000;1.210238
9384.000000;1.209167
9383.000000;1.209199
9382.000000;1.210350
9381.000000;1.212048
9380.000000;1.213487
9379.000000;1.214090
9378.000000;1.213614
9377.000000;1.212113
9376.000000;1.210120
9375.000000;1.208602
9374.000000;1.208184
9373.000000;1.208419
9372.000000;1.208252
9371.000000;1.207267
9370.000000;1.206029
9369.000000;1.205165
9368.000000;1.204633
9367.000000;1.204117
9366.000000;1.203659
9365.000000;1.203502
9364.000000;1.203595
9363.000000;1.203599
9362.000000;1.203245
9361.000000;1.202500
9360.000000;1.201493
9359.000000;1.200494
9358.000000;1.199876
9357.000000;1.199859
9356.000000;1.200241
9355.000000;1.200469
9354.000000;1.200024
9353.000000;1.198820
9352.000000;1.197286
9351.000000;1.196054
9350.000000;1.195428
9349.000000;1.195226
9348.000000;1.195145
9347.000000;1.195135
9346.000000;1.195193
9345.000000;1.195030
9344.000000;1.194331
9343.000000;1.193269
9342.000000;1.192364
9341.000000;1.191866
9340.000000;1.191686
9339.000000;1.191848
9338.000000;1.192455
9337.000000;1.193147
9336.000000;1.193184
9335.000000;1.192372
9334.000000;1.191371
9333.000000;1.190779
9332.000000;1.190370
9331.000000;1.189640
9330.000000;1.188697
9329.000000;1.188082
9328.000000;1.187958
9327.000000;1.188006
9326.000000;1.187974
9325.000000;1.187844
9324.000000;1.187542
9323.000000;1.186958
9322.000000;1.186294
9321.000000;1.186023
9320.000000;1.186398
9319.000000;1.187251
9318.000000;1.188221
9317.000000;1.188902
9316.000000;1.188804
9315.000000;1.187510
9314.000000;1.185035
9313.000000;1.181892
9312.000000;1.178839
9311.000000;1.176694
9310.000000;1.176191
9309.000000;1.177503
9308.000000;1.179701
9307.000000;1.181027
9306.000000;1.180165
9305.000000;1.177386
9304.000000;1.174342
9303.000000;1.172698
9302.000000;1.172925
9301.000000;1.174234
9300.000000;1.175484
9299.000000;1.176155
9298.000000;1.176484
9297.000000;1.176857
9296.000000;1.177257
9295.000000;1.177354
9294.000000;1.176948
9293.000000;1.176214
9292.000000;1.175564
9291.000000;1.175308
9290.000000;1.175353
9289.000000;1.175191
9288.000000;1.174401
9287.000000;1.173227
9286.000000;1.172454
9285.000000;1.172559
9284.000000;1.173175
9283.000000;1.173528
9282.000000;1.173215
9281.000000;1.172396
9280.000000;1.171445
9279.000000;1.170729
9278.000000;1.170549
9277.000000;1.170917
9276.000000;1.171401
9275.000000;1.171474
9274.000000;1.171028
9273.000000;1.170330
9272.000000;1.169570
9271.000000;1.168750
9270.000000;1.167982
9269.000000;1.167501
9268.000000;1.167242
9267.000000;1.166786
9266.000000;1.165956
9265.000000;1.165245
9264.000000;1.165331
9263.000000;1.166278
9262.000000;1.167397
9261.000000;1.167868
9260.000000;1.167356
9259.000000;1.166127
9258.000000;1.164801
9257.000000;1.163943
9256.000000;1.163642
9255.000000;1.163454
9254.000000;1.162907
9253.000000;1.162065
9252.000000;1.161428
9251.000000;1.161264
9250.000000;1.161263
9249.000000;1.160972
9248.000000;1.160320
9247.000000;1.159488
9246.000000;1.158449
9245.000000;1.157018
9244.000000;1.155361
9243.000000;1.154121
9242.000000;1.153831
9241.000000;1.154356
9240.000000;1.155066
9239.000000;1.155460
9238.000000;1.155506
9237.000000;1.155437
9236.000000;1.155386
9235.000000;1.155264
9234.000000;1.154873
9233.000000;1.154149
9232.000000;1.153281
9231.000000;1.152546
9230.000000;1.152001
9229.000000;1.151520
9228.000000;1.151143
9227.000000;1.151123
9226.000000;1.151474
9225.000000;1.151760
9224.000000;1.151608
9223.000000;1.151177
9222.000000;1.150756
9221.000000;1.150136
9220.000000;1.148920
9219.000000;1.147392
9218.000000;1.146488
9217.000000;1.146698
9216.000000;1.147387
9215.000000;1.147442
9214.000000;1.146383
9213.000000;1.144659
9212.000000;1.143103
9211.000000;1.142349
9210.000000;1.142556
9209.000000;1.143346
9208.000000;1.144041
9207.000000;1.144141
9206.000000;1.143600
9205.000000;1.142701
9204.000000;1.141862
9203.000000;1.141576
9202.000000;1.142223
9201.000000;1.143742
9200.000000;1.145628
9199.000000;1.147325
9198.000000;1.148475
9197.000000;1.148769
9196.000000;1.147908
9195.000000;1.145922
9194.000000;1.143361
9193.000000;1.141008
9192.000000;1.139529
9191.000000;1.139300
9190.000000;1.140162
9189.000000;1.141226
9188.000000;1.141382
9187.000000;1.140339
9186.000000;1.138882
9185.000000;1.137900
9184.000000;1.137580
9183.000000;1.137725
9182.000000;1.138295
9181.000000;1.139129
9180.000000;1.139565
9179.000000;1.139027
9178.000000;1.137876
9177.000000;1.137073
9176.000000;1.137044
9175.000000;1.137389
9174.000000;1.137617
9173.000000;1.137594
9172.000000;1.137222
9171.000000;1.136322
9170.000000;1.135085
9169.000000;1.134187
9168.000000;1.134163
9167.000000;1.134860
9166.000000;1.135632
9165.000000;1.135855
9164.000000;1.135189
9163.000000;1.133675
9162.000000;1.131729
9161.000000;1.129887
9160.000000;1.128471
9159.000000;1.127572
9158.000000;1.127264
9157.000000;1.127564
9156.000000;1.128236
9155.000000;1.128938
9154.000000;1.129577
9153.000000;1.130211
9152.000000;1.130579
9151.000000;1.130204
9150.000000;1.129096
9149.000000;1.127913
9148.000000;1.127217
9147.000000;1.126899
9146.000000;1.126586
9145.000000;1.126228
9144.000000;1.125976
9143.000000;1.125801
9142.000000;1.125658
9141.000000;1.125835
9140.000000;1.126657
9139.000000;1.127842
9138.000000;1.128536
9137.000000;1.128174
9136.000000;1.127140
9135.000000;1.126367
9134.000000;1.126320
9133.000000;1.126548
9132.000000;1.126309
9131.000000;1.125551
9130.000000;1.124991
9129.000000;1.125119
9128.000000;1.125478
9127.000000;1.125263
9126.000000;1.124392
9125.000000;1.123495
9124.000000;1.122933
9123.000000;1.122405
9122.000000;1.121659
9121.000000;1.120984
9120.000000;1.120698
9119.000000;1.120643
9118.000000;1.120553
9117.000000;1.120526
9116.000000;1.120674
9115.000000;1.120625
9114.000000;1.119861
9113.000000;1.118506
9112.000000;1.117280
9111.000000;1.116667
9110.000000;1.116566
9109.000000;1.116717
9108.000000;1.117045
9107.000000;1.117547
9106.000000;1.118159
9105.000000;1.118780
9104.000000;1.119192
9103.000000;1.119043
9102.000000;1.118244
9101.000000;1.117331
9100.000000;1.117010
9099.000000;1.117326
9098.000000;1.117696
9097.000000;1.117785
9096.000000;1.117873
9095.000000;1.118173
9094.000000;1.118298
9093.000000;1.117783
9092.000000;1.116781
9091.000000;1.115808
9090.000000;1.115015
9089.000000;1.114195
9088.000000;1.113399
9087.000000;1.113067
9086.000000;1.113425
9085.000000;1.114062
9084.000000;1.114281
9083.000000;1.113739
9082.000000;1.112645
9081.000000;1.111470
9080.000000;1.110550
9079.000000;1.109888
9078.000000;1.109299
9077.000000;1.108779
9076.000000;1.108689
9075.000000;1.109382
9074.000000;1.110604
9073.000000;1.111495
9072.000000;1.111399
9071.000000;1.110568
9070.000000;1.109856
9069.000000;1.109777
9068.000000;1.110099
9067.000000;1.110361
9066.000000;1.110444
9065.000000;1.110441
9064.000000;1.110198
9063.000000;1.109426
9062.000000;1.108260
9061.000000;1.107345
9060.000000;1.107141
9059.000000;1.107422
9058.000000;1.107686
9057.000000;1.107791
9056.000000;1.107825
9055.000000;1.107521
9054.000000;1.106387
9053.000000;1.104514
