Criado como novo conjunto de dados;"1909daniel.spp","-4213061.3 Secs"
cm-1;Abs
10000.000000;1.166768
9999.000000;1.167787
9998.000000;1.167963
9997.000000;1.167114
9996.000000;1.165929
9995.000000;1.164884
9994.000000;1.164039
9993.000000;1.163395
9992.000000;1.163097
9991.000000;1.163017
9990.000000;1.162707
9989.000000;1.161813
9988.000000;1.160283
9987.000000;1.158250
9986.000000;1.156118
9985.000000;1.154552
9984.000000;1.153848
9983.000000;1.153354
9982.000000;1.152119
9981.000000;1.150153
9980.000000;1.148441
9979.000000;1.147651
9978.000000;1.147439
9977.000000;1.147129
9976.000000;1.146490
9975.000000;1.145699
9974.000000;1.145070
9973.000000;1.144997
9972.000000;1.145604
9971.000000;1.146172
9970.000000;1.145530
9969.000000;1.143472
9968.000000;1.141270
9967.000000;1.140353
9966.000000;1.140881
9965.000000;1.141915
9964.000000;1.142546
9963.000000;1.142431
9962.000000;1.141575
9961.000000;1.140190
9960.000000;1.138707
9959.000000;1.137513
9958.000000;1.136685
9957.000000;1.136116
9956.000000;1.135730
9955.000000;1.135408
9954.000000;1.134934
9953.000000;1.134196
9952.000000;1.133251
9951.000000;1.132092
9950.000000;1.130680
9949.000000;1.129333
9948.000000;1.128614
9947.000000;1.128576
9946.000000;1.128516
9945.000000;1.127841
9944.000000;1.126819
9943.000000;1.126045
9942.000000;1.125548
9941.000000;1.124970
9940.000000;1.124339
9939.000000;1.124067
9938.000000;1.124213
9937.000000;1.124241
9936.000000;1.123603
9935.000000;1.122248
9934.000000;1.120502
9933.000000;1.118716
9932.000000;1.117114
9931.000000;1.115781
9930.000000;1.114768
9929.000000;1.114217
9928.000000;1.114259
9927.000000;1.114626
9926.000000;1.114604
9925.000000;1.113655
9924.000000;1.112036
9923.000000;1.110534
9922.000000;1.109638
9921.000000;1.109165
9920.000000;1.108640
9919.000000;1.107846
9918.000000;1.107003
9917.000000;1.106501
9916.000000;1.106461
9915.000000;1.106534
9914.000000;1.106206
9913.000000;1.105327
9912.000000;1.104191
9911.000000;1.103136
9910.000000;1.102274
9909.000000;1.101645
9908.000000;1.101316
9907.000000;1.101205
9906.000000;1.101056
9905.000000;1.100766
9904.000000;1.100452
9903.000000;1.100059
9902.000000;1.099200
9901.000000;1.097682
9900.000000;1.095946
9899.000000;1.094670
9898.000000;1.094070
9897.000000;1.093813
9896.000000;1.093531
9895.000000;1.093155
9894.000000;1.092813
9893.000000;1.092564
9892.000000;1.092280
9891.000000;1.091671
9890.000000;1.090516
9889.000000;1.088925
9888.000000;1.087308
9887.000000;1.086038
9886.000000;1.085208
9885.000000;1.084668
9884.000000;1.084139
9883.000000;1.083377
9882.000000;1.082456
9881.000000;1.081832
9880.000000;1.081817
9879.000000;1.082033
9878.000000;1.081782
9877.000000;1.080999
9876.000000;1.080323
9875.000000;1.080037
9874.000000;1.079511
9873.000000;1.078075
9872.000000;1.076064
9871.000000;1.074534
9870.000000;1.074119
9869.000000;1.074472
9868.000000;1.074644
9867.000000;1.073798
9866.000000;1.071815
9865.000000;1.069528
9864.000000;1.068188
9863.000000;1.068330
9862.000000;1.069197
9861.000000;1.069488
9860.000000;1.068563
9859.000000;1.066764
9858.000000;1.064852
9857.000000;1.063501
9856.000000;1.063058
9855.000000;1.063316
9854.000000;1.063529
9853.000000;1.063002
9852.000000;1.061697
9851.000000;1.060109
9850.000000;1.058698
9849.000000;1.057652
9848.000000;1.057006
9847.000000;1.056642
9846.000000;1.056247
9845.000000;1.055569
9844.000000;1.054701
9843.000000;1.053866
9842.000000;1.053040
9841.000000;1.052042
9840.000000;1.050952
9839.000000;1.050118
9838.000000;1.049750
9837.000000;1.049691
9836.000000;1.049574
9835.000000;1.049076
9834.000000;1.048094
9833.000000;1.046863
9832.000000;1.045795
9831.000000;1.045098
9830.000000;1.044652
9829.000000;1.044393
9828.000000;1.044472
9827.000000;1.044727
9826.000000;1.044399
9825.000000;1.042964
9824.000000;1.041126
9823.000000;1.040308
9822.000000;1.041010
9821.000000;1.042158
9820.000000;1.042295
9819.000000;1.041073
9818.000000;1.039274
9817.000000;1.037690
9816.000000;1.036395
9815.000000;1.035028
9814.000000;1.033428
9813.000000;1.031887
9812.000000;1.030864
9811.000000;1.030448
9810.000000;1.030167
9809.000000;1.029448
9808.000000;1.028354
9807.000000;1.027610
9806.000000;1.027726
9805.000000;1.028260
9804.000000;1.028220
9803.000000;1.027193
9802.000000;1.025767
9801.000000;1.024747
9800.000000;1.024276
9799.000000;1.023938
9798.000000;1.023505
9797.000000;1.023194
9796.000000;1.023205
9795.000000;1.023385
9794.000000;1.023502
9793.000000;1.023553
9792.000000;1.023533
9791.000000;1.023126
9790.000000;1.021966
9789.000000;1.020153
9788.000000;1.018240
9787.000000;1.016708
9786.000000;1.015676
9785.000000;1.015053
9784.000000;1.014749
9783.000000;1.014679
9782.000000;1.014749
9781.000000;1.014820
9780.000000;1.014559
9779.000000;1.013449
9778.000000;1.011303
9777.000000;1.008741
9776.000000;1.006820
9775.000000;1.006068
9774.000000;1.006085
9773.000000;1.006118
9772.000000;1.005747
9771.000000;1.004989
9770.000000;1.004059
9769.000000;1.003218
9768.000000;1.002612
9767.000000;1.002109
9766.000000;1.001451
9765.000000;1.000668
9764.000000;1.000111
9763.000000;0.999963
9762.000000;0.999930
9761.000000;0.999537
9760.000000;0.998529
9759.000000;0.996954
9758.000000;0.995110
9757.000000;0.993549
9756.000000;0.992798
9755.000000;0.992834
9754.000000;0.992996
9753.000000;0.992629
9752.000000;0.991656
9751.000000;0.990430
9750.000000;0.989283
9749.000000;0.988443
9748.000000;0.988057
9747.000000;0.987963
9746.000000;0.987603
9745.000000;0.986533
9744.000000;0.985005
9743.000000;0.983787
9742.000000;0.983366
9741.000000;0.983484
9740.000000;0.983418
9739.000000;0.982631
9738.000000;0.981164
9737.000000;0.979512
9736.000000;0.978152
9735.000000;0.977229
9734.000000;0.976724
9733.000000;0.976743
9732.000000;0.977339
9731.000000;0.978062
9730.000000;0.978078
9729.000000;0.976944
9728.000000;0.975048
9727.000000;0.973122
9726.000000;0.971584
9725.000000;0.970488
9724.000000;0.969779
9723.000000;0.969296
9722.000000;0.968759
9721.000000;0.968067
9720.000000;0.967446
9719.000000;0.967048
9718.000000;0.966594
9717.000000;0.965738
9716.000000;0.964664
9715.000000;0.963962
9714.000000;0.963925
9713.000000;0.964246
9712.000000;0.964401
9711.000000;0.964107
9710.000000;0.963392
9709.000000;0.962444
9708.000000;0.961464
9707.000000;0.960538
9706.000000;0.959635
9705.000000;0.958756
9704.000000;0.958012
9703.000000;0.957422
9702.000000;0.956767
9701.000000;0.955809
9700.000000;0.954659
9699.000000;0.953777
9698.000000;0.953564
9697.000000;0.954001
9696.000000;0.954612
9695.000000;0.954711
9694.000000;0.953800
9693.000000;0.951963
9692.000000;0.949869
9691.000000;0.948268
9690.000000;0.947404
9689.000000;0.946923
9688.000000;0.946311
9687.000000;0.945403
9686.000000;0.944454
9685.000000;0.943749
9684.000000;0.943219
9683.000000;0.942576
9682.000000;0.941835
9681.000000;0.941465
9680.000000;0.941808
9679.000000;0.942501
9678.000000;0.942778
9677.000000;0.942274
9676.000000;0.941214
9675.000000;0.939878
9674.000000;0.938323
9673.000000;0.936723
9672.000000;0.935499
9671.000000;0.934855
9670.000000;0.934460
9669.000000;0.933894
9668.000000;0.933179
9667.000000;0.932592
9666.000000;0.932155
9665.000000;0.931603
9664.000000;0.930780
9663.000000;0.929833
9662.000000;0.929066
9661.000000;0.928730
9660.000000;0.928857
9659.000000;0.929121
9658.000000;0.929018
9657.000000;0.928308
9656.000000;0.927228
9655.000000;0.926158
9654.000000;0.925249
9653.000000;0.924470
9652.000000;0.923819
9651.000000;0.923263
9650.000000;0.922629
9649.000000;0.921788
9648.000000;0.920869
9647.000000;0.920092
9646.000000;0.919480
9645.000000;0.918862
9644.000000;0.918080
9643.000000;0.917056
9642.000000;0.915784
9641.000000;0.914434
9640.000000;0.913390
9639.000000;0.912967
9638.000000;0.913076
9637.000000;0.913250
9636.000000;0.912991
9635.000000;0.912054
9634.000000;0.910561
9633.000000;0.908930
9632.000000;0.907601
9631.000000;0.906726
9630.000000;0.906203
9629.000000;0.906013
9628.000000;0.906285
9627.000000;0.906926
9626.000000;0.907409
9625.000000;0.907170
9624.000000;0.906086
9623.000000;0.904473
9622.000000;0.902799
9621.000000;0.901540
9620.000000;0.901028
9619.000000;0.901140
9618.000000;0.901237
9617.000000;0.900701
9616.000000;0.899507
9615.000000;0.898109
9614.000000;0.896926
9613.000000;0.896129
9612.000000;0.895751
9611.000000;0.895666
9610.000000;0.895514
9609.000000;0.894976
9608.000000;0.894194
9607.000000;0.893630
9606.000000;0.893428
9605.000000;0.893184
9604.000000;0.892484
9603.000000;0.891477
9602.000000;0.890728
9601.000000;0.890540
9600.000000;0.890597
9599.000000;0.890285
9598.000000;0.889294
9597.000000;0.887835
9596.000000;0.886326
9595.000000;0.885004
9594.000000;0.883946
9593.000000;0.883272
9592.000000;0.883044
9591.000000;0.882960
9590.000000;0.882482
9589.000000;0.881452
9588.000000;0.880395
9587.000000;0.879936
9586.000000;0.880038
9585.000000;0.880058
9584.000000;0.879497
9583.000000;0.878466
9582.000000;0.877399
9581.000000;0.876526
9580.000000;0.875746
9579.000000;0.874892
9578.000000;0.873985
9577.000000;0.873218
9576.000000;0.872728
9575.000000;0.872438
9574.000000;0.872152
9573.000000;0.871765
9572.000000;0.871307
9571.000000;0.870817
9570.000000;0.870279
9569.000000;0.869716
9568.000000;0.869202
9567.000000;0.868725
9566.000000;0.868118
9565.000000;0.867248
9564.000000;0.866212
9563.000000;0.865297
9562.000000;0.864758
9561.000000;0.864630
9560.000000;0.864664
9559.000000;0.864448
9558.000000;0.863721
9557.000000;0.862631
9556.000000;0.861599
9555.000000;0.860890
9554.000000;0.860423
9553.000000;0.859971
9552.000000;0.859388
9551.000000;0.858591
9550.000000;0.857528
9549.000000;0.856335
9548.000000;0.855396
9547.000000;0.855026
9546.000000;0.855115
9545.000000;0.855204
9544.000000;0.854916
9543.000000;0.854246
9542.000000;0.853433
9541.000000;0.852635
9540.000000;0.851792
9539.000000;0.850791
9538.000000;0.849704
9537.000000;0.848786
9536.000000;0.848225
9535.000000;0.847966
9534.000000;0.847815
9533.000000;0.847599
9532.000000;0.847162
9531.000000;0.846370
9530.000000;0.845318
9529.000000;0.844372
9528.000000;0.843758
9527.000000;0.843191
9526.000000;0.842227
9525.000000;0.840967
9524.000000;0.840071
9523.000000;0.839945
9522.000000;0.840214
9521.000000;0.840133
9520.000000;0.839304
9519.000000;0.837873
9518.000000;0.836252
9517.000000;0.834902
9516.000000;0.834241
9515.000000;0.834466
9514.000000;0.835355
9513.000000;0.836335
9512.000000;0.836789
9511.000000;0.836380
9510.000000;0.835242
9509.000000;0.833919
9508.000000;0.832947
9507.000000;0.832384
9506.000000;0.831808
9505.000000;0.830826
9504.000000;0.829495
9503.000000;0.828228
9502.000000;0.827398
9501.000000;0.827091
9500.000000;0.827079
9499.000000;0.826951
9498.000000;0.826382
9497.000000;0.825396
9496.000000;0.824334
9495.000000;0.823528
9494.000000;0.823063
9493.000000;0.822820
9492.000000;0.822599
9491.000000;0.822197
9490.000000;0.821532
9489.000000;0.820749
9488.000000;0.820111
9487.000000;0.819713
9486.000000;0.819392
9485.000000;0.818912
9484.000000;0.818167
9483.000000;0.817223
9482.000000;0.816290
9481.000000;0.815617
9480.000000;0.815265
9479.000000;0.815035
9478.000000;0.814738
9477.000000;0.814435
9476.000000;0.814196
9475.000000;0.813750
9474.000000;0.812718
9473.000000;0.811209
9472.000000;0.809854
9471.000000;0.809139
9470.000000;0.808962
9469.000000;0.808894
9468.000000;0.808602
9467.000000;0.807969
9466.000000;0.807106
9465.000000;0.806365
9464.000000;0.806062
9463.000000;0.806017
9462.000000;0.805634
9461.000000;0.804614
9460.000000;0.803334
9459.000000;0.802359
9458.000000;0.801800
9457.000000;0.801368
9456.000000;0.800834
9455.000000;0.800191
9454.000000;0.799486
9453.000000;0.798747
9452.000000;0.798055
9451.000000;0.797550
9450.000000;0.797369
9449.000000;0.797581
9448.000000;0.798050
9447.000000;0.798340
9446.000000;0.798007
9445.000000;0.797075
9444.000000;0.796036
9443.000000;0.795261
9442.000000;0.794646
9441.000000;0.793937
9440.000000;0.793122
9439.000000;0.792337
9438.000000;0.791660
9437.000000;0.791185
9436.000000;0.791089
9435.000000;0.791348
9434.000000;0.791582
9433.000000;0.791399
9432.000000;0.790736
9431.000000;0.789651
9430.000000;0.788055
9429.000000;0.785982
9428.000000;0.783996
9427.000000;0.782917
9426.000000;0.783118
9425.000000;0.784232
9424.000000;0.785502
9423.000000;0.786194
9422.000000;0.785860
9421.000000;0.784576
9420.000000;0.782981
9419.000000;0.781787
9418.000000;0.781147
9417.000000;0.780673
9416.000000;0.780086
9415.000000;0.779568
9414.000000;0.779391
9413.000000;0.779409
9412.000000;0.779148
9411.000000;0.778314
9410.000000;0.777078
9409.000000;0.775874
9408.000000;0.775049
9407.000000;0.774700
9406.000000;0.774711
9405.000000;0.774834
9404.000000;0.774783
9403.000000;0.774381
9402.000000;0.773678
9401.000000;0.772853
9400.000000;0.771963
9399.000000;0.770922
9398.000000;0.769809
9397.000000;0.769015
9396.000000;0.768828
9395.000000;0.768979
9394.000000;0.768873
9393.000000;0.768248
9392.000000;0.767350
9391.000000;0.766484
9390.000000;0.765735
9389.000000;0.765170
9388.000000;0.764941
9387.000000;0.764972
9386.000000;0.764879
9385.000000;0.764469
9384.000000;0.764067
9383.000000;0.764070
9382.000000;0.764362
9381.000000;0.764476
9380.000000;0.764199
9379.000000;0.763702
9378.000000;0.763155
9377.000000;0.762559
9376.000000;0.761943
9375.000000;0.761413
9374.000000;0.760946
9373.000000;0.760357
9372.000000;0.759560
9371.000000;0.758684
9370.000000;0.757872
9369.000000;0.757119
9368.000000;0.756364
9367.000000;0.755580
9366.000000;0.754698
9365.000000;0.753624
9364.000000;0.752439
9363.000000;0.751471
9362.000000;0.750992
9361.000000;0.750885
9360.000000;0.750756
9359.000000;0.750416
9358.000000;0.750114
9357.000000;0.750198
9356.000000;0.750575
9355.000000;0.750682
9354.000000;0.750062
9353.000000;0.748851
9352.000000;0.747585
9351.000000;0.746622
9350.000000;0.745960
9349.000000;0.745549
9348.000000;0.745483
9347.000000;0.745742
9346.000000;0.745964
9345.000000;0.745740
9344.000000;0.745071
9343.000000;0.744339
9342.000000;0.743810
9341.000000;0.743340
9340.000000;0.742639
9339.000000;0.741713
9338.000000;0.740958
9337.000000;0.740793
9336.000000;0.741211
9335.000000;0.741677
9334.000000;0.741508
9333.000000;0.740444
9332.000000;0.738873
9331.000000;0.737516
9330.000000;0.736875
9329.000000;0.736932
9328.000000;0.737297
9327.000000;0.737549
9326.000000;0.737445
9325.000000;0.736902
9324.000000;0.735911
9323.000000;0.734583
9322.000000;0.733231
9321.000000;0.732252
9320.000000;0.731796
9319.000000;0.731606
9318.000000;0.731294
9317.000000;0.730769
9316.000000;0.730284
9315.000000;0.730066
9314.000000;0.730001
9313.000000;0.729755
9312.000000;0.729148
9311.000000;0.728346
9310.000000;0.727683
9309.000000;0.727310
9308.000000;0.727047
9307.000000;0.726611
9306.000000;0.725992
9305.000000;0.725519
9304.000000;0.725536
9303.000000;0.726030
9302.000000;0.726585
9301.000000;0.726646
9300.000000;0.725884
9299.000000;0.724468
9298.000000;0.723026
9297.000000;0.722182
9296.000000;0.722000
9295.000000;0.721962
9294.000000;0.721572
9293.000000;0.720830
9292.000000;0.720061
9291.000000;0.719464
9290.000000;0.719020
9289.000000;0.718679
9288.000000;0.718422
9287.000000;0.718232
9286.000000;0.718180
9285.000000;0.718413
9284.000000;0.718827
9283.000000;0.718891
9282.000000;0.718104
9281.000000;0.716588
9280.000000;0.714993
9279.000000;0.713838
9278.000000;0.713175
9277.000000;0.712834
9276.000000;0.712672
9275.000000;0.712543
9274.000000;0.712312
9273.000000;0.712006
9272.000000;0.711750
9271.000000;0.711525
9270.000000;0.711213
9269.000000;0.710902
9268.000000;0.710837
9267.000000;0.710950
9266.000000;0.710761
9265.000000;0.709955
9264.000000;0.708864
9263.000000;0.708143
9262.000000;0.708054
9261.000000;0.708246
9260.000000;0.708189
9259.000000;0.707676
9258.000000;0.706927
9257.000000;0.706268
9256.000000;0.705778
9255.000000;0.705272
9254.000000;0.704624
9253.000000;0.703990
9252.000000;0.703602
9251.000000;0.703468
9250.000000;0.703435
9249.000000;0.703434
9248.000000;0.703440
9247.000000;0.703265
9246.000000;0.702684
9245.000000;0.701774
9244.000000;0.700882
9243.000000;0.700215
9242.000000;0.699671
9241.000000;0.699124
9240.000000;0.698617
9239.000000;0.698208
9238.000000;0.697863
9237.000000;0.697587
9236.000000;0.697456
9235.000000;0.697421
9234.000000;0.697294
9233.000000;0.696973
9232.000000;0.696476
9231.000000;0.695724
9230.000000;0.694622
9229.000000;0.693452
9228.000000;0.692824
9227.000000;0.692986
9226.000000;0.693469
9225.000000;0.693676
9224.000000;0.693603
9223.000000;0.693626
9222.000000;0.693784
9221.000000;0.693679
9220.000000;0.693071
9219.000000;0.692174
9218.000000;0.691303
9217.000000;0.690521
9216.000000;0.689748
9215.000000;0.689001
9214.000000;0.688359
9213.000000;0.687851
9212.000000;0.687534
9211.000000;0.687577
9210.000000;0.688066
9209.000000;0.688714
9208.000000;0.688955
9207.000000;0.688440
9206.000000;0.687405
9205.000000;0.686485
9204.000000;0.686110
9203.000000;0.686119
9202.000000;0.685988
9201.000000;0.685405
9200.000000;0.684616
9199.000000;0.684186
9198.000000;0.684425
9197.000000;0.685015
9196.000000;0.685237
9195.000000;0.684618
9194.000000;0.683373
9193.000000;0.682174
9192.000000;0.681487
9191.000000;0.681228
9190.000000;0.681039
9189.000000;0.680736
9188.000000;0.680386
9187.000000;0.680111
9186.000000;0.679960
9185.000000;0.679925
9184.000000;0.679941
9183.000000;0.679909
9182.000000;0.679777
9181.000000;0.679569
9180.000000;0.679273
9179.000000;0.678788
9178.000000;0.678059
9177.000000;0.677172
9176.000000;0.676240
9175.000000;0.675317
9174.000000;0.674492
9173.000000;0.673939
9172.000000;0.673718
9171.000000;0.673671
9170.000000;0.673625
9169.000000;0.673572
9168.000000;0.673526
9167.000000;0.673360
9166.000000;0.672993
9165.000000;0.672586
9164.000000;0.672304
9163.000000;0.672001
9162.000000;0.671435
9161.000000;0.670726
9160.000000;0.670273
9159.000000;0.670211
9158.000000;0.670230
9157.000000;0.669986
9156.000000;0.669487
9155.000000;0.669005
9154.000000;0.668777
9153.000000;0.668836
9152.000000;0.668973
9151.000000;0.668873
9150.000000;0.668409
9149.000000;0.667798
9148.000000;0.667314
9147.000000;0.666930
9146.000000;0.666426
9145.000000;0.665779
9144.000000;0.665202
9143.000000;0.664832
9142.000000;0.664614
9141.000000;0.664518
9140.000000;0.664621
9139.000000;0.664947
9138.000000;0.665386
9137.000000;0.665787
9136.000000;0.665968
9135.000000;0.665645
9134.000000;0.664631
9133.000000;0.663136
9132.000000;0.661690
9131.000000;0.660713
9130.000000;0.660282
9129.000000;0.660241
9128.000000;0.660309
9127.000000;0.660155
9126.000000;0.659649
9125.000000;0.659105
9124.000000;0.658998
9123.000000;0.659393
9122.000000;0.659865
9121.000000;0.660015
9120.000000;0.659790
9119.000000;0.659267
9118.000000;0.658480
9117.000000;0.657616
9116.000000;0.657091
9115.000000;0.657165
9114.000000;0.657600
9113.000000;0.657902
9112.000000;0.657815
9111.000000;0.657468
9110.000000;0.657096
9109.000000;0.656788
9108.000000;0.656484
9107.000000;0.656134
9106.000000;0.655800
9105.000000;0.655549
9104.000000;0.655266
9103.000000;0.654716
9102.000000;0.653905
9101.000000;0.653226
9100.000000;0.653019
9099.000000;0.653102
9098.000000;0.653006
9097.000000;0.652619
9096.000000;0.652300
9095.000000;0.652337
9094.000000;0.652588
9093.000000;0.652719
9092.000000;0.652545
9091.000000;0.652046
9090.000000;0.651296
9089.000000;0.650512
9088.000000;0.649980
9087.000000;0.649753
9086.000000;0.649552
9085.000000;0.649072
9084.000000;0.648314
9083.000000;0.647587
9082.000000;0.647259
9081.000000;0.647496
9080.000000;0.648069
9079.000000;0.648422
9078.000000;0.648109
9077.000000;0.647223
9076.000000;0.646243
9075.000000;0.645497
9074.000000;0.644961
9073.000000;0.644582
9072.000000;0.644498
9071.000000;0.644827
9070.000000;0.645419
9069.000000;0.645940
9068.000000;0.646086
9067.000000;0.645702
9066.000000;0.644859
9065.000000;0.643863
9064.000000;0.642990
9063.000000;0.642212
9062.000000;0.641356
9061.000000;0.640545
9060.000000;0.640205
9059.000000;0.640528
9058.000000;0.641181
9057.000000;0.641690
9056.000000;0.641886
9055.000000;0.641863
9054.000000;0.641690
9053.000000;0.641404
