Criado como novo conjunto de dados;"1909daniel.spp","-4241862.8 Secs"
cm-1;Abs
10000.000000;1.832700
9999.000000;1.833334
9998.000000;1.831756
9997.000000;1.828761
9996.000000;1.825778
9995.000000;1.823746
9994.000000;1.822695
9993.000000;1.821862
9992.000000;1.820295
9991.000000;1.817860
9990.000000;1.815837
9989.000000;1.816049
9988.000000;1.818968
9987.000000;1.822728
9986.000000;1.824376
9985.000000;1.822317
9984.000000;1.817562
9983.000000;1.812665
9982.000000;1.809678
9981.000000;1.808954
9980.000000;1.809372
9979.000000;1.809487
9978.000000;1.808617
9977.000000;1.806999
9976.000000;1.805175
9975.000000;1.803461
9974.000000;1.801979
9973.000000;1.800907
9972.000000;1.800526
9971.000000;1.801040
9970.000000;1.802239
9969.000000;1.803298
9968.000000;1.803221
9967.000000;1.801801
9966.000000;1.799949
9965.000000;1.798668
9964.000000;1.797753
9963.000000;1.795964
9962.000000;1.792704
9961.000000;1.789146
9960.000000;1.787336
9959.000000;1.788425
9958.000000;1.791622
9957.000000;1.794411
9956.000000;1.794124
9955.000000;1.790234
9954.000000;1.785251
9953.000000;1.782733
9952.000000;1.784121
9951.000000;1.787675
9950.000000;1.790603
9949.000000;1.791726
9948.000000;1.791552
9947.000000;1.790617
9946.000000;1.789104
9945.000000;1.787613
9944.000000;1.786814
9943.000000;1.786287
9942.000000;1.784975
9941.000000;1.783063
9940.000000;1.782110
9939.000000;1.782715
9938.000000;1.783254
9937.000000;1.781817
9936.000000;1.778499
9935.000000;1.774761
9934.000000;1.771405
9933.000000;1.768441
9932.000000;1.766334
9931.000000;1.766132
9930.000000;1.768202
9929.000000;1.771535
9928.000000;1.774436
9927.000000;1.775464
9926.000000;1.773801
9925.000000;1.769521
9924.000000;1.763930
9923.000000;1.759219
9922.000000;1.757352
9921.000000;1.758906
9920.000000;1.762531
9919.000000;1.765605
9918.000000;1.766240
9917.000000;1.765030
9916.000000;1.764155
9915.000000;1.764511
9914.000000;1.764559
9913.000000;1.762551
9912.000000;1.758996
9911.000000;1.755988
9910.000000;1.754780
9909.000000;1.755014
9908.000000;1.755789
9907.000000;1.756386
9906.000000;1.756213
9905.000000;1.755178
9904.000000;1.754086
9903.000000;1.753660
9902.000000;1.753439
9901.000000;1.752732
9900.000000;1.752422
9899.000000;1.754244
9898.000000;1.758052
9897.000000;1.761258
9896.000000;1.761720
9895.000000;1.760022
9894.000000;1.758023
9893.000000;1.756437
9892.000000;1.754842
9891.000000;1.752925
9890.000000;1.750562
9889.000000;1.747320
9888.000000;1.743104
9887.000000;1.738962
9886.000000;1.736264
9885.000000;1.735259
9884.000000;1.735147
9883.000000;1.735285
9882.000000;1.735575
9881.000000;1.735840
9880.000000;1.735729
9879.000000;1.735404
9878.000000;1.735551
9877.000000;1.736487
9876.000000;1.737720
9875.000000;1.738539
9874.000000;1.738645
9873.000000;1.738102
9872.000000;1.737043
9871.000000;1.735628
9870.000000;1.734039
9869.000000;1.732267
9868.000000;1.729996
9867.000000;1.726987
9866.000000;1.723723
9865.000000;1.721629
9864.000000;1.722141
9863.000000;1.725047
9862.000000;1.727935
9861.000000;1.728088
9860.000000;1.725271
9859.000000;1.721943
9858.000000;1.720538
9857.000000;1.721320
9856.000000;1.722836
9855.000000;1.723605
9854.000000;1.723018
9853.000000;1.721104
9852.000000;1.718239
9851.000000;1.715082
9850.000000;1.712306
9849.000000;1.710440
9848.000000;1.710006
9847.000000;1.711273
9846.000000;1.713412
9845.000000;1.714428
9844.000000;1.712978
9843.000000;1.710125
9842.000000;1.708390
9841.000000;1.709070
9840.000000;1.710918
9839.000000;1.711610
9838.000000;1.710249
9837.000000;1.708064
9836.000000;1.706782
9835.000000;1.706718
9834.000000;1.706599
9833.000000;1.705204
9832.000000;1.702916
9831.000000;1.701228
9830.000000;1.700858
9829.000000;1.701036
9828.000000;1.700691
9827.000000;1.699602
9826.000000;1.698006
9825.000000;1.696014
9824.000000;1.694170
9823.000000;1.693818
9822.000000;1.695782
9821.000000;1.698894
9820.000000;1.700863
9819.000000;1.700771
9818.000000;1.699852
9817.000000;1.699618
9816.000000;1.700123
9815.000000;1.700375
9814.000000;1.699648
9813.000000;1.697886
9812.000000;1.695423
9811.000000;1.692926
9810.000000;1.691161
9809.000000;1.690174
9808.000000;1.688944
9807.000000;1.686481
9806.000000;1.683109
9805.000000;1.680103
9804.000000;1.678308
9803.000000;1.677824
9802.000000;1.678777
9801.000000;1.681222
9800.000000;1.683875
9799.000000;1.684136
9798.000000;1.680802
9797.000000;1.676262
9796.000000;1.674524
9795.000000;1.677072
9794.000000;1.681532
9793.000000;1.684486
9792.000000;1.684844
9791.000000;1.683780
9790.000000;1.682282
9789.000000;1.680155
9788.000000;1.677223
9787.000000;1.674226
9786.000000;1.672124
9785.000000;1.671201
9784.000000;1.671116
9783.000000;1.671292
9782.000000;1.671095
9781.000000;1.670113
9780.000000;1.668535
9779.000000;1.666990
9778.000000;1.665943
9777.000000;1.665489
9776.000000;1.665598
9775.000000;1.666086
9774.000000;1.666348
9773.000000;1.665694
9772.000000;1.664221
9771.000000;1.662921
9770.000000;1.662600
9769.000000;1.663018
9768.000000;1.663270
9767.000000;1.662763
9766.000000;1.661593
9765.000000;1.660183
9764.000000;1.658828
9763.000000;1.657522
9762.000000;1.656054
9761.000000;1.654401
9760.000000;1.653074
9759.000000;1.652691
9758.000000;1.653191
9757.000000;1.653825
9756.000000;1.653941
9755.000000;1.653398
9754.000000;1.652279
9753.000000;1.650640
9752.000000;1.648741
9751.000000;1.647188
9750.000000;1.646442
9749.000000;1.646391
9748.000000;1.646685
9747.000000;1.647226
9746.000000;1.648006
9745.000000;1.648679
9744.000000;1.648660
9743.000000;1.647704
9742.000000;1.646223
9741.000000;1.644868
9740.000000;1.643751
9739.000000;1.642164
9738.000000;1.639403
9737.000000;1.635996
9736.000000;1.633709
9735.000000;1.633928
9734.000000;1.636194
9733.000000;1.638562
9732.000000;1.639332
9731.000000;1.638264
9730.000000;1.636263
9729.000000;1.634506
9728.000000;1.633957
9727.000000;1.634935
9726.000000;1.636768
9725.000000;1.638242
9724.000000;1.638578
9723.000000;1.637690
9722.000000;1.635686
9721.000000;1.632759
9720.000000;1.629607
9719.000000;1.627290
9718.000000;1.626407
9717.000000;1.626764
9716.000000;1.627844
9715.000000;1.629066
9714.000000;1.629590
9713.000000;1.628640
9712.000000;1.626383
9711.000000;1.623881
9710.000000;1.621883
9709.000000;1.620165
9708.000000;1.618267
9707.000000;1.616291
9706.000000;1.614576
9705.000000;1.613153
9704.000000;1.612005
9703.000000;1.611470
9702.000000;1.611970
9701.000000;1.613589
9700.000000;1.615999
9699.000000;1.618367
9698.000000;1.619366
9697.000000;1.618099
9696.000000;1.615335
9695.000000;1.613009
9694.000000;1.612067
9693.000000;1.611541
9692.000000;1.610157
9691.000000;1.608124
9690.000000;1.606646
9689.000000;1.606261
9688.000000;1.606421
9687.000000;1.606308
9686.000000;1.605369
9685.000000;1.603326
9684.000000;1.600402
9683.000000;1.597376
9682.000000;1.594993
9681.000000;1.593602
9680.000000;1.593534
9679.000000;1.595162
9678.000000;1.598007
9677.000000;1.600389
9676.000000;1.600869
9675.000000;1.599776
9674.000000;1.598567
9673.000000;1.597815
9672.000000;1.596584
9671.000000;1.593940
9670.000000;1.590413
9669.000000;1.587648
9668.000000;1.587043
9667.000000;1.588791
9666.000000;1.591874
9665.000000;1.594775
9664.000000;1.596358
9663.000000;1.596261
9662.000000;1.594806
9661.000000;1.592926
9660.000000;1.592023
9659.000000;1.592972
9658.000000;1.594803
9657.000000;1.595129
9656.000000;1.592611
9655.000000;1.588571
9654.000000;1.585371
9653.000000;1.583704
9652.000000;1.582337
9651.000000;1.580201
9650.000000;1.577871
9649.000000;1.576746
9648.000000;1.577325
9647.000000;1.578643
9646.000000;1.579219
9645.000000;1.578440
9644.000000;1.576959
9643.000000;1.575764
9642.000000;1.575108
9641.000000;1.574619
9640.000000;1.574103
9639.000000;1.573471
9638.000000;1.572063
9637.000000;1.569251
9636.000000;1.566090
9635.000000;1.565093
9634.000000;1.567418
9633.000000;1.570990
9632.000000;1.572529
9631.000000;1.571259
9630.000000;1.569313
9629.000000;1.568564
9628.000000;1.568544
9627.000000;1.567764
9626.000000;1.565999
9625.000000;1.564468
9624.000000;1.564155
9623.000000;1.564669
9622.000000;1.564876
9621.000000;1.564359
9620.000000;1.563830
9619.000000;1.563899
9618.000000;1.563867
9617.000000;1.562481
9616.000000;1.559804
9615.000000;1.557376
9614.000000;1.556177
9613.000000;1.555467
9612.000000;1.554252
9611.000000;1.552939
9610.000000;1.552479
9609.000000;1.552638
9608.000000;1.552403
9607.000000;1.551749
9606.000000;1.551665
9605.000000;1.552396
9604.000000;1.552921
9603.000000;1.552483
9602.000000;1.551668
9601.000000;1.551459
9600.000000;1.551950
9599.000000;1.552419
9598.000000;1.552202
9597.000000;1.551183
9596.000000;1.549846
9595.000000;1.548972
9594.000000;1.548863
9593.000000;1.548699
9592.000000;1.547161
9591.000000;1.543936
9590.000000;1.540212
9589.000000;1.537544
9588.000000;1.536598
9587.000000;1.536995
9586.000000;1.537979
9585.000000;1.539013
9584.000000;1.539856
9583.000000;1.540170
9582.000000;1.539288
9581.000000;1.536836
9580.000000;1.533672
9579.000000;1.531503
9578.000000;1.531201
9577.000000;1.531938
9576.000000;1.532397
9575.000000;1.532329
9574.000000;1.532222
9573.000000;1.532004
9572.000000;1.531126
9571.000000;1.529616
9570.000000;1.528154
9569.000000;1.527215
9568.000000;1.526926
9567.000000;1.527765
9566.000000;1.530171
9565.000000;1.533165
9564.000000;1.534622
9563.000000;1.533524
9562.000000;1.531037
9561.000000;1.528763
9560.000000;1.526891
9559.000000;1.524722
9558.000000;1.522250
9557.000000;1.520447
9556.000000;1.520228
9555.000000;1.521550
9554.000000;1.523215
9553.000000;1.523508
9552.000000;1.521749
9551.000000;1.519362
9550.000000;1.518545
9549.000000;1.519555
9548.000000;1.520106
9547.000000;1.518155
9546.000000;1.514602
9545.000000;1.512165
9544.000000;1.512198
9543.000000;1.513694
9542.000000;1.514930
9541.000000;1.515003
9540.000000;1.513852
9539.000000;1.511913
9538.000000;1.510191
9537.000000;1.509737
9536.000000;1.510486
9535.000000;1.511106
9534.000000;1.510556
9533.000000;1.509443
9532.000000;1.509258
9531.000000;1.510455
9530.000000;1.511895
9529.000000;1.512176
9528.000000;1.510981
9527.000000;1.508908
9526.000000;1.506546
9525.000000;1.504248
9524.000000;1.502449
9523.000000;1.501471
9522.000000;1.500972
9521.000000;1.500158
9520.000000;1.498864
9519.000000;1.498082
9518.000000;1.498996
9517.000000;1.501575
9516.000000;1.504295
9515.000000;1.505207
9514.000000;1.503276
9513.000000;1.499030
9512.000000;1.494316
9511.000000;1.491263
9510.000000;1.490912
9509.000000;1.492448
9508.000000;1.493848
9507.000000;1.493553
9506.000000;1.491665
9505.000000;1.489562
9504.000000;1.488598
9503.000000;1.489150
9502.000000;1.490547
9501.000000;1.491784
9500.000000;1.492278
9499.000000;1.491931
9498.000000;1.490762
9497.000000;1.488929
9496.000000;1.487086
9495.000000;1.486150
9494.000000;1.486384
9493.000000;1.487057
9492.000000;1.487316
9491.000000;1.487123
9490.000000;1.486988
9489.000000;1.487069
9488.000000;1.486969
9487.000000;1.486224
9486.000000;1.484645
9485.000000;1.482413
9484.000000;1.480238
9483.000000;1.479129
9482.000000;1.479398
9481.000000;1.480018
9480.000000;1.479617
9479.000000;1.478120
9478.000000;1.476750
9477.000000;1.476386
9476.000000;1.476518
9475.000000;1.475993
9474.000000;1.474313
9473.000000;1.472002
9472.000000;1.470027
9471.000000;1.469025
9470.000000;1.468850
9469.000000;1.468815
9468.000000;1.468550
9467.000000;1.468469
9466.000000;1.469042
9465.000000;1.469807
9464.000000;1.469793
9463.000000;1.468855
9462.000000;1.467793
9461.000000;1.467079
9460.000000;1.466276
9459.000000;1.465048
9458.000000;1.464068
9457.000000;1.464243
9456.000000;1.465370
9455.000000;1.466216
9454.000000;1.465834
9453.000000;1.464358
9452.000000;1.462651
9451.000000;1.461510
9450.000000;1.461197
9449.000000;1.461440
9448.000000;1.461687
9447.000000;1.461518
9446.000000;1.460930
9445.000000;1.460247
9444.000000;1.459750
9443.000000;1.459313
9442.000000;1.458350
9441.000000;1.456280
9440.000000;1.453256
9439.000000;1.450336
9438.000000;1.448739
9437.000000;1.449016
9436.000000;1.450960
9435.000000;1.453950
9434.000000;1.456990
9433.000000;1.458705
9432.000000;1.458098
9431.000000;1.455519
9430.000000;1.452409
9429.000000;1.449890
9428.000000;1.448048
9427.000000;1.446634
9426.000000;1.445861
9425.000000;1.446035
9424.000000;1.446766
9423.000000;1.447091
9422.000000;1.446388
9421.000000;1.444910
9420.000000;1.443486
9419.000000;1.442858
9418.000000;1.443151
9417.000000;1.443757
9416.000000;1.443842
9415.000000;1.443135
9414.000000;1.442196
9413.000000;1.441798
9412.000000;1.442098
9411.000000;1.442489
9410.000000;1.442194
9409.000000;1.440938
9408.000000;1.439183
9407.000000;1.437780
9406.000000;1.437322
9405.000000;1.437692
9404.000000;1.438209
9403.000000;1.438235
9402.000000;1.437640
9401.000000;1.436741
9400.000000;1.435868
9399.000000;1.434996
9398.000000;1.433724
9397.000000;1.431716
9396.000000;1.429306
9395.000000;1.427575
9394.000000;1.427523
9393.000000;1.429076
9392.000000;1.431035
9391.000000;1.432155
9390.000000;1.432251
9389.000000;1.432110
9388.000000;1.432403
9387.000000;1.432881
9386.000000;1.432746
9385.000000;1.431689
9384.000000;1.430245
9383.000000;1.429014
9382.000000;1.427889
9381.000000;1.426407
9380.000000;1.424730
9379.000000;1.423696
9378.000000;1.423729
9377.000000;1.424310
9376.000000;1.424823
9375.000000;1.425343
9374.000000;1.426060
9373.000000;1.426408
9372.000000;1.425521
9371.000000;1.423368
9370.000000;1.420796
9369.000000;1.418581
9368.000000;1.417061
9367.000000;1.416458
9366.000000;1.416784
9365.000000;1.417436
9364.000000;1.417574
9363.000000;1.417041
9362.000000;1.416345
9361.000000;1.415692
9360.000000;1.414753
9359.000000;1.413545
9358.000000;1.412824
9357.000000;1.413165
9356.000000;1.414145
9355.000000;1.414843
9354.000000;1.414863
9353.000000;1.414543
9352.000000;1.414409
9351.000000;1.414694
9350.000000;1.415177
9349.000000;1.415324
9348.000000;1.414811
9347.000000;1.413913
9346.000000;1.413057
9345.000000;1.412077
9344.000000;1.410504
9343.000000;1.408658
9342.000000;1.407666
9341.000000;1.407946
9340.000000;1.408340
9339.000000;1.407427
9338.000000;1.405330
9337.000000;1.403506
9336.000000;1.402998
9335.000000;1.403570
9334.000000;1.404380
9333.000000;1.404876
9332.000000;1.404947
9331.000000;1.404664
9330.000000;1.404097
9329.000000;1.403291
9328.000000;1.402351
9327.000000;1.401582
9326.000000;1.401353
9325.000000;1.401610
9324.000000;1.401638
9323.000000;1.400581
9322.000000;1.398297
9321.000000;1.395616
9320.000000;1.393766
9319.000000;1.393524
9318.000000;1.394686
9317.000000;1.396209
9316.000000;1.397073
9315.000000;1.397099
9314.000000;1.396799
9313.000000;1.396561
9312.000000;1.396407
9311.000000;1.396431
9310.000000;1.396845
9309.000000;1.397316
9308.000000;1.396860
9307.000000;1.394932
9306.000000;1.392267
9305.000000;1.390192
9304.000000;1.389402
9303.000000;1.389765
9302.000000;1.390810
9301.000000;1.391873
9300.000000;1.392122
9299.000000;1.391207
9298.000000;1.389756
9297.000000;1.388622
9296.000000;1.387764
9295.000000;1.386491
9294.000000;1.384708
9293.000000;1.383184
9292.000000;1.382472
9291.000000;1.382206
9290.000000;1.381672
9289.000000;1.380613
9288.000000;1.379251
9287.000000;1.377965
9286.000000;1.377220
9285.000000;1.377452
9284.000000;1.378602
9283.000000;1.379919
9282.000000;1.380585
9281.000000;1.380517
9280.000000;1.380334
9279.000000;1.380543
9278.000000;1.380908
9277.000000;1.380662
9276.000000;1.379352
9275.000000;1.377506
9274.000000;1.376332
9273.000000;1.376596
9272.000000;1.377839
9271.000000;1.378870
9270.000000;1.379032
9269.000000;1.378691
9268.000000;1.378503
9267.000000;1.378575
9266.000000;1.378489
9265.000000;1.377826
9264.000000;1.376493
9263.000000;1.374777
9262.000000;1.373238
9261.000000;1.372328
9260.000000;1.371909
9259.000000;1.371329
9258.000000;1.370178
9257.000000;1.368756
9256.000000;1.367545
9255.000000;1.366552
9254.000000;1.365602
9253.000000;1.365112
9252.000000;1.365895
9251.000000;1.367899
9250.000000;1.369631
9249.000000;1.369405
9248.000000;1.367171
9247.000000;1.364631
9246.000000;1.363391
9245.000000;1.363321
9244.000000;1.363014
9243.000000;1.361793
9242.000000;1.360662
9241.000000;1.360982
9240.000000;1.362705
9239.000000;1.364460
9238.000000;1.365223
9237.000000;1.365293
9236.000000;1.365419
9235.000000;1.365587
9234.000000;1.365142
9233.000000;1.363765
9232.000000;1.361868
9231.000000;1.360124
9230.000000;1.358933
9229.000000;1.358393
9228.000000;1.358394
9227.000000;1.358561
9226.000000;1.358354
9225.000000;1.357524
9224.000000;1.356429
9223.000000;1.355723
9222.000000;1.355758
9221.000000;1.356397
9220.000000;1.357352
9219.000000;1.358476
9218.000000;1.359621
9217.000000;1.360354
9216.000000;1.360068
9215.000000;1.358489
9214.000000;1.356109
9213.000000;1.354071
9212.000000;1.353386
9211.000000;1.354122
9210.000000;1.355348
9209.000000;1.355895
9208.000000;1.355279
9207.000000;1.353934
9206.000000;1.352653
9205.000000;1.351890
9204.000000;1.351508
9203.000000;1.350988
9202.000000;1.349851
9201.000000;1.348083
9200.000000;1.346321
9199.000000;1.345520
9198.000000;1.346179
9197.000000;1.347869
9196.000000;1.349661
9195.000000;1.350929
9194.000000;1.351553
9193.000000;1.351474
9192.000000;1.350522
9191.000000;1.348869
9190.000000;1.347257
9189.000000;1.346383
9188.000000;1.346187
9187.000000;1.346027
9186.000000;1.345493
9185.000000;1.344762
9184.000000;1.344180
9183.000000;1.343792
9182.000000;1.343448
9181.000000;1.343160
9180.000000;1.343140
9179.000000;1.343479
9178.000000;1.343885
9177.000000;1.343798
9176.000000;1.342879
9175.000000;1.341452
9174.000000;1.340316
9173.000000;1.339993
9172.000000;1.340244
9171.000000;1.340507
9170.000000;1.340670
9169.000000;1.341088
9168.000000;1.341839
9167.000000;1.342409
9166.000000;1.342270
9165.000000;1.341463
9164.000000;1.340317
9163.000000;1.338922
9162.000000;1.337286
9161.000000;1.335831
9160.000000;1.335168
9159.000000;1.335299
9158.000000;1.335480
9157.000000;1.335064
9156.000000;1.334134
9155.000000;1.333078
9154.000000;1.331965
9153.000000;1.330768
9152.000000;1.329935
9151.000000;1.330146
9150.000000;1.331361
9149.000000;1.332560
9148.000000;1.332725
9147.000000;1.331919
9146.000000;1.331160
9145.000000;1.331371
9144.000000;1.332661
9143.000000;1.334401
9142.000000;1.335672
9141.000000;1.335733
9140.000000;1.334490
9139.000000;1.332681
9138.000000;1.331344
9137.000000;1.330943
9136.000000;1.331078
9135.000000;1.331087
9134.000000;1.330720
9133.000000;1.330124
9132.000000;1.329465
9131.000000;1.328854
9130.000000;1.328463
9129.000000;1.328310
9128.000000;1.327966
9127.000000;1.326878
9126.000000;1.325158
9125.000000;1.323761
9124.000000;1.323648
9123.000000;1.324844
9122.000000;1.326438
9121.000000;1.327419
9120.000000;1.327418
9119.000000;1.326773
9118.000000;1.326004
9117.000000;1.325269
9116.000000;1.324313
9115.000000;1.322951
9114.000000;1.321470
9113.000000;1.320461
9112.000000;1.320213
9111.000000;1.320447
9110.000000;1.320732
9109.000000;1.320986
9108.000000;1.321423
9107.000000;1.322138
9106.000000;1.322907
9105.000000;1.323306
9104.000000;1.322958
9103.000000;1.321797
9102.000000;1.320220
9101.000000;1.318854
9100.000000;1.318045
9099.000000;1.317637
9098.000000;1.317316
9097.000000;1.317019
9096.000000;1.316858
9095.000000;1.316855
9094.000000;1.316994
9093.000000;1.317410
9092.000000;1.318245
9091.000000;1.319304
9090.000000;1.320034
9089.000000;1.319889
9088.000000;1.318683
9087.000000;1.316745
9086.000000;1.314869
9085.000000;1.313918
9084.000000;1.314158
9083.000000;1.315012
9082.000000;1.315683
9081.000000;1.315990
9080.000000;1.316331
9079.000000;1.316854
9078.000000;1.317093
9077.000000;1.316558
9076.000000;1.315304
9075.000000;1.313768
9074.000000;1.312315
9073.000000;1.311126
9072.000000;1.310263
9071.000000;1.309702
9070.000000;1.309502
9069.000000;1.310021
9068.000000;1.311619
9067.000000;1.313905
9066.000000;1.315592
9065.000000;1.315494
9064.000000;1.313638
9063.000000;1.311117
9062.000000;1.309002
9061.000000;1.307681
9060.000000;1.307048
9059.000000;1.306962
9058.000000;1.307437
9057.000000;1.308517
9056.000000;1.309992
9055.000000;1.311255
9054.000000;1.311650
9053.000000;1.311037
